# Input file       =  1178512740.104834_cleaned.dat
# Candidate        =  PSR_0332+5434
# Telescope        =  AR
# Epoch_topo       =  57884.193542880021
# Epoch_bary       =  N/A
# T_sample         =  0.002
# Data Folded      =  7274496
# Data Avg         =  0.0461947685588847
# Data StdDev      =  1.00011794421713 
# Profile Bins     =  512
# Profile Avg      =  656.289224405276 
# Profile StdDev   =  119.21137404006  
# Reduced chi-sqr  =  0.812
# Prob(Noise)      <  0.999   (~0.0 sigma)
# P_topo (ms)      =  714.536910781018  +/- 0.00012
# P'_topo (s/s)    =  -0                +/- 6.37e-11
# P''_topo (s/s^2) =  0                 +/- 2.84e-14
# P_bary (ms)      =  N/A
# P'_bary (s/s)    =  N/A
# P''_bary (s/s^2) =  N/A
# P_orb (s)        =  N/A
# asin(i)/c (s)    =  N/A
# eccentricity     =  N/A
# w (rad)          =  N/A
# T_peri           =  N/A
######################################################
   0  879.8801
   1  899.2529
   2  829.7961
   3  782.1104
   4  655.1019
   5  611.2813
   6  577.4948
   7  492.5774
   8  439.3028
   9  462.4852
  10  523.2998
  11  615.0369
  12  683.9401
  13  722.7712
  14  693.6225
  15  578.611
  16  566.7037
  17  538.112
  18  601.7802
  19  634.1485
  20  621.6433
  21  598.0615
  22  618.7705
  23  542.1921
  24  590.6865
  25  622.8449
  26  681.1204
  27  683.6355
  28  640.7319
  29  689.2003
  30  649.7808
  31  628.1271
  32  612.3013
  33  568.3622
  34  526.7924
  35  539.3959
  36  633.7833
  37  631.7052
  38  567.0861
  39  530.1074
  40  571.6376
  41  503.7041
  42  408.3338
  43  588.7745
  44  624.4842
  45  671.8654
  46  764.2783
  47  643.9445
  48  526.4114
  49  545.0339
  50  549.5408
  51  623.522
  52  666.249
  53  684.5054
  54  650.7109
  55  564.9062
  56  555.0756
  57  543.3171
  58  559.8506
  59  623.4815
  60  620.6114
  61  681.0266
  62  712.4722
  63  674.1127
  64  632.666
  65  683.6517
  66  638.9221
  67  592.342
  68  566.2921
  69  643.5353
  70  562.5151
  71  485.4933
  72  487.2457
  73  584.9517
  74  578.8445
  75  603.7418
  76  762.5858
  77  593.4978
  78  625.6087
  79  703.1045
  80  674.5851
  81  732.4857
  82  662.4276
  83  616.0089
  84  593.8218
  85  567.9747
  86  552.0263
  87  650.1891
  88  719.3836
  89  611.6484
  90  625.5577
  91  645.5484
  92  584.0854
  93  639.3738
  94  632.1212
  95  589.2769
  96  679.4984
  97  686.2676
  98  553.5803
  99  525.0837
 100  548.9273
 101  654.0515
 102  644.542
 103  601.7579
 104  656.8726
 105  599.6295
 106  581.7573
 107  520.8812
 108  556.4077
 109  575.8345
 110  640.88
 111  727.4349
 112  706.0665
 113  680.6132
 114  520.1454
 115  592.6108
 116  676.6685
 117  701.9623
 118  682.4119
 119  675.1403
 120  762.9104
 121  703.9286
 122  614.6459
 123  657.38
 124  639.4496
 125  689.4462
 126  691.0735
 127  679.82
 128  689.6468
 129  770.8438
 130  754.831
 131  720.4877
 132  763.0839
 133  620.1894
 134  638.3569
 135  679.8032
 136  648.0317
 137  728.2114
 138  745.4655
 139  787.4857
 140  805.0551
 141  793.0486
 142  774.4787
 143  865.8112
 144  884.8598
 145  835.105
 146  815.7893
 147  707.3561
 148  764.1403
 149  742.9622
 150  715.9019
 151  634.2587
 152  661.4264
 153  847.4006
 154  770.1939
 155  765.7252
 156  697.9958
 157  589.6458
 158  662.2226
 159  745.8893
 160  765.7646
 161  711.9188
 162  655.7353
 163  616.1352
 164  631.527
 165  645.1339
 166  683.1215
 167  600.7195
 168  554.959
 169  756.0249
 170  818.5906
 171  762.387
 172  701.194
 173  638.8875
 174  591.2684
 175  628.8986
 176  757.2648
 177  712.5819
 178  671.1993
 179  727.0288
 180  699.414
 181  640.2924
 182  605.5441
 183  592.1929
 184  558.1424
 185  646.7929
 186  694.3123
 187  559.1086
 188  620.6562
 189  607.7582
 190  602.4375
 191  605.8038
 192  654.7833
 193  706.6884
 194  710.6093
 195  769.9467
 196  703.7705
 197  683.3998
 198  665.3581
 199  535.4393
 200  554.9539
 201  572.0123
 202  678.6908
 203  679.3192
 204  668.4311
 205  625.2181
 206  563.0544
 207  654.1321
 208  677.7092
 209  796.8552
 210  753.5202
 211  808.5706
 212  731.2063
 213  669.5393
 214  661.5547
 215  686.5077
 216  650.5482
 217  680.5419
 218  721.7435
 219  627.4217
 220  538.3812
 221  617.7032
 222  613.1291
 223  646.3307
 224  684.6463
 225  705.4655
 226  772.3098
 227  710.1531
 228  664.4027
 229  682.3574
 230  667.5533
 231  636.264
 232  715.3821
 233  789.1904
 234  654.0558
 235  693.0161
 236  625.5814
 237  711.8107
 238  635.1896
 239  720.8297
 240  703.8963
 241  662.3589
 242  618.8737
 243  540.1454
 244  590.7463
 245  664.5748
 246  619.5658
 247  502.4128
 248  523.454
 249  563.6882
 250  596.9435
 251  568.0964
 252  521.7418
 253  566.8222
 254  543.6043
 255  582.854
 256  521.9777
 257  527.055
 258  675.7405
 259  765.0889
 260  662.6442
 261  691.7005
 262  569.3018
 263  510.2865
 264  552.8575
 265  620.6584
 266  645.8351
 267  638.6917
 268  714.6712
 269  580.779
 270  534.6722
 271  606.2723
 272  628.0489
 273  572.6797
 274  636.076
 275  712.1422
 276  766.1812
 277  738.714
 278  743.39
 279  812.7124
 280  799.5859
 281  754.4618
 282  663.1447
 283  583.9175
 284  663.9299
 285  726.0123
 286  739.4571
 287  697.729
 288  659.2278
 289  610.103
 290  609.3608
 291  674.9977
 292  743.8596
 293  751.4809
 294  707.4467
 295  704.9761
 296  681.3945
 297  631.4523
 298  643.4257
 299  608.7128
 300  748.1212
 301  819.1364
 302  734.9814
 303  605.8425
 304  582.9105
 305  623.1953
 306  590.4689
 307  594.4984
 308  627.2851
 309  638.9385
 310  664.3619
 311  649.0114
 312  703.8406
 313  753.2711
 314  688.2677
 315  658.773
 316  616.346
 317  682.9553
 318  604.2518
 319  647.4812
 320  566.847
 321  563.5107
 322  650.3867
 323  634.3547
 324  730.6499
 325  715.7487
 326  699.7679
 327  588.6344
 328  610.0698
 329  673.4549
 330  624.8119
 331  622.2858
 332  626.1746
 333  610.9823
 334  656.402
 335  711.52
 336  703.9485
 337  688.2852
 338  594.71
 339  619.0222
 340  625.7151
 341  707.8747
 342  732.7303
 343  718.5234
 344  749.2021
 345  721.7734
 346  701.0979
 347  736.4492
 348  758.3163
 349  686.5481
 350  752.9925
 351  706.4269
 352  651.7316
 353  735.7123
 354  639.1582
 355  619.5035
 356  670.4009
 357  640.6979
 358  661.2636
 359  728.2404
 360  705.3572
 361  676.5999
 362  653.4412
 363  718.9871
 364  720.9739
 365  612.5652
 366  637.5891
 367  637.7234
 368  768.4418
 369  855.4125
 370  879.3631
 371  728.8703
 372  613.6801
 373  625.3479
 374  737.0856
 375  773.4064
 376  830.0108
 377  798.1638
 378  589.91
 379  614.3622
 380  727.3905
 381  652.37
 382  643.7663
 383  717.2339
 384  727.179
 385  716.0982
 386  676.6613
 387  617.0367
 388  656.7733
 389  644.4635
 390  592.0805
 391  695.4664
 392  689.7463
 393  736.475
 394  805.4784
 395  800.8351
 396  715.1573
 397  539.2831
 398  612.4108
 399  680.3192
 400  629.5681
 401  681.4631
 402  554.2134
 403  522.0743
 404  633.3771
 405  657.9299
 406  706.8608
 407  744.9498
 408  747.7401
 409  629.995
 410  612.7539
 411  674.7081
 412  685.6984
 413  651.655
 414  662.9274
 415  739.1099
 416  710.029
 417  769.4506
 418  647.469
 419  678.7444
 420  655.2875
 421  659.8245
 422  725.2474
 423  791.726
 424  745.1483
 425  634.409
 426  507.9319
 427  524.9132
 428  555.5511
 429  645.1686
 430  628.2399
 431  571.6312
 432  619.2567
 433  521.5228
 434  526.8756
 435  603.5988
 436  575.5176
 437  677.7173
 438  632.2563
 439  621.8941
 440  655.4267
 441  691.4637
 442  742.7503
 443  646.7892
 444  650.2509
 445  528.7867
 446  536.6899
 447  570.0361
 448  637.6938
 449  707.8655
 450  703.7633
 451  639.7687
 452  610.6659
 453  534.6826
 454  586.0363
 455  566.2615
 456  625.7078
 457  664.0337
 458  659.5057
 459  732.2696
 460  651.6865
 461  640.8229
 462  660.7643
 463  666.7293
 464  586.1296
 465  623.0942
 466  683.307
 467  719.7076
 468  686.5142
 469  736.7611
 470  639.0931
 471  636.2104
 472  733.7642
 473  756.9723
 474  571.5356
 475  539.3409
 476  605.0776
 477  604.4578
 478  624.748
 479  633.8448
 480  574.3701
 481  512.7975
 482  607.457
 483  663.6252
 484  500.0225
 485  497.013
 486  560.7776
 487  656.0402
 488  664.9949
 489  597.021
 490  752.7864
 491  762.8176
 492  690.9034
 493  728.5023
 494  732.3506
 495  751.8762
 496  639.7531
 497  640.5061
 498  718.4133
 499  718.5389
 500  683.6797
 501  711.1183
 502  668.0488
 503  628.7886
 504  662.2219
 505  746.9095
 506  667.8526
 507  633.4207
 508  587.8979
 509  725.09
 510  808.9385
 511  869.6371
