# Input file       =  1178599101.100686_cleaned.dat
# Candidate        =  PSR_0332+5434
# Telescope        =  AR
# Epoch_topo       =  57885.193091443129
# Epoch_bary       =  N/A
# T_sample         =  0.002
# Data Folded      =  7405568
# Data Avg         =  0.038610803959677
# Data StdDev      =  1.00004337774696 
# Profile Bins     =  512
# Profile Avg      =  558.380342788084 
# Profile StdDev   =  120.271587911193 
# Reduced chi-sqr  =  1.489
# Prob(Noise)      <  4.04e-12   (~6.8 sigma)
# P_topo (ms)      =  714.53595590728   +/- 8.33e-05
# P'_topo (s/s)    =  -0                +/- 4.36e-11
# P''_topo (s/s^2) =  0                 +/- 1.91e-14
# P_bary (ms)      =  N/A
# P'_bary (s/s)    =  N/A
# P''_bary (s/s^2) =  N/A
# P_orb (s)        =  N/A
# asin(i)/c (s)    =  N/A
# eccentricity     =  N/A
# w (rad)          =  N/A
# T_peri           =  N/A
######################################################
   0  536.4251
   1  554.9149
   2  498.5808
   3  441.6367
   4  352.3549
   5  324.198
   6  408.9664
   7  458.7046
   8  401.6438
   9  403.344
  10  472.7668
  11  334.842
  12  257.2138
  13  415.0286
  14  411.9669
  15  495.1396
  16  551.2021
  17  444.1028
  18  410.0714
  19  462.8613
  20  462.2725
  21  404.1486
  22  329.4275
  23  382.5811
  24  467.0259
  25  452.0007
  26  411.5516
  27  381.2751
  28  318.0018
  29  311.3143
  30  299.9024
  31  454.0962
  32  522.8522
  33  525.116
  34  460.5874
  35  484.605
  36  444.986
  37  258.6158
  38  320.3809
  39  290.6269
  40  335.9712
  41  296.1313
  42  357.386
  43  402.2614
  44  444.1548
  45  459.0172
  46  364.9496
  47  312.4936
  48  392.0053
  49  453.9654
  50  478.5298
  51  495.9868
  52  598.5552
  53  530.3585
  54  475.9856
  55  480.2925
  56  601.5323
  57  490.5101
  58  506.1339
  59  600.8718
  60  696.3666
  61  608.2864
  62  544.1314
  63  584.1443
  64  479.8798
  65  551.2881
  66  590.5223
  67  605.7446
  68  500.0275
  69  554.2224
  70  496.8857
  71  512.7171
  72  463.3138
  73  449.4323
  74  512.6111
  75  472.041
  76  554.6349
  77  451.7271
  78  361.7202
  79  347.3426
  80  406.5108
  81  547.0817
  82  532.7892
  83  570.7607
  84  581.576
  85  592.2554
  86  446.2555
  87  552.7256
  88  514.4273
  89  437.3957
  90  464.6834
  91  570.5297
  92  591.1569
  93  382.3347
  94  406.5705
  95  392.0751
  96  435.2942
  97  499.1796
  98  505.5157
  99  543.9202
 100  603.6743
 101  597.5262
 102  522.6189
 103  550.3885
 104  567.5113
 105  535.0712
 106  481.0158
 107  482.4385
 108  459.2258
 109  493.53
 110  515.3751
 111  558.6189
 112  661.359
 113  591.2083
 114  601.1929
 115  559.2237
 116  677.379
 117  708.2203
 118  680.174
 119  651.5023
 120  539.259
 121  459.0967
 122  502.5918
 123  619.7866
 124  708.9379
 125  643.9673
 126  562.0385
 127  505.6187
 128  431.0697
 129  434.3399
 130  547.2892
 131  535.0841
 132  616.5568
 133  605.3837
 134  554.8908
 135  538.6646
 136  484.4049
 137  524.0341
 138  503.9847
 139  514.6151
 140  527.7638
 141  586.1884
 142  623.0441
 143  714.8905
 144  603.8987
 145  568.4024
 146  524.142
 147  580.9859
 148  595.8779
 149  526.4961
 150  599.2798
 151  669.1936
 152  637.4667
 153  544.5189
 154  511.8714
 155  609.2053
 156  512.7031
 157  489.2371
 158  540.1877
 159  531.7106
 160  510.2585
 161  536.8813
 162  526.0504
 163  601.9435
 164  663.2984
 165  678.4062
 166  623.7449
 167  556.0351
 168  502.5742
 169  519.9213
 170  561.9199
 171  593.9665
 172  545.9111
 173  512.8256
 174  572.1531
 175  593.8956
 176  563.8915
 177  484.0956
 178  495.0855
 179  619.9351
 180  580.7266
 181  648.2416
 182  722.4598
 183  773.5252
 184  722.64
 185  702.6693
 186  714.7102
 187  563.5359
 188  485.3508
 189  549.0091
 190  659.4557
 191  684.0419
 192  681.2119
 193  671.612
 194  623.7185
 195  552.7878
 196  629.4092
 197  675.6646
 198  604.4359
 199  582.2538
 200  542.9279
 201  506.3659
 202  526.9369
 203  515.3342
 204  521.8405
 205  506.1745
 206  463.5746
 207  501.8221
 208  532.0105
 209  423.7676
 210  443.1369
 211  462.6432
 212  421.2906
 213  491.6557
 214  583.3611
 215  662.0116
 216  632.5306
 217  662.412
 218  622.006
 219  624.6727
 220  490.1743
 221  466.0459
 222  520.9827
 223  610.2137
 224  602.8175
 225  484.1895
 226  552.2807
 227  465.502
 228  325.5551
 229  388.3456
 230  551.5577
 231  603.864
 232  583.868
 233  608.1644
 234  622.4698
 235  597.6504
 236  516.2609
 237  614.6187
 238  668.8433
 239  568.2425
 240  561.6433
 241  530.9638
 242  645.3707
 243  651.6818
 244  639.8559
 245  537.2974
 246  558.6511
 247  633.3705
 248  545.0727
 249  586.5285
 250  588.5387
 251  568.7188
 252  566.5116
 253  562.7611
 254  604.178
 255  451.1851
 256  493.1443
 257  498.497
 258  518.2964
 259  515.168
 260  601.5177
 261  549.7339
 262  519.4754
 263  575.2726
 264  506.1003
 265  569.8269
 266  527.0129
 267  626.6458
 268  620.4036
 269  579.7831
 270  463.0531
 271  473.1683
 272  491.4204
 273  590.7795
 274  567.0814
 275  609.7845
 276  561.9124
 277  609.3544
 278  647.4055
 279  508.4471
 280  561.2635
 281  679.813
 282  677.7603
 283  556.5952
 284  530.9863
 285  492.4237
 286  401.1967
 287  313.4324
 288  342.449
 289  510.321
 290  559.6227
 291  586.0178
 292  510.9904
 293  477.5292
 294  413.9292
 295  433.2216
 296  428.3647
 297  541.2267
 298  660.6979
 299  649.4603
 300  661.1599
 301  584.2615
 302  522.1943
 303  495.5566
 304  591.8269
 305  743.3484
 306  647.2174
 307  714.4708
 308  737.9901
 309  665.3029
 310  650.8228
 311  674.6333
 312  653.3655
 313  642.5121
 314  793.9526
 315  811.5245
 316  819.5515
 317  736.9301
 318  757.8074
 319  738.8016
 320  721.5671
 321  732.2356
 322  776.2288
 323  765.3466
 324  722.3218
 325  676.4805
 326  710.7484
 327  713.316
 328  622.3373
 329  659.0157
 330  841.6522
 331  832.5576
 332  897.272
 333  683.638
 334  565.025
 335  567.7888
 336  607.489
 337  592.4745
 338  639.5748
 339  566.3506
 340  583.0038
 341  636.0776
 342  571.4886
 343  588.7111
 344  735.8392
 345  770.9833
 346  684.8967
 347  676.7112
 348  635.8251
 349  626.2654
 350  686.0606
 351  680.9276
 352  714.9791
 353  660.4764
 354  672.7374
 355  579.3116
 356  580.2066
 357  579.3858
 358  553.5374
 359  489.8173
 360  503.7267
 361  513.8614
 362  522.9202
 363  672.0545
 364  693.5568
 365  754.5065
 366  731.8372
 367  688.7893
 368  640.4984
 369  624.246
 370  794.4205
 371  809.8633
 372  927.9557
 373  1039.849
 374  1050.522
 375  852.3571
 376  694.8613
 377  526.5023
 378  550.9393
 379  601.2291
 380  623.1581
 381  676.6515
 382  518.0173
 383  542.9036
 384  554.1629
 385  603.6108
 386  581.3829
 387  508.271
 388  536.3314
 389  655.2684
 390  618.5609
 391  631.2527
 392  611.1124
 393  448.5498
 394  533.6444
 395  592.1933
 396  560.4522
 397  701.7559
 398  636.4697
 399  604.1503
 400  588.9794
 401  543.5347
 402  548.1617
 403  546.3633
 404  575.9681
 405  579.5349
 406  572.2342
 407  484.4865
 408  567.3876
 409  645.1674
 410  701.3436
 411  661.9448
 412  554.2079
 413  619.0698
 414  545.6816
 415  489.7872
 416  520.6614
 417  543.3778
 418  561.1688
 419  540.2823
 420  476.1897
 421  531.3042
 422  603.0052
 423  606.759
 424  587.4318
 425  588.3651
 426  653.4625
 427  563.8854
 428  670.6205
 429  715.5475
 430  761.3588
 431  708.5118
 432  626.5787
 433  517.771
 434  477.4561
 435  531.9396
 436  456.3641
 437  463.4191
 438  548.5667
 439  534.8459
 440  565.7936
 441  537.2756
 442  497.555
 443  530.6878
 444  553.4276
 445  592.0838
 446  669.8776
 447  610.5586
 448  562.0145
 449  500.658
 450  473.1563
 451  522.9955
 452  484.7538
 453  637.0491
 454  676.6385
 455  625.4952
 456  497.4337
 457  465.3354
 458  421.9293
 459  475.0071
 460  518.3593
 461  599.6364
 462  615.8011
 463  570.0908
 464  589.3073
 465  539.8162
 466  450.7625
 467  444.6299
 468  530.0208
 469  515.1071
 470  607.8647
 471  613.4299
 472  645.7807
 473  644.9396
 474  506.7551
 475  497.7604
 476  442.1323
 477  325.5864
 478  505.1976
 479  587.9774
 480  587.4837
 481  569.0875
 482  525.7356
 483  447.2507
 484  511.1208
 485  596.2131
 486  612.794
 487  599.137
 488  586.4536
 489  544.945
 490  516.0355
 491  496.8985
 492  506.6294
 493  487.076
 494  533.5601
 495  565.3674
 496  519.6785
 497  564.554
 498  593.0492
 499  632.5917
 500  544.1085
 501  518.0158
 502  580.6562
 503  506.2159
 504  483.8636
 505  454.3846
 506  433.4555
 507  446.3602
 508  470.2911
 509  565.274
 510  436.9449
 511  424.0853
