# Input file       =  1178512740.104834_cleaned.dat
# Candidate        =  PSR_0332+5434
# Telescope        =  AR
# Epoch_topo       =  57884.193542880021
# Epoch_bary       =  N/A
# T_sample         =  0.002
# Data Folded      =  7274496
# Data Avg         =  0.0461947685588847
# Data StdDev      =  1.00011794421713 
# Profile Bins     =  512
# Profile Avg      =  656.289230581246 
# Profile StdDev   =  119.21137404006  
# Reduced chi-sqr  =  0.818
# Prob(Noise)      <  0.999   (~0.0 sigma)
# P_topo (ms)      =  714.536911874182  +/- 0.00012
# P'_topo (s/s)    =  -0                +/- 6.4e-11
# P''_topo (s/s^2) =  0                 +/- 2.85e-14
# P_bary (ms)      =  N/A
# P'_bary (s/s)    =  N/A
# P''_bary (s/s^2) =  N/A
# P_orb (s)        =  N/A
# asin(i)/c (s)    =  N/A
# eccentricity     =  N/A
# w (rad)          =  N/A
# T_peri           =  N/A
######################################################
   0  615.6297
   1  584.4935
   2  557.767
   3  612.8017
   4  704.9528
   5  611.2162
   6  577.0502
   7  622.7715
   8  592.9974
   9  602.2054
  10  630.4189
  11  695.4476
  12  716.189
  13  738.9378
  14  761.826
  15  660.9304
  16  692.9413
  17  561.6948
  18  547.1981
  19  563
  20  645.8672
  21  679.558
  22  661.3431
  23  663.5577
  24  574.5472
  25  612.2523
  26  664.3807
  27  776.2343
  28  758.795
  29  797.7942
  30  749.4539
  31  696.2321
  32  657.5506
  33  682.9462
  34  665.3882
  35  657.7996
  36  728.4574
  37  667.8046
  38  556.8986
  39  580.2023
  40  634.687
  41  623.6951
  42  665.4357
  43  703.7403
  44  732.6083
  45  757.4561
  46  660.8527
  47  697.9882
  48  654.3837
  49  661.5601
  50  646.2636
  51  807.072
  52  683.2594
  53  688.2167
  54  639.3557
  55  688.4014
  56  665.8412
  57  670.0093
  58  737.0413
  59  666.9358
  60  646.941
  61  567.644
  62  539.5504
  63  666.1572
  64  623.8516
  65  553.5349
  66  495.8843
  67  572.1284
  68  572.3295
  69  587.0385
  70  527.0182
  71  545.0927
  72  561.5095
  73  565.9282
  74  562.521
  75  496.9775
  76  623.2925
  77  755.0281
  78  697.0964
  79  684.3026
  80  616.6317
  81  522.7072
  82  519.4257
  83  612.7942
  84  628.4413
  85  641.1018
  86  694.1682
  87  651.9105
  88  532.7906
  89  570.8889
  90  645.0572
  91  581.8215
  92  593.5123
  93  686.7096
  94  745.4538
  95  765.3108
  96  729.1255
  97  787.6725
  98  824.2832
  99  757.3879
 100  712.7608
 101  595.9341
 102  630.924
 103  710.0912
 104  738.8633
 105  704.791
 106  688.6473
 107  610.5668
 108  615.4243
 109  639.1952
 110  726.5801
 111  754.6943
 112  726.6455
 113  699.3272
 114  703.738
 115  623.0466
 116  651.1879
 117  610.7494
 118  687.5085
 119  810.6661
 120  779.0217
 121  645.5063
 122  574.2856
 123  619.7441
 124  598.3167
 125  600.6445
 126  603.4936
 127  641.6287
 128  654.8565
 129  653.9007
 130  682.8891
 131  742.6803
 132  722.8639
 133  656.379
 134  639.4054
 135  649.0994
 136  654.7642
 137  612.3925
 138  617.627
 139  533.5482
 140  634.4212
 141  632.4792
 142  701.0987
 143  719.9939
 144  717.2562
 145  626.0612
 146  580.1857
 147  660.839
 148  649.2201
 149  622.4702
 150  624.2353
 151  612.8852
 152  629.174
 153  703.2098
 154  685.8376
 155  720.2571
 156  615.3276
 157  623.6618
 158  612.0959
 159  669.6073
 160  739.6078
 161  728.1166
 162  723.7172
 163  740.7592
 164  705.5817
 165  718.7984
 166  769.1766
 167  689.158
 168  731.578
 169  742.3704
 170  652.6905
 171  719.5284
 172  684.0861
 173  604.8299
 174  644.0556
 175  674.1428
 176  632.3611
 177  724.7788
 178  702.5815
 179  687.3831
 180  655.895
 181  688.3127
 182  752.0087
 183  640.3181
 184  617.0254
 185  638.4124
 186  710.0337
 187  835.4552
 188  884.8341
 189  801.3931
 190  637.0461
 191  600.7365
 192  701.4972
 193  752.0632
 194  823.2741
 195  828.4487
 196  669.7963
 197  547.6165
 198  721.4656
 199  679.1038
 200  638.0804
 201  679.7187
 202  741.1796
 203  716.3476
 204  715.0313
 205  607.7068
 206  655.0097
 207  658.5057
 208  589.4438
 209  668.701
 210  686.9685
 211  729.8727
 212  765.2812
 213  824.9952
 214  741.9735
 215  606.7108
 216  558.0981
 217  687.7403
 218  633.0305
 219  657.477
 220  632.6596
 221  485.8697
 222  608.0703
 223  644.3059
 224  693.5729
 225  729.7949
 226  758.7275
 227  674.0722
 228  601.053
 229  659.7836
 230  680.9109
 231  664.5358
 232  635.5
 233  735.5635
 234  718.5086
 235  761.3589
 236  694.7598
 237  645.9573
 238  681.5911
 239  636.6625
 240  710.6243
 241  778.2947
 242  773.5507
 243  685.364
 244  528.7783
 245  524.1421
 246  522.0355
 247  615.7207
 248  654.0267
 249  577.5245
 250  614.0388
 251  562.0587
 252  492.241
 253  599.3307
 254  582.9928
 255  641.0613
 256  665.6247
 257  597.7773
 258  655.7729
 259  672.5752
 260  728.0104
 261  687.5151
 262  644.8831
 263  592.9083
 264  509.0329
 265  575.8931
 266  584.7712
 267  697.2687
 268  709.4648
 269  664.0984
 270  632.9996
 271  541.1039
 272  564.784
 273  574.8063
 274  605.4471
 275  657.2322
 276  655.2289
 277  701.5307
 278  695.3989
 279  633.4849
 280  647.879
 281  684.4851
 282  593.0285
 283  610.2894
 284  655.7267
 285  733.6357
 286  675.655
 287  738.6561
 288  672.9023
 289  634.3422
 290  684.1425
 291  782.7405
 292  625.5046
 293  541.6884
 294  577.663
 295  616.6679
 296  600.7456
 297  650.396
 298  588.2736
 299  528.0544
 300  551.9813
 301  680.5016
 302  565.6229
 303  465.8986
 304  538.48
 305  612.0535
 306  688.6048
 307  611.0176
 308  682.5012
 309  789.1201
 310  698.8554
 311  715.9778
 312  732.7166
 313  751.7979
 314  686.7265
 315  621.514
 316  695.6931
 317  733.2542
 318  679.7417
 319  708.0533
 320  685.3342
 321  640.9918
 322  619.1882
 323  753.44
 324  704.9057
 325  643.3122
 326  587.5105
 327  648.8882
 328  803.9899
 329  846.783
 330  879.466
 331  887.2249
 332  877.024
 333  797.5755
 334  705.5452
 335  615.2797
 336  583.5029
 337  547.6402
 338  441.5295
 339  454.8578
 340  478.424
 341  586.4066
 342  651.7712
 343  726.7938
 344  717.1685
 345  610.3606
 346  566.1391
 347  545.695
 348  573.6583
 349  632.2479
 350  630.2051
 351  598.3671
 352  617.0802
 353  570.4259
 354  561.183
 355  613.6992
 356  649.7979
 357  701.5561
 358  654.9013
 359  675.0445
 360  667.4319
 361  628.2799
 362  621.196
 363  589.045
 364  545.4072
 365  508.7034
 366  606.4096
 367  641.5647
 368  603.0634
 369  526.2557
 370  561.9424
 371  545.324
 372  418.4177
 373  518.3752
 374  624.7974
 375  640.9941
 376  744.217
 377  713.8718
 378  536.5601
 379  550.6216
 380  525.9561
 381  613.918
 382  636.3546
 383  705.2613
 384  656.4446
 385  589.6312
 386  540.2343
 387  568.9355
 388  540.7668
 389  611.9586
 390  611.1506
 391  661.8419
 392  698.4819
 393  706.1598
 394  625.9807
 395  678.6868
 396  659.9368
 397  604.0084
 398  563.395
 399  618.4795
 400  599.7468
 401  517.6957
 402  467.8625
 403  547.996
 404  606.469
 405  549.0076
 406  754.7156
 407  651.937
 408  590.9904
 409  684.3098
 410  681.4276
 411  720.4514
 412  698.5161
 413  625.7096
 414  590.3964
 415  584.2888
 416  545.3174
 417  612.8621
 418  708.5355
 419  665.8541
 420  597.6868
 421  649.6956
 422  610.6987
 423  589.3485
 424  669.988
 425  572.394
 426  653.842
 427  707.936
 428  600.9314
 429  526.2324
 430  528.7641
 431  608.296
 432  673.4006
 433  590.1972
 434  662.5192
 435  610.8513
 436  592.655
 437  544.6324
 438  524.978
 439  576.3667
 440  596.8039
 441  719.2361
 442  722.7844
 443  703.228
 444  563.358
 445  538.999
 446  665.8171
 447  676.3958
 448  714.7692
 449  664.6974
 450  742.501
 451  735.7617
 452  627.5876
 453  657.7368
 454  635.36
 455  678.1383
 456  672.1887
 457  705.3155
 458  664.3127
 459  746.7795
 460  772.3442
 461  718.0025
 462  778.2305
 463  667.7192
 464  613.2803
 465  665.4524
 466  651.7968
 467  687.0748
 468  757.2593
 469  765.4526
 470  808.8506
 471  810.7781
 472  756.9849
 473  829.9237
 474  895.4531
 475  848.3705
 476  843.6792
 477  722.9283
 478  746.8936
 479  753.7258
 480  737.1915
 481  664.1167
 482  611.9042
 483  796.949
 484  798.5737
 485  774.0856
 486  729.1479
 487  630.3841
 488  604.4932
 489  744.7853
 490  751.8048
 491  736.2601
 492  684.4877
 493  611.1331
 494  641.3463
 495  629.8646
 496  677.8923
 497  642.3427
 498  529.9631
 499  681.7366
 500  826.6179
 501  787.3436
 502  715.8165
 503  669.2446
 504  597.2776
 505  606.7667
 506  720.9916
 507  741.252
 508  656.2469
 509  714.1582
 510  734.115
 511  660.1262
