# Input file       =  1178599101.100686_cleaned.dat
# Candidate        =  PSR_0332+5434
# Telescope        =  AR
# Epoch_topo       =  57885.193091443129
# Epoch_bary       =  N/A
# T_sample         =  0.002
# Data Folded      =  7405568
# Data Avg         =  0.038610803959677
# Data StdDev      =  1.00004337774696 
# Profile Bins     =  512
# Profile Avg      =  558.38033979994  
# Profile StdDev   =  120.271587911193 
# Reduced chi-sqr  =  1.492
# Prob(Noise)      <  3.26e-12   (~6.9 sigma)
# P_topo (ms)      =  714.535954708091  +/- 8.11e-05
# P'_topo (s/s)    =  -0                +/- 4.24e-11
# P''_topo (s/s^2) =  0                 +/- 1.86e-14
# P_bary (ms)      =  N/A
# P'_bary (s/s)    =  N/A
# P''_bary (s/s^2) =  N/A
# P_orb (s)        =  N/A
# asin(i)/c (s)    =  N/A
# eccentricity     =  N/A
# w (rad)          =  N/A
# T_peri           =  N/A
######################################################
   0  1069.742
   1  1001.478
   2  795.4401
   3  620.9075
   4  513.1011
   5  580.7256
   6  608.4174
   7  657.2322
   8  621.2902
   9  503.2561
  10  548.9072
  11  578.7462
  12  593.4905
  13  562.1093
  14  494.3086
  15  595.7269
  16  648.4155
  17  616.8693
  18  641.3294
  19  545.4556
  20  449.7679
  21  583.6146
  22  567.7991
  23  606.4387
  24  699.2872
  25  614.0527
  26  593.0239
  27  592.7169
  28  522.8389
  29  565.2958
  30  532.2828
  31  602.4849
  32  565.43
  33  557.1259
  34  485.5059
  35  597.5432
  36  678.2842
  37  685.2381
  38  631.1295
  39  547.2531
  40  636.6042
  41  503.5292
  42  484.4261
  43  552.1091
  44  531.1285
  45  581.0677
  46  482.4904
  47  505.1725
  48  554.7443
  49  628.8984
  50  598.6271
  51  555.7072
  52  637.0114
  53  606.7032
  54  610.7978
  55  671.3424
  56  756.7372
  57  727.7477
  58  708.5067
  59  571.2334
  60  500.6411
  61  490.5015
  62  521.5681
  63  441.8984
  64  504.3082
  65  547.8277
  66  531.2352
  67  569.5928
  68  512.6689
  69  507.5315
  70  552.3946
  71  549.8665
  72  626.2958
  73  651.0152
  74  587.1842
  75  550.1038
  76  470.9948
  77  496.6198
  78  507.1508
  79  527.5535
  80  676.6277
  81  669.4813
  82  567.4732
  83  500.9062
  84  429.2575
  85  448.8499
  86  477.0002
  87  551.8827
  88  606.5921
  89  602.7328
  90  573.5905
  91  587.3398
  92  506.583
  93  425.5501
  94  485.8764
  95  531.3079
  96  536.8159
  97  613.4274
  98  609.9388
  99  674.5419
 100  600.334
 101  491.5922
 102  492.4083
 103  376.0734
 104  365.4073
 105  560.3353
 106  602.6812
 107  571.2864
 108  566.6892
 109  469.8147
 110  481.1581
 111  530.4403
 112  630.9616
 113  594.3997
 114  588.1788
 115  585.677
 116  520.5648
 117  531.1969
 118  471.9688
 119  508.3875
 120  490.3871
 121  565.5379
 122  539.1349
 123  534.4062
 124  571.21
 125  610.6094
 126  631.0217
 127  496.2749
 128  565.2342
 129  547.6663
 130  497.3165
 131  474.5679
 132  446.4725
 133  428.4489
 134  451.7541
 135  502.9654
 136  542.0779
 137  405.2421
 138  470.8592
 139  557.8994
 140  538.8268
 141  471.787
 142  425.0617
 143  321.8833
 144  355.2452
 145  422.6748
 146  455.4593
 147  384.6773
 148  444.4855
 149  447.2084
 150  263.4578
 151  315.2064
 152  419.2163
 153  436.4967
 154  518.1237
 155  552.0568
 156  381.5826
 157  458.4195
 158  447.5908
 159  466.5368
 160  350.0128
 161  334.7849
 162  424.0992
 163  464.0383
 164  444.3263
 165  405.6851
 166  353.3686
 167  315.7332
 168  294.3208
 169  349.8621
 170  482.1536
 171  549.7914
 172  489.5272
 173  468.0577
 174  483.0357
 175  374.5974
 176  262.7496
 177  326.2387
 178  298.5656
 179  329.3269
 180  304.508
 181  381.7383
 182  424.6295
 183  438.2424
 184  447.0666
 185  316.1137
 186  337.3081
 187  419.5814
 188  467.2999
 189  485.2412
 190  528.3696
 191  601.6073
 192  483.597
 193  469.4564
 194  527.9269
 195  584.864
 196  473.4532
 197  534.2598
 198  643.9546
 199  683.9963
 200  570.0114
 201  563.4198
 202  561.2706
 203  480.0733
 204  573.1151
 205  613.1825
 206  558.0179
 207  512.2642
 208  535.3829
 209  498.2243
 210  497.963
 211  458.6384
 212  457.1013
 213  517.7281
 214  479.8525
 215  553.7222
 216  408.3587
 217  346.6104
 218  364.3884
 219  440.2199
 220  581.7087
 221  515.9935
 222  586.6425
 223  593.8143
 224  539.082
 225  471.1882
 226  566.2039
 227  471.8801
 228  426.6832
 229  493.3968
 230  610.4439
 231  527.2067
 232  362.9813
 233  418.7793
 234  384.9664
 235  470.5724
 236  505.8294
 237  507.0248
 238  576.0392
 239  607.0681
 240  574.7918
 241  515.1647
 242  567.176
 243  559.6781
 244  509.9953
 245  484.6234
 246  477.323
 247  462.0915
 248  497.1214
 249  519.3562
 250  604.0999
 251  652.9124
 252  586.6544
 253  586.3372
 254  603.0609
 255  685.4473
 256  708.14
 257  657.2839
 258  641.3708
 259  485.6021
 260  470.9647
 261  520.9581
 262  667.2825
 263  714.7214
 264  596.9046
 265  552.3463
 266  475.9043
 267  412.9637
 268  474.3126
 269  545.3459
 270  566.472
 271  621.9151
 272  612.8722
 273  520.6605
 274  536.9876
 275  468.6238
 276  529.9969
 277  507.6626
 278  503.2007
 279  571.656
 280  562.7604
 281  698.5821
 282  666.6882
 283  606.0435
 284  540.8756
 285  536.0971
 286  590.2087
 287  567.1194
 288  542.3531
 289  629.8821
 290  675.7728
 291  592.4229
 292  536.0678
 293  527.2701
 294  631.1257
 295  446.4059
 296  525.3063
 297  531.6446
 298  528.1685
 299  522.5296
 300  525.5605
 301  549.8143
 302  626.9322
 303  676.8518
 304  660.8208
 305  599.3942
 306  525.9873
 307  508.8646
 308  537.7311
 309  566.9473
 310  591.4989
 311  522.5261
 312  534.2012
 313  572.6624
 314  599.7656
 315  549.6431
 316  461.2149
 317  547.5605
 318  606.8611
 319  592.2018
 320  673.2944
 321  751.805
 322  759.5561
 323  712.0837
 324  713.7394
 325  688.539
 326  506.5993
 327  496.6211
 328  583.905
 329  670.8781
 330  706.1014
 331  659.885
 332  666.6332
 333  589.3706
 334  561.9896
 335  675.2115
 336  655.1323
 337  587.8079
 338  566.4379
 339  539.6547
 340  491.5137
 341  546.9585
 342  491.6374
 343  528.2932
 344  486.3916
 345  466.0019
 346  559.2172
 347  467.5273
 348  434.05
 349  426.6002
 350  474.7606
 351  417.958
 352  538.0754
 353  608.5503
 354  657.1029
 355  634.7225
 356  660.7193
 357  624.3835
 358  586.4509
 359  454.6534
 360  484.1057
 361  543.6699
 362  655.1245
 363  535.2781
 364  513.1611
 365  524.2455
 366  417.959
 367  325.9052
 368  440.7192
 369  591.0645
 370  592.8931
 371  600.499
 372  611.7136
 373  625.0004
 374  558.2685
 375  523.2258
 376  666.9618
 377  631.8467
 378  559.2095
 379  545.4221
 380  563.9792
 381  660.0071
 382  653.2787
 383  607.8814
 384  524.5995
 385  589.4105
 386  605.3203
 387  551.5015
 388  606.0823
 389  576.8295
 390  569.268
 391  556.006
 392  583.9279
 393  571.8002
 394  425.8485
 395  521.0925
 396  483.1108
 397  530.215
 398  535.3982
 399  603.1883
 400  511.6281
 401  557.0223
 402  544.6657
 403  530.4393
 404  560.1848
 405  541.7318
 406  640.5787
 407  622.6859
 408  517.4542
 409  481.9604
 410  457.747
 411  532.573
 412  578.7234
 413  587.4683
 414  597.6396
 415  574.8049
 416  626.0711
 417  595.0358
 418  509.8536
 419  606.4194
 420  712.1378
 421  620.0692
 422  546.1956
 423  514.6976
 424  477.3891
 425  369.7918
 426  291.9818
 427  404.5614
 428  528.4902
 429  596.9622
 430  542.8027
 431  513.1478
 432  440.499
 433  423.7472
 434  424.3869
 435  456.257
 436  600.7697
 437  644.1297
 438  671.9495
 439  623.3589
 440  588.2361
 441  489.8444
 442  515.3661
 443  656.0486
 444  720.7132
 445  656.8826
 446  721.5526
 447  727.2792
 448  649.5776
 449  668.8809
 450  674.611
 451  622.483
 452  703.2925
 453  805.7664
 454  828.553
 455  796.4063
 456  739.3339
 457  739.8935
 458  730.2911
 459  703.9308
 460  761.2502
 461  783.027
 462  755.7031
 463  701.6725
 464  674.7437
 465  741.6057
 466  660.5853
 467  626.5276
 468  728.0751
 469  844.8527
 470  861.7295
 471  840.2958
 472  625.839
 473  544.7722
 474  599.29
 475  587.882
 476  614.2779
 477  624.4164
 478  555.9575
 479  609.1185
 480  629.9067
 481  554.6347
 482  637.6823
 483  763.783
 484  734.7612
 485  678.996
 486  675.987
 487  618.7792
 488  657.2697
 489  670.7142
 490  701.4662
 491  693.2293
 492  674.0784
 493  641.9323
 494  575.4847
 495  577.9232
 496  580.7917
 497  521.9182
 498  485.9057
 499  512.4512
 500  500.4047
 501  582.2128
 502  671.4811
 503  740.8307
 504  733.2383
 505  732.3054
 506  654.5931
 507  631.4874
 508  678.0801
 509  814.6112
 510  822.4036
 511  976.0853
