# Input file       =  1178973071.099241_cleaned.dat
# Candidate        =  PSR_0332+5434
# Telescope        =  AR
# Epoch_topo       =  57889.521447907879
# Epoch_bary       =  N/A
# T_sample         =  0.002
# Data Folded      =  7340032
# Data Avg         =  0.0345789988845163
# Data StdDev      =  1.00073562688474 
# Profile Bins     =  512
# Profile Avg      =  495.72239953317  
# Profile StdDev   =  119.821115217317 
# Reduced chi-sqr  =  0.834
# Prob(Noise)      <  0.997   (~0.0 sigma)
# P_topo (ms)      =  714.532130939289  +/- 0.00081
# P'_topo (s/s)    =  -0                +/- 4.27e-10
# P''_topo (s/s^2) =  0                 +/- 1.89e-13
# P_bary (ms)      =  N/A
# P'_bary (s/s)    =  N/A
# P''_bary (s/s^2) =  N/A
# P_orb (s)        =  N/A
# asin(i)/c (s)    =  N/A
# eccentricity     =  N/A
# w (rad)          =  N/A
# T_peri           =  N/A
######################################################
   0  757.9595
   1  693.2081
   2  616.1465
   3  528.6628
   4  485.3667
   5  600.8309
   6  600.9469
   7  512.8408
   8  447.3353
   9  434.1726
  10  529.7786
  11  540.1822
  12  623.4989
  13  639.962
  14  613.3497
  15  596.6019
  16  540.1104
  17  497.7898
  18  576.1675
  19  533.911
  20  400.1451
  21  399.9369
  22  529.4792
  23  483.0463
  24  498.9505
  25  534.8209
  26  409.1147
  27  376.9269
  28  506.9411
  29  498.3994
  30  387.938
  31  299.2216
  32  442.812
  33  497.8734
  34  489.1427
  35  548.7435
  36  574.8146
  37  469.678
  38  426.1004
  39  402.5441
  40  503.3396
  41  460.3432
  42  427.002
  43  309.967
  44  387.8186
  45  494.7533
  46  430.4229
  47  405.8658
  48  448.7039
  49  429.1067
  50  408.4313
  51  343.3311
  52  468.2862
  53  472.9715
  54  428.4662
  55  410.6953
  56  497.4736
  57  550.0323
  58  541.7698
  59  529.8332
  60  449.0532
  61  480.1453
  62  408.2019
  63  459.5093
  64  496.0147
  65  474.2524
  66  515.9274
  67  439.8355
  68  398.1274
  69  316.1843
  70  331.1815
  71  401.1518
  72  425.9809
  73  440.9017
  74  523.459
  75  635.1025
  76  505.6864
  77  405.7586
  78  514.0662
  79  550.9498
  80  563.3753
  81  603.14
  82  550.8856
  83  313.2953
  84  318.5886
  85  466.4142
  86  454.1239
  87  399.9243
  88  498.3836
  89  483.085
  90  514.3212
  91  470.2521
  92  568.1091
  93  566.9183
  94  542.2469
  95  440.0613
  96  502.2975
  97  572.0597
  98  509.4992
  99  527.6122
 100  494.8951
 101  470.769
 102  399.8451
 103  434.9887
 104  592.6082
 105  609.7742
 106  693.6744
 107  637.1893
 108  504.6181
 109  403.5383
 110  405.0033
 111  499.8843
 112  486.2034
 113  572.7637
 114  508.517
 115  488.4431
 116  467.9172
 117  493.7568
 118  465.114
 119  463.1208
 120  585.8177
 121  611.1006
 122  535.8225
 123  555.1855
 124  661.5443
 125  655.7258
 126  515.5654
 127  636.5201
 128  623.4017
 129  533.7784
 130  536.4549
 131  546.1602
 132  606.4476
 133  541.6873
 134  540.2736
 135  538.7478
 136  487.6512
 137  570.9595
 138  494.6341
 139  567.0403
 140  529.3152
 141  496.71
 142  547.0117
 143  505.7727
 144  454.2938
 145  394.8885
 146  453.9403
 147  475.9365
 148  504.1325
 149  536.0027
 150  561.9639
 151  360.1488
 152  396.1655
 153  593.3473
 154  567.9368
 155  536.3187
 156  513.597
 157  477.7177
 158  448.4129
 159  480.1187
 160  544.4475
 161  524.7576
 162  669.1989
 163  563.7042
 164  424.4821
 165  405.4471
 166  430.8418
 167  519.0374
 168  499.0929
 169  383.3368
 170  521.2974
 171  430.2036
 172  383.1657
 173  499.3795
 174  509.9362
 175  504.7444
 176  468.1039
 177  497.186
 178  422.0425
 179  397.0418
 180  463.7399
 181  578.9352
 182  511.1391
 183  455.0659
 184  387.7029
 185  459.3086
 186  533.6364
 187  531.6015
 188  565.3775
 189  533.05
 190  546.2717
 191  522.1465
 192  497.8383
 193  481.8747
 194  452.5644
 195  447.3336
 196  404.6208
 197  386.2698
 198  474.5294
 199  412.7021
 200  487.4953
 201  417.5906
 202  396.3439
 203  506.7461
 204  495.1564
 205  453.3727
 206  541.9982
 207  508.5474
 208  430.3202
 209  531.9548
 210  505.6408
 211  426.81
 212  438.3335
 213  503.6404
 214  569.7236
 215  551.2695
 216  382.1141
 217  377.324
 218  526.3105
 219  515.6624
 220  473.6912
 221  582.0251
 222  582.5443
 223  554.1663
 224  598.6683
 225  552.7607
 226  416.3884
 227  453.2484
 228  530.1564
 229  497.2426
 230  469.9056
 231  522.5974
 232  524.7899
 233  538.8653
 234  469.9631
 235  473.432
 236  481.5343
 237  534.0404
 238  604.5074
 239  607.1932
 240  513.5047
 241  391.9153
 242  533.991
 243  585.8906
 244  478.6606
 245  549.1604
 246  649.5502
 247  532.4988
 248  538.3116
 249  556.966
 250  446.4852
 251  568.8771
 252  588.768
 253  607.6136
 254  605.9824
 255  600.4302
 256  533.4904
 257  558.4003
 258  554.6664
 259  422.7507
 260  453.9945
 261  527.3068
 262  519.2233
 263  549.2435
 264  661.9464
 265  587.2521
 266  516.699
 267  445.3062
 268  375.2036
 269  430.6356
 270  457.087
 271  479.8153
 272  460.5015
 273  453.3046
 274  489.7773
 275  331.3941
 276  389.2805
 277  380.3017
 278  426.0174
 279  365.1729
 280  346.1823
 281  409.4962
 282  402.3737
 283  457.7215
 284  441.4797
 285  339.246
 286  352.5675
 287  468.7964
 288  490.9645
 289  590.4852
 290  645.0216
 291  512.762
 292  527.3891
 293  459.693
 294  499.3683
 295  519.2652
 296  528.45
 297  531.9855
 298  626.0986
 299  497.5048
 300  286.8633
 301  401.4488
 302  501.1456
 303  514.5895
 304  451.0706
 305  406.5284
 306  527.1078
 307  627.6887
 308  665.4971
 309  463.1828
 310  526.9629
 311  526.8201
 312  468.6632
 313  477.0036
 314  517.4987
 315  475.1068
 316  424.4112
 317  563.8002
 318  651.232
 319  520.1124
 320  565.329
 321  570.209
 322  592.7145
 323  461.841
 324  494.0468
 325  512.2136
 326  552.032
 327  540.9553
 328  455.2268
 329  445.165
 330  370.7764
 331  400.0758
 332  569.3447
 333  581.2234
 334  643.4888
 335  540.5812
 336  521.9079
 337  553.0871
 338  548.9486
 339  693.7679
 340  643.4068
 341  499.2669
 342  540.0028
 343  562.657
 344  582.9451
 345  563.3334
 346  537.4047
 347  601.0842
 348  556.3474
 349  553.4899
 350  479.043
 351  558.7004
 352  523.6575
 353  529.5086
 354  515.0289
 355  550.7821
 356  620.925
 357  605.2578
 358  510.3969
 359  445.6114
 360  546.3845
 361  632.4932
 362  550.3672
 363  498.4679
 364  459.8677
 365  531.0701
 366  469.0303
 367  495.2824
 368  488.8043
 369  587.9767
 370  570.0963
 371  537.2884
 372  566.9912
 373  488.3354
 374  480.2068
 375  576.9926
 376  617.9785
 377  486.0829
 378  500.7998
 379  516.3038
 380  356.8754
 381  531.0849
 382  486.4419
 383  412.6054
 384  462.2345
 385  407.8646
 386  533.267
 387  526.0648
 388  467.9125
 389  370.7337
 390  411.8633
 391  302.5026
 392  350.8189
 393  375.9587
 394  423.4048
 395  415.1329
 396  369.2391
 397  410.1844
 398  489.128
 399  465.6332
 400  531.8721
 401  360.6422
 402  295.9313
 403  398.8178
 404  483.9332
 405  418.8184
 406  317.4981
 407  432.2448
 408  498.3018
 409  530.7571
 410  578.1816
 411  572.4634
 412  459.1373
 413  394.342
 414  381.935
 415  447.0717
 416  524.4282
 417  566.2728
 418  572.0128
 419  550.7988
 420  556.0843
 421  498.9553
 422  443.1145
 423  470.07
 424  472.7961
 425  488.3421
 426  432.9066
 427  341.3899
 428  493.4523
 429  488.5221
 430  404.0431
 431  493.2931
 432  473.4612
 433  426.6581
 434  418.9828
 435  422.0454
 436  493.6486
 437  509.4393
 438  473.2908
 439  615.2509
 440  532.7349
 441  484.7436
 442  508.8469
 443  441.5171
 444  501.233
 445  504.2167
 446  471.4164
 447  487.2123
 448  544.8583
 449  482.7006
 450  401.9774
 451  541.2579
 452  632.9023
 453  616.9672
 454  432.344
 455  439.1274
 456  466.8264
 457  342.2728
 458  388.7523
 459  463.8782
 460  528.6882
 461  461.2042
 462  413.6825
 463  472.0629
 464  568.9792
 465  531.2827
 466  437.4598
 467  385.4078
 468  421.3355
 469  485.9308
 470  365.531
 471  384.7926
 472  371.7495
 473  515.5096
 474  513.523
 475  505.3496
 476  458.8679
 477  507.3423
 478  413.5009
 479  425.547
 480  526.9062
 481  498.722
 482  543.7506
 483  525.4825
 484  486.3499
 485  385.7752
 486  459.5792
 487  418.5288
 488  383.0702
 489  350.6778
 490  457.7683
 491  455.0009
 492  361.4273
 493  383.5044
 494  543.8602
 495  503.6879
 496  432.8665
 497  509.8433
 498  499.1419
 499  633.5475
 500  630.9712
 501  521.2006
 502  515.9526
 503  516.2964
 504  506.7416
 505  542.9547
 506  559.78
 507  558.4944
 508  609.9963
 509  647.3699
 510  823.9948
 511  831.1151
