# Input file       =  1178685143.103464_cleaned.dat
# Candidate        =  PSR_0332+5434
# Telescope        =  AR
# Epoch_topo       =  57886.188947956754
# Epoch_bary       =  N/A
# T_sample         =  0.002
# Data Folded      =  7143424
# Data Avg         =  0.0413966271910631
# Data StdDev      =  1.00006771665742 
# Profile Bins     =  512
# Profile Avg      =  577.518026437209 
# Profile StdDev   =  118.126583077588 
# Reduced chi-sqr  =  1.178
# Prob(Noise)      <  0.00329   (~2.7 sigma)
# P_topo (ms)      =  714.535002857627  +/- 0.000115
# P'_topo (s/s)    =  -0                +/- 6.23e-11
# P''_topo (s/s^2) =  0                 +/- 2.83e-14
# P_bary (ms)      =  N/A
# P'_bary (s/s)    =  N/A
# P''_bary (s/s^2) =  N/A
# P_orb (s)        =  N/A
# asin(i)/c (s)    =  N/A
# eccentricity     =  N/A
# w (rad)          =  N/A
# T_peri           =  N/A
######################################################
   0  1150.94
   1  1118.231
   2  967.2043
   3  728.0649
   4  492.616
   5  535.5638
   6  565.5621
   7  531.505
   8  635.6647
   9  537.9168
  10  626.7338
  11  533.4916
  12  537.7357
  13  540.3745
  14  505.7384
  15  592.5637
  16  661.2581
  17  603.3724
  18  507.9557
  19  551.6847
  20  515.0998
  21  596.7016
  22  535.6563
  23  539.4178
  24  574.8951
  25  580.5045
  26  594.4006
  27  640.0226
  28  582.9622
  29  454.9676
  30  346.4563
  31  476.1727
  32  488.1857
  33  407.4001
  34  444.0618
  35  458.8221
  36  377.1886
  37  480.2605
  38  488.3382
  39  404.1314
  40  462.0799
  41  537.7021
  42  629.9015
  43  715.7471
  44  673.1454
  45  631.7021
  46  507.1877
  47  553.2682
  48  488.3735
  49  513.1042
  50  547.9733
  51  536.1131
  52  436.7484
  53  425.6972
  54  276.4314
  55  430.0869
  56  532.4359
  57  539.2798
  58  509.9683
  59  453.3863
  60  562.6413
  61  462.592
  62  417.296
  63  555.9305
  64  635.3081
  65  569.0087
  66  475.0953
  67  562.0347
  68  509.5156
  69  576.8834
  70  542.0734
  71  545.1852
  72  548.4744
  73  530.0507
  74  488.9884
  75  507.2697
  76  607.9751
  77  516.0457
  78  376.7551
  79  501.3015
  80  573.1605
  81  497.4166
  82  469.9803
  83  563.1622
  84  548.9307
  85  594.7421
  86  546.8868
  87  512.4379
  88  567.2435
  89  568.2196
  90  625.1805
  91  623.1727
  92  450.5209
  93  539.8917
  94  499.073
  95  541.3636
  96  578.9693
  97  521.0641
  98  545.8665
  99  531.4916
 100  509.4323
 101  554.5889
 102  501.4367
 103  560.3305
 104  609.5089
 105  635.2642
 106  553.3288
 107  556.6481
 108  610.5154
 109  649.437
 110  602.3132
 111  549.1698
 112  487.4032
 113  452.5651
 114  469.5063
 115  556.8161
 116  598.9163
 117  505.1086
 118  498.7498
 119  518.4245
 120  558.0522
 121  515.2094
 122  514.2358
 123  528.722
 124  450.9433
 125  615.8973
 126  687.4108
 127  659.8835
 128  439.2821
 129  397.2562
 130  488.3615
 131  654.9294
 132  579.4868
 133  596.9038
 134  544.9037
 135  473.5316
 136  481.9856
 137  504.2912
 138  552.4069
 139  489.5396
 140  530.2336
 141  588.6731
 142  583.0278
 143  559.8129
 144  588.1061
 145  618.4241
 146  598.9235
 147  628.2399
 148  617.6964
 149  525.3791
 150  486.2896
 151  537.4455
 152  606.3514
 153  671.8837
 154  659.8057
 155  585.6285
 156  584.6417
 157  665.8835
 158  860.1085
 159  844.5101
 160  683.79
 161  603.485
 162  494.2118
 163  516.0402
 164  602.5335
 165  634.3312
 166  669.9472
 167  735.92
 168  652.94
 169  613.235
 170  468.1208
 171  454.188
 172  477.5925
 173  439.3928
 174  548.5729
 175  673.7118
 176  618.4291
 177  465.3463
 178  449.7399
 179  309.1445
 180  425.3489
 181  510.0036
 182  570.959
 183  501.8599
 184  470.3436
 185  478.6728
 186  498.8559
 187  514.8549
 188  399.5986
 189  472.4666
 190  624.5505
 191  480.9017
 192  470.6375
 193  468.9132
 194  389.0618
 195  395.4088
 196  467.6469
 197  432.6435
 198  465.7518
 199  678.6476
 200  658.0577
 201  549.3961
 202  523.0853
 203  545.4516
 204  486.9323
 205  629.3248
 206  726.6639
 207  654.3815
 208  607.1244
 209  561.7899
 210  591.3735
 211  500.6014
 212  568.506
 213  527.8008
 214  585.7131
 215  609.6525
 216  604.3604
 217  570.0967
 218  601.8349
 219  621.9462
 220  615.0024
 221  485.7433
 222  504.9
 223  557.1943
 224  627.85
 225  734.7395
 226  623.6179
 227  615.3707
 228  533.9171
 229  597.916
 230  634.0158
 231  527.0732
 232  641.6708
 233  695.8591
 234  608.1046
 235  564.3312
 236  486.4082
 237  551.8318
 238  712.0355
 239  736.7444
 240  653.3389
 241  638.476
 242  605.924
 243  584.3898
 244  587.2838
 245  511.3888
 246  593.4937
 247  689.4771
 248  665.1143
 249  728.8378
 250  674.9941
 251  613.494
 252  708.5555
 253  668.4019
 254  681.249
 255  660.5754
 256  659.8211
 257  628.5757
 258  651.0703
 259  637.7433
 260  622.5627
 261  618.5527
 262  670.3799
 263  691.0865
 264  588.9548
 265  566.8749
 266  548.7435
 267  436.3882
 268  538.5214
 269  586.8288
 270  610.8099
 271  506.7513
 272  604.1211
 273  669.6307
 274  599.2191
 275  642.459
 276  582.9254
 277  605.0573
 278  536.9879
 279  516.9985
 280  535.1287
 281  622.3378
 282  681.5137
 283  690.1653
 284  608.9359
 285  519.7965
 286  573.6035
 287  513.1857
 288  484.497
 289  526.1766
 290  471.5237
 291  576.0926
 292  622.798
 293  572.0784
 294  562.822
 295  537.9229
 296  574.2651
 297  543.3607
 298  485.8784
 299  505.2053
 300  570.7993
 301  439.5498
 302  499.7422
 303  493.8579
 304  500.4911
 305  627.0529
 306  578.0054
 307  594.5684
 308  653.9376
 309  640.1198
 310  549.0021
 311  474.348
 312  455.4313
 313  357.0944
 314  457.8848
 315  547.9022
 316  654.6907
 317  516.4427
 318  539.1465
 319  568.4338
 320  597.4456
 321  526.713
 322  509.825
 323  602.285
 324  585.5657
 325  534.1102
 326  569.3511
 327  551.0994
 328  549.8178
 329  520.7636
 330  544.4908
 331  497.7667
 332  517.0228
 333  502.1549
 334  608.2136
 335  619.8696
 336  653.1312
 337  646.9563
 338  652.2131
 339  633.6914
 340  654.7535
 341  645.812
 342  608.4615
 343  535.7789
 344  576.7742
 345  633.7418
 346  574.744
 347  621.3997
 348  649.9477
 349  718.9291
 350  615.9257
 351  557.2783
 352  531.0431
 353  605.6349
 354  669.5513
 355  610.7386
 356  591.228
 357  623.718
 358  556.7008
 359  615.2542
 360  560.2641
 361  527.1436
 362  608.6593
 363  718.0156
 364  755.3876
 365  781.8334
 366  736.8895
 367  621.8185
 368  617.3906
 369  649.08
 370  612.3421
 371  560.4231
 372  652.7845
 373  662.8472
 374  703.1188
 375  626.0865
 376  606.6075
 377  603.1725
 378  685.4063
 379  618.1135
 380  568.4869
 381  648.1145
 382  612.2709
 383  659.0082
 384  682.7801
 385  758.9327
 386  694.7423
 387  719.6944
 388  714.1593
 389  704.3799
 390  645.0037
 391  574.5753
 392  552.9453
 393  535.799
 394  527.1484
 395  651.2747
 396  657.4469
 397  669.0256
 398  607.2729
 399  665.1005
 400  680.7419
 401  641.3644
 402  599.8497
 403  555.567
 404  520.9759
 405  517.6121
 406  700.8791
 407  662.0491
 408  555.367
 409  455.3953
 410  535.8492
 411  595.8518
 412  558.147
 413  573.5807
 414  650.5872
 415  648.7249
 416  677.3954
 417  590.4342
 418  574.585
 419  560.2159
 420  621.043
 421  712.8293
 422  685.5691
 423  676.8555
 424  481.5781
 425  428.2381
 426  489.7717
 427  554.4008
 428  677.4973
 429  697.809
 430  673.9906
 431  662.9491
 432  558.8418
 433  549.2455
 434  544.8229
 435  582.6172
 436  559.0328
 437  681.7987
 438  641.0245
 439  668.3733
 440  624.5089
 441  597.8981
 442  502.4422
 443  568.4043
 444  700.9223
 445  588.9442
 446  595.116
 447  634.3435
 448  571.4882
 449  420.6016
 450  541.2223
 451  466.1046
 452  433.966
 453  488.5459
 454  585.3408
 455  607.082
 456  478.7564
 457  547.1514
 458  540.7571
 459  609.3327
 460  568.3849
 461  669.6715
 462  595.1975
 463  607.0813
 464  615.0779
 465  492.3564
 466  600.4235
 467  555.5894
 468  513.5655
 469  582.6204
 470  603.3246
 471  537.5713
 472  533.2962
 473  600.484
 474  564.5807
 475  577.9155
 476  655.8784
 477  525.5485
 478  495.9218
 479  537.7287
 480  663.9288
 481  586.7119
 482  573.9005
 483  554.6904
 484  552.1747
 485  543.549
 486  669.4739
 487  652.9888
 488  558.8264
 489  631.3668
 490  627.1581
 491  582.8453
 492  565.6099
 493  689.1136
 494  610.0287
 495  591.4202
 496  544.3107
 497  580.0563
 498  501.0078
 499  485.9923
 500  561.7558
 501  529.0046
 502  502.0628
 503  573.5151
 504  657.2324
 505  664.287
 506  589.8591
 507  505.4818
 508  706.9489
 509  845.3453
 510  917.017
 511  1086.332
