# Input file       =  1178943567.104165_cleaned.dat
# Candidate        =  PSR_0332+5434
# Telescope        =  AR
# Epoch_topo       =  57889.179966483389
# Epoch_bary       =  N/A
# T_sample         =  0.002
# Data Folded      =  7143424
# Data Avg         =  0.0331860533063389
# Data StdDev      =  1.00004500087045 
# Profile Bins     =  512
# Profile Avg      =  463.017935953306 
# Profile StdDev   =  118.123899920985 
# Reduced chi-sqr  =  1.023
# Prob(Noise)      <  0.351   (~0.4 sigma)
# P_topo (ms)      =  714.532119954647  +/- 0.000241
# P'_topo (s/s)    =  -0                +/- 1.31e-10
# P''_topo (s/s^2) =  0                 +/- 5.94e-14
# P_bary (ms)      =  N/A
# P'_bary (s/s)    =  N/A
# P''_bary (s/s^2) =  N/A
# P_orb (s)        =  N/A
# asin(i)/c (s)    =  N/A
# eccentricity     =  N/A
# w (rad)          =  N/A
# T_peri           =  N/A
######################################################
   0  755.2751
   1  865.2498
   2  787.1129
   3  638.2548
   4  564.37
   5  471.046
   6  453.1478
   7  400.39
   8  402.1711
   9  446.6769
  10  452.9317
  11  531.5809
  12  576.9244
  13  533.989
  14  457.5533
  15  424.8083
  16  340.0148
  17  327.5723
  18  358.2237
  19  410.092
  20  528.2858
  21  471.5294
  22  526.5572
  23  478.036
  24  422.3624
  25  399.457
  26  513.2632
  27  555.3879
  28  477.544
  29  501.0745
  30  428.2349
  31  404.9032
  32  534.85
  33  531.5196
  34  523.8789
  35  461.88
  36  474.2018
  37  475.2467
  38  398.8184
  39  536.9346
  40  561.0275
  41  518.1577
  42  428.5846
  43  513.8541
  44  362.7651
  45  371.659
  46  473.5781
  47  352.4825
  48  344.0628
  49  301.3563
  50  377.5586
  51  447.2178
  52  474.5473
  53  461.8728
  54  470.451
  55  438.4647
  56  411.592
  57  418.7646
  58  472.4252
  59  559.2999
  60  438.474
  61  449.8477
  62  585.7086
  63  590.6724
  64  422.2119
  65  366.7346
  66  469.6411
  67  420.0769
  68  401.4395
  69  315.8737
  70  350.7147
  71  479.1705
  72  633.3313
  73  561.2181
  74  275.4748
  75  357.5444
  76  355.7381
  77  357.1145
  78  438.2888
  79  521.0073
  80  623.4167
  81  527.4302
  82  335.0372
  83  222.6919
  84  316.7715
  85  363.0291
  86  434.437
  87  410.3484
  88  366.8372
  89  414.3854
  90  510.4746
  91  504.7022
  92  448.5735
  93  446.296
  94  455.6319
  95  512.989
  96  525.359
  97  493.0424
  98  585.2292
  99  535.0379
 100  608.54
 101  486.5928
 102  547.7863
 103  551.9422
 104  502.389
 105  428.0892
 106  479.2534
 107  508.0146
 108  574.7158
 109  488.8339
 110  419.792
 111  361.5287
 112  483.0896
 113  600.2057
 114  572.6816
 115  491.5111
 116  348.2006
 117  458.7949
 118  369.5143
 119  471.4298
 120  458.6346
 121  535.9
 122  488.9869
 123  394.1118
 124  441.3222
 125  519.4903
 126  536.0032
 127  507.7737
 128  462.7008
 129  374.1162
 130  438.8256
 131  472.0019
 132  458.4845
 133  402.6896
 134  459.441
 135  402.7054
 136  306.4092
 137  347.5143
 138  394.9254
 139  440.645
 140  537.4019
 141  462.6665
 142  493.9763
 143  553.0761
 144  406.6119
 145  452.726
 146  470.5452
 147  526.7621
 148  487.1652
 149  482.4721
 150  485.6718
 151  476.1001
 152  254.3726
 153  443.386
 154  437.4375
 155  375.9409
 156  407.752
 157  343.7343
 158  415.9067
 159  412.6736
 160  394.5611
 161  446.5135
 162  517.0552
 163  395.4585
 164  479.5456
 165  489.6063
 166  466.4304
 167  408.435
 168  260.4998
 169  339.8135
 170  318.49
 171  337.6001
 172  425.1904
 173  364.6373
 174  361.5263
 175  411.0715
 176  406.1913
 177  334.8976
 178  419.0441
 179  486.7981
 180  561.2947
 181  445.2556
 182  452.9022
 183  444.8293
 184  402.0165
 185  346.1147
 186  441.7345
 187  341.637
 188  457.7112
 189  510.2705
 190  480.418
 191  469.7009
 192  392.982
 193  402.766
 194  299.443
 195  237.036
 196  363.9986
 197  549.803
 198  556.99
 199  421.972
 200  534.6683
 201  506.9892
 202  546.1526
 203  511.2121
 204  469.4817
 205  483.469
 206  438.542
 207  450.1964
 208  528.2641
 209  504.409
 210  481.1711
 211  520.0214
 212  442.7679
 213  465.253
 214  636.9844
 215  597.8798
 216  469.2015
 217  302.4995
 218  403.1096
 219  566.2123
 220  427.3482
 221  395.6054
 222  387.0362
 223  344.8694
 224  373.1984
 225  422.1689
 226  352.0182
 227  423.3598
 228  536.1863
 229  543.2335
 230  584.4071
 231  426.7149
 232  492.3813
 233  475.4402
 234  441.8708
 235  534.3464
 236  674.72
 237  606.6121
 238  580.8535
 239  594.2869
 240  570.5153
 241  432.3549
 242  502.1993
 243  563.3484
 244  597.5573
 245  533.5576
 246  447.3781
 247  536.1658
 248  564.6426
 249  443.5992
 250  330.0218
 251  411.5143
 252  588.6606
 253  590.9997
 254  601.616
 255  522.1206
 256  589.7096
 257  505.9151
 258  393.3959
 259  473.6266
 260  516.8971
 261  438.6768
 262  364.1918
 263  377.3062
 264  443.5707
 265  401.1828
 266  429.2733
 267  516.5532
 268  469.9901
 269  532.9658
 270  490.8265
 271  476.7746
 272  549.5137
 273  404.0768
 274  481.518
 275  530.0472
 276  434.6677
 277  501.1069
 278  602.5248
 279  624.0024
 280  581.4719
 281  609.4308
 282  535.5121
 283  467.3253
 284  491.608
 285  435.0545
 286  565.5181
 287  638.8153
 288  538.9357
 289  496.6673
 290  494.9382
 291  469.3714
 292  396.7684
 293  430.7645
 294  557.1691
 295  584.743
 296  671.7918
 297  724.7407
 298  634.6386
 299  546.4716
 300  480.1533
 301  565.5021
 302  434.5246
 303  381.6971
 304  539.8302
 305  560.2202
 306  431.0023
 307  437.0266
 308  479.0808
 309  456.8845
 310  565.6925
 311  585.0031
 312  651.9893
 313  546.2818
 314  442.6789
 315  411.04
 316  439.8018
 317  480.2111
 318  428.3611
 319  487.9461
 320  495.8606
 321  437.7835
 322  466.4268
 323  470.6215
 324  342.3717
 325  327.7666
 326  461.3231
 327  451.3891
 328  530.0859
 329  414.7893
 330  487.6917
 331  511.1523
 332  405.7065
 333  533.8113
 334  613.6978
 335  612.7643
 336  546.5552
 337  505.3136
 338  459.0126
 339  503.9825
 340  643.6781
 341  584.307
 342  483.8307
 343  379.0662
 344  389.3116
 345  396.2987
 346  401.0536
 347  447.6386
 348  468.8565
 349  415.7076
 350  402.0272
 351  350.4161
 352  324.9949
 353  455.1772
 354  494.5106
 355  466.136
 356  409.5921
 357  451.0023
 358  460.8291
 359  422.1938
 360  620.6663
 361  635.1935
 362  584.1428
 363  483.1129
 364  466.8734
 365  508.8798
 366  498.913
 367  427.9566
 368  419.6904
 369  422.3497
 370  422.4227
 371  422.7604
 372  501.5856
 373  547.7316
 374  603.2474
 375  425.4088
 376  547.8232
 377  593.2467
 378  636.7446
 379  465.392
 380  426.0211
 381  353.8709
 382  488.9806
 383  528.4553
 384  511.0179
 385  511.2572
 386  473.0565
 387  437.0725
 388  475.1787
 389  429.1461
 390  389.7793
 391  399.3109
 392  390.3329
 393  498.5034
 394  492.2719
 395  466.1462
 396  311.262
 397  440.8835
 398  594.4069
 399  400.1977
 400  413.8473
 401  493.1926
 402  547.2877
 403  416.547
 404  427.1185
 405  409.9917
 406  392.7036
 407  392.1805
 408  458.4889
 409  492.3377
 410  473.032
 411  437.0377
 412  406.1004
 413  413.5338
 414  347.2209
 415  408.1432
 416  434.1623
 417  469.6658
 418  474.0358
 419  493.6257
 420  499.0581
 421  542.1042
 422  477.4067
 423  461.8311
 424  495.1069
 425  430.5962
 426  493.9908
 427  423.7948
 428  417.0356
 429  388.608
 430  395.2213
 431  438.4046
 432  546.1247
 433  508.109
 434  375.1667
 435  330.3452
 436  395.7462
 437  414.0133
 438  306.7496
 439  401.4146
 440  412.6305
 441  460.0775
 442  511.9874
 443  618.6635
 444  481.2623
 445  429.0907
 446  473.9027
 447  566.2709
 448  619.4557
 449  519.9426
 450  527.9084
 451  461.0676
 452  436.9655
 453  496.6159
 454  509.3268
 455  497.1526
 456  462.569
 457  464.1182
 458  651.1054
 459  552.9171
 460  542.3115
 461  424.8773
 462  352.4292
 463  403.5569
 464  412.1593
 465  491.1558
 466  422.4203
 467  353.8656
 468  389.1008
 469  381.5628
 470  308.2353
 471  307.7582
 472  345.4347
 473  382.5266
 474  348.6444
 475  434.1117
 476  503.507
 477  427.4239
 478  402.1241
 479  412.075
 480  377.3915
 481  440.2927
 482  306.55
 483  403.2423
 484  412.5927
 485  423.4735
 486  353.4742
 487  272.6957
 488  393.0001
 489  414.3085
 490  370.9209
 491  354.5972
 492  441.975
 493  440.4079
 494  369.0632
 495  345.2978
 496  392.2046
 497  404.5894
 498  398.7143
 499  319.9373
 500  370.1039
 501  364.7946
 502  312.4071
 503  315.6924
 504  361.4762
 505  373.8332
 506  387.3078
 507  436.8207
 508  521.9916
 509  611.2984
 510  660.1292
 511  775.5291
