# Input file       =  1179029680.096024_cleaned.dat
# Candidate        =  PSR_0332+5434
# Telescope        =  AR
# Epoch_topo       =  57890.176644629908
# Epoch_bary       =  N/A
# T_sample         =  0.002
# Data Folded      =  7208960
# Data Avg         =  0.0359044276610271
# Data StdDev      =  1.00002765926845 
# Profile Bins     =  512
# Profile Avg      =  505.614985012232 
# Profile StdDev   =  118.662457819528 
# Reduced chi-sqr  =  0.900
# Prob(Noise)      <  0.949   (~0.0 sigma)
# P_topo (ms)      =  714.531153164837  +/- 0.000114
# P'_topo (s/s)    =  -0                +/- 6.11e-11
# P''_topo (s/s^2) =  0                 +/- 2.75e-14
# P_bary (ms)      =  N/A
# P'_bary (s/s)    =  N/A
# P''_bary (s/s^2) =  N/A
# P_orb (s)        =  N/A
# asin(i)/c (s)    =  N/A
# eccentricity     =  N/A
# w (rad)          =  N/A
# T_peri           =  N/A
######################################################
   0  854.1958
   1  856.0818
   2  797.645
   3  661.5085
   4  639.9119
   5  564.0005
   6  562.2068
   7  491.3679
   8  516.877
   9  500.4414
  10  598.5063
  11  642.5599
  12  609.6663
  13  621.2009
  14  532.7838
  15  541.6578
  16  524.5585
  17  556.2617
  18  530.2311
  19  508.1341
  20  549.4842
  21  599.1176
  22  520.2261
  23  479.6905
  24  540.9954
  25  537.059
  26  423.0346
  27  449.1963
  28  522.8881
  29  598.2124
  30  645.6154
  31  579.6605
  32  540.559
  33  452.3165
  34  414.8549
  35  432.0892
  36  477.5641
  37  581.5153
  38  451.4929
  39  532.3031
  40  534.9278
  41  499.2246
  42  632.3335
  43  628.4297
  44  536.4783
  45  472.6281
  46  486.8717
  47  548.1848
  48  456.354
  49  521.6728
  50  588.8084
  51  625.6377
  52  507.1096
  53  579.3226
  54  561.5049
  55  475.9858
  56  526.063
  57  661.5983
  58  649.5768
  59  611.6214
  60  509.3245
  61  549.8648
  62  517.009
  63  506.8369
  64  558.9558
  65  544.8647
  66  518.7647
  67  507.7417
  68  584.0228
  69  558.0759
  70  529.565
  71  380.0796
  72  329.7588
  73  448.6444
  74  397.1503
  75  468.2266
  76  446.1353
  77  572.9633
  78  666.6273
  79  531.4388
  80  434.9507
  81  378.5726
  82  458.139
  83  553.2564
  84  403.9486
  85  484.3516
  86  481.4542
  87  545.3648
  88  500.0479
  89  485.6078
  90  513.3119
  91  560.6653
  92  566.1199
  93  542.41
  94  518.1883
  95  454.7393
  96  512.2113
  97  564.7134
  98  465.1922
  99  446.8326
 100  423.8528
 101  468.3202
 102  627.1188
 103  551.5876
 104  493.279
 105  426.8801
 106  539.922
 107  557.5125
 108  551.5045
 109  478.2664
 110  449.3563
 111  408.6006
 112  463.198
 113  546.3695
 114  499.9277
 115  472.6273
 116  447.6039
 117  382.5102
 118  336.0259
 119  521.4843
 120  526.0134
 121  396.2109
 122  326.1632
 123  452.9507
 124  490.8379
 125  518.6071
 126  611.8495
 127  619.2109
 128  484.5571
 129  481.8715
 130  486.311
 131  465.6494
 132  480.4306
 133  552.381
 134  527.9541
 135  478.9627
 136  562.0013
 137  460.5115
 138  415.7631
 139  458.3197
 140  614.3582
 141  622.6038
 142  495.9934
 143  626.0446
 144  583.7095
 145  427.0397
 146  450.4689
 147  435.0133
 148  549.866
 149  602.1517
 150  617.4103
 151  637.0509
 152  566.7334
 153  478.9637
 154  466.5141
 155  467.3542
 156  608.8221
 157  573.6531
 158  452.4184
 159  522.5198
 160  483.5104
 161  546.8436
 162  543.3511
 163  495.6667
 164  421.6387
 165  488.8677
 166  471.2119
 167  495.7336
 168  384.6565
 169  382.8904
 170  474.5872
 171  451.4706
 172  459.4879
 173  335.5239
 174  496.4199
 175  486.2299
 176  504.9082
 177  519.5724
 178  435.1193
 179  461.9445
 180  445.4636
 181  470.4958
 182  447.4515
 183  444.4641
 184  529.1378
 185  609.0169
 186  510.2259
 187  487.4639
 188  449.0929
 189  545.6947
 190  565.7584
 191  435.788
 192  480.7639
 193  544.9988
 194  555.9465
 195  487.8312
 196  449.714
 197  509.1026
 198  552.971
 199  431.5499
 200  387.8923
 201  505.4248
 202  508.1502
 203  417.4732
 204  368.2414
 205  450.9749
 206  396.8938
 207  483.6504
 208  511.2153
 209  532.1077
 210  541.1436
 211  554.2648
 212  489.0519
 213  575.9389
 214  521.0378
 215  510.8109
 216  535.8385
 217  462.0192
 218  544.8412
 219  617.8784
 220  542.8161
 221  480.9969
 222  584.1876
 223  577.8456
 224  523.4326
 225  507.2088
 226  552.7863
 227  643.3774
 228  526.0571
 229  438.6696
 230  401.8279
 231  363.265
 232  496.1245
 233  502.8926
 234  549.2578
 235  478.1521
 236  457.0427
 237  377.9684
 238  280.9453
 239  364.2583
 240  534.96
 241  612.1713
 242  506.7888
 243  490.9213
 244  405.3405
 245  405.8146
 246  629.6689
 247  676.4139
 248  589.4405
 249  516.1042
 250  558.8999
 251  551.8363
 252  556.3088
 253  535.8862
 254  374.476
 255  449.7712
 256  481.7408
 257  488.4987
 258  478.5492
 259  482.2943
 260  506.7476
 261  445.7849
 262  341.8863
 263  448.2662
 264  461.1489
 265  389.0699
 266  405.9707
 267  486.8337
 268  496.9292
 269  526.2977
 270  514.9092
 271  501.6029
 272  467.2169
 273  450.1911
 274  568.9918
 275  571.8824
 276  498.2203
 277  485.0103
 278  565.423
 279  598.9283
 280  528.0217
 281  463.9148
 282  482.0076
 283  537.6155
 284  534.117
 285  542.4405
 286  425.1032
 287  383.114
 288  458.1269
 289  573.0108
 290  566.707
 291  505.4587
 292  563.3005
 293  643.8426
 294  618.2827
 295  522.6512
 296  405.595
 297  361.9211
 298  403.2554
 299  493.5401
 300  479.6221
 301  507.5328
 302  515.6913
 303  506.8878
 304  485.6868
 305  457.7451
 306  458.011
 307  413.8967
 308  450.6764
 309  478.2981
 310  447.0475
 311  469.9956
 312  599.345
 313  545.0949
 314  412.2815
 315  465.3297
 316  387.9081
 317  486.7306
 318  472.8631
 319  394.9809
 320  419.8699
 321  433.725
 322  600.3181
 323  649.9372
 324  517.3604
 325  509.8777
 326  580.0577
 327  407.046
 328  329.3008
 329  360.1452
 330  598.2573
 331  498.4809
 332  453.1902
 333  483.8983
 334  429.0923
 335  381.3622
 336  400.784
 337  461.1778
 338  528.6629
 339  501.4528
 340  523.3844
 341  581.8467
 342  569.0563
 343  430.5912
 344  425.7117
 345  443.0883
 346  341.2384
 347  496.1774
 348  564.9058
 349  575.593
 350  505.6047
 351  529.0119
 352  456.1551
 353  406.9626
 354  451.6504
 355  500.8027
 356  523.4279
 357  589.3416
 358  573.7797
 359  567.993
 360  490.282
 361  415.8949
 362  465.0312
 363  375.414
 364  405.1601
 365  537.9919
 366  568.3168
 367  551.9594
 368  675.1529
 369  585.4065
 370  453.5559
 371  459.691
 372  499.0702
 373  559.2628
 374  438.9753
 375  530.7557
 376  473.003
 377  451.3349
 378  428.7445
 379  468.7192
 380  488.3941
 381  486.195
 382  471.3557
 383  403.6353
 384  501.4606
 385  527.1566
 386  493.636
 387  561.4708
 388  528.1946
 389  473.7769
 390  469.7093
 391  596.5423
 392  548.3917
 393  481.9007
 394  303.5905
 395  419.6909
 396  495.7442
 397  440.0825
 398  427.7163
 399  430.2332
 400  479.8179
 401  517.1479
 402  534.6036
 403  463.151
 404  482.3189
 405  447.994
 406  440.4976
 407  581.3073
 408  479.8335
 409  464.2009
 410  401.5897
 411  426.6629
 412  518.3459
 413  494.1752
 414  463.0175
 415  375.222
 416  392.4818
 417  454.2587
 418  433.9857
 419  485.8825
 420  584.4987
 421  484.2342
 422  492.3035
 423  545.6256
 424  497.4628
 425  442.8741
 426  531.3058
 427  502.115
 428  356.0899
 429  402.7838
 430  449.2466
 431  490.7344
 432  515.1606
 433  526.1293
 434  532.4132
 435  496.9825
 436  467.1157
 437  552.1306
 438  539.1741
 439  445.3336
 440  633.8304
 441  681.6486
 442  674.1224
 443  502.2601
 444  355.8061
 445  423.8714
 446  391.9742
 447  434.1212
 448  440.5253
 449  615.3611
 450  596.5602
 451  410.442
 452  396.5889
 453  463.6794
 454  533.6357
 455  611.1412
 456  493.7719
 457  399.0705
 458  550.6378
 459  653.59
 460  591.4506
 461  733.2543
 462  628.2762
 463  464.6365
 464  472.3441
 465  460.2957
 466  436.5508
 467  500.1346
 468  539.8748
 469  435.4059
 470  534.3426
 471  495.6017
 472  465.4296
 473  406.8388
 474  479.0908
 475  538.8751
 476  475.6881
 477  476.822
 478  546.1615
 479  599.5806
 480  464.2986
 481  429.5515
 482  438.1337
 483  477.6043
 484  464.1522
 485  508.3228
 486  431.0475
 487  445.3033
 488  520.0499
 489  402.9157
 490  565.8574
 491  630.6655
 492  397.6263
 493  378.3857
 494  507.5872
 495  628.5621
 496  520.6839
 497  517.0815
 498  536.454
 499  597.0027
 500  640.0199
 501  576.1549
 502  544.8423
 503  476.5983
 504  657.0989
 505  701.4083
 506  723.5512
 507  660.3336
 508  712.7689
 509  829.1503
 510  806.0698
 511  828.4684
