# Input file       =  1179632897.101483_cleaned.dat
# Candidate        =  PSR_0332+5434
# Telescope        =  AR
# Epoch_topo       =  57897.158322933836
# Epoch_bary       =  N/A
# T_sample         =  0.002
# Data Folded      =  7208960
# Data Avg         =  0.0374738135572243
# Data StdDev      =  1.00005638937042 
# Profile Bins     =  512
# Profile Avg      =  527.642706256213 
# Profile StdDev   =  118.665866909748 
# Reduced chi-sqr  =  1.075
# Prob(Noise)      <  0.118   (~1.2 sigma)
# P_topo (ms)      =  714.524300835245  +/- 0.000562
# P'_topo (s/s)    =  -0                +/- 3.02e-10
# P''_topo (s/s^2) =  0                 +/- 1.36e-13
# P_bary (ms)      =  N/A
# P'_bary (s/s)    =  N/A
# P''_bary (s/s^2) =  N/A
# P_orb (s)        =  N/A
# asin(i)/c (s)    =  N/A
# eccentricity     =  N/A
# w (rad)          =  N/A
# T_peri           =  N/A
######################################################
   0  1004.904
   1  1012.14
   2  913.4844
   3  775.2375
   4  627.1788
   5  551.4169
   6  627.6996
   7  558.7709
   8  600.3126
   9  629.4823
  10  543.8323
  11  664.7596
  12  687.1946
  13  634.0902
  14  600.8148
  15  618.0881
  16  679.2669
  17  667.3972
  18  636.6701
  19  594.3881
  20  447.859
  21  517.8821
  22  612.8339
  23  518.8875
  24  532.9985
  25  566.4663
  26  541.5845
  27  456.3806
  28  464.932
  29  579.6766
  30  546.9776
  31  508.0333
  32  540.0395
  33  582.3015
  34  512.5184
  35  593.9916
  36  634.1508
  37  554.0132
  38  583.2395
  39  558.9358
  40  522.6118
  41  431.7684
  42  484.5447
  43  452.3299
  44  438.1524
  45  405.2847
  46  380.432
  47  466.0109
  48  533.8669
  49  453.2486
  50  447.6264
  51  465.7928
  52  453.6737
  53  497.7107
  54  409.6544
  55  493.3531
  56  548.0699
  57  695.4567
  58  655.214
  59  507.3975
  60  467.8701
  61  599.9048
  62  546.0826
  63  499.5792
  64  436.5359
  65  476.228
  66  492.7448
  67  481.5743
  68  558.6382
  69  559.8087
  70  457.2075
  71  482.4188
  72  563.4041
  73  425.9278
  74  420.6319
  75  526.0658
  76  479.2141
  77  538.9615
  78  643.7302
  79  566.3202
  80  515.0984
  81  570.515
  82  508.5934
  83  519.594
  84  516.3406
  85  543.7729
  86  534.7208
  87  553.6943
  88  427.7928
  89  448.9179
  90  396.454
  91  403.8051
  92  499.518
  93  589.7349
  94  513.9323
  95  422.2379
  96  472.1361
  97  468.498
  98  539.8594
  99  527.7214
 100  455.0739
 101  382.5281
 102  498.171
 103  530.5244
 104  549.9524
 105  610.1708
 106  561.2266
 107  528.5673
 108  536.7479
 109  494.3399
 110  478.4782
 111  421.1747
 112  426.5564
 113  558.0005
 114  490.8483
 115  515.1967
 116  532.0395
 117  561.0665
 118  574.5917
 119  550.779
 120  576.7331
 121  469.5727
 122  398.6921
 123  448.3976
 124  506.8222
 125  506.5992
 126  437.335
 127  573.8698
 128  526.9044
 129  572.4971
 130  535.9209
 131  614.8683
 132  542.2779
 133  443.7414
 134  415.7092
 135  374.845
 136  467.1324
 137  461.7845
 138  535.137
 139  502.7926
 140  412.6145
 141  402.7864
 142  417.3579
 143  455.1404
 144  468.1546
 145  447.0124
 146  437.4079
 147  274.9626
 148  401.6395
 149  426.977
 150  388.2895
 151  456.9398
 152  423.7625
 153  411.4676
 154  510.5562
 155  515.0918
 156  439.2159
 157  465.9895
 158  583.7083
 159  616.8618
 160  475.3981
 161  465.4101
 162  463.2809
 163  387.3796
 164  428.2082
 165  546.9292
 166  636.3631
 167  630.6122
 168  571.9607
 169  495.707
 170  436.1516
 171  443.3059
 172  506.031
 173  471.7316
 174  501.0625
 175  662.9272
 176  578.458
 177  518.1533
 178  481.9881
 179  528.6995
 180  510.7731
 181  473.7763
 182  531.591
 183  480.8549
 184  535.5676
 185  495.4228
 186  539.2419
 187  515.4363
 188  501.5706
 189  554.9713
 190  507.067
 191  402.3544
 192  420.6524
 193  378.621
 194  450.2865
 195  409.2496
 196  458.9615
 197  504.587
 198  457.2325
 199  530.8106
 200  451.2774
 201  484.0664
 202  436.5307
 203  444.7812
 204  436.6269
 205  523.8683
 206  538.4758
 207  488.0777
 208  578.241
 209  578.2053
 210  506.3531
 211  577.6071
 212  612.4598
 213  557.6526
 214  533.762
 215  606.5265
 216  596.7954
 217  575.8413
 218  594.067
 219  750.0265
 220  654.7469
 221  556.1478
 222  552.7157
 223  517.3891
 224  619.1757
 225  516.2654
 226  563.8555
 227  694.4418
 228  771.9064
 229  674.5349
 230  615.8066
 231  622.7237
 232  586.7014
 233  654.788
 234  632.0848
 235  615.1814
 236  638.6658
 237  581.7292
 238  605.0378
 239  603.1386
 240  538.5916
 241  505.9462
 242  540.2615
 243  597.1176
 244  582.3094
 245  552.7285
 246  518.6826
 247  489.4054
 248  519.7302
 249  575.8388
 250  595.7124
 251  531.7664
 252  670.4301
 253  618.6006
 254  530.6483
 255  602.2807
 256  575.0829
 257  520.9517
 258  510.1962
 259  590.485
 260  548.4932
 261  534.6994
 262  636.0364
 263  511.2151
 264  454.1628
 265  520.3314
 266  512.9168
 267  582.9564
 268  660.1669
 269  612.0521
 270  633.7657
 271  606.4252
 272  534.8204
 273  456.7571
 274  557.1439
 275  663.7603
 276  617.7516
 277  555.0916
 278  567.4595
 279  563.1746
 280  603.9297
 281  492.8792
 282  485.0594
 283  594.4186
 284  571.7922
 285  494.0067
 286  561.3085
 287  611.7371
 288  425.3167
 289  443.092
 290  485.7794
 291  492.5751
 292  497.0602
 293  493.5422
 294  527.7124
 295  678.3664
 296  658.6797
 297  528.5486
 298  554.3931
 299  544.5881
 300  514.9692
 301  485.3954
 302  591.8611
 303  465.2281
 304  504.4117
 305  479.7452
 306  503.6293
 307  459.9798
 308  520.9622
 309  523.8303
 310  286.3492
 311  303.6151
 312  420.6942
 313  391.7574
 314  422.259
 315  363.5564
 316  546.9393
 317  504.0208
 318  424.1216
 319  462.2473
 320  505.7807
 321  371.946
 322  381.6269
 323  517.9929
 324  519.8092
 325  546.1062
 326  468.0423
 327  383.7987
 328  449.8636
 329  494.2545
 330  445.7886
 331  341.6472
 332  426.0315
 333  504.5651
 334  560.9381
 335  464.3464
 336  467.3277
 337  593.256
 338  582.1132
 339  532.0179
 340  448.3573
 341  521.4724
 342  485.565
 343  402.9403
 344  538.417
 345  557.5901
 346  557.7606
 347  454.0424
 348  512.8387
 349  594.8163
 350  509.1284
 351  587.2884
 352  485.506
 353  475.0224
 354  544.4869
 355  564.9355
 356  555.7758
 357  561.5809
 358  652.0115
 359  687.9708
 360  459.2934
 361  538.845
 362  557.7532
 363  638.5308
 364  571.3098
 365  666.8264
 366  762.86
 367  578.2618
 368  495.9334
 369  506.9656
 370  489.4131
 371  515.331
 372  450.7138
 373  469.3799
 374  479.9728
 375  398.09
 376  440.7202
 377  507.1124
 378  566.1197
 379  567.6302
 380  468.6569
 381  367.6966
 382  461.2796
 383  624.6169
 384  566.1971
 385  398.1544
 386  448.135
 387  489.0672
 388  466.4016
 389  470.2402
 390  565.5726
 391  439.3595
 392  409.8789
 393  502.8058
 394  498.4204
 395  431.1796
 396  469.7764
 397  479.1016
 398  532.5909
 399  450.7505
 400  528.8092
 401  553.8668
 402  438.7706
 403  370.5705
 404  445.3273
 405  420.7807
 406  453.7381
 407  656.7966
 408  725.7241
 409  533.986
 410  511.1627
 411  601.543
 412  480.7827
 413  476.415
 414  578.6936
 415  614.0745
 416  529.4114
 417  436.0395
 418  451.4843
 419  553.9502
 420  513.1245
 421  519.5958
 422  546.7125
 423  543.3285
 424  520.2403
 425  553.3138
 426  435.4416
 427  371.9199
 428  428.0744
 429  480.2533
 430  531.3886
 431  509.8493
 432  562.2183
 433  522.1168
 434  521.7728
 435  464.0655
 436  513.114
 437  455.0473
 438  410.2099
 439  492.2597
 440  530.122
 441  484.2709
 442  471.4431
 443  487.3388
 444  491.0504
 445  578.5051
 446  575.0333
 447  452.8907
 448  578.7465
 449  620.8235
 450  550.7186
 451  442.2124
 452  574.6679
 453  527.6206
 454  518.5648
 455  627.8209
 456  519.1131
 457  517.4662
 458  624.9818
 459  715.8332
 460  739.1744
 461  639.646
 462  721.5222
 463  587.5403
 464  660.3281
 465  536.332
 466  404.1799
 467  524.4965
 468  525.4331
 469  552.5671
 470  527.0213
 471  567.8516
 472  551.373
 473  462.6165
 474  539.1353
 475  556.9001
 476  545.1348
 477  585.9819
 478  621.3474
 479  561.3533
 480  573.6862
 481  658.6859
 482  651.491
 483  664.575
 484  701.3004
 485  720.9993
 486  640.2275
 487  475.0689
 488  495.8542
 489  473.0053
 490  469.5927
 491  473.2525
 492  417.3628
 493  537.6108
 494  465.8452
 495  414.9361
 496  434.6273
 497  403.7118
 498  516.4214
 499  477.5637
 500  528.6441
 501  436.6126
 502  491.1106
 503  480.8118
 504  504.1465
 505  577.8917
 506  682.9077
 507  711.6445
 508  607.9983
 509  680.0169
 510  843.9803
 511  934.8598
