# Input file       =  1179115899.100237_cleaned.dat
# Candidate        =  PSR_0332+5434
# Telescope        =  AR
# Epoch_topo       =  57891.174549771262
# Epoch_bary       =  N/A
# T_sample         =  0.002
# Data Folded      =  7208960
# Data Avg         =  0.0403065524261753
# Data StdDev      =  1.00003524269306 
# Profile Bins     =  512
# Profile Avg      =  567.506146809838 
# Profile StdDev   =  118.663357662442 
# Reduced chi-sqr  =  1.649
# Prob(Noise)      <  1.21e-18   (~8.7 sigma)
# P_topo (ms)      =  714.530181015296  +/- 4.12e-05
# P'_topo (s/s)    =  -0                +/- 2.22e-11
# P''_topo (s/s^2) =  0                 +/- 9.96e-15
# P_bary (ms)      =  N/A
# P'_bary (s/s)    =  N/A
# P''_bary (s/s^2) =  N/A
# P_orb (s)        =  N/A
# asin(i)/c (s)    =  N/A
# eccentricity     =  N/A
# w (rad)          =  N/A
# T_peri           =  N/A
######################################################
   0  1222.521
   1  1070.811
   2  890.8835
   3  774.7961
   4  608.0474
   5  621.3734
   6  547.1622
   7  616.1825
   8  635.184
   9  627.3083
  10  621.6166
  11  612.1919
  12  593.11
  13  502.9118
  14  477.3922
  15  664.3901
  16  693.4512
  17  699.1773
  18  652.9034
  19  615.4856
  20  530.7103
  21  579.1685
  22  561.1566
  23  675.1481
  24  641.219
  25  561.0066
  26  632.3474
  27  679.5703
  28  681.7182
  29  620.092
  30  530.0449
  31  640.3959
  32  606.4465
  33  691.0252
  34  613.674
  35  484.4169
  36  490.7274
  37  553.4677
  38  625.3232
  39  677.5679
  40  584.1985
  41  645.712
  42  637.9635
  43  572.1985
  44  507.8376
  45  558.8259
  46  597.2889
  47  737.0597
  48  695.3963
  49  679.5872
  50  662.059
  51  504.7457
  52  422.594
  53  493.0287
  54  559.3711
  55  556.6937
  56  613.1071
  57  558.466
  58  633.2344
  59  559.3974
  60  610.4146
  61  511.9537
  62  546.3198
  63  540.3594
  64  465.3414
  65  607.4225
  66  535.4911
  67  447.3037
  68  348.4031
  69  464.794
  70  376.5722
  71  239.3788
  72  248.9828
  73  383.8058
  74  454.2601
  75  554.9146
  76  543.1849
  77  472.8535
  78  428.0849
  79  461.2378
  80  493.0767
  81  648.9268
  82  612.7454
  83  529.1105
  84  521.6241
  85  460.8508
  86  397.9277
  87  387.0433
  88  523.5931
  89  591.8989
  90  590.1353
  91  571.7656
  92  392.5094
  93  418.3434
  94  451.5832
  95  451.0841
  96  372.4708
  97  508.6152
  98  748.9255
  99  650.9634
 100  665.512
 101  600.9104
 102  570.365
 103  528.3343
 104  533.8425
 105  625.306
 106  668.5229
 107  751.6738
 108  829.9374
 109  683.5059
 110  618.2619
 111  546.9905
 112  564.8276
 113  512.4185
 114  576.6991
 115  711.851
 116  705.8423
 117  515.4664
 118  500.1535
 119  627.602
 120  605.9468
 121  516.3232
 122  695.8446
 123  725.887
 124  669.1549
 125  711.7682
 126  637.6199
 127  439.2298
 128  564.3732
 129  634.7891
 130  523.7369
 131  580.1854
 132  699.3201
 133  751.3458
 134  658.1324
 135  646.8872
 136  513.3123
 137  442.919
 138  574.463
 139  661.7547
 140  644.8335
 141  604.2424
 142  555.1926
 143  611.4025
 144  510.4902
 145  589.8058
 146  508.7964
 147  599.6535
 148  635.7383
 149  545.3542
 150  451.5761
 151  495.8203
 152  488.878
 153  415.1843
 154  449.4548
 155  557.1891
 156  686.1385
 157  693.796
 158  556.818
 159  540.9491
 160  616.7799
 161  597.8838
 162  657.1946
 163  777.5007
 164  730.838
 165  602.4538
 166  581.2952
 167  484.7277
 168  475.1548
 169  513.6174
 170  505.7357
 171  480.78
 172  634.2512
 173  754.2968
 174  662.3273
 175  518.3254
 176  529.2801
 177  609.7354
 178  508.5787
 179  551.6053
 180  634.8359
 181  667.8141
 182  688.7435
 183  670.5797
 184  624.8607
 185  566.0903
 186  684.2635
 187  634.5735
 188  627.7804
 189  615.2133
 190  660.4891
 191  756.7835
 192  639.3893
 193  560.8435
 194  526.5435
 195  554.0264
 196  556.0621
 197  624.7899
 198  644.5869
 199  584.0801
 200  577.4935
 201  518.0009
 202  496.1681
 203  505.7996
 204  530.249
 205  591.7128
 206  715.4881
 207  738.5499
 208  651.7111
 209  663.8536
 210  618.6744
 211  648.3687
 212  694.6098
 213  694.0233
 214  666.3192
 215  687.9277
 216  749.8036
 217  656.0046
 218  548.3715
 219  525.521
 220  448.3352
 221  508.6508
 222  659.0806
 223  528.6589
 224  576.101
 225  607.7686
 226  543.9857
 227  409.6155
 228  383.4935
 229  466.3039
 230  586.8928
 231  540.7614
 232  442.0428
 233  502.9961
 234  501.1314
 235  557.2958
 236  533.2968
 237  503.5807
 238  620.358
 239  607.1946
 240  545.9154
 241  491.8521
 242  474.3123
 243  567.7755
 244  596.6652
 245  523.2772
 246  519.5024
 247  592.8007
 248  708.3788
 249  610.4491
 250  491.9305
 251  441.9547
 252  508.2879
 253  542.4957
 254  552.0534
 255  544.7026
 256  573.23
 257  638.0801
 258  610.3428
 259  579.8768
 260  564.4965
 261  515.7837
 262  581.706
 263  601.7568
 264  667.2737
 265  522.379
 266  468.0663
 267  448.0926
 268  470.2118
 269  432.8282
 270  407.8048
 271  621.9966
 272  696.6514
 273  525.0442
 274  427.1521
 275  476.3215
 276  493.2491
 277  455.8111
 278  458.4221
 279  476.9381
 280  542.6661
 281  574.4528
 282  524.4283
 283  329.706
 284  292.1344
 285  240.1347
 286  266.123
 287  329.7748
 288  417.5483
 289  593.3392
 290  561.1589
 291  487.5965
 292  458.4704
 293  352.8347
 294  292.3628
 295  505.5463
 296  581.2337
 297  473.0082
 298  533.6356
 299  444.7744
 300  362.7579
 301  360.9261
 302  470.6237
 303  430.2566
 304  496.6516
 305  613.3103
 306  625.5607
 307  537.5969
 308  489.9337
 309  469.2201
 310  390.9667
 311  460.1454
 312  502.5306
 313  555.4982
 314  634.7596
 315  490.8914
 316  403.2849
 317  477.9697
 318  535.834
 319  445.9639
 320  411.3546
 321  457.4057
 322  465.0551
 323  483.3033
 324  516.3808
 325  540.4861
 326  593.9797
 327  556.1164
 328  419.1372
 329  413.1097
 330  446.4845
 331  567.9934
 332  500.8119
 333  444.4121
 334  334.3494
 335  348.1429
 336  419.1363
 337  466.749
 338  456.759
 339  508.0894
 340  543.6093
 341  548.6653
 342  474.2199
 343  416.9694
 344  408.9453
 345  518.4401
 346  555.8871
 347  664.3644
 348  575.6268
 349  460.0736
 350  358.9627
 351  434.8685
 352  498.2546
 353  433.8581
 354  514.8112
 355  449.9004
 356  515.6024
 357  489.2714
 358  516.8083
 359  497.4124
 360  552.6186
 361  599.7852
 362  554.4319
 363  699.4517
 364  599.1897
 365  534.5119
 366  457.9367
 367  417.5372
 368  400.4553
 369  416.1347
 370  625.2126
 371  603.0883
 372  605.2859
 373  534.9417
 374  517.5128
 375  536.0092
 376  527.7086
 377  575.1258
 378  548.5109
 379  600.0594
 380  634.2077
 381  502.8919
 382  441.2661
 383  431.9015
 384  434.248
 385  545.4922
 386  570.1915
 387  570.3076
 388  545.6005
 389  630.8
 390  556.3674
 391  552.9647
 392  605.3951
 393  571.7333
 394  575.7442
 395  529.944
 396  570.4743
 397  545.7862
 398  502.3596
 399  577.8643
 400  570.5683
 401  624.5222
 402  587.0926
 403  572.5299
 404  592.4293
 405  610.2672
 406  584.4759
 407  626.3727
 408  608.8478
 409  630.0565
 410  692.4761
 411  630.2968
 412  719.5712
 413  737.2334
 414  688.812
 415  615.5733
 416  668.8189
 417  706.5287
 418  690.3116
 419  722.8388
 420  690.7341
 421  669.4706
 422  686.7742
 423  693.7006
 424  713.0799
 425  668.4635
 426  659.9944
 427  610.2638
 428  704.4943
 429  696.957
 430  663.6952
 431  638.4383
 432  631.4117
 433  623.8923
 434  520.8472
 435  538.3872
 436  516.3501
 437  556.7446
 438  763.6359
 439  618.1588
 440  529.2822
 441  572.635
 442  478.5582
 443  419.6016
 444  522.8901
 445  608.4249
 446  658.3091
 447  637.5438
 448  610.0893
 449  567.599
 450  501.1037
 451  568.9746
 452  542.3241
 453  691.8582
 454  764.1921
 455  772.5194
 456  741.1016
 457  619.9796
 458  574.4113
 459  450.6699
 460  467.0933
 461  612.0459
 462  691.8848
 463  718.132
 464  608.5061
 465  399.6844
 466  355.5197
 467  359.9227
 468  497.8743
 469  545.501
 470  578.7354
 471  654.8334
 472  560.4533
 473  583.5575
 474  563.3904
 475  473.2206
 476  486.7573
 477  636.1436
 478  629.8551
 479  569.3123
 480  530.1959
 481  525.1339
 482  485.1454
 483  462.3363
 484  479.9344
 485  614.0669
 486  697.7389
 487  775.0634
 488  683.7175
 489  613.1297
 490  658.4184
 491  575.1531
 492  582.2958
 493  604.7945
 494  630.1733
 495  627.7841
 496  640.5928
 497  754.2979
 498  505.1535
 499  419.9175
 500  528.9825
 501  641.1345
 502  729.8666
 503  696.056
 504  754.4096
 505  759.7377
 506  601.8958
 507  656.8444
 508  713.0234
 509  797.5048
 510  947.9199
 511  1074.387
