# Input file       =  1180336856.118337_cleaned.dat
# Candidate        =  PSR_0332+5434
# Telescope        =  AR
# Epoch_topo       =  57905.305996740011
# Epoch_bary       =  N/A
# T_sample         =  0.002
# Data Folded      =  7340032
# Data Avg         =  0.0352132276080239
# Data StdDev      =  1.00005499282178 
# Profile Bins     =  512
# Profile Avg      =  504.828740436617 
# Profile StdDev   =  119.739620834297 
# Reduced chi-sqr  =  1.366
# Prob(Noise)      <  6.52e-08   (~5.3 sigma)
# P_topo (ms)      =  714.516282668863  +/- 0.000249
# P'_topo (s/s)    =  -0                +/- 1.31e-10
# P''_topo (s/s^2) =  0                 +/- 5.8e-14
# P_bary (ms)      =  N/A
# P'_bary (s/s)    =  N/A
# P''_bary (s/s^2) =  N/A
# P_orb (s)        =  N/A
# asin(i)/c (s)    =  N/A
# eccentricity     =  N/A
# w (rad)          =  N/A
# T_peri           =  N/A
######################################################
   0  1021.427
   1  1039.192
   2  1026.787
   3  999.5699
   4  690.3384
   5  565.0061
   6  514.2191
   7  474.6871
   8  549.6549
   9  473.6328
  10  517.2987
  11  563.7307
  12  492.6394
  13  566.4639
  14  607.8137
  15  601.3773
  16  414.6567
  17  446.9284
  18  476.8113
  19  404.3691
  20  472.8501
  21  532.2784
  22  530.6925
  23  511.9437
  24  491.9523
  25  435.4863
  26  375.21
  27  394.1654
  28  520.2593
  29  458.316
  30  476.7045
  31  445.219
  32  443.4063
  33  437.3265
  34  490.2213
  35  524.7018
  36  543.1455
  37  609.4915
  38  566.8452
  39  621.7214
  40  481.6699
  41  451.4603
  42  536.6979
  43  610.0798
  44  510.1888
  45  498.6278
  46  504.9306
  47  528.5421
  48  547.6715
  49  476.6856
  50  460.4803
  51  584.1007
  52  530.9634
  53  533.194
  54  513.6426
  55  476.9708
  56  482.5487
  57  494.8103
  58  435.6021
  59  393.9431
  60  457.1721
  61  434.3806
  62  534.7856
  63  523.1403
  64  521.5336
  65  558.8738
  66  533.9651
  67  611.0907
  68  535.2988
  69  286.5179
  70  383.3726
  71  525.4994
  72  555.8408
  73  605.171
  74  626.1259
  75  496.2072
  76  496.9906
  77  543.1644
  78  642.5653
  79  728.6014
  80  669.9808
  81  517.4835
  82  541.8904
  83  516.2917
  84  590.408
  85  614.4073
  86  519.8274
  87  580.9711
  88  579.2543
  89  646.1422
  90  564.7136
  91  372.1078
  92  381.3873
  93  479.2222
  94  548.8251
  95  468.065
  96  428.2541
  97  391.7937
  98  467.347
  99  539.7966
 100  584.4402
 101  557.6235
 102  599.2766
 103  579.7263
 104  582.3409
 105  634.2538
 106  546.7693
 107  527.8687
 108  515.1078
 109  569.7504
 110  533.1148
 111  687.8372
 112  661.0446
 113  558.2208
 114  575.8932
 115  568.0625
 116  592.1329
 117  559.8698
 118  576.3123
 119  582.6646
 120  473.0089
 121  550.6974
 122  440.9429
 123  569.6242
 124  662.7259
 125  531.1315
 126  513.8165
 127  552.3109
 128  458.3305
 129  381.1013
 130  462.0733
 131  435.9631
 132  468.6638
 133  517.7184
 134  477.5791
 135  513.2437
 136  402.9695
 137  525.3878
 138  553.115
 139  476.8463
 140  478.073
 141  468.3514
 142  333.3968
 143  347.214
 144  454.2534
 145  588.4503
 146  522.0845
 147  354.0484
 148  332.9876
 149  361.5837
 150  353.4715
 151  247.6427
 152  386.8456
 153  428.7791
 154  426.056
 155  308.6409
 156  312.3415
 157  354.3195
 158  317.5499
 159  397.6996
 160  518.8038
 161  509.1624
 162  501.0302
 163  416.0461
 164  396.5316
 165  472.8023
 166  414.4406
 167  433.0565
 168  470.5502
 169  461.2949
 170  533.5042
 171  486.4465
 172  440.7689
 173  403.0391
 174  466.5533
 175  441.3385
 176  494.8539
 177  497.7002
 178  499.6757
 179  467.071
 180  578.6923
 181  600.7391
 182  657.1545
 183  508.7309
 184  438.3377
 185  479.1651
 186  500.6846
 187  486.9354
 188  517.4303
 189  527.0687
 190  426.1001
 191  353.7531
 192  249.4529
 193  318.6535
 194  379.156
 195  345.9474
 196  336.7708
 197  368.4914
 198  316.2666
 199  379.468
 200  402.5255
 201  402.5622
 202  466.913
 203  335.8369
 204  348.7882
 205  398.6844
 206  419.7741
 207  484.9837
 208  426.6774
 209  380.6558
 210  544.69
 211  513.7578
 212  513.4555
 213  451.1094
 214  484.2782
 215  525.0846
 216  350.1418
 217  416.6207
 218  427.994
 219  429.8623
 220  468.214
 221  583.2501
 222  541.3459
 223  538.8618
 224  531.0949
 225  450.8093
 226  424.1865
 227  421.5904
 228  488.9857
 229  498.3444
 230  492.8153
 231  411.3832
 232  459.6594
 233  426.4896
 234  466.2321
 235  398.1605
 236  510.763
 237  404.4298
 238  332.1776
 239  388.5543
 240  456.946
 241  439.9644
 242  400.5079
 243  358.4224
 244  388.3905
 245  311.8232
 246  298.301
 247  405.8087
 248  576.2825
 249  623.262
 250  692.248
 251  604.1723
 252  570.9656
 253  463.7708
 254  588.8752
 255  570.0421
 256  583.2048
 257  501.8787
 258  495.0806
 259  526.1605
 260  651.729
 261  562.2475
 262  487.9198
 263  540.6554
 264  497.3023
 265  432.0475
 266  325.957
 267  374.0174
 268  383.0639
 269  390.3622
 270  500.6004
 271  513.9515
 272  514.1397
 273  583.2933
 274  492.4549
 275  385.089
 276  475.5938
 277  638.8923
 278  541.0959
 279  402.2164
 280  410.0782
 281  489.499
 282  462.2841
 283  382.2712
 284  384.5186
 285  572.2009
 286  532.6944
 287  470.3065
 288  495.7413
 289  455.4018
 290  411.5338
 291  538.5708
 292  523.2399
 293  439.6492
 294  434.7367
 295  414.2736
 296  570.802
 297  518.8349
 298  531.7554
 299  524.9444
 300  561.7986
 301  410.3615
 302  465.3341
 303  543.1741
 304  505.4332
 305  475.6572
 306  405.3837
 307  568.4077
 308  456.9802
 309  401.7737
 310  436.829
 311  366.8613
 312  399.6339
 313  429.6167
 314  396.6134
 315  364.4597
 316  402.2355
 317  451.7819
 318  506.2597
 319  452.3578
 320  425.3565
 321  445.4243
 322  403.5073
 323  384.3857
 324  457.1156
 325  482.3381
 326  504.3566
 327  491.4784
 328  514.6526
 329  619.3685
 330  648.8635
 331  611.0392
 332  613.0357
 333  645.0386
 334  561.7758
 335  567.1486
 336  597.8294
 337  665.7619
 338  686.6941
 339  448.2435
 340  537.1396
 341  540.8928
 342  549.9172
 343  521.4545
 344  547.1378
 345  571.1691
 346  526.3619
 347  554.7137
 348  602.9139
 349  499.8138
 350  632.9731
 351  589.7523
 352  472.1396
 353  640.3528
 354  499.2431
 355  475.1875
 356  475.9556
 357  346.5965
 358  434.8573
 359  440.5802
 360  430.0248
 361  382.7462
 362  318.1229
 363  396.8919
 364  541.7529
 365  556.9125
 366  476.1369
 367  462.4229
 368  515.2312
 369  539.9387
 370  510.1339
 371  454.2354
 372  497.6726
 373  448.5224
 374  485.2843
 375  563.031
 376  551.6011
 377  677.7666
 378  642.8013
 379  517.6087
 380  454.8161
 381  488.1309
 382  471.8128
 383  501.0452
 384  452.1803
 385  516.4838
 386  503.9388
 387  493.5091
 388  487.1876
 389  486.2515
 390  451.8678
 391  520.0032
 392  510.9136
 393  574.3753
 394  534.8361
 395  571.0916
 396  549.7757
 397  476.1393
 398  557.9953
 399  610.2335
 400  598.7319
 401  554.258
 402  447.9219
 403  491.1207
 404  516.8053
 405  555.9747
 406  555.02
 407  521.3737
 408  556.7736
 409  367.8478
 410  395.2807
 411  528.6272
 412  605.3309
 413  592.0411
 414  572.249
 415  478.2609
 416  509.469
 417  588.9901
 418  618.6954
 419  681.9068
 420  630.002
 421  546.4584
 422  599.2826
 423  603.2455
 424  516.8116
 425  464.8916
 426  528.1316
 427  528.1853
 428  470.1534
 429  536.2096
 430  554.4781
 431  556.7495
 432  582.9847
 433  677.738
 434  597.9471
 435  500.5015
 436  530.462
 437  518.8842
 438  653.7704
 439  642.9416
 440  537.6998
 441  544.0385
 442  590.9885
 443  498.7965
 444  412.2478
 445  421.6042
 446  507.5932
 447  649.8398
 448  584.4833
 449  524.5284
 450  647.3222
 451  534.5651
 452  395.8862
 453  475.1345
 454  464.8434
 455  540.9305
 456  452.8944
 457  501.3411
 458  564.924
 459  667.0938
 460  659.0577
 461  540.2851
 462  534.6328
 463  572.8825
 464  629.0167
 465  518.4046
 466  400.5889
 467  408.1284
 468  587.2863
 469  570.3489
 470  455.5738
 471  367.8259
 472  326.7052
 473  477.2862
 474  473.9102
 475  461.3869
 476  428.7956
 477  512.5129
 478  569.3072
 479  408.8316
 480  420.564
 481  424.5135
 482  574.6167
 483  547.0057
 484  633.6654
 485  531.0376
 486  488.2397
 487  493.4858
 488  597.0688
 489  470.4377
 490  429.7717
 491  434.9571
 492  409.2789
 493  439.1906
 494  464.2672
 495  460.3857
 496  416.7657
 497  356.5168
 498  425.8404
 499  536.2308
 500  535.1874
 501  518.4714
 502  625.218
 503  585.0793
 504  649.626
 505  659.7526
 506  675.6716
 507  635.8387
 508  667.5234
 509  629.5041
 510  887.2988
 511  1137.679
