# Input file       =  1180336856.118337_cleaned.dat
# Candidate        =  PSR_0332+5434
# Telescope        =  AR
# Epoch_topo       =  57905.305996740011
# Epoch_bary       =  N/A
# T_sample         =  0.002
# Data Folded      =  7340032
# Data Avg         =  0.0352132276080239
# Data StdDev      =  1.00005499282178 
# Profile Bins     =  512
# Profile Avg      =  504.82873628663  
# Profile StdDev   =  119.739620834297 
# Reduced chi-sqr  =  1.363
# Prob(Noise)      <  8.27e-08   (~5.2 sigma)
# P_topo (ms)      =  714.516283992741  +/- 0.00029
# P'_topo (s/s)    =  -0                +/- 1.53e-10
# P''_topo (s/s^2) =  0                 +/- 6.75e-14
# P_bary (ms)      =  N/A
# P'_bary (s/s)    =  N/A
# P''_bary (s/s^2) =  N/A
# P_orb (s)        =  N/A
# asin(i)/c (s)    =  N/A
# eccentricity     =  N/A
# w (rad)          =  N/A
# T_peri           =  N/A
######################################################
   0  533.0549
   1  563.5967
   2  470.8644
   3  483.1012
   4  480.4409
   5  402.262
   6  503.5577
   7  552.8577
   8  449.6989
   9  454.9705
  10  390.7655
  11  540.0134
  12  541.8192
  13  509.0985
  14  529.7043
  15  576.2156
  16  451.2679
  17  416.4728
  18  546.1801
  19  501.5477
  20  514.5066
  21  377.9185
  22  548.5406
  23  507.7154
  24  389.8024
  25  458.128
  26  371.5689
  27  382.1342
  28  413.4475
  29  412.424
  30  375.8188
  31  377.0855
  32  452.5774
  33  486.8464
  34  480.8683
  35  416.821
  36  448.6187
  37  417.5244
  38  385.4689
  39  424.0625
  40  501.3553
  41  480.0123
  42  507.4172
  43  486.4814
  44  595.6733
  45  645.1415
  46  615.9771
  47  609.6339
  48  642.9936
  49  599.3378
  50  541.2175
  51  605.0855
  52  632.27
  53  712.355
  54  503.6199
  55  491.8512
  56  556.8004
  57  541.4689
  58  534.324
  59  525.8816
  60  590.204
  61  526.8501
  62  532.6875
  63  602.8736
  64  527.6109
  65  581.5696
  66  642.2609
  67  467.3777
  68  605.0867
  69  561.032
  70  455.3905
  71  493.797
  72  374.9678
  73  399.394
  74  452.6782
  75  419.6052
  76  411.9843
  77  323.9391
  78  372.1705
  79  499.5735
  80  576.7266
  81  480.8008
  82  456.5229
  83  502.6477
  84  545.4372
  85  525.0333
  86  479.0053
  87  469.5556
  88  461.7593
  89  447.4687
  90  561.0295
  91  559.1685
  92  636.2142
  93  679.3597
  94  528.4559
  95  473.6394
  96  470.2576
  97  483.0844
  98  501.3345
  99  453.9057
 100  501.8874
 101  510.3133
 102  495.9318
 103  474.5844
 104  507.8382
 105  446.725
 106  509.3562
 107  509.2063
 108  563.5796
 109  548.0073
 110  543.158
 111  571.4529
 112  493.3358
 113  523.9761
 114  604.633
 115  606.5724
 116  574.6622
 117  453.3145
 118  491.9312
 119  507.8066
 120  536.6801
 121  572.1357
 122  507.6703
 123  572.7597
 124  431.4295
 125  345.8107
 126  507.875
 127  579.0687
 128  601.5582
 129  578.382
 130  521.2609
 131  486.0772
 132  570.0372
 133  599.2499
 134  682.0748
 135  648.688
 136  560.861
 137  576.3373
 138  619.9613
 139  544.7182
 140  462.8927
 141  489.6734
 142  552.002
 143  479.4191
 144  521.1492
 145  531.7017
 146  576.854
 147  553.7518
 148  677.3226
 149  615.3928
 150  522.5701
 151  521.9426
 152  521.3433
 153  612.9529
 154  667.1647
 155  568.1386
 156  522.0829
 157  588.2773
 158  533.8123
 159  421.2979
 160  421.6071
 161  451.7023
 162  641.5197
 163  612.3239
 164  526.1554
 165  603.9227
 166  609.2452
 167  400.0904
 168  462.6446
 169  456.8869
 170  533.6191
 171  477.0642
 172  466.8279
 173  543.4791
 174  651.6616
 175  669.3367
 176  587.577
 177  515.2467
 178  566.2192
 179  616.9275
 180  563.7166
 181  426.0768
 182  386.4238
 183  530.5411
 184  597.6037
 185  483.9005
 186  406.1837
 187  325.2019
 188  424.3821
 189  488.4833
 190  456.5419
 191  439.5674
 192  459.1442
 193  596.1616
 194  438.0793
 195  420.3418
 196  411.508
 197  536.3049
 198  563.6911
 199  594.2309
 200  578.8076
 201  493.6442
 202  489.3266
 203  563.6323
 204  519.3363
 205  422.4489
 206  444.9292
 207  425.6138
 208  402.8564
 209  476.7928
 210  456.9102
 211  436.9478
 212  381.1091
 213  370.9225
 214  544.2324
 215  523.1135
 216  517.025
 217  592.0027
 218  604.6642
 219  630.586
 220  660.4374
 221  674.1465
 222  632.1608
 223  664.1483
 224  631.0751
 225  772.0431
 226  1125.847
 227  1035.982
 228  1050.626
 229  996.8809
 230  1066.182
 231  764.8519
 232  583.2485
 233  533.4107
 234  468.8439
 235  548.267
 236  502.8116
 237  481.5769
 238  566.283
 239  500.9352
 240  537.7515
 241  606.4208
 242  606.7294
 243  488.2379
 244  394.0197
 245  508.5594
 246  409.6571
 247  440.0349
 248  531.939
 249  509.1106
 250  543.3815
 251  482.7519
 252  467.4837
 253  371.5874
 254  386.4229
 255  496.7625
 256  483.5257
 257  471.1923
 258  446.6727
 259  452.1628
 260  426.1862
 261  470.4008
 262  513.7943
 263  533.0085
 264  606.0212
 265  567.6878
 266  626.0936
 267  524.0968
 268  445.3857
 269  502.3293
 270  609.1017
 271  541.395
 272  489.8194
 273  512.8256
 274  505.7351
 275  557.7925
 276  506.1837
 277  436.0334
 278  551.7234
 279  560.2291
 280  526.9584
 281  535.6343
 282  481.7425
 283  470.1621
 284  491.7554
 285  469.4794
 286  384.2038
 287  456.6091
 288  419.6653
 289  512.402
 290  535.4932
 291  506.6961
 292  558.0101
 293  534.3918
 294  584.8414
 295  599.6993
 296  328.5121
 297  332.3271
 298  500.1126
 299  555.1246
 300  577.5891
 301  650.3492
 302  517.631
 303  483.8026
 304  525.0065
 305  614.845
 306  718.2485
 307  700.9645
 308  554.7584
 309  527.3792
 310  521.097
 311  557.8335
 312  622.5629
 313  551.8229
 314  553.4849
 315  581.5016
 316  623.9659
 317  611.152
 318  417.7937
 319  362.0702
 320  449.6194
 321  544.2304
 322  495.5597
 323  434.1283
 324  401.4161
 325  432.2191
 326  517.0604
 327  584.8686
 328  560.1394
 329  584.7359
 330  595.9303
 331  560.9435
 332  637.0111
 333  562.0125
 334  546.6124
 335  503.95
 336  577.3749
 337  517.6594
 338  638.9137
 339  699.4573
 340  571.912
 341  582.6422
 342  552.3176
 343  605.5325
 344  549.0422
 345  580.2894
 346  587.7523
 347  497.9415
 348  518.5573
 349  494.1046
 350  488.5858
 351  682.2575
 352  562.1984
 353  508.4539
 354  536.4932
 355  512.8456
 356  360.6167
 357  460.1885
 358  441.9682
 359  445.8195
 360  521.4973
 361  468.9875
 362  537.0756
 363  413.1551
 364  472.2378
 365  579.0916
 366  484.5655
 367  481.5916
 368  486.1441
 369  373.672
 370  323.8388
 371  407.4171
 372  563.1841
 373  567.1713
 374  377.1711
 375  343.6417
 376  338.9156
 377  396.2617
 378  244.4538
 379  340.8576
 380  422.4549
 381  451.7003
 382  324.9256
 383  308.2729
 384  353.0128
 385  327.1193
 386  356.9259
 387  484.7601
 388  533.6713
 389  489.114
 390  466.6394
 391  358.6882
 392  478.856
 393  424.3698
 394  420.0705
 395  461.5974
 396  466.4965
 397  503.4437
 398  521.0669
 399  444.123
 400  420.728
 401  435.8083
 402  461.6967
 403  468.1638
 404  507.4307
 405  497.8572
 406  468.7502
 407  538.4749
 408  597.3597
 409  650.788
 410  563.5201
 411  440.0654
 412  471.7444
 413  500.796
 414  484.8634
 415  508.7411
 416  527.3537
 417  465.6883
 418  362.0212
 419  279.2956
 420  289.7984
 421  378.951
 422  352.7569
 423  327.6426
 424  364.0032
 425  337.6565
 426  341.4232
 427  424.4904
 428  381.2172
 429  472.8567
 430  364.3302
 431  335.8578
 432  381.7969
 433  419.6772
 434  465.0683
 435  458.4615
 436  368.3949
 437  504.0125
 438  532.9525
 439  516.4961
 440  467.2893
 441  445.2957
 442  554.566
 443  376.5618
 444  392.2856
 445  435.6182
 446  428.6666
 447  447.557
 448  558.1753
 449  558.6053
 450  526.6277
 451  548.5608
 452  480.8349
 453  414.9979
 454  426.8276
 455  455.9863
 456  507.5962
 457  493.1495
 458  437.4819
 459  446.6514
 460  435.7461
 461  472.2336
 462  401.1463
 463  480.3531
 464  448.9564
 465  326.2591
 466  374.1769
 467  439.1039
 468  446.9421
 469  413.0877
 470  366.9955
 471  378.3823
 472  333.0453
 473  300.1273
 474  364.975
 475  541.9037
 476  609.5604
 477  673.936
 478  646.8621
 479  574.4142
 480  490.5396
 481  543.9803
 482  588.2037
 483  576.8386
 484  530.8009
 485  490.3554
 486  498.8282
 487  627.6393
 488  608.5889
 489  477.882
 490  524.9751
 491  526.667
 492  459.0268
 493  349.318
 494  351.3539
 495  385.8888
 496  389.9103
 497  446.786
 498  541.3542
 499  485.4951
 500  584.8197
 501  529.119
 502  400.0945
 503  427.5201
 504  604.2134
 505  592.6984
 506  436.6665
 507  389.6462
 508  480.9964
 509  461.5768
 510  420.1431
 511  352.151
