# Input file       =  1180666906.099774_cleaned.dat
# Candidate        =  PSR_0332+5434
# Telescope        =  AR
# Epoch_topo       =  57909.126019673306
# Epoch_bary       =  N/A
# T_sample         =  0.002
# Data Folded      =  7143424
# Data Avg         =  0.0344765121126646
# Data StdDev      =  1.00005334163564 
# Profile Bins     =  512
# Profile Avg      =  481.001176494292 
# Profile StdDev   =  118.124885120363 
# Reduced chi-sqr  =  0.911
# Prob(Noise)      <  0.927   (~0.0 sigma)
# P_topo (ms)      =  714.512565536727  +/- 0.00025
# P'_topo (s/s)    =  -0                +/- 1.36e-10
# P''_topo (s/s^2) =  0                 +/- 6.15e-14
# P_bary (ms)      =  N/A
# P'_bary (s/s)    =  N/A
# P''_bary (s/s^2) =  N/A
# P_orb (s)        =  N/A
# asin(i)/c (s)    =  N/A
# eccentricity     =  N/A
# w (rad)          =  N/A
# T_peri           =  N/A
######################################################
   0  912.7158
   1  853.2254
   2  805.7847
   3  602.9391
   4  496.0428
   5  301.4036
   6  440.641
   7  418.768
   8  399.0881
   9  428.3326
  10  459.3607
  11  399.2195
  12  459.5075
  13  524.1743
  14  459.8501
  15  442.9295
  16  553.9232
  17  572.1805
  18  458.8692
  19  437.1688
  20  487.4114
  21  548.0357
  22  533.9571
  23  610.6682
  24  506.9946
  25  435.3268
  26  409.0419
  27  436.4369
  28  521.3605
  29  471.0344
  30  448.0963
  31  487.4454
  32  537.4808
  33  484.8282
  34  416.6326
  35  446.4283
  36  537.3153
  37  475.8672
  38  424.0394
  39  417.8428
  40  573.9807
  41  480.2154
  42  516.1542
  43  379.0932
  44  347.1963
  45  379.7886
  46  453.3905
  47  404.7831
  48  385.9348
  49  438.0183
  50  399.0693
  51  395.0535
  52  455.7682
  53  465.9602
  54  385.1347
  55  410.7198
  56  495.164
  57  492.4636
  58  477.4662
  59  535.1342
  60  481.4636
  61  316.2692
  62  327.9752
  63  475.2158
  64  593.95
  65  524.0298
  66  531.5662
  67  436.0556
  68  326.0327
  69  364.0633
  70  484.6455
  71  617.2682
  72  532.6782
  73  436.5564
  74  410.2634
  75  486.0645
  76  314.9187
  77  455.0632
  78  489.9197
  79  472.0353
  80  460.8362
  81  424.1541
  82  354.1577
  83  395.093
  84  459.2389
  85  423.3564
  86  477.1341
  87  468.013
  88  372.4329
  89  461.6193
  90  518.4257
  91  408.8519
  92  426.8577
  93  441.0933
  94  448.9473
  95  497.6822
  96  496.8075
  97  399.9305
  98  400.5109
  99  355.5404
 100  453.5371
 101  473.2439
 102  504.8716
 103  459.6286
 104  474.5042
 105  527.3281
 106  448.8447
 107  425.6487
 108  584.8782
 109  509.4287
 110  343.6589
 111  353.2185
 112  524.2654
 113  474.4428
 114  531.2669
 115  485.9544
 116  414.7205
 117  561.5255
 118  535.8328
 119  417.7484
 120  423.0584
 121  413.1437
 122  444.7055
 123  532.9863
 124  463.9132
 125  439.3924
 126  448.9058
 127  443.4737
 128  396.0838
 129  355.2992
 130  453.194
 131  492.4786
 132  395.0384
 133  432.9151
 134  538.9057
 135  527.2779
 136  523.8304
 137  508.4811
 138  528.3972
 139  420.3111
 140  429.275
 141  413.3399
 142  524.035
 143  418.126
 144  379.3051
 145  465.5346
 146  657.279
 147  566.3466
 148  494.0264
 149  516.522
 150  483.6858
 151  455.6035
 152  461.2472
 153  360.0986
 154  376.8174
 155  418.5629
 156  505.4092
 157  378.6909
 158  284.088
 159  456.9819
 160  446.7145
 161  338.6631
 162  395.332
 163  437.0943
 164  462.8145
 165  436.1909
 166  530.2636
 167  572.1324
 168  575.7004
 169  421.2545
 170  364.6718
 171  450.3391
 172  422.5172
 173  492.9983
 174  582.4906
 175  566.3141
 176  458.8374
 177  353.0308
 178  464.2523
 179  437.1169
 180  456.9023
 181  554.1821
 182  490.817
 183  526.5051
 184  515.6421
 185  512.6505
 186  555.8528
 187  447.911
 188  464.9938
 189  487.3522
 190  444.2276
 191  483.3963
 192  408.1302
 193  575.9136
 194  558.6343
 195  534.3598
 196  505.9019
 197  464.3967
 198  518.7917
 199  465.808
 200  426.3407
 201  444.6559
 202  470.7098
 203  459.4109
 204  461.3535
 205  482.8304
 206  541.6534
 207  475.8558
 208  578.2423
 209  505.3491
 210  465.9447
 211  498.1196
 212  578.5126
 213  555.255
 214  486.7916
 215  601.7831
 216  543.3248
 217  433.8772
 218  478.3102
 219  472.0599
 220  548.1608
 221  514.4053
 222  422.1944
 223  404.9389
 224  498.3088
 225  431.3343
 226  359.3854
 227  405.6518
 228  344.5408
 229  355.007
 230  415.5195
 231  392.6494
 232  394.9672
 233  407.9362
 234  496.6525
 235  473.3062
 236  425.4258
 237  407.526
 238  518.7264
 239  521.3131
 240  504.4413
 241  510.9083
 242  432.4497
 243  321.9554
 244  449.2552
 245  501.7623
 246  479.5583
 247  457.1402
 248  503.7375
 249  438.8435
 250  436.1721
 251  510.4328
 252  538.6557
 253  517.4932
 254  473.1975
 255  534.0069
 256  400.5735
 257  363.1317
 258  504.8564
 259  494.8264
 260  505.5755
 261  471.036
 262  525.2164
 263  538.5648
 264  472.8202
 265  468.074
 266  456.0328
 267  432.7539
 268  524.0933
 269  486.2806
 270  430.533
 271  417.4618
 272  500.5292
 273  511.4161
 274  582.1619
 275  576.491
 276  518.5288
 277  597.1143
 278  564.3127
 279  482.1342
 280  452.4181
 281  406.7451
 282  431.2936
 283  484.1723
 284  507.6858
 285  433.1009
 286  511.9421
 287  488.371
 288  442.0736
 289  397.292
 290  384.4308
 291  458.114
 292  519.5237
 293  467.9299
 294  444.6321
 295  337.3332
 296  319.7022
 297  392.9694
 298  441.5429
 299  592.7736
 300  648.5538
 301  698.693
 302  625.3969
 303  517.3196
 304  476.7198
 305  458.5459
 306  440.8858
 307  447.1396
 308  440.0632
 309  491.4293
 310  456.8767
 311  342.6501
 312  397.5565
 313  518.155
 314  606.1073
 315  497.22
 316  559.4127
 317  491.8594
 318  395.5506
 319  388.8722
 320  340.8264
 321  461.6965
 322  484.1396
 323  422.9628
 324  507.7572
 325  497.3339
 326  488.9939
 327  511.1074
 328  461.1248
 329  414.5587
 330  530.9337
 331  596.7966
 332  483.9472
 333  540.126
 334  622.5168
 335  545.2181
 336  496.3614
 337  585.3719
 338  565.6052
 339  384.8927
 340  412.1397
 341  503.011
 342  470.6622
 343  489.9733
 344  443.7359
 345  453.2702
 346  485.1739
 347  390.3922
 348  516.184
 349  521.6076
 350  588.3665
 351  649.5917
 352  586.3683
 353  620.8299
 354  654.3735
 355  520.4749
 356  444.0619
 357  568.5675
 358  574.6064
 359  509.3746
 360  556.3254
 361  583.5966
 362  448.1803
 363  367.8155
 364  364.7071
 365  468.0633
 366  476.815
 367  458.1447
 368  308.0053
 369  351.6459
 370  426.9816
 371  416.2861
 372  393.7357
 373  358.3539
 374  352.2134
 375  343.8127
 376  342.8347
 377  496.7607
 378  454.5618
 379  547.6036
 380  522.9778
 381  532.2267
 382  460.062
 383  361.8379
 384  374.7435
 385  434.0461
 386  522.335
 387  476.3202
 388  557.5195
 389  566.3917
 390  408.5177
 391  404.7893
 392  419.9337
 393  434.6669
 394  458.7664
 395  549.5232
 396  538.8353
 397  437.131
 398  472.7707
 399  577.3506
 400  490.6409
 401  481.4532
 402  509.8064
 403  497.0097
 404  489.3946
 405  528.28
 406  576.6366
 407  497.6036
 408  442.19
 409  522.5209
 410  494.4913
 411  571.7842
 412  616.5851
 413  492.7816
 414  585.986
 415  544.6162
 416  543.353
 417  540.3825
 418  509.5103
 419  582.8658
 420  498.5241
 421  507.7992
 422  443.2942
 423  404.0976
 424  472.3255
 425  540.5285
 426  504.7845
 427  543.2409
 428  609.3815
 429  437.2258
 430  405.2826
 431  430.544
 432  568.5204
 433  563.3442
 434  629.2681
 435  559.5919
 436  489.9613
 437  460.2567
 438  432.4196
 439  464.6239
 440  337.013
 441  312.8809
 442  423.5579
 443  429.4914
 444  433.2676
 445  450.7871
 446  472.323
 447  508.2878
 448  457.298
 449  499.9601
 450  374.4725
 451  457.8507
 452  531.8098
 453  518.6105
 454  450.5895
 455  441.5554
 456  497.3552
 457  477.2388
 458  386.7553
 459  479.6294
 460  557.7791
 461  546.2915
 462  548.3146
 463  544.2789
 464  603.4664
 465  526.1616
 466  474.2827
 467  433.2982
 468  507.9219
 469  498.957
 470  387.0358
 471  511.0777
 472  477.5148
 473  453.6403
 474  562.6895
 475  448.6866
 476  576.2994
 477  606.9403
 478  568.8782
 479  623.5505
 480  605.3216
 481  577.6456
 482  661.3842
 483  604.946
 484  553.3288
 485  448.9244
 486  517.0685
 487  444.9307
 488  327.9342
 489  361.1979
 490  390.2528
 491  334.3697
 492  442.0567
 493  512.1912
 494  585.6243
 495  603.0552
 496  550.4414
 497  595.629
 498  559.48
 499  526.6183
 500  450.4238
 501  563.3904
 502  645.1353
 503  504.4492
 504  465.854
 505  563.4597
 506  539.7664
 507  465.8634
 508  560.2101
 509  732.7529
 510  819.7359
 511  948.3316
