# Input file       =  1180853821.116358_cleaned.dat
# Candidate        =  PSR_0332+5434
# Telescope        =  AR
# Epoch_topo       =  57911.289387920813
# Epoch_bary       =  N/A
# T_sample         =  0.002
# Data Folded      =  7340032
# Data Avg         =  0.0365716886715573
# Data StdDev      =  1.0000584909576  
# Profile Bins     =  512
# Profile Avg      =  524.305006999063 
# Profile StdDev   =  119.74003967672  
# Reduced chi-sqr  =  0.959
# Prob(Noise)      <  0.742   (~0.0 sigma)
# P_topo (ms)      =  714.510499682954  +/- 0.000357
# P'_topo (s/s)    =  -0                +/- 1.88e-10
# P''_topo (s/s^2) =  0                 +/- 8.31e-14
# P_bary (ms)      =  N/A
# P'_bary (s/s)    =  N/A
# P''_bary (s/s^2) =  N/A
# P_orb (s)        =  N/A
# asin(i)/c (s)    =  N/A
# eccentricity     =  N/A
# w (rad)          =  N/A
# T_peri           =  N/A
######################################################
   0  929.0619
   1  1018.457
   2  1016.531
   3  719.2522
   4  470.7409
   5  501.5159
   6  562.8429
   7  393.9747
   8  412.5203
   9  468.709
  10  478.946
  11  492.597
  12  548.0438
  13  580.6688
  14  545.222
  15  484.0048
  16  535.681
  17  597.7757
  18  551.5605
  19  461.8783
  20  516.7437
  21  508.1763
  22  423.2831
  23  486.09
  24  442.3857
  25  372.8304
  26  396.3672
  27  507.1428
  28  423.7975
  29  339.7137
  30  354.6731
  31  417.3704
  32  436.5548
  33  436.4036
  34  441.5131
  35  398.1962
  36  400.791
  37  384.998
  38  521.0449
  39  517.2005
  40  460.4703
  41  470.2456
  42  540.1097
  43  615.9344
  44  435.2106
  45  408.1352
  46  509.9236
  47  507.4422
  48  520.1896
  49  613.6743
  50  592.1602
  51  481.5433
  52  516.2501
  53  486.4972
  54  402.2599
  55  443.6096
  56  531.7855
  57  510.0861
  58  517.3791
  59  519.2346
  60  488.2051
  61  508.8138
  62  513.946
  63  536.3387
  64  602.4378
  65  596.8784
  66  473.3398
  67  431.1082
  68  419.5696
  69  532.876
  70  646.8243
  71  641.9919
  72  575.8052
  73  517.0161
  74  512.5991
  75  481.6514
  76  506.1509
  77  547.5873
  78  607.7143
  79  610.5797
  80  565.9938
  81  515.4106
  82  579.5552
  83  479.6296
  84  526.3926
  85  572.0012
  86  553.9662
  87  529.2193
  88  526.6635
  89  706.8575
  90  557.2294
  91  508.3636
  92  507.4752
  93  587.9116
  94  588.9643
  95  467.8719
  96  531.5414
  97  558.413
  98  509.6206
  99  524.4803
 100  576.885
 101  460.259
 102  394.9318
 103  444.6698
 104  467.0572
 105  420.9076
 106  424.3148
 107  553.0469
 108  502.3611
 109  538.8079
 110  514.4065
 111  557.5245
 112  472.9498
 113  339.4988
 114  410.1057
 115  480.6692
 116  491.8087
 117  565.0794
 118  500.6584
 119  512.2762
 120  569.4225
 121  502.311
 122  466.1416
 123  575.7056
 124  678.8591
 125  607.6317
 126  592.4438
 127  490.0491
 128  592.8867
 129  581.5731
 130  490.4045
 131  436.1712
 132  492.0799
 133  529.9645
 134  415.2209
 135  431.6876
 136  558.9095
 137  525.1874
 138  514.0227
 139  494.5208
 140  440.4142
 141  498.2622
 142  516.6138
 143  545.7407
 144  502.6555
 145  495.4149
 146  493.0817
 147  518.015
 148  427.6014
 149  454.6913
 150  474.0815
 151  533.603
 152  500.3413
 153  476.6921
 154  510.9651
 155  548.1421
 156  491.562
 157  508.2858
 158  493.1509
 159  552.6177
 160  505.2078
 161  476.0094
 162  533.5851
 163  430.4191
 164  455.0775
 165  486.9847
 166  438.4417
 167  434.3282
 168  424.0653
 169  471.6483
 170  485.0186
 171  484.9686
 172  486.7711
 173  514.7739
 174  432.4988
 175  444.3005
 176  463.6722
 177  478.0519
 178  520.2644
 179  501.5055
 180  559.0547
 181  489.7582
 182  317.3545
 183  352.579
 184  492.8659
 185  555.4797
 186  626.3301
 187  455.6198
 188  374.3429
 189  472.3859
 190  438.153
 191  547.707
 192  537.3524
 193  501.505
 194  549.3506
 195  560.9717
 196  617.0023
 197  602.9478
 198  552.1713
 199  562.5211
 200  679.718
 201  725.5746
 202  671.3829
 203  629.6079
 204  706.0181
 205  556.2612
 206  513.1479
 207  505.0263
 208  701.6215
 209  554.8977
 210  618.2648
 211  693.2232
 212  632.941
 213  598.6301
 214  615.8563
 215  671.8151
 216  676.608
 217  581.2171
 218  651.7384
 219  627.9303
 220  527.6243
 221  512.9309
 222  594.5826
 223  744.6278
 224  667.0533
 225  542.0782
 226  587.1533
 227  630.7217
 228  562.6279
 229  632.2617
 230  644.255
 231  619.9716
 232  493.4856
 233  592.7579
 234  550.3909
 235  508.8852
 236  498.1059
 237  539.1864
 238  540.9818
 239  579.795
 240  610.9763
 241  581.1679
 242  620.3943
 243  634.868
 244  691.8638
 245  722.8541
 246  624.1204
 247  646.8702
 248  572.7388
 249  552.0699
 250  512.4426
 251  423.9568
 252  506.6278
 253  625.6849
 254  666.642
 255  596.3994
 256  497.8824
 257  536.1488
 258  567.3796
 259  662.658
 260  771.6744
 261  669.5882
 262  576.1721
 263  477.5656
 264  596.2427
 265  608.4591
 266  524.4053
 267  486.7749
 268  533.3017
 269  612.6871
 270  612.7832
 271  502.5062
 272  392.1002
 273  454.6209
 274  513.7776
 275  401.1954
 276  420.9271
 277  489.8764
 278  547.3419
 279  476.7474
 280  337.6607
 281  473.0152
 282  587.3976
 283  526.3955
 284  559.0944
 285  540.7566
 286  510.6804
 287  582.983
 288  672.7311
 289  588.7936
 290  558.4769
 291  589.5353
 292  665.7767
 293  450.7508
 294  484.0359
 295  589.496
 296  527.4875
 297  509.1249
 298  491.3947
 299  488.7105
 300  530.9188
 301  443.2776
 302  522.1927
 303  481.402
 304  484.2347
 305  492.5628
 306  505.0435
 307  547.538
 308  403.8918
 309  509.0609
 310  568.202
 311  522.2334
 312  498.9606
 313  436.6115
 314  457.7047
 315  589.9916
 316  550.2643
 317  645.9129
 318  480.5155
 319  475.5648
 320  410.9179
 321  423.9954
 322  444.2795
 323  451.6158
 324  481.0056
 325  450.9233
 326  500.8701
 327  618.1599
 328  618.5082
 329  466.8315
 330  419.4517
 331  435.7393
 332  453.7662
 333  489.4883
 334  530.4092
 335  610.4406
 336  547.1681
 337  530.0007
 338  483.578
 339  408.9436
 340  496.9248
 341  445.1133
 342  520.2216
 343  466.2223
 344  463.5653
 345  447.9463
 346  416.5478
 347  582.8768
 348  533.4116
 349  512.1265
 350  472.186
 351  427.7021
 352  391.0927
 353  337.5943
 354  387.5354
 355  362.7398
 356  516.7681
 357  517.4983
 358  529.752
 359  517.8702
 360  502.4869
 361  552.9448
 362  594.1433
 363  520.9114
 364  596.9312
 365  643.7519
 366  648.1782
 367  498.1721
 368  465.7919
 369  591.8982
 370  476.4673
 371  533.755
 372  564.2703
 373  606.9788
 374  613.0751
 375  526.5893
 376  486.3301
 377  519.725
 378  507.911
 379  472.2105
 380  484.939
 381  506.6716
 382  466.7767
 383  464.6915
 384  475.0196
 385  621.2886
 386  557.5031
 387  456.8849
 388  553.8279
 389  553.1398
 390  538.8454
 391  622.8057
 392  550.7698
 393  626.7666
 394  468.0477
 395  478.7342
 396  516.48
 397  518.9023
 398  594.8513
 399  564.0958
 400  503.2662
 401  602.7101
 402  505.3199
 403  557.6601
 404  707.2897
 405  681.8653
 406  509.0486
 407  428.3458
 408  583.7442
 409  606.1776
 410  573.3176
 411  556.3185
 412  498.2404
 413  509.4719
 414  555.5797
 415  522.9603
 416  573.8569
 417  631.3181
 418  606.4918
 419  563.3159
 420  588.2798
 421  545.2702
 422  595.6313
 423  519.775
 424  532.86
 425  531.8959
 426  509.2083
 427  465.2803
 428  454.0484
 429  486.1051
 430  429.2161
 431  450.7318
 432  480.5815
 433  523.9266
 434  448.8174
 435  472.2
 436  524.2535
 437  494.8905
 438  546.9278
 439  553.7995
 440  556.7256
 441  494.8099
 442  517.4622
 443  493.462
 444  495.9492
 445  489.15
 446  435.6741
 447  394.8471
 448  381.7993
 449  582.5198
 450  556.7491
 451  573.0175
 452  500.8657
 453  483.3379
 454  490.5167
 455  430.5749
 456  463.3322
 457  515.9374
 458  465.0884
 459  390.9325
 460  453.9801
 461  514.6476
 462  518.7716
 463  494.1544
 464  469.1872
 465  486.0489
 466  623.2118
 467  581.553
 468  593.1534
 469  567.7222
 470  473.4482
 471  530.5287
 472  501.8466
 473  518.3293
 474  480.9381
 475  484.1592
 476  453.2179
 477  453.7141
 478  392.6058
 479  521.1136
 480  444.503
 481  488.8506
 482  442.7867
 483  455.119
 484  451.4138
 485  491.4885
 486  499.308
 487  477.6249
 488  554.3829
 489  486.2837
 490  447.6696
 491  489.4241
 492  612.9276
 493  668.632
 494  520.828
 495  484.3485
 496  527.4746
 497  571.3574
 498  514.9254
 499  391.0758
 500  312.6627
 501  417.174
 502  524.2057
 503  593.2936
 504  465.9595
 505  492.8064
 506  604.6872
 507  550.4878
 508  551.4272
 509  666.1862
 510  843.0541
 511  882.7436
