# Input file       =  1180351768.120151_cleaned.dat
# Candidate        =  PSR_0332+5434
# Telescope        =  AR
# Epoch_topo       =  57905.478589353603
# Epoch_bary       =  N/A
# T_sample         =  0.002
# Data Folded      =  7340032
# Data Avg         =  0.0680138343440311
# Data StdDev      =  1.00035018684577 
# Profile Bins     =  512
# Profile Avg      =  975.077752182227 
# Profile StdDev   =  119.774965311109 
# Reduced chi-sqr  =  1.242
# Prob(Noise)      <  0.000154   (~3.6 sigma)
# P_topo (ms)      =  714.516447611985  +/- 0.000165
# P'_topo (s/s)    =  -0                +/- 8.69e-11
# P''_topo (s/s^2) =  0                 +/- 3.84e-14
# P_bary (ms)      =  N/A
# P'_bary (s/s)    =  N/A
# P''_bary (s/s^2) =  N/A
# P_orb (s)        =  N/A
# asin(i)/c (s)    =  N/A
# eccentricity     =  N/A
# w (rad)          =  N/A
# T_peri           =  N/A
######################################################
   0  1472.895
   1  1388.547
   2  1157.453
   3  1051.177
   4  948.5762
   5  721.5692
   6  850.2784
   7  829.2908
   8  888.4759
   9  1024.494
  10  1071.453
  11  1008.291
  12  945.0386
  13  864.1005
  14  1005.26
  15  1051.428
  16  948.6893
  17  1051.897
  18  1027.056
  19  908.4776
  20  943.632
  21  1012.413
  22  975.4359
  23  897.7004
  24  1009.354
  25  1017.811
  26  960.1747
  27  988.977
  28  1028.879
  29  1001.072
  30  954.7292
  31  951.3879
  32  902.3297
  33  917.5869
  34  1008.695
  35  1042.59
  36  982.0735
  37  898.6884
  38  911.6588
  39  961.3909
  40  990.955
  41  1012.204
  42  1075.076
  43  988.1183
  44  933.1776
  45  905.8929
  46  778.1766
  47  885.0314
  48  984.5646
  49  905.679
  50  838.4521
  51  892.6179
  52  916.8498
  53  1001.432
  54  895.9332
  55  917.4761
  56  855.6225
  57  734.3252
  58  909.6758
  59  915.8424
  60  880.1439
  61  1001.709
  62  995.9592
  63  967.7557
  64  1019.568
  65  1151.275
  66  1247.122
  67  1183.525
  68  1224.36
  69  1108.918
  70  1062.574
  71  1068.899
  72  1074.079
  73  1023.565
  74  925.9109
  75  940.26
  76  943.5966
  77  909.8196
  78  947.4177
  79  970.4077
  80  928.6539
  81  915.8517
  82  967.7373
  83  926.829
  84  1014.212
  85  945.9266
  86  963.0959
  87  1051.512
  88  950.5956
  89  870.0707
  90  796.875
  91  902.8276
  92  1012.117
  93  974.4782
  94  933.5126
  95  942.5485
  96  920.2629
  97  1088.403
  98  966.1452
  99  1018.946
 100  933.6886
 101  886.0289
 102  913.0518
 103  958.7181
 104  1068.367
 105  1060.119
 106  1031.325
 107  1126.296
 108  1083.108
 109  945.7697
 110  971.6056
 111  1096.026
 112  1130.899
 113  1036.905
 114  985.7602
 115  1003.05
 116  986.9202
 117  997.0739
 118  955.1867
 119  1121.051
 120  1044.792
 121  996.0062
 122  1030.671
 123  962.0776
 124  928.8965
 125  902.5919
 126  944.2567
 127  920.3606
 128  935.7075
 129  983.423
 130  923.9098
 131  1073.439
 132  1087.466
 133  1010.45
 134  963.2585
 135  968.2971
 136  864.9092
 137  820.6476
 138  876.3393
 139  845.2078
 140  859.7247
 141  856.9207
 142  892.1147
 143  775.7714
 144  773.4666
 145  742.4897
 146  832.225
 147  928.2501
 148  901.8116
 149  865.1024
 150  842.3085
 151  874.6841
 152  902.8344
 153  1027.664
 154  1030.394
 155  977.3185
 156  892.7025
 157  921.3021
 158  889.0705
 159  874.8447
 160  851.6542
 161  856.3646
 162  874.1371
 163  904.4903
 164  937.1966
 165  999.2415
 166  991.8587
 167  1023.678
 168  902.5153
 169  893.3823
 170  1044.244
 171  966.4255
 172  861.7438
 173  947.0358
 174  884.6597
 175  846.3236
 176  854.2863
 177  875.5455
 178  993.8408
 179  992.6954
 180  1050.43
 181  1005.521
 182  898.1938
 183  836.7432
 184  814.7003
 185  1027.307
 186  1034.129
 187  1111.4
 188  1045.47
 189  1034.341
 190  916.5079
 191  918.0699
 192  978.6611
 193  962.1613
 194  1106.226
 195  1036.526
 196  1015.737
 197  1078.33
 198  1098.585
 199  1048.709
 200  1002.167
 201  993.4055
 202  919.8912
 203  985.6828
 204  1090.929
 205  1067.384
 206  960.0531
 207  946.7786
 208  907.3768
 209  983.0914
 210  1006.436
 211  933.0735
 212  903.9424
 213  939.3705
 214  1046.308
 215  1050.891
 216  1003.651
 217  985.6653
 218  974.7105
 219  812.3255
 220  805.4698
 221  894.5972
 222  1106.231
 223  943.7686
 224  906.637
 225  868.2675
 226  937.978
 227  951.6183
 228  1062.09
 229  1049.303
 230  968.9843
 231  1098.406
 232  880.296
 233  878.2592
 234  961.6238
 235  1028.104
 236  1069.812
 237  1081.955
 238  1150.291
 239  1124.312
 240  938.4288
 241  1101.253
 242  1178.388
 243  1045.436
 244  1045.655
 245  1179.771
 246  1116.727
 247  943.6029
 248  906.8669
 249  1007.827
 250  1049.463
 251  1055.402
 252  1039.651
 253  960.2083
 254  881.7073
 255  822.2579
 256  836.8377
 257  873.6185
 258  901.6254
 259  823.1439
 260  652.3839
 261  602.7629
 262  815.6024
 263  965.6896
 264  1021.328
 265  889.3796
 266  872.9544
 267  794.9656
 268  907.2574
 269  1062.667
 270  982.9677
 271  936.6955
 272  965.0463
 273  890.6255
 274  895.0399
 275  908.9871
 276  952.0543
 277  940.2898
 278  860.7922
 279  972.6577
 280  937.97
 281  1053.349
 282  1041.351
 283  1030.001
 284  1032.427
 285  1028.215
 286  1159.046
 287  1144.271
 288  985.6332
 289  1091.9
 290  1021.747
 291  1048.781
 292  995.4609
 293  993.1828
 294  985.1071
 295  835.4413
 296  833.4435
 297  871.7291
 298  926.3475
 299  971.0714
 300  998.6964
 301  1006.01
 302  1087.988
 303  1060.428
 304  1034.821
 305  1086.231
 306  936.2201
 307  962.2596
 308  993.1145
 309  988.2504
 310  848.6469
 311  943.1954
 312  925.2639
 313  875.3823
 314  1020.361
 315  979.5056
 316  1056.636
 317  1082.962
 318  1016.219
 319  1063.725
 320  1035.192
 321  1109.75
 322  917.5879
 323  988.9968
 324  1121.602
 325  1077.267
 326  1057.799
 327  986.1399
 328  996.3173
 329  1080.991
 330  1038.096
 331  1021.315
 332  1061.93
 333  1039.474
 334  992.4198
 335  895.2402
 336  915.0542
 337  888.7561
 338  935.6903
 339  934.0854
 340  836.8491
 341  905.3393
 342  972.4651
 343  1026.842
 344  1039.216
 345  948.9998
 346  938.9396
 347  811.1937
 348  875.5587
 349  1052.966
 350  998.4008
 351  927.746
 352  941.9061
 353  863.8509
 354  764.329
 355  781.0778
 356  938.6066
 357  971.575
 358  869.3821
 359  937.6455
 360  985.5477
 361  982.1295
 362  1001.274
 363  941.3338
 364  1038.973
 365  1067.117
 366  1067.286
 367  1096.308
 368  1030.964
 369  1012.38
 370  1070.224
 371  993.3619
 372  989.4115
 373  915.3183
 374  1027.968
 375  1085.689
 376  1114.786
 377  990.6686
 378  841.1965
 379  875.3596
 380  824.7714
 381  867.3706
 382  834.0095
 383  935.6168
 384  993.7344
 385  1026.696
 386  1008.625
 387  1054.509
 388  1018.099
 389  967.0632
 390  909.6089
 391  766.2723
 392  842.3563
 393  936.2958
 394  941.8927
 395  982.5244
 396  945.5547
 397  890.0154
 398  907.6094
 399  1026.379
 400  977.7676
 401  885.5969
 402  967.5933
 403  1002.899
 404  986.0308
 405  1120.203
 406  970.252
 407  1062.511
 408  983.7197
 409  1056.973
 410  1119.524
 411  1099.554
 412  1139.349
 413  1167.828
 414  1175.105
 415  1006.178
 416  1080.799
 417  1092.1
 418  1101.148
 419  1028.042
 420  1004.05
 421  1017.399
 422  1145.728
 423  1092.54
 424  1047.402
 425  1052.823
 426  964.5944
 427  937.4951
 428  987.3358
 429  1108.576
 430  985.7231
 431  1017.929
 432  933.0639
 433  918.3847
 434  990.0728
 435  1003.846
 436  1067.54
 437  972.3909
 438  946.0994
 439  886.6376
 440  961.9761
 441  1045.232
 442  923.2286
 443  1020.914
 444  1089.621
 445  959.4466
 446  992.5573
 447  943.0687
 448  973.5821
 449  1023.07
 450  1015.388
 451  1120.177
 452  1080.893
 453  1046.662
 454  1058.739
 455  1199.068
 456  1174.942
 457  1168.123
 458  1073.269
 459  991.0067
 460  936.1348
 461  911.6601
 462  970.5168
 463  924.34
 464  963.8181
 465  999.3427
 466  937.0057
 467  817.2616
 468  810.2162
 469  865.5087
 470  969.8063
 471  1013.703
 472  1012.497
 473  996.7123
 474  911.6594
 475  857.4647
 476  852.1407
 477  943.2395
 478  786.3118
 479  776.9321
 480  909.5806
 481  861.1826
 482  901.7629
 483  895.3158
 484  848.4296
 485  876.2576
 486  920.7952
 487  1006.604
 488  1034.904
 489  1013.079
 490  998.9991
 491  962.2148
 492  934.4198
 493  962.7614
 494  891.8705
 495  1009.878
 496  1123.42
 497  1154.638
 498  1070.745
 499  1002.52
 500  883.5004
 501  890.9287
 502  896.3107
 503  955.5074
 504  1060.579
 505  1162.645
 506  943.3156
 507  992.642
 508  919.8652
 509  1072.896
 510  1231.751
 511  1286.693
