# Input file       =  1180250726.097181_cleaned.dat
# Candidate        =  PSR_0332+5434
# Telescope        =  AR
# Epoch_topo       =  57904.309121495149
# Epoch_bary       =  N/A
# T_sample         =  0.002
# Data Folded      =  7340032
# Data Avg         =  0.0342485886919735
# Data StdDev      =  1.0000978406835  
# Profile Bins     =  512
# Profile Avg      =  491.058350196154 
# Profile StdDev   =  119.744751138882 
# Reduced chi-sqr  =  1.567
# Prob(Noise)      <  3.68e-15   (~7.8 sigma)
# P_topo (ms)      =  714.517258055661  +/- 0.000207
# P'_topo (s/s)    =  -0                +/- 1.09e-10
# P''_topo (s/s^2) =  0                 +/- 4.82e-14
# P_bary (ms)      =  N/A
# P'_bary (s/s)    =  N/A
# P''_bary (s/s^2) =  N/A
# P_orb (s)        =  N/A
# asin(i)/c (s)    =  N/A
# eccentricity     =  N/A
# w (rad)          =  N/A
# T_peri           =  N/A
######################################################
   0  1062.408
   1  1093.747
   2  989.9493
   3  771.9165
   4  584.5444
   5  635.038
   6  706.7634
   7  557.7399
   8  520.0078
   9  500.1216
  10  432.4449
  11  496.5717
  12  625.052
  13  639.1377
  14  659.4364
  15  553.3034
  16  455.9246
  17  470.4851
  18  493.5606
  19  408.2979
  20  352.8321
  21  219.2151
  22  288.8125
  23  280.3919
  24  374.5511
  25  519.6402
  26  399.872
  27  316.6062
  28  262.5797
  29  353.482
  30  324.0408
  31  320.4865
  32  301.8736
  33  260.7856
  34  226.8828
  35  275.7697
  36  313.7018
  37  363.2078
  38  431.3253
  39  528.7472
  40  555.0471
  41  509.1136
  42  473.1418
  43  459.0845
  44  444.084
  45  425.5381
  46  518.3358
  47  516.6812
  48  490.0062
  49  427.0833
  50  477.8647
  51  468.1736
  52  408.8832
  53  384.7284
  54  489.0791
  55  609.1014
  56  630.6992
  57  582.6048
  58  542.4202
  59  435.2614
  60  486.5844
  61  479.4506
  62  526.8155
  63  436.0442
  64  484.04
  65  548.7501
  66  376.0272
  67  374.0689
  68  425.5142
  69  415.4148
  70  528.967
  71  504.7704
  72  539.059
  73  448.7986
  74  393.7836
  75  434.5788
  76  523.2899
  77  495.2846
  78  562.8136
  79  460.8479
  80  457.6064
  81  417.2486
  82  517.0164
  83  591.2068
  84  582.5355
  85  498.368
  86  442.6594
  87  440.9783
  88  568.8528
  89  531.0468
  90  512.74
  91  574.2516
  92  485.2118
  93  539.5795
  94  484.9755
  95  519.9391
  96  487.707
  97  459.3679
  98  453.9246
  99  474.1633
 100  521.7088
 101  516.8003
 102  453.7259
 103  476.5573
 104  417.0636
 105  439.252
 106  461.927
 107  345.0718
 108  423.2675
 109  502.5412
 110  378.0107
 111  350.6882
 112  506.0564
 113  398.5278
 114  407.465
 115  453.8239
 116  472.7202
 117  307.1963
 118  320.6438
 119  485.903
 120  424.1054
 121  505.4249
 122  424.2001
 123  470.7482
 124  414.2643
 125  511.578
 126  571.5306
 127  609.3163
 128  548.9688
 129  667.1839
 130  602.3082
 131  574.0433
 132  541.3684
 133  495.8845
 134  612.052
 135  626.6453
 136  605.3212
 137  552.8427
 138  519.0052
 139  399.6537
 140  462.4125
 141  565.0869
 142  615.5214
 143  579.8787
 144  491.6583
 145  514.0724
 146  538.3683
 147  514.0062
 148  637.7007
 149  600.8929
 150  613.8144
 151  617.1094
 152  593.1542
 153  565.7769
 154  612.8839
 155  629.488
 156  473.368
 157  487.6166
 158  565.9764
 159  552.7512
 160  469.209
 161  524.5441
 162  456.6619
 163  517.4754
 164  580.8664
 165  517.2308
 166  471.3517
 167  644.3092
 168  677.5453
 169  506.1466
 170  658.3647
 171  636.8448
 172  616.026
 173  663.9553
 174  718.2271
 175  638.0647
 176  454.3489
 177  520.2208
 178  506.9626
 179  399.2399
 180  409.997
 181  539.0593
 182  508.1512
 183  608.7825
 184  512.807
 185  517.2591
 186  306.4773
 187  318.9952
 188  471.1117
 189  439.1292
 190  374.4655
 191  346.0387
 192  335.0673
 193  350.5319
 194  235.7457
 195  233.8022
 196  308.8234
 197  312.8103
 198  345.1819
 199  398.4378
 200  417.8887
 201  362.7521
 202  311.6321
 203  326.6828
 204  307.1328
 205  379.0299
 206  445.5328
 207  564.1301
 208  521.355
 209  462.5653
 210  429.0302
 211  517.1778
 212  558.2923
 213  599.812
 214  583.1216
 215  543.9432
 216  578.2958
 217  580.9686
 218  627.1772
 219  651.6348
 220  499.9779
 221  466.0416
 222  444.0373
 223  483.1479
 224  517.0257
 225  463.2904
 226  453.0329
 227  512.1597
 228  457.2792
 229  556.0172
 230  555.3038
 231  517.6616
 232  374.9554
 233  410.275
 234  446.5572
 235  484.426
 236  392.6599
 237  346.51
 238  268.0167
 239  320.7672
 240  459.6327
 241  565.7072
 242  498.1405
 243  389.6057
 244  370.0688
 245  341.5642
 246  302.8546
 247  369.1388
 248  526.3162
 249  569.1948
 250  468.7495
 251  570.6033
 252  566.8901
 253  443.857
 254  572.9238
 255  525.7863
 256  453.4347
 257  573.0714
 258  554.5002
 259  556.3892
 260  455.1028
 261  510.5769
 262  584.5057
 263  532.0256
 264  513.1142
 265  500.721
 266  463.3423
 267  461.1683
 268  384.7173
 269  418.9118
 270  369.8155
 271  444.0085
 272  476.6898
 273  418.5364
 274  375.695
 275  476.2508
 276  393.1226
 277  337.4732
 278  304.2202
 279  230.4063
 280  285.0913
 281  390.6499
 282  352.0284
 283  390.3343
 284  460.6512
 285  439.2838
 286  432.0316
 287  365.1614
 288  394.1088
 289  339.1026
 290  406.0507
 291  420.0227
 292  443.5758
 293  472.8084
 294  452.833
 295  382.535
 296  463.2796
 297  531.5879
 298  647.9225
 299  564.1688
 300  578.308
 301  576.039
 302  560.0388
 303  522.2009
 304  397.3675
 305  443.3719
 306  531.0166
 307  558.3268
 308  483.8522
 309  530.4432
 310  518.0687
 311  460.2604
 312  404.8118
 313  393.6835
 314  366.4676
 315  416.0788
 316  476.5913
 317  405.5589
 318  339.8999
 319  394.6093
 320  415.6718
 321  341.3576
 322  445.0927
 323  548.313
 324  433.7245
 325  425.6632
 326  538.4259
 327  596.1437
 328  563.4437
 329  481.04
 330  546.4639
 331  500.9248
 332  416.3962
 333  468.0497
 334  472.0936
 335  531.2479
 336  520.1556
 337  520.1119
 338  447.1512
 339  470.4548
 340  564.1284
 341  468.4395
 342  538.1465
 343  483.1198
 344  415.2502
 345  550.505
 346  568.5188
 347  545.2844
 348  566.5093
 349  506.9215
 350  546.8161
 351  503.1552
 352  484.1476
 353  513.0925
 354  521.0107
 355  539.149
 356  595.9391
 357  550.1182
 358  538.5211
 359  458.6008
 360  367.3639
 361  401.1978
 362  359.0666
 363  417.8026
 364  408.0457
 365  453.4838
 366  484.402
 367  420.6248
 368  358.246
 369  286.2659
 370  316.5504
 371  359.7722
 372  388.9244
 373  427.275
 374  351.9445
 375  346.8733
 376  467.0095
 377  418.1808
 378  340.3147
 379  390.8069
 380  352.2697
 381  409.0941
 382  498.6396
 383  461.3661
 384  510.8109
 385  445.9471
 386  474.2585
 387  517.5732
 388  474.4389
 389  600.3566
 390  478.9813
 391  484.4954
 392  508.429
 393  547.0774
 394  489.4386
 395  496.5232
 396  436.5212
 397  500.2501
 398  513.347
 399  454.0282
 400  466.6812
 401  559.633
 402  564.0048
 403  531.9087
 404  465.6567
 405  587.8704
 406  588.1315
 407  373.7835
 408  405.2805
 409  494.113
 410  583.9679
 411  619.8712
 412  548.7169
 413  457.8755
 414  402.864
 415  463.5441
 416  519.9455
 417  502.5138
 418  533.195
 419  518.9526
 420  492.3138
 421  546.3632
 422  580.4154
 423  443.6824
 424  493.1691
 425  570.9632
 426  551.0051
 427  522.119
 428  637.0912
 429  623.9386
 430  498.2148
 431  640.7006
 432  509.2282
 433  518.8513
 434  634.5297
 435  583.8776
 436  484.3475
 437  596.9772
 438  541.043
 439  547.1144
 440  487.3557
 441  541.4595
 442  448.0398
 443  545.4532
 444  603.8603
 445  461.7592
 446  439.9575
 447  448.1008
 448  448.6176
 449  426.9908
 450  429.6223
 451  458.0474
 452  455.1092
 453  385.6592
 454  460.0351
 455  573.1794
 456  462.4964
 457  383.6184
 458  422.0861
 459  365.0338
 460  498.3539
 461  508.0573
 462  469.0794
 463  507.1513
 464  552.3619
 465  494.3844
 466  480.6076
 467  526.6083
 468  557.3137
 469  610.4504
 470  578.9125
 471  547.7989
 472  664.3906
 473  754.2394
 474  711.5118
 475  569.9758
 476  517.6675
 477  630.7784
 478  604.7519
 479  729.6209
 480  719.848
 481  564.5063
 482  552.5508
 483  572.6495
 484  542.1531
 485  572.012
 486  570.1068
 487  592.6934
 488  579.647
 489  488.4246
 490  537.6331
 491  527.0557
 492  499.8118
 493  549.0974
 494  388.2016
 495  414.3763
 496  501.1759
 497  487.7642
 498  452.2366
 499  484.498
 500  575.2755
 501  515.9908
 502  465.2945
 503  472.5892
 504  554.9277
 505  574.2918
 506  606.4762
 507  627.6682
 508  734.1682
 509  782.0405
 510  930.4056
 511  1108.032
