# Input file       =  1180250726.097181_cleaned.dat
# Candidate        =  PSR_0332+5434
# Telescope        =  AR
# Epoch_topo       =  57904.309121495149
# Epoch_bary       =  N/A
# T_sample         =  0.002
# Data Folded      =  7340032
# Data Avg         =  0.0342485886919735
# Data StdDev      =  1.0000978406835  
# Profile Bins     =  512
# Profile Avg      =  491.058346320584 
# Profile StdDev   =  119.744751138882 
# Reduced chi-sqr  =  1.571
# Prob(Noise)      <  2.41e-15   (~7.8 sigma)
# P_topo (ms)      =  714.517259288004  +/- 0.000207
# P'_topo (s/s)    =  -0                +/- 1.09e-10
# P''_topo (s/s^2) =  0                 +/- 4.82e-14
# P_bary (ms)      =  N/A
# P'_bary (s/s)    =  N/A
# P''_bary (s/s^2) =  N/A
# P_orb (s)        =  N/A
# asin(i)/c (s)    =  N/A
# eccentricity     =  N/A
# w (rad)          =  N/A
# T_peri           =  N/A
######################################################
   0  425.8352
   1  465.4766
   2  473.8618
   3  372.7712
   4  447.6971
   5  508.6798
   6  624.6412
   7  597.1005
   8  565.3338
   9  589.4028
  10  548.1058
  11  555.1052
  12  405.4497
  13  435.2424
  14  501.2471
  15  572.7736
  16  500.7588
  17  504.2344
  18  547.7303
  19  468.4218
  20  424.3502
  21  367.9005
  22  383.5385
  23  388.3451
  24  474.1136
  25  426.9044
  26  346.6585
  27  380.6421
  28  429.8191
  29  351.778
  30  394.6895
  31  550.8295
  32  470.675
  33  406.4191
  34  507.3706
  35  586.8561
  36  589.801
  37  500.6069
  38  514.1513
  39  536.8961
  40  408.6823
  41  466.1233
  42  459.9932
  43  537.2747
  44  515.7612
  45  530.8321
  46  454.7463
  47  441.909
  48  563.585
  49  493.9786
  50  500.5854
  51  524.3304
  52  399.1402
  53  522.8132
  54  581.981
  55  544.6267
  56  561.4971
  57  516.9615
  58  533.4029
  59  530.1857
  60  469.684
  61  517.8942
  62  508.1623
  63  549.2585
  64  576.1265
  65  573.4914
  66  520.2384
  67  507.5521
  68  361.9295
  69  408.5676
  70  361.1455
  71  405.4559
  72  406.1281
  73  434.2257
  74  491.9512
  75  436.0937
  76  370.7211
  77  300.6842
  78  295.6164
  79  363.4716
  80  381.0937
  81  423.9482
  82  375.4744
  83  331.516
  84  443.7572
  85  446.9705
  86  332.9877
  87  384.8455
  88  361.6107
  89  382.9957
  90  499.2721
  91  461.6356
  92  503.4929
  93  465.5009
  94  456.7672
  95  528.4675
  96  460.6352
  97  583.397
  98  516.8983
  99  475.0357
 100  489.1012
 101  552.7051
 102  490.4383
 103  501.7405
 104  453.37
 105  472.1323
 106  533.0351
 107  458.4189
 108  457.1935
 109  532.5309
 110  565.039
 111  552.1201
 112  483.2763
 113  542.3546
 114  622.36
 115  405.3952
 116  376.2999
 117  472.2805
 118  580.2091
 119  613.0118
 120  565.8529
 121  481.0827
 122  416.9799
 123  432.2044
 124  517.3102
 125  504.9751
 126  507.073
 127  553.0496
 128  485.2746
 129  528.7938
 130  590.9799
 131  472.6836
 132  473.077
 133  550.1191
 134  557.2573
 135  519.0919
 136  605.438
 137  668.3883
 138  494.4775
 139  616.7499
 140  553.1863
 141  483.2142
 142  629.2645
 143  605.5504
 144  486.9701
 145  580.5641
 146  555.9229
 147  556.5519
 148  483.5606
 149  541.0978
 150  453.5131
 151  520.286
 152  604.7982
 153  500.0158
 154  435.4496
 155  441.8744
 156  446.7383
 157  442.6302
 158  421.3293
 159  454.3657
 160  467.3588
 161  396.7274
 162  421.9739
 163  564.0901
 164  501.8284
 165  386.506
 166  415.6362
 167  370.7234
 168  453.7744
 169  530.4448
 170  473.8389
 171  495.5859
 172  537.2964
 173  521.3644
 174  463.2645
 175  521.8974
 176  542.1638
 177  612.4494
 178  590.1136
 179  539.4679
 180  629.4434
 181  737.9547
 182  746.8194
 183  608.8561
 184  498.079
 185  614.2604
 186  609.564
 187  678.7952
 188  761.6697
 189  585.8567
 190  552.4156
 191  576.399
 192  537.7531
 193  564.3081
 194  569.2828
 195  587.4559
 196  597.066
 197  513.6036
 198  506.9236
 199  557.533
 200  479.0525
 201  551.9161
 202  434.2305
 203  384.5417
 204  502.4053
 205  483.5955
 206  459.9336
 207  466.4147
 208  560.6046
 209  539.7057
 210  475.6932
 211  470.8973
 212  525.6345
 213  585.7112
 214  576.8506
 215  633.1197
 216  697.7189
 217  774.6046
 218  872.5631
 219  1089.775
 220  1062.441
 221  1095.451
 222  1028.788
 223  839.7734
 224  608.9142
 225  612.5887
 226  694.8168
 227  611.429
 228  494.8098
 229  531.2596
 230  427.1235
 231  479.8676
 232  604.9935
 233  640.6855
 234  659.6425
 235  580.1987
 236  468.0326
 237  471.3502
 238  481.884
 239  455.8288
 240  343.7998
 241  271.2465
 242  249.1434
 243  297.2599
 244  314.1711
 245  513.2488
 246  436.1756
 247  338.881
 248  257.2752
 249  335.767
 250  329.0334
 251  331.9202
 252  305.9842
 253  281.0429
 254  213.6263
 255  269.0022
 256  307.3343
 257  344.1066
 258  418.5573
 259  500.3445
 260  557.394
 261  523.4929
 262  481.3022
 263  458.3881
 264  456.4716
 265  398.4284
 266  525.7962
 267  504.5687
 268  525.2804
 269  410.8743
 270  483.9823
 271  452.7941
 272  441.5808
 273  368.6664
 274  457.8297
 275  581.6186
 276  651.5081
 277  578.6135
 278  572.5693
 279  435.7951
 280  482.4403
 281  470.1493
 282  520.2784
 283  469.9024
 284  452.0409
 285  562.0898
 286  407.503
 287  358.3401
 288  437.1147
 289  394.5869
 290  517.8514
 291  494.6498
 292  550.2117
 293  475.0184
 294  402.2278
 295  403.0175
 296  523.7799
 297  485.468
 298  557.4685
 299  495.2101
 300  436.2337
 301  436.3739
 302  477.6118
 303  590.2782
 304  597.3751
 305  520.4221
 306  446.3214
 307  433.352
 308  530.5345
 309  565.775
 310  488.5154
 311  580.4382
 312  510.2357
 313  515.4725
 314  507.9084
 315  498.9182
 316  505.6885
 317  461.8895
 318  447.065
 319  478.2234
 320  495.2534
 321  543.1995
 322  452.7885
 323  478.4744
 324  425.329
 325  425.9862
 326  471.1479
 327  366.5968
 328  393.6062
 329  499.586
 330  412.0267
 331  329.8231
 332  481.0349
 333  437.7504
 334  387.5181
 335  440.9054
 336  484.8473
 337  346.3774
 338  290.404
 339  465.1918
 340  440.9662
 341  483.5544
 342  449.3448
 343  457.4755
 344  424.7767
 345  478.9759
 346  564.8972
 347  604.69
 348  560.6003
 349  632.147
 350  639.7464
 351  576.9899
 352  551.8713
 353  502.1153
 354  562.298
 355  637.3694
 356  607.3317
 357  578.9642
 358  527.6953
 359  421.7157
 360  432.1387
 361  552.1904
 362  610.899
 363  593.188
 364  507.9955
 365  496.6442
 366  550.7533
 367  488.7852
 368  617.715
 369  617.3846
 370  608.2776
 371  621.3584
 372  600.4491
 373  563.9092
 374  599.1498
 375  635.1627
 376  521.2184
 377  453.5255
 378  569.5192
 379  556.835
 380  489.601
 381  511.6201
 382  471.9409
 383  491.153
 384  567.1014
 385  550.5869
 386  459.3709
 387  595.9615
 388  710.2307
 389  512.9116
 390  621.9993
 391  653.9478
 392  629.3441
 393  635.2993
 394  717.8086
 395  676.4698
 396  480.7509
 397  485.3939
 398  531.6075
 399  419.5596
 400  386.9983
 401  522.7385
 402  506.0641
 403  609.7405
 404  525.2982
 405  535.4841
 406  344.8197
 407  282.042
 408  446.7961
 409  464.7774
 410  385.6909
 411  366.6386
 412  312.9926
 413  375.7154
 414  242.4972
 415  233.8277
 416  288.1227
 417  316.2772
 418  328.4093
 419  396.4689
 420  402.8966
 421  396.4902
 422  306.6917
 423  340.0852
 424  293.0178
 425  366.7931
 426  414.9008
 427  545.7137
 428  546.3708
 429  473.1927
 430  425.9815
 431  498.3432
 432  543.19
 433  598.8731
 434  587.6794
 435  551.5027
 436  563.1636
 437  590.4915
 438  606.868
 439  657.7281
 440  545.0496
 441  454.3785
 442  470.3889
 443  440.7002
 444  543.6895
 445  458.8096
 446  450.8007
 447  509.0133
 448  459.4358
 449  530.6794
 450  574.7544
 451  527.5314
 452  404.8315
 453  379.1547
 454  445.9202
 455  478.8254
 456  413.9435
 457  366.2597
 458  282.9037
 459  311.3458
 460  417.6435
 461  548.7785
 462  527.3497
 463  399.1613
 464  378.7286
 465  340.7472
 466  326.6863
 467  323.9445
 468  487.8347
 469  582.486
 470  482.9915
 471  537.2798
 472  600.551
 473  458.0008
 474  526.3093
 475  567.6714
 476  442.8476
 477  552.7304
 478  561.1785
 479  567.636
 480  469.7642
 481  489.3344
 482  568.981
 483  557.1232
 484  494.7748
 485  521.2294
 486  473.1093
 487  462.6503
 488  409.2623
 489  397.3203
 490  383.6097
 491  410.4092
 492  483.4133
 493  442.2505
 494  365.013
 495  467.2585
 496  421.3806
 497  338.3113
 498  332.6446
 499  225.7653
 500  266.0367
 501  369.1958
 502  371.8258
 503  363.0562
 504  452.1502
 505  455.2592
 506  434.6789
 507  382.9065
 508  374.3503
 509  364.4026
 510  368.7259
 511  439.8786
