# Input file       =  1180509204.106537_cleaned.dat
# Candidate        =  PSR_0332+5434
# Telescope        =  AR
# Epoch_topo       =  57907.300765121960
# Epoch_bary       =  N/A
# T_sample         =  0.002
# Data Folded      =  7340032
# Data Avg         =  0.034968895087499
# Data StdDev      =  1.00001447868693 
# Profile Bins     =  512
# Profile Avg      =  501.23211316777  
# Profile StdDev   =  119.734769953915 
# Reduced chi-sqr  =  1.144
# Prob(Noise)      <  0.0131   (~2.2 sigma)
# P_topo (ms)      =  714.514342833554  +/- 0.00071
# P'_topo (s/s)    =  -0                +/- 3.75e-10
# P''_topo (s/s^2) =  0                 +/- 1.65e-13
# P_bary (ms)      =  N/A
# P'_bary (s/s)    =  N/A
# P''_bary (s/s^2) =  N/A
# P_orb (s)        =  N/A
# asin(i)/c (s)    =  N/A
# eccentricity     =  N/A
# w (rad)          =  N/A
# T_peri           =  N/A
######################################################
   0  348.4152
   1  488.6926
   2  506.2651
   3  464.8494
   4  441.5381
   5  391.2816
   6  473.0292
   7  452.2031
   8  515.4731
   9  406.9618
  10  451.3173
  11  429.6452
  12  515.7903
  13  496.1079
  14  460.7242
  15  481.116
  16  502.8614
  17  432.3717
  18  456.912
  19  442.1917
  20  488.0719
  21  440.9379
  22  470.97
  23  467.9806
  24  425.6929
  25  462.5134
  26  572.2589
  27  500.6629
  28  439.0459
  29  426.6454
  30  459.361
  31  451.7948
  32  450.8206
  33  382.6502
  34  403.5008
  35  439.1553
  36  517.1566
  37  611.9276
  38  538.0905
  39  503.7018
  40  451.8765
  41  526.152
  42  605.8113
  43  385.5497
  44  395.2865
  45  412.7936
  46  437.9467
  47  458.7082
  48  487.5692
  49  458.7738
  50  358.9111
  51  354.8345
  52  398.4008
  53  419.2491
  54  489.4384
  55  508.7726
  56  466.4023
  57  423.2991
  58  419.4626
  59  423.6274
  60  419.4352
  61  403.7945
  62  418.0649
  63  434.6628
  64  356.9792
  65  465.4103
  66  406.1166
  67  389.273
  68  400.5372
  69  342.196
  70  417.379
  71  369.9714
  72  336.6657
  73  350.5315
  74  405.038
  75  465.3294
  76  440.0398
  77  382.5223
  78  414.5828
  79  404.1728
  80  391.8481
  81  536.5082
  82  455.4571
  83  470.3245
  84  495.0833
  85  480.6005
  86  420.2432
  87  460.3648
  88  483.255
  89  509.5667
  90  602.6051
  91  463.7991
  92  356.9474
  93  421.392
  94  413.5478
  95  455.3218
  96  406.5963
  97  467.5284
  98  445.1678
  99  336.7421
 100  458.0962
 101  502.1066
 102  521.8678
 103  434.6046
 104  305.226
 105  368.9165
 106  427.7982
 107  359.4091
 108  442.5768
 109  396.7156
 110  474.2491
 111  451.9951
 112  429.5977
 113  446.2214
 114  422.6097
 115  332.0144
 116  453.2219
 117  395.8613
 118  392.6102
 119  432.5333
 120  447.5454
 121  361.2733
 122  420.0423
 123  436.0754
 124  444.001
 125  570.6951
 126  560.2349
 127  449.6027
 128  433.6723
 129  392.3549
 130  377.6603
 131  367.8691
 132  387.1464
 133  368.7737
 134  367.5133
 135  421.5623
 136  374.7602
 137  482.6261
 138  562.2943
 139  496.5293
 140  394.3979
 141  387.1169
 142  596.6176
 143  592.2519
 144  517.6494
 145  505.1312
 146  448.8764
 147  517.9981
 148  478.3824
 149  371.2348
 150  418.8767
 151  576.9753
 152  594.2491
 153  597.4793
 154  586.7714
 155  539.7645
 156  495.9999
 157  499.4193
 158  497.7373
 159  482.8304
 160  546.1857
 161  546.5397
 162  581.9882
 163  555.7104
 164  647.4745
 165  604.653
 166  598.5436
 167  571.0768
 168  534.2827
 169  561.5301
 170  481.6691
 171  547.0812
 172  622.0783
 173  528.6196
 174  487.6984
 175  396.7159
 176  446.1474
 177  436.2987
 178  492.1308
 179  437.7778
 180  438.0782
 181  454.6143
 182  453.4019
 183  451.6142
 184  457.7402
 185  517.5354
 186  447.2197
 187  394.409
 188  349.2836
 189  377.1201
 190  532.4623
 191  539.4406
 192  489.4905
 193  411.4499
 194  477.8701
 195  491.6533
 196  553.6544
 197  633.2355
 198  526.3802
 199  421.2041
 200  516.983
 201  502.3284
 202  444.2659
 203  561.2915
 204  561.4719
 205  517.8339
 206  495.8712
 207  391.4697
 208  344.2434
 209  576.345
 210  569.5952
 211  614.9769
 212  593.6891
 213  507.7658
 214  402.6453
 215  397.4326
 216  511.946
 217  595.7557
 218  556.3871
 219  471.1151
 220  377.9997
 221  480.4867
 222  534.5723
 223  486.0852
 224  426.9846
 225  485.1395
 226  566.0684
 227  555.4623
 228  506.0352
 229  461.7642
 230  482.1479
 231  648.6125
 232  635.0572
 233  544.0634
 234  606.379
 235  565.3258
 236  375.9962
 237  438.901
 238  622.3523
 239  566.3438
 240  535.8414
 241  547.7435
 242  539.8865
 243  473.6526
 244  405.2892
 245  456.8131
 246  571.4646
 247  599.8645
 248  506.5129
 249  540.0025
 250  442.8836
 251  636.0414
 252  616.3572
 253  503.3239
 254  367.1147
 255  417.2265
 256  437.3837
 257  556.2407
 258  588.0264
 259  492.3747
 260  462.8769
 261  486.6383
 262  469.1041
 263  430.3238
 264  440.7325
 265  547.804
 266  590.9601
 267  578.6547
 268  457.6275
 269  411.1188
 270  460.0858
 271  478.746
 272  409.2603
 273  478.5624
 274  515.9297
 275  505.3579
 276  514.3062
 277  431.4061
 278  417.2318
 279  419.2685
 280  379.1375
 281  368.5026
 282  407.905
 283  479.1384
 284  447.2933
 285  591.9588
 286  603.9449
 287  492.6496
 288  492.4338
 289  476.4213
 290  498.5262
 291  584.6241
 292  570.4612
 293  660.2109
 294  506.8536
 295  599.7311
 296  694.2773
 297  620.7826
 298  545.7183
 299  541.1956
 300  557.8148
 301  578.2773
 302  574.922
 303  550.4658
 304  498.6691
 305  517.7549
 306  458.817
 307  531.9921
 308  572.3112
 309  401.7506
 310  502.5824
 311  563.933
 312  521.0303
 313  490.6187
 314  492.119
 315  503.9272
 316  517.7809
 317  509.148
 318  535.3773
 319  466.6551
 320  421.856
 321  567.3568
 322  632.1278
 323  576.4009
 324  590.8107
 325  564.7798
 326  555.8733
 327  596.0394
 328  552.0386
 329  418.6203
 330  457.0857
 331  478.1679
 332  492.0093
 333  489.95
 334  619.6935
 335  524.4868
 336  536.6808
 337  593.8644
 338  685.6729
 339  644.7256
 340  524.7565
 341  533.3525
 342  629.3876
 343  530.7859
 344  473.3739
 345  478.4282
 346  394.1539
 347  570.384
 348  541.7499
 349  572.4148
 350  623.0104
 351  554.2487
 352  475.6653
 353  434.4502
 354  484.2548
 355  562.9828
 356  504.5632
 357  475.2226
 358  452.9668
 359  368.1286
 360  473.7408
 361  520.8937
 362  602.2042
 363  587.33
 364  605.6768
 365  663.6663
 366  446.7706
 367  382.7142
 368  550.4441
 369  453.0739
 370  458.1324
 371  399.2653
 372  495.4512
 373  610.3689
 374  547.4073
 375  411.8262
 376  501.5789
 377  630.6057
 378  673.7176
 379  652.2687
 380  685.8365
 381  584.166
 382  500.4205
 383  546.1335
 384  498.6429
 385  602.4316
 386  590.9476
 387  647.5771
 388  584.5181
 389  474.2911
 390  540.312
 391  683.0172
 392  617.9619
 393  520.6074
 394  514.8003
 395  550.2168
 396  573.0322
 397  628.3044
 398  518.3891
 399  530.4446
 400  511.6054
 401  580.5237
 402  543.6934
 403  403.553
 404  426.7796
 405  424.517
 406  552.7136
 407  613.0737
 408  635.6099
 409  618.647
 410  614.2525
 411  514.0469
 412  590.3006
 413  583.5284
 414  474.4828
 415  408.5733
 416  460.9337
 417  478.021
 418  559.8406
 419  602.2666
 420  486.0896
 421  437.1118
 422  487.1753
 423  464.2863
 424  328.0956
 425  322.2606
 426  475.795
 427  490.884
 428  481.3192
 429  569.6917
 430  612.107
 431  577.5873
 432  492.0623
 433  332.0719
 434  409.1563
 435  467.2957
 436  396.6157
 437  545.2159
 438  507.567
 439  505.4765
 440  498.0577
 441  456.9906
 442  489.801
 443  521.8109
 444  456.5405
 445  451.733
 446  554.7861
 447  499.2688
 448  419.8191
 449  481.554
 450  525.8875
 451  480.3312
 452  498.7078
 453  546.3926
 454  488.1019
 455  460.8448
 456  608.4922
 457  720.1233
 458  905.0997
 459  1038.1
 460  989.0232
 461  942.8763
 462  822.0283
 463  586.1704
 464  558.074
 465  601.0461
 466  706.7857
 467  707.6672
 468  690.9123
 469  547.2598
 470  664.621
 471  818.7073
 472  674.7154
 473  637.4774
 474  638.4277
 475  600.947
 476  685.067
 477  712.025
 478  636.1429
 479  576.0681
 480  654.1107
 481  571.1609
 482  467.8161
 483  490.0296
 484  436.0003
 485  405.6902
 486  500.2464
 487  595.0577
 488  561.6195
 489  413.8201
 490  453.9747
 491  473.8243
 492  370.9477
 493  395.4031
 494  509.3712
 495  543.6982
 496  463.6021
 497  379.1673
 498  338.3965
 499  425.9783
 500  571.3572
 501  473.1173
 502  523.4219
 503  535.4956
 504  546.8174
 505  471.8381
 506  514.5908
 507  505.1484
 508  524.5438
 509  482.775
 510  436.7917
 511  421.6307
