# Input file       =  1181198473.10547_cleaned.dat
# Candidate        =  PSR_0332+5434
# Telescope        =  AR
# Epoch_topo       =  57915.278415572568
# Epoch_bary       =  N/A
# T_sample         =  0.002
# Data Folded      =  7340032
# Data Avg         =  0.0297696347621457
# Data StdDev      =  1.00000571681125 
# Profile Bins     =  512
# Profile Avg      =  426.728802099535 
# Profile StdDev   =  119.733720867936 
# Reduced chi-sqr  =  1.266
# Prob(Noise)      <  3.94e-05   (~3.9 sigma)
# P_topo (ms)      =  714.506715681072  +/- 0.000249
# P'_topo (s/s)    =  -0                +/- 1.31e-10
# P''_topo (s/s^2) =  0                 +/- 5.8e-14
# P_bary (ms)      =  N/A
# P'_bary (s/s)    =  N/A
# P''_bary (s/s^2) =  N/A
# P_orb (s)        =  N/A
# asin(i)/c (s)    =  N/A
# eccentricity     =  N/A
# w (rad)          =  N/A
# T_peri           =  N/A
######################################################
   0  944.9492
   1  1002.058
   2  843.0321
   3  584.816
   4  418.8585
   5  461.5527
   6  403.8637
   7  315.1717
   8  294.1752
   9  358.5503
  10  353.6799
  11  517.657
  12  474.7953
  13  420.8655
  14  405.0845
  15  459.3492
  16  450.8774
  17  357.2318
  18  431.2104
  19  381.0508
  20  305.5813
  21  297.9792
  22  403.6366
  23  508.3005
  24  458.7227
  25  356.243
  26  357.7261
  27  382.3221
  28  428.5198
  29  490.584
  30  482.8701
  31  457.7184
  32  498.5827
  33  511.3968
  34  492.855
  35  484.8139
  36  500.5276
  37  415.9341
  38  399.6696
  39  347.8508
  40  384.2579
  41  436.484
  42  427.9327
  43  429.3874
  44  406.1895
  45  425.5006
  46  364.0767
  47  411.8348
  48  360.3488
  49  341.4058
  50  291.2125
  51  280.3299
  52  297.8104
  53  224.7079
  54  268.9822
  55  201.9146
  56  349.6545
  57  395.9189
  58  455.1526
  59  426.6086
  60  366.725
  61  414.635
  62  440.5235
  63  353.6748
  64  345.8344
  65  439.1687
  66  456.3373
  67  442.4603
  68  416.3921
  69  451.182
  70  321.4405
  71  344.7685
  72  341.2294
  73  398.2443
  74  480.566
  75  496.4176
  76  459.0719
  77  380.0784
  78  378.965
  79  341.5947
  80  369.0556
  81  445.8235
  82  405.2477
  83  319.8049
  84  368.3926
  85  314.7383
  86  373.4218
  87  429.0272
  88  397.7831
  89  396.7835
  90  364.2708
  91  315.5689
  92  317.2698
  93  284.5919
  94  128.6567
  95  226.6026
  96  261.5566
  97  269.609
  98  259.1242
  99  360.0201
 100  409.2081
 101  325.7601
 102  419.057
 103  362.7043
 104  352.1228
 105  248.6817
 106  224.5404
 107  317.7611
 108  231.0711
 109  219.6917
 110  276.7696
 111  315.0256
 112  309.9204
 113  491.1151
 114  484.1585
 115  344.5028
 116  322.3625
 117  335.0502
 118  427.5086
 119  416.9623
 120  424.2418
 121  524.9022
 122  452.5952
 123  342.5896
 124  243.5354
 125  326.3791
 126  406.718
 127  427.6378
 128  312.255
 129  310.0896
 130  341.4869
 131  387.6519
 132  445.5257
 133  328.2963
 134  266.2744
 135  280.0174
 136  268.8778
 137  257.8767
 138  351.4198
 139  318.5258
 140  372.7671
 141  323.6423
 142  280.677
 143  280.0071
 144  347.3228
 145  332.2516
 146  261.5641
 147  306.9144
 148  347.4729
 149  313.4733
 150  268.1496
 151  312.8924
 152  398.5204
 153  415.2497
 154  413.5293
 155  423.5369
 156  460.1136
 157  470.9358
 158  420.5596
 159  403.2188
 160  382.52
 161  347.9629
 162  375.1543
 163  472.9074
 164  539.0625
 165  350.603
 166  365.2846
 167  408.8466
 168  409.935
 169  413.6534
 170  477.8995
 171  553.1166
 172  557.3692
 173  296.7233
 174  422.1505
 175  557.2385
 176  474.9226
 177  403.2388
 178  440.0002
 179  411.3188
 180  426.0009
 181  329.3058
 182  352.9956
 183  460.4969
 184  387.1766
 185  348.3489
 186  455.0313
 187  505.9701
 188  435.9034
 189  434.2202
 190  534.6298
 191  455.2444
 192  575.2366
 193  449.5698
 194  359.1157
 195  396.9191
 196  364.4724
 197  406.6453
 198  344.7824
 199  512.4813
 200  548.9823
 201  418.8151
 202  347.2371
 203  514.4477
 204  531.996
 205  456.7032
 206  532.4634
 207  518.7421
 208  494.7767
 209  401.2793
 210  395.4324
 211  423.7047
 212  511.3238
 213  570.5095
 214  581.2606
 215  562.6869
 216  447.3099
 217  511.134
 218  499.434
 219  517.128
 220  571.5245
 221  533.0859
 222  403.0469
 223  327.7967
 224  375.7748
 225  342.9403
 226  306.9529
 227  362.5601
 228  405.8852
 229  458.9073
 230  476.3693
 231  401.5231
 232  260.3928
 233  427.348
 234  360.1677
 235  236.1726
 236  371.2139
 237  399.2501
 238  400.9198
 239  347.9614
 240  440.7479
 241  389.542
 242  405.0171
 243  545.0413
 244  537.8854
 245  475.238
 246  567.974
 247  567.3636
 248  505.5349
 249  550.8581
 250  580.5848
 251  505.684
 252  531.627
 253  459.0803
 254  504.5213
 255  534.8859
 256  388.7232
 257  331.4373
 258  407.7937
 259  496.2103
 260  489.7045
 261  479.3315
 262  486.6257
 263  539.6053
 264  535.2969
 265  479.9212
 266  578.5256
 267  597.9911
 268  440.0663
 269  427.2277
 270  429.1176
 271  522.2631
 272  513.6393
 273  431.9148
 274  448.7539
 275  440.4958
 276  516.7863
 277  526.3237
 278  467.8951
 279  401.5328
 280  397.866
 281  375.8706
 282  468.511
 283  529.5223
 284  528.9545
 285  486.3187
 286  481.1089
 287  440.6993
 288  483.6569
 289  399.2992
 290  389.9794
 291  496.6779
 292  520.0621
 293  574.3635
 294  609.9012
 295  603.7512
 296  614.2185
 297  536.5202
 298  510.6459
 299  477.2317
 300  381.2675
 301  338.8655
 302  431.0162
 303  474.7548
 304  406.3323
 305  441.7292
 306  403.1816
 307  417.347
 308  255.0502
 309  276.3848
 310  258.4138
 311  416.7396
 312  372.532
 313  377.0763
 314  475.8051
 315  472.907
 316  433.1321
 317  348.9784
 318  340.0887
 319  374.3781
 320  368.7573
 321  316.6524
 322  226.5494
 323  324.8751
 324  546.6228
 325  433.9162
 326  347.9774
 327  470.1909
 328  408.9331
 329  360.8875
 330  352.3775
 331  493.282
 332  563.1027
 333  522.8976
 334  365.1803
 335  379.2557
 336  580.6176
 337  643.0502
 338  633.7805
 339  536.8511
 340  461.7145
 341  413.4915
 342  378.9836
 343  363.5704
 344  491.5168
 345  629.0033
 346  507.4154
 347  389.5237
 348  477.4686
 349  500.4286
 350  445.0559
 351  343.9948
 352  330.9382
 353  562.7175
 354  484.0806
 355  405.7581
 356  428.9417
 357  562.5728
 358  461.0332
 359  408.0504
 360  408.3557
 361  433.7843
 362  474.8731
 363  432.5941
 364  406.9055
 365  526.196
 366  540.4614
 367  382.2543
 368  413.6045
 369  569.7387
 370  488.1522
 371  616.3981
 372  531.3249
 373  395.7823
 374  389.7703
 375  485.0863
 376  484.6812
 377  548.3186
 378  416.735
 379  368.5351
 380  426.3589
 381  483.3596
 382  424.4193
 383  406.9685
 384  447.0171
 385  461.1845
 386  630.552
 387  541.1891
 388  347.7751
 389  389.4223
 390  517.0978
 391  514.9273
 392  398.1036
 393  437.8159
 394  295.7626
 395  339.6369
 396  448.0471
 397  404.293
 398  350.4164
 399  358.7726
 400  386.791
 401  451.9409
 402  527.4891
 403  500.2748
 404  492.1824
 405  448.3022
 406  427.0857
 407  320.812
 408  433.99
 409  520.0346
 410  389.5542
 411  354.1485
 412  484.336
 413  556.5174
 414  411.1434
 415  367.2482
 416  357.8643
 417  401.3445
 418  311.7484
 419  418.7251
 420  482.5433
 421  597.2094
 422  527.7363
 423  527.2311
 424  490.8526
 425  408.3875
 426  387.8538
 427  418.754
 428  415.379
 429  485.463
 430  374.3092
 431  321.4958
 432  412.0834
 433  333.574
 434  358.3663
 435  286.1744
 436  394.2601
 437  534.8279
 438  455.3281
 439  378.095
 440  370.6223
 441  330.2021
 442  379.9561
 443  400.1315
 444  416.2395
 445  436.5516
 446  470.2367
 447  408.9818
 448  447.1691
 449  392.0513
 450  306.7529
 451  323.4492
 452  545.3325
 453  433.7613
 454  385.8053
 455  368.6494
 456  458.1992
 457  427.5779
 458  476.2738
 459  601.4462
 460  576.1611
 461  476.982
 462  457.9305
 463  519.4447
 464  448.1684
 465  314.3604
 466  341.8623
 467  382.6839
 468  371.3185
 469  381.8874
 470  368.7685
 471  360.8105
 472  437.7253
 473  476.6181
 474  533.0443
 475  518.6466
 476  548.0547
 477  572.2008
 478  494.2297
 479  403.0063
 480  370.7435
 481  484.5165
 482  383.4786
 483  364.7819
 484  425.4899
 485  431.7081
 486  269.9924
 487  404.4329
 488  388.8953
 489  465.6796
 490  415.8183
 491  474.7324
 492  466.0138
 493  353.4405
 494  402.7179
 495  431.2657
 496  412.3499
 497  543.8756
 498  451.3044
 499  293.2217
 500  330.0039
 501  468.6729
 502  525.8956
 503  562.7082
 504  541.5136
 505  455.1776
 506  459.211
 507  490.6706
 508  549.6882
 509  663.201
 510  827.0059
 511  833.2784
