# Input file       =  1181471836.140327_cleaned.dat
# Candidate        =  PSR_0332+5434
# Telescope        =  AR
# Epoch_topo       =  57918.442339587120
# Epoch_bary       =  N/A
# T_sample         =  0.002
# Data Folded      =  7340032
# Data Avg         =  0.0357749964954104
# Data StdDev      =  1.00018029958773 
# Profile Bins     =  512
# Profile Avg      =  512.958574198806 
# Profile StdDev   =  119.754624193862 
# Reduced chi-sqr  =  1.163
# Prob(Noise)      <  0.00626   (~2.5 sigma)
# P_topo (ms)      =  714.504091354076  +/- 0.000245
# P'_topo (s/s)    =  -0                +/- 1.29e-10
# P''_topo (s/s^2) =  0                 +/- 5.7e-14
# P_bary (ms)      =  N/A
# P'_bary (s/s)    =  N/A
# P''_bary (s/s^2) =  N/A
# P_orb (s)        =  N/A
# asin(i)/c (s)    =  N/A
# eccentricity     =  N/A
# w (rad)          =  N/A
# T_peri           =  N/A
######################################################
   0  1132.095
   1  971.5782
   2  831.1569
   3  696.3766
   4  570.9663
   5  527.8715
   6  644.9206
   7  701.5267
   8  668.7808
   9  647.0757
  10  609.1711
  11  518.8381
  12  659.746
  13  676.2243
  14  501.1171
  15  536.0099
  16  541.2841
  17  586.804
  18  499.44
  19  530.2356
  20  607.9079
  21  561.7937
  22  532.2852
  23  496.0339
  24  464.7449
  25  474.7395
  26  519.1589
  27  437.2099
  28  419.1853
  29  359.2357
  30  350.1025
  31  436.859
  32  422.6156
  33  445.5685
  34  511.7556
  35  425.2197
  36  347.3568
  37  418.2498
  38  417.0838
  39  439.5408
  40  445.4648
  41  418.5711
  42  547.6397
  43  391.2372
  44  383.9586
  45  456.6244
  46  363.64
  47  369.6733
  48  509.8455
  49  548.0895
  50  517.0145
  51  470.8339
  52  597.5619
  53  647.8785
  54  567.0771
  55  537.6454
  56  439.9248
  57  467.3849
  58  549.2774
  59  421.8201
  60  360.426
  61  394.2809
  62  464.4945
  63  498.6923
  64  467.4659
  65  433.0432
  66  388.5797
  67  383.5911
  68  444.2296
  69  573.8228
  70  568.5745
  71  524.9908
  72  445.5433
  73  434.6055
  74  526.6845
  75  506.0277
  76  496.9368
  77  517.746
  78  507.6211
  79  374.1821
  80  456.0535
  81  482.5862
  82  507.1005
  83  562.1868
  84  566.45
  85  412.7306
  86  326.7128
  87  380.608
  88  513.189
  89  514.7487
  90  523.1353
  91  527.824
  92  440.4217
  93  499.0867
  94  504.7807
  95  485.0858
  96  472.0161
  97  428.6373
  98  455.0981
  99  511.2065
 100  442.4647
 101  493.8722
 102  434.7279
 103  553.1735
 104  553.316
 105  491.8394
 106  547.4197
 107  600.3524
 108  487.4833
 109  499.7047
 110  628.4869
 111  434.6148
 112  394.4573
 113  524.8288
 114  543.6545
 115  469.6315
 116  553.8408
 117  422.7365
 118  414.8936
 119  515.4673
 120  597.554
 121  504.729
 122  383.6385
 123  498.1455
 124  498.933
 125  556.116
 126  558.8644
 127  581.0015
 128  500.5834
 129  493.6024
 130  388.612
 131  557.0935
 132  619.2197
 133  541.0791
 134  519.6842
 135  489.9684
 136  434.7649
 137  576.5182
 138  505.1753
 139  524.4133
 140  483.0955
 141  510.0377
 142  548.4298
 143  427.2181
 144  544.7446
 145  573.1267
 146  459.9994
 147  405.867
 148  485.183
 149  483.3109
 150  492.6988
 151  444.4822
 152  418.4539
 153  522.8906
 154  489.3568
 155  407.3352
 156  382.3326
 157  459.7889
 158  557.9393
 159  497.9597
 160  438.5947
 161  489.8092
 162  413.8391
 163  467.8071
 164  514.4035
 165  471.8826
 166  449.3055
 167  631.2357
 168  582.3862
 169  485.814
 170  481.1635
 171  513.2113
 172  370.3814
 173  470.6878
 174  494.8496
 175  571.9514
 176  592.1639
 177  544.9786
 178  596.1625
 179  528.2071
 180  521.079
 181  470.2325
 182  396.4988
 183  452.5036
 184  459.6839
 185  565.0737
 186  606.108
 187  642.2711
 188  558.0915
 189  539.3609
 190  470.817
 191  453.9246
 192  427.748
 193  482.8043
 194  527.8668
 195  610.6757
 196  561.5217
 197  543.5893
 198  497.1806
 199  529.5419
 200  579.1367
 201  533.5707
 202  383.4133
 203  288.6513
 204  370.9028
 205  459.2096
 206  404.6058
 207  397.3659
 208  471.7918
 209  503.688
 210  485.8213
 211  417.7696
 212  312.7141
 213  406.0763
 214  309.1908
 215  431.8273
 216  526.0852
 217  520.8761
 218  501.3516
 219  479.5314
 220  479.481
 221  408.7964
 222  448.5291
 223  437.3502
 224  559.927
 225  615.5441
 226  666.8448
 227  696.8127
 228  641.09
 229  542.5311
 230  399.1176
 231  539.0231
 232  598.0054
 233  490.5926
 234  532.0415
 235  538.3197
 236  575.418
 237  568.6188
 238  453.5642
 239  496.9809
 240  482.1976
 241  436.2931
 242  481.6112
 243  574.7528
 244  546.2831
 245  528.7144
 246  474.5399
 247  460.6112
 248  513.387
 249  490.3416
 250  491.4766
 251  404.5789
 252  429.4271
 253  460.4668
 254  441.1153
 255  369.7872
 256  475.7473
 257  456.8729
 258  555.8633
 259  622.8522
 260  629.322
 261  554.3412
 262  524.3034
 263  610.1974
 264  666.0573
 265  568.7903
 266  599.5409
 267  699.645
 268  653.4991
 269  689.9832
 270  745.2213
 271  593.8269
 272  504.2631
 273  616.4595
 274  528.3867
 275  553.5262
 276  619.4312
 277  548.076
 278  600.0532
 279  467.5713
 280  494.0435
 281  555.4579
 282  593.4843
 283  502.8795
 284  577.1688
 285  604.1158
 286  551.8784
 287  490.4746
 288  545.9011
 289  598.9277
 290  552.9872
 291  572.6954
 292  484.49
 293  434.3213
 294  439.9806
 295  441.245
 296  455.3275
 297  498.9806
 298  570.7955
 299  525.2432
 300  534.6682
 301  434.6161
 302  440.3845
 303  414.5529
 304  478.3452
 305  497.729
 306  403.2992
 307  348.6197
 308  432.9108
 309  490.9784
 310  425.3323
 311  443.4059
 312  593.5184
 313  472.7654
 314  300.0107
 315  326.5015
 316  397.0189
 317  418.2902
 318  423.0291
 319  428.3214
 320  498.6705
 321  420.5959
 322  342.5511
 323  478.5982
 324  482.2261
 325  341.8447
 326  304.4987
 327  403.1422
 328  504.0471
 329  602.8675
 330  696.9767
 331  520.3716
 332  413.6183
 333  495.685
 334  538.4052
 335  568.8555
 336  435.8912
 337  363.2629
 338  367.7335
 339  510.998
 340  427.4736
 341  491.8115
 342  372.6951
 343  484.5975
 344  560.3582
 345  463.2731
 346  434.9591
 347  566.7562
 348  721.215
 349  604.507
 350  584.9199
 351  560.2838
 352  555.515
 353  634.3801
 354  671.4944
 355  602.8143
 356  546.2563
 357  519.2626
 358  613.8721
 359  665.4924
 360  610.4102
 361  578.1976
 362  457.5785
 363  522.4882
 364  526.2198
 365  472.4068
 366  408.6017
 367  491.4471
 368  560.2454
 369  444.8946
 370  373.3628
 371  455.8256
 372  421.1668
 373  500.0789
 374  466.253
 375  602.5287
 376  590.6107
 377  584.1485
 378  512.1245
 379  554.9174
 380  465.3441
 381  331.6721
 382  368.4764
 383  455.8926
 384  496.5344
 385  537.6801
 386  486.5253
 387  595.7656
 388  621.9718
 389  492.2681
 390  469.6205
 391  417.9951
 392  431.4447
 393  550.2022
 394  621.5978
 395  616.9205
 396  575.3465
 397  523.9774
 398  582.0376
 399  549.0995
 400  523.7926
 401  511.621
 402  498.6868
 403  558.7361
 404  500.9771
 405  494.3558
 406  476.2868
 407  527.7535
 408  470.2254
 409  420.5632
 410  551.2339
 411  562.3186
 412  469.0581
 413  513.5072
 414  475.7423
 415  512.5919
 416  456.1712
 417  554.743
 418  567.2737
 419  526.6333
 420  631.39
 421  515.7369
 422  502.1767
 423  573.8311
 424  582.8813
 425  511.211
 426  533.5746
 427  487.0584
 428  524.8199
 429  491.4377
 430  401.283
 431  401.9596
 432  554.688
 433  553.0224
 434  543.4266
 435  589.7607
 436  563.8304
 437  558.3217
 438  510.3617
 439  514.4127
 440  474.423
 441  515.2209
 442  566.8762
 443  589.815
 444  499.006
 445  557.3899
 446  586.4827
 447  606.3529
 448  563.9769
 449  565.7551
 450  606.2488
 451  543.6725
 452  431.7585
 453  477.7884
 454  431.9227
 455  410.8908
 456  591.1427
 457  515.9623
 458  418.0881
 459  425.8661
 460  497.2687
 461  535.2719
 462  610.78
 463  573.4048
 464  484.9849
 465  547.2589
 466  417.9713
 467  360.1588
 468  469.1966
 469  544.2806
 470  485.1706
 471  431.0221
 472  463.1847
 473  433.0668
 474  536.3185
 475  546.1533
 476  442.5063
 477  487.8404
 478  591.1635
 479  498.6018
 480  533.0637
 481  578.4059
 482  587.8701
 483  525.6069
 484  566.2203
 485  574.5128
 486  473.3229
 487  549.8477
 488  637.8994
 489  672.0995
 490  666.1547
 491  621.2905
 492  615.0265
 493  573.1347
 494  580.9384
 495  566.8062
 496  615.4362
 497  610.7331
 498  562.2625
 499  462.5201
 500  505.0104
 501  521.5369
 502  464.4183
 503  434.4677
 504  618.5503
 505  636.5681
 506  605.9843
 507  590.349
 508  735.5093
 509  811.6941
 510  912.5132
 511  1113.857
