# Input file       =  1181644201.115532_cleaned.dat
# Candidate        =  PSR_0332+5434
# Telescope        =  AR
# Epoch_topo       =  57920.437304577914
# Epoch_bary       =  N/A
# T_sample         =  0.002
# Data Folded      =  7340032
# Data Avg         =  0.0384902669948122
# Data StdDev      =  1.00017631900489 
# Profile Bins     =  512
# Profile Avg      =  551.900934810236 
# Profile StdDev   =  119.754147586593 
# Reduced chi-sqr  =  1.082
# Prob(Noise)      <  0.0986   (~1.3 sigma)
# P_topo (ms)      =  714.502249567712  +/- 0.000132
# P'_topo (s/s)    =  -0                +/- 6.95e-11
# P''_topo (s/s^2) =  0                 +/- 3.07e-14
# P_bary (ms)      =  N/A
# P'_bary (s/s)    =  N/A
# P''_bary (s/s^2) =  N/A
# P_orb (s)        =  N/A
# asin(i)/c (s)    =  N/A
# eccentricity     =  N/A
# w (rad)          =  N/A
# T_peri           =  N/A
######################################################
   0  948.2165
   1  890.0877
   2  850.672
   3  757.8834
   4  696.0233
   5  637.4836
   6  556.994
   7  654.015
   8  546.9424
   9  477.6622
  10  619.2039
  11  698.0794
  12  714.422
  13  749.3845
  14  597.0557
  15  615.2501
  16  627.09
  17  598.624
  18  534.5084
  19  592.6763
  20  561.597
  21  566.1823
  22  588.3666
  23  694.1572
  24  707.1569
  25  590.1855
  26  492.2714
  27  538.0249
  28  641.6292
  29  675.7729
  30  634.7497
  31  582.8698
  32  570.0722
  33  525.5375
  34  593.4254
  35  634.5305
  36  572.7922
  37  619.0453
  38  573.713
  39  568.7451
  40  400.2918
  41  349.2343
  42  503.7604
  43  502.7415
  44  617.7872
  45  612.6364
  46  525.2628
  47  533.4152
  48  559.1172
  49  534.3339
  50  481.2215
  51  427.4077
  52  517.1722
  53  700.7335
  54  657.1009
  55  654.6249
  56  739.2023
  57  690.0485
  58  643.746
  59  789.4187
  60  695.0023
  61  571.7414
  62  539.2759
  63  628.9512
  64  715.3411
  65  622.3452
  66  580.7541
  67  630.7411
  68  603.2475
  69  579.549
  70  505.1454
  71  628.0518
  72  570.5706
  73  569.7297
  74  588.5188
  75  592.4227
  76  577.1189
  77  539.1752
  78  517.6161
  79  572.3665
  80  576.4974
  81  611.5862
  82  575.1191
  83  571.937
  84  609.2728
  85  583.6299
  86  608.668
  87  609.101
  88  532.0002
  89  464.7256
  90  525.2515
  91  586.6367
  92  609.3765
  93  541.3584
  94  520.7078
  95  600.1729
  96  593.8787
  97  508.7821
  98  451.4456
  99  566.9944
 100  399.2835
 101  437.7096
 102  487.4998
 103  548.4533
 104  729.6865
 105  676.7708
 106  641.8931
 107  576.3143
 108  535.7723
 109  479.5761
 110  598.9631
 111  590.3511
 112  698.8558
 113  696.2837
 114  737.9794
 115  773.2175
 116  705.5203
 117  751.155
 118  656.2869
 119  593.2433
 120  607.8212
 121  732.8829
 122  564.6787
 123  577.814
 124  668.0646
 125  619.4764
 126  630.6756
 127  569.2625
 128  580.9417
 129  571.2595
 130  639.3606
 131  688.0095
 132  598.197
 133  562.8387
 134  667.1966
 135  616.3339
 136  457.5478
 137  501.2919
 138  507.8117
 139  569.3662
 140  604.2151
 141  509.3025
 142  408.4744
 143  527.2222
 144  568.3152
 145  471.9033
 146  490.8371
 147  602.0801
 148  518.7359
 149  603.7436
 150  659.5609
 151  555.4259
 152  499.6833
 153  505.5124
 154  613.3929
 155  639.1292
 156  544.1946
 157  586.1193
 158  615.4182
 159  555.0183
 160  531.9916
 161  544.8784
 162  511.3626
 163  513.4636
 164  505.0598
 165  524.2928
 166  515.0983
 167  507.538
 168  500.9433
 169  496.8277
 170  435.6038
 171  465.1313
 172  355.4863
 173  323.1416
 174  462.4432
 175  509.1886
 176  473.8996
 177  428.2512
 178  518.2457
 179  499.5402
 180  566.9952
 181  608.3602
 182  540.5547
 183  383.9885
 184  446.6064
 185  475.635
 186  440.7848
 187  590.6509
 188  626.248
 189  563.0229
 190  550.538
 191  578.8382
 192  673.7107
 193  643.8487
 194  546.3343
 195  515.303
 196  683.144
 197  794.2831
 198  675.3311
 199  570.2325
 200  549.5648
 201  480.7714
 202  512.1476
 203  531.951
 204  552.3543
 205  516.0759
 206  457.9553
 207  399.4273
 208  434.7642
 209  440.271
 210  503.4902
 211  533.1372
 212  602.9434
 213  493.6985
 214  433.724
 215  431.9087
 216  506.7652
 217  525.3022
 218  455.6687
 219  503.5671
 220  580.3604
 221  575.9792
 222  439.7515
 223  420.4544
 224  584.6306
 225  553.9721
 226  574.9117
 227  554.1154
 228  485.3781
 229  503.5459
 230  542.4324
 231  606.0836
 232  540.1609
 233  536.2468
 234  629.9661
 235  742.5906
 236  699.0473
 237  580.4105
 238  630.7161
 239  737.308
 240  698.5766
 241  620.5271
 242  478.7012
 243  489.881
 244  487.4117
 245  567.9672
 246  601.1854
 247  588.1057
 248  604.4312
 249  593.8944
 250  731.0089
 251  680.7872
 252  545.6081
 253  452.0977
 254  537.9991
 255  615.3118
 256  497.2551
 257  559.7203
 258  534.3882
 259  496.4638
 260  526.9499
 261  536.154
 262  536.6379
 263  474.2906
 264  481.4562
 265  480.6602
 266  428.0221
 267  525.5232
 268  583.9233
 269  550.2548
 270  548.8818
 271  542.8398
 272  526.1376
 273  478.7786
 274  451.6814
 275  455.0733
 276  499.4767
 277  594.6804
 278  556.9229
 279  491.7666
 280  627.9575
 281  698.1451
 282  608.0724
 283  625.8608
 284  501.2131
 285  517.5992
 286  521.6349
 287  515.9315
 288  522.2811
 289  603.0695
 290  586.4069
 291  452.5323
 292  438.8176
 293  544.0627
 294  446.6186
 295  589.9604
 296  590.1111
 297  577.1479
 298  508.676
 299  453.1672
 300  453.5797
 301  524.1632
 302  556.1398
 303  468.254
 304  448.1302
 305  432.3345
 306  342.8245
 307  494.1042
 308  544.2866
 309  545.7505
 310  478.3007
 311  544.3622
 312  514.653
 313  444.3937
 314  553.1438
 315  546.8761
 316  516.3771
 317  559.2227
 318  562.0582
 319  536.747
 320  507.255
 321  632.931
 322  584.9131
 323  677.5931
 324  778.3191
 325  677.7057
 326  685.8527
 327  632.2313
 328  663.1201
 329  588.6494
 330  515.0977
 331  502.8388
 332  539.2168
 333  589.3077
 334  551.5285
 335  579.8489
 336  498.205
 337  547.4107
 338  592.4706
 339  578.9521
 340  596.2222
 341  566.7275
 342  532.5356
 343  583.5161
 344  631.9808
 345  552.4053
 346  431.181
 347  422.0904
 348  508.9533
 349  687.6619
 350  551.279
 351  507.8056
 352  532.7825
 353  430.2955
 354  520.1762
 355  563.8439
 356  622.4019
 357  505.9765
 358  517.4865
 359  544.4788
 360  649.9792
 361  592.8258
 362  498.5283
 363  546.9674
 364  486.3298
 365  450.4422
 366  471.0321
 367  453.4058
 368  449.7292
 369  439.4563
 370  523.7311
 371  448.172
 372  452.5735
 373  525.157
 374  582.5012
 375  509.2936
 376  676.8628
 377  665.7558
 378  560.5728
 379  571.3364
 380  532.967
 381  414.1472
 382  444.2437
 383  574.7144
 384  669.4593
 385  436.694
 386  365.7419
 387  429.5536
 388  527.8697
 389  536.2961
 390  431.1995
 391  404.4532
 392  385.3794
 393  495.7109
 394  567.3409
 395  462.6074
 396  403.6879
 397  499.8655
 398  492.5426
 399  579.702
 400  511.3048
 401  379.7335
 402  313.6631
 403  450.7323
 404  503.2592
 405  470.3315
 406  370.6032
 407  474.3869
 408  558.8746
 409  551.7479
 410  493.8961
 411  554.2795
 412  627.0483
 413  551.7769
 414  430.6847
 415  418.4099
 416  515.0563
 417  564.0361
 418  488.0338
 419  490.9325
 420  538.085
 421  609.387
 422  644.0826
 423  578.308
 424  477.6575
 425  469.4279
 426  473.282
 427  483.3969
 428  483.5673
 429  485.3588
 430  430.7058
 431  556.6636
 432  550.8155
 433  548.4817
 434  521.235
 435  472.2588
 436  521.0237
 437  432.9794
 438  467.6566
 439  369.2097
 440  340.277
 441  496.4541
 442  458.2281
 443  381.8049
 444  392.9005
 445  508.2009
 446  595.1995
 447  691.3426
 448  559.8729
 449  509.6504
 450  542.1926
 451  627.6865
 452  630.5367
 453  563.6823
 454  564.9632
 455  473.4268
 456  433.5465
 457  539.6597
 458  437.1421
 459  444.4083
 460  625.1558
 461  717.3514
 462  566.8635
 463  408.9348
 464  460.4214
 465  526.9695
 466  461.8426
 467  518.6271
 468  568.5778
 469  444.3147
 470  523.3675
 471  591.4015
 472  491.9709
 473  534.868
 474  511.1647
 475  509.6664
 476  502.3721
 477  538.788
 478  549.1701
 479  525.6873
 480  496.2462
 481  378.3138
 482  448.3319
 483  436.7116
 484  474.7998
 485  454.5938
 486  550.0044
 487  451.1669
 488  533.8506
 489  654.2165
 490  644.1203
 491  630.1625
 492  531.6777
 493  652.2282
 494  704.6719
 495  624.2962
 496  576.2869
 497  563.6145
 498  552.3234
 499  516.1432
 500  515.3286
 501  564.0056
 502  610.5852
 503  613.8811
 504  575.7211
 505  490.3269
 506  598.8068
 507  687.9352
 508  710.7646
 509  770.9305
 510  825.0158
 511  935.2358
