# Input file       =  1182404838.106733_cleaned.dat
# Candidate        =  PSR_0332+5434
# Telescope        =  AR
# Epoch_topo       =  57929.240973457556
# Epoch_bary       =  N/A
# T_sample         =  0.002
# Data Folded      =  7340032
# Data Avg         =  0.0469556174057087
# Data StdDev      =  1.00014711564416 
# Profile Bins     =  512
# Profile Avg      =  673.146914461544 
# Profile StdDev   =  119.75065097954  
# Reduced chi-sqr  =  1.063
# Prob(Noise)      <  0.156   (~1.0 sigma)
# P_topo (ms)      =  714.494044418318  +/- 0.000233
# P'_topo (s/s)    =  -0                +/- 1.23e-10
# P''_topo (s/s^2) =  0                 +/- 5.42e-14
# P_bary (ms)      =  N/A
# P'_bary (s/s)    =  N/A
# P''_bary (s/s^2) =  N/A
# P_orb (s)        =  N/A
# asin(i)/c (s)    =  N/A
# eccentricity     =  N/A
# w (rad)          =  N/A
# T_peri           =  N/A
######################################################
   0  677.6597
   1  846.7673
   2  984.3098
   3  984.9076
   4  872.8727
   5  853.8939
   6  787.8994
   7  744.3969
   8  665.2347
   9  762.4067
  10  795.8331
  11  693.6774
  12  626.4634
  13  683.8168
  14  633.394
  15  679.1812
  16  686.2785
  17  565.6322
  18  589.5477
  19  658.5176
  20  781.3109
  21  724.3523
  22  668.787
  23  600.2133
  24  568.6357
  25  539.7647
  26  598.629
  27  633.8332
  28  659.1015
  29  670.2804
  30  699.913
  31  736.5742
  32  708.7519
  33  692.5726
  34  639.4509
  35  648.1387
  36  687.3481
  37  688.4292
  38  669.3496
  39  624.7487
  40  643.5308
  41  721.6694
  42  757.2011
  43  702.6515
  44  700.0269
  45  643.5756
  46  677.0412
  47  754.6388
  48  624.0411
  49  653.9357
  50  644.6723
  51  678.989
  52  636.5891
  53  625.8784
  54  722.1473
  55  708.737
  56  702.2685
  57  660.766
  58  532.2537
  59  520.3464
  60  469.3039
  61  442.1204
  62  580.5804
  63  602.8901
  64  540.558
  65  474.6555
  66  554.2402
  67  547.7131
  68  560.743
  69  506.7085
  70  525.3334
  71  505.4628
  72  557.0242
  73  610.9613
  74  599.7317
  75  481.7899
  76  561.8884
  77  568.6879
  78  526.3728
  79  477.446
  80  512.3978
  81  555.6613
  82  673.0405
  83  722.0361
  84  649.1065
  85  619.2806
  86  586.1059
  87  707.3348
  88  683.941
  89  683.7877
  90  698.2826
  91  670.4043
  92  550.3326
  93  617.3174
  94  691.9892
  95  638.5731
  96  614.3637
  97  573.5551
  98  572.5961
  99  641.0908
 100  667.783
 101  659.4532
 102  555.8538
 103  589.681
 104  634.3099
 105  589.3956
 106  630.1241
 107  621.999
 108  596.0303
 109  550.2235
 110  542.7307
 111  607.3756
 112  565.0629
 113  594.605
 114  530.257
 115  602.5687
 116  676.8863
 117  773.9144
 118  864.8787
 119  1035.174
 120  1169.713
 121  1086.859
 122  1052.802
 123  1053.07
 124  801.67
 125  594.5486
 126  674.103
 127  666.7152
 128  633.9242
 129  619.0281
 130  671.7789
 131  800.208
 132  774.265
 133  722.8777
 134  763.7161
 135  820.2471
 136  759.2783
 137  720.8152
 138  692.5043
 139  661.9579
 140  630.246
 141  620.5964
 142  646.956
 143  739.6221
 144  696.5895
 145  606.1526
 146  598.3428
 147  616.8212
 148  621.1103
 149  553.5679
 150  650.1045
 151  647.3703
 152  494.0586
 153  532.4767
 154  596.4665
 155  579.5586
 156  662.5256
 157  629.4248
 158  616.7807
 159  577.3312
 160  643.0319
 161  675.8135
 162  623.4394
 163  613.6196
 164  550.8859
 165  579.7298
 166  688.4148
 167  651.3289
 168  697.4446
 169  742.7279
 170  697.2723
 171  666.2078
 172  699.9312
 173  770.1085
 174  827.5116
 175  777.0568
 176  642.7885
 177  670.6249
 178  622.48
 179  658.3718
 180  591.2776
 181  596.9556
 182  648.0317
 183  671.183
 184  730.189
 185  663.467
 186  542.226
 187  662.2762
 188  608.594
 189  613.1348
 190  643.8927
 191  679.6383
 192  680.8548
 193  751.1346
 194  708.1046
 195  589.3578
 196  609.679
 197  623.9525
 198  600.9532
 199  630.8022
 200  615.8802
 201  624.9573
 202  557.7696
 203  596.8409
 204  616.3035
 205  627.3478
 206  635.0878
 207  643.8681
 208  572.8607
 209  577.7859
 210  597.4932
 211  577.3463
 212  570.3494
 213  593.4766
 214  733.8932
 215  756.3884
 216  724.3998
 217  705.3912
 218  730.3217
 219  626.2654
 220  750.6472
 221  741.0654
 222  722.9277
 223  705.6949
 224  675.0839
 225  714.9201
 226  738.2961
 227  663.4553
 228  575.7565
 229  530.9773
 230  574.7083
 231  576.8568
 232  520.2277
 233  581.2532
 234  626.2103
 235  642.4166
 236  689.0552
 237  650.3803
 238  759.0352
 239  728.8085
 240  718.8033
 241  690.5635
 242  708.3605
 243  713.2237
 244  654.4156
 245  595.8097
 246  618.1424
 247  585.9003
 248  598.084
 249  586.0554
 250  648.0302
 251  715.3817
 252  662.3737
 253  644.4191
 254  736.9446
 255  793.9884
 256  776.1497
 257  735.5491
 258  687.4581
 259  755.6606
 260  765.4934
 261  716.5756
 262  666.0317
 263  599.8876
 264  666.9976
 265  733.4609
 266  719.75
 267  771.1189
 268  640.9137
 269  641.9498
 270  672.2704
 271  653.8054
 272  713.7056
 273  729.7817
 274  785.7032
 275  785.9372
 276  713.0304
 277  739.735
 278  705.5494
 279  614.9392
 280  668.4448
 281  589.7973
 282  564.6889
 283  606.9658
 284  548.8099
 285  585.626
 286  635.4205
 287  721.3332
 288  605.6425
 289  664.8115
 290  602.3509
 291  653.1616
 292  704.8385
 293  653.498
 294  702.8937
 295  652.5004
 296  689.5926
 297  706.6383
 298  657.895
 299  681.2415
 300  819.5963
 301  770.765
 302  785.2971
 303  847.5787
 304  802.0027
 305  681.5159
 306  737.0348
 307  848.8596
 308  827.2931
 309  837.8486
 310  809.4174
 311  780.6441
 312  791.9268
 313  765.3234
 314  660.7344
 315  658.2761
 316  633.5537
 317  652.0961
 318  762.1584
 319  631.1975
 320  605.2423
 321  599.6736
 322  666.445
 323  702.813
 324  703.8067
 325  671.4152
 326  671.0276
 327  680.3856
 328  795.4199
 329  675.7366
 330  650.8257
 331  637.9252
 332  691.7413
 333  683.4341
 334  674.6834
 335  685.8614
 336  572.6786
 337  541.2162
 338  602.7494
 339  672.8604
 340  762.7433
 341  683.5037
 342  805.7637
 343  831.8693
 344  721.1502
 345  677.1767
 346  708.6163
 347  766.6263
 348  674.3826
 349  706.5052
 350  724.8152
 351  701.0938
 352  710.9493
 353  676.2917
 354  797.5068
 355  873.3427
 356  741.51
 357  617.5566
 358  694.8391
 359  601.2515
 360  615.1523
 361  563.0252
 362  613.8336
 363  663.8665
 364  696.658
 365  705.9205
 366  586.4539
 367  502.1991
 368  517.4152
 369  574.9583
 370  612.7098
 371  672.395
 372  721.7842
 373  650.0432
 374  613.0023
 375  670.3505
 376  719.3044
 377  672.3499
 378  669.3304
 379  705.2298
 380  698.1735
 381  644.7833
 382  614.1184
 383  608.4445
 384  640.5453
 385  759.3194
 386  729.3155
 387  783.5268
 388  747.097
 389  691.7585
 390  788.9817
 391  740.6293
 392  768.9716
 393  777.7971
 394  759.3623
 395  728.4963
 396  703.4621
 397  728.7582
 398  740.2726
 399  794.2359
 400  816.9894
 401  717.8584
 402  691.522
 403  725.8751
 404  585.0717
 405  588.4314
 406  661.8723
 407  729.7066
 408  723.9089
 409  588.7314
 410  686.905
 411  655.4979
 412  627.32
 413  621.2531
 414  579.3974
 415  534.8433
 416  534.7601
 417  642.5114
 418  696.2565
 419  706.052
 420  506.6977
 421  511.4336
 422  590.985
 423  688.6341
 424  685.478
 425  737.1345
 426  805.8713
 427  709.4057
 428  627.4449
 429  608.9131
 430  700.6426
 431  661.2305
 432  646.514
 433  649.6088
 434  681.5028
 435  616.5802
 436  631.6661
 437  622.6117
 438  585.2652
 439  636.8055
 440  566.2371
 441  623.4299
 442  684.2046
 443  644.8747
 444  709.5073
 445  634.7675
 446  552.1243
 447  580.2403
 448  703.3568
 449  650.1163
 450  618.2564
 451  629.5474
 452  603.5986
 453  654.5815
 454  674.2305
 455  630.6586
 456  663.6548
 457  615.3247
 458  662.881
 459  708.2939
 460  682.0909
 461  659.9269
 462  749.5718
 463  771.0645
 464  840.4253
 465  746.1209
 466  746.2148
 467  775.0673
 468  785.0176
 469  769.332
 470  737.3897
 471  770.9807
 472  813.8868
 473  739.4264
 474  750.7084
 475  853.7683
 476  841.2479
 477  859.994
 478  795.3029
 479  662.5571
 480  726.1201
 481  708.35
 482  694.1011
 483  701.475
 484  725.3282
 485  760.6802
 486  795.5656
 487  750.0615
 488  774.9658
 489  707.7091
 490  589.5028
 491  619.0402
 492  689.0739
 493  737.1439
 494  697.9508
 495  645.6521
 496  638.0903
 497  637.5443
 498  619.1143
 499  656.1743
 500  700.3709
 501  616.05
 502  580.6219
 503  616.3618
 504  666.9106
 505  678.2007
 506  776.5554
 507  791.4288
 508  738.3162
 509  706.0787
 510  662.3055
 511  706.488
