# Input file       =  1182678199.116364_cleaned.dat
# Candidate        =  PSR_0332+5434
# Telescope        =  AR
# Epoch_topo       =  57932.404874031992
# Epoch_bary       =  N/A
# T_sample         =  0.002
# Data Folded      =  7340032
# Data Avg         =  0.0412620924697945
# Data StdDev      =  1.00008180633131 
# Profile Bins     =  512
# Profile Avg      =  591.477363466255 
# Profile StdDev   =  119.742831297208 
# Reduced chi-sqr  =  1.141
# Prob(Noise)      <  0.0149   (~2.2 sigma)
# P_topo (ms)      =  714.491693003735  +/- 6.82e-05
# P'_topo (s/s)    =  -0                +/- 3.6e-11
# P''_topo (s/s^2) =  0                 +/- 1.59e-14
# P_bary (ms)      =  N/A
# P'_bary (s/s)    =  N/A
# P''_bary (s/s^2) =  N/A
# P_orb (s)        =  N/A
# asin(i)/c (s)    =  N/A
# eccentricity     =  N/A
# w (rad)          =  N/A
# T_peri           =  N/A
######################################################
   0  1122.322
   1  1083.963
   2  945.709
   3  798.4144
   4  868.7933
   5  756.8
   6  609.806
   7  608.4434
   8  589.0956
   9  570.0273
  10  554.1768
  11  499.942
  12  559.955
  13  485.2253
  14  512.8436
  15  575.4016
  16  596.8845
  17  589.3892
  18  547.3135
  19  641.6556
  20  648.0894
  21  524.3328
  22  533.0024
  23  501.1056
  24  466.4695
  25  606.9299
  26  620.5176
  27  502.5629
  28  519.6132
  29  637.8411
  30  610.5917
  31  606.4475
  32  587.3448
  33  629.5849
  34  652.3276
  35  631.2684
  36  621.7427
  37  510.9749
  38  533.1721
  39  604.6997
  40  566.7551
  41  516.0898
  42  597.649
  43  582.1752
  44  635.0112
  45  738.9426
  46  631.653
  47  561.7295
  48  452.3233
  49  463.3255
  50  539.6521
  51  628.4845
  52  583.8434
  53  604.4835
  54  566.2479
  55  393.6388
  56  469.1453
  57  521.9423
  58  448.0353
  59  367.3523
  60  370.2045
  61  460.8021
  62  492.2036
  63  385.4953
  64  407.2028
  65  441.4528
  66  522.4289
  67  584.4081
  68  501.7479
  69  527.2172
  70  504.0149
  71  493.413
  72  559.9272
  73  515.2927
  74  463.6977
  75  534.9289
  76  525.1719
  77  469.0406
  78  445.0244
  79  429.5082
  80  428.2672
  81  535.3389
  82  614.8623
  83  578.5848
  84  479.0402
  85  539.3273
  86  655.153
  87  666.9794
  88  640.618
  89  622.2047
  90  605.0976
  91  557.6494
  92  603.7371
  93  648.86
  94  551.713
  95  504.8625
  96  511.0118
  97  518.6445
  98  538.7086
  99  503.2463
 100  493.2866
 101  501.2477
 102  486.5209
 103  448.3988
 104  453.974
 105  583.2196
 106  530.9033
 107  503.2905
 108  543.2945
 109  533.6896
 110  558.4961
 111  595.2413
 112  630.3632
 113  669.8409
 114  590.413
 115  472.534
 116  437.5123
 117  511.8426
 118  566.7881
 119  627.2736
 120  674.9
 121  529.848
 122  431.7568
 123  553.1253
 124  625.0061
 125  645.1112
 126  579.5062
 127  519.9783
 128  504.1286
 129  580.3118
 130  518.1898
 131  508.6427
 132  567.953
 133  567.8656
 134  616.9918
 135  667.3323
 136  541.3912
 137  565.1061
 138  673.6534
 139  755.1274
 140  683.2475
 141  505.7907
 142  563.2585
 143  556.2657
 144  632.4218
 145  559.9457
 146  566.0422
 147  561.9119
 148  570.158
 149  576.4904
 150  562.0829
 151  560.6729
 152  593.7385
 153  683.8683
 154  614.4498
 155  489.1295
 156  468.5148
 157  565.0459
 158  558.8467
 159  482.511
 160  470.4656
 161  479.4062
 162  664.8404
 163  695.7978
 164  596.8975
 165  579.1412
 166  640.7665
 167  643.8296
 168  600.3571
 169  629.03
 170  671.6316
 171  637.7932
 172  626.6565
 173  645.4557
 174  638.8524
 175  536.8137
 176  600.7168
 177  654.1923
 178  592.3334
 179  526.7986
 180  550.4517
 181  561.4688
 182  600.53
 183  600.0092
 184  567.7073
 185  508.929
 186  529.1169
 187  525.9329
 188  440.804
 189  374.1716
 190  494.0271
 191  587.9684
 192  550.1852
 193  495.272
 194  449.8813
 195  540.1367
 196  537.5623
 197  623.2919
 198  528.1442
 199  532.1095
 200  595.3257
 201  583.1637
 202  524.662
 203  546.6542
 204  601.671
 205  577.0648
 206  549.9584
 207  576.9149
 208  586.9606
 209  577.0616
 210  643.9202
 211  748.5043
 212  677.9412
 213  604.9068
 214  622.9083
 215  596.9033
 216  595.101
 217  572.4334
 218  600.05
 219  656.5556
 220  610.4353
 221  541.9207
 222  513.918
 223  585.3065
 224  569.6535
 225  516.8625
 226  506.7066
 227  555.2821
 228  540.6576
 229  598.0095
 230  594.7141
 231  575.9554
 232  603.1452
 233  577.9597
 234  724.549
 235  787.0406
 236  643.7239
 237  605.5225
 238  606.1893
 239  715.5778
 240  721.1845
 241  610.9034
 242  574.6761
 243  633.6119
 244  612.1631
 245  591.0331
 246  536.3278
 247  565.741
 248  623.1678
 249  562.9583
 250  557.1754
 251  656.0444
 252  600.2172
 253  527.4428
 254  553.7387
 255  640.7828
 256  561.5102
 257  599.4949
 258  614.5001
 259  531.7928
 260  574.4106
 261  623.9067
 262  646.1351
 263  683.3708
 264  609.1085
 265  525.8137
 266  546.0349
 267  597.5125
 268  708.0283
 269  709.7352
 270  621.1086
 271  535.0978
 272  613.2056
 273  613.4893
 274  677.7006
 275  551.1968
 276  506.7385
 277  590.251
 278  603.5729
 279  569.767
 280  575.1002
 281  614.1582
 282  619.4247
 283  717.3705
 284  695.783
 285  716.8414
 286  717.1445
 287  713.6171
 288  584.0691
 289  466.6318
 290  538.956
 291  656.9849
 292  656.3126
 293  716.0922
 294  643.9554
 295  633.8159
 296  661.4612
 297  690.9042
 298  680.2846
 299  596.2596
 300  622.2647
 301  699.9556
 302  695.0348
 303  711.3181
 304  667.6699
 305  686.8621
 306  652.2962
 307  679.6542
 308  703.6368
 309  516.1289
 310  554.8605
 311  630.7441
 312  527.702
 313  581.8706
 314  704.5671
 315  677.2147
 316  601.1505
 317  613.2289
 318  633.5994
 319  741.1075
 320  677.218
 321  626.4288
 322  531.17
 323  601.312
 324  668.0544
 325  637.7162
 326  607.2985
 327  535.9923
 328  440.2558
 329  491.6028
 330  598.7013
 331  522.1529
 332  570.9128
 333  625.8196
 334  592.6935
 335  620.8529
 336  608.6641
 337  566.3804
 338  671.1665
 339  684.561
 340  695.0861
 341  592.9454
 342  513.7136
 343  600.2274
 344  626.2898
 345  689.4915
 346  649.9285
 347  550.3388
 348  524.2217
 349  518.9877
 350  593.1575
 351  609.5096
 352  556.4298
 353  584.8409
 354  609.0288
 355  525.3419
 356  536.3016
 357  532.0497
 358  525.6096
 359  567.6155
 360  618.2063
 361  574.0048
 362  564.5227
 363  580.0773
 364  664.601
 365  611.9948
 366  546.2002
 367  560.7527
 368  595.4015
 369  579.1687
 370  579.7955
 371  512.4589
 372  597.6134
 373  656.0212
 374  608.8096
 375  561.4261
 376  534.1325
 377  535.6503
 378  674.6874
 379  745.2991
 380  651.4175
 381  607.1927
 382  700.7089
 383  750.33
 384  674.9329
 385  615.0461
 386  587.1642
 387  633.3514
 388  595.4847
 389  585.6898
 390  579.6564
 391  635.7755
 392  661.3988
 393  602.8808
 394  583.5762
 395  557.2844
 396  542.0437
 397  521.947
 398  445.4009
 399  442.6404
 400  501.7391
 401  557.8342
 402  617.2043
 403  495.4672
 404  444.0298
 405  460.7375
 406  554.2164
 407  568.9823
 408  484.0689
 409  496.2844
 410  527.4116
 411  631.1154
 412  640.0073
 413  583.2711
 414  521.9614
 415  659.9142
 416  821.7716
 417  767.117
 418  634.1767
 419  625.3623
 420  686.7629
 421  662.9338
 422  713.8901
 423  622.0174
 424  545.192
 425  651.8461
 426  592.8727
 427  589.1492
 428  627.1616
 429  636.5946
 430  611.9278
 431  681.2053
 432  750.6237
 433  635.3317
 434  512.4578
 435  532.9391
 436  653.5179
 437  649.2385
 438  511.0535
 439  525.4501
 440  660.0759
 441  582.8904
 442  466.97
 443  487.4459
 444  632.6893
 445  711.1755
 446  613.2651
 447  531.6143
 448  453.225
 449  522.3732
 450  645.4605
 451  609.5271
 452  596.245
 453  532.3486
 454  609.0205
 455  509.0045
 456  456.4313
 457  420.6885
 458  466.8304
 459  501.4145
 460  639.0667
 461  518.4545
 462  490.7202
 463  474.255
 464  608.6982
 465  615.9639
 466  647.9625
 467  683.3608
 468  624.0099
 469  666.916
 470  684.7623
 471  626.2322
 472  670.1428
 473  648.7251
 474  589.8911
 475  542.6015
 476  495.6948
 477  536.8849
 478  570.4756
 479  581.4033
 480  564.996
 481  444.7966
 482  502.4631
 483  609.4198
 484  566.4714
 485  581.3003
 486  502.5847
 487  610.2443
 488  671.0975
 489  571.0568
 490  599.3337
 491  594.5847
 492  636.4014
 493  622.1802
 494  649.1409
 495  600.9305
 496  647.4324
 497  640.2716
 498  617.4837
 499  578.0339
 500  563.3741
 501  640.5718
 502  713.2567
 503  701.8136
 504  664.9892
 505  635.4586
 506  736.8522
 507  958.5875
 508  902.0435
 509  900.6022
 510  1056.853
 511  1180.463
