# Input file       =  1182243875.12681_cleaned.dat
# Candidate        =  PSR_0332+5434
# Telescope        =  AR
# Epoch_topo       =  57927.377976004747
# Epoch_bary       =  N/A
# T_sample         =  0.002
# Data Folded      =  7340032
# Data Avg         =  0.0512280115635396
# Data StdDev      =  1.00013269412147 
# Profile Bins     =  512
# Profile Avg      =  734.398044316334 
# Profile StdDev   =  119.748924246839 
# Reduced chi-sqr  =  0.928
# Prob(Noise)      <  0.878   (~0.0 sigma)
# P_topo (ms)      =  714.495906881763  +/- 0.000149
# P'_topo (s/s)    =  -0                +/- 7.87e-11
# P''_topo (s/s^2) =  0                 +/- 3.47e-14
# P_bary (ms)      =  N/A
# P'_bary (s/s)    =  N/A
# P''_bary (s/s^2) =  N/A
# P_orb (s)        =  N/A
# asin(i)/c (s)    =  N/A
# eccentricity     =  N/A
# w (rad)          =  N/A
# T_peri           =  N/A
######################################################
   0  1135.366
   1  1058.463
   2  905.2177
   3  866.9784
   4  909.0889
   5  718.9412
   6  672.367
   7  732.8608
   8  839.7537
   9  839.1363
  10  805.2905
  11  833.4727
  12  828.4276
  13  788.1623
  14  835.6848
  15  685.2576
  16  712.1017
  17  866.0752
  18  801.5939
  19  793.1457
  20  780.6265
  21  817.1849
  22  785.4212
  23  691.4776
  24  663.7761
  25  745.5082
  26  652.7227
  27  769.2507
  28  766.8199
  29  750.0808
  30  751.9858
  31  758.5406
  32  696.1669
  33  612.332
  34  635.2553
  35  743.097
  36  717.7576
  37  723.5132
  38  661.7854
  39  604.4165
  40  660.2164
  41  661.4081
  42  722.0486
  43  738.6981
  44  712.3647
  45  648.8518
  46  657.6612
  47  633.429
  48  609.8822
  49  716.647
  50  717.777
  51  739.722
  52  684.9373
  53  734.2796
  54  641.4894
  55  676.5009
  56  714.415
  57  723.7032
  58  666.8623
  59  714.8691
  60  752.7161
  61  809.2798
  62  771.5374
  63  668.0374
  64  700.1241
  65  816.7403
  66  779.4098
  67  746.3121
  68  705.4007
  69  705.2007
  70  684.4012
  71  689.201
  72  592.0145
  73  625.468
  74  632.5636
  75  596.9478
  76  655.4634
  77  643.0582
  78  564.4206
  79  601.0056
  80  677.014
  81  684.9634
  82  608.2696
  83  585.5975
  84  690.4177
  85  798.1569
  86  745.4194
  87  635.0228
  88  656.311
  89  698.2512
  90  658.2416
  91  630.7065
  92  694.2808
  93  748.8624
  94  738.3787
  95  806.5429
  96  644.5571
  97  664.7377
  98  712.5084
  99  679.1108
 100  708.4437
 101  744.9459
 102  756.7498
 103  804.084
 104  751.5908
 105  718.825
 106  686.5739
 107  730.0464
 108  716.74
 109  716.3912
 110  700.5912
 111  755.8159
 112  600.9935
 113  654.4919
 114  726.2947
 115  782.1584
 116  720.4751
 117  712.7587
 118  714.4283
 119  618.0917
 120  637.9751
 121  629.9622
 122  801.1655
 123  812.2109
 124  717.8567
 125  682.2836
 126  638.137
 127  616.847
 128  707.0956
 129  717.711
 130  640.4153
 131  661.7842
 132  674.019
 133  684.2058
 134  591.3497
 135  557.4075
 136  657.8219
 137  640.2772
 138  682.0942
 139  727.976
 140  718.4913
 141  811.063
 142  863.4659
 143  856.4888
 144  673.5878
 145  715.6343
 146  774.3568
 147  765.3781
 148  836.9854
 149  805.2649
 150  797.729
 151  812.0577
 152  762.5045
 153  796.4808
 154  843.2322
 155  820.8463
 156  691.141
 157  705.1868
 158  752.4546
 159  759.6904
 160  757.9959
 161  733.8365
 162  815.726
 163  760.8225
 164  857.963
 165  908.3049
 166  845.1734
 167  666.694
 168  799.3588
 169  818.4816
 170  780.8829
 171  816.3718
 172  841.1377
 173  786.2288
 174  715.3361
 175  666.1149
 176  777.0247
 177  704.9737
 178  661.6157
 179  726.9996
 180  677.5473
 181  716.5573
 182  640.1543
 183  622.5296
 184  718.3638
 185  748.6425
 186  746.0936
 187  598.3982
 188  678.3652
 189  748.6505
 190  657.901
 191  655.4822
 192  824.2973
 193  789.3027
 194  777.7266
 195  736.0026
 196  722.3117
 197  763.2806
 198  694.9626
 199  758.2461
 200  751.4484
 201  632.2426
 202  661.3924
 203  673.9764
 204  788.7213
 205  748.7445
 206  742.4586
 207  716.0032
 208  713.2639
 209  630.0389
 210  667.8688
 211  687.2772
 212  752.7366
 213  767.4822
 214  785.183
 215  789.4998
 216  676.3618
 217  747.1553
 218  757.6047
 219  716.1996
 220  693.362
 221  629.1548
 222  748.3886
 223  724.306
 224  689.0948
 225  672.8816
 226  660.45
 227  831.9388
 228  786.0146
 229  751.7232
 230  621.5749
 231  558.0699
 232  727.1257
 233  632.5037
 234  564.9359
 235  630.6886
 236  701.3537
 237  725.342
 238  683.8763
 239  737.0642
 240  672.2668
 241  538.6381
 242  640.0995
 243  749.1473
 244  716.7311
 245  722.0823
 246  720.9136
 247  697.667
 248  703.8105
 249  672.5164
 250  728.4351
 251  756.1558
 252  742.5031
 253  698.5771
 254  812.1578
 255  903.1559
 256  921.0204
 257  802.2927
 258  707.6083
 259  764.6974
 260  833.9926
 261  863.8315
 262  788.9055
 263  716.4794
 264  741.8944
 265  696.9136
 266  780.1203
 267  813.8519
 268  873.9726
 269  709.8514
 270  685.0172
 271  775.2784
 272  779.6649
 273  650.7594
 274  777.0075
 275  779.5554
 276  829.2436
 277  713.812
 278  710.7656
 279  670.1534
 280  838.8039
 281  773.2393
 282  713.9885
 283  708.3439
 284  669.9103
 285  743.6186
 286  630.0933
 287  549.4557
 288  653.962
 289  677.1254
 290  715.3978
 291  666.559
 292  684.689
 293  678.179
 294  645.8523
 295  612.1154
 296  642.9442
 297  576.1797
 298  609.1414
 299  721.0316
 300  797.2883
 301  750.7965
 302  667.2662
 303  710.7743
 304  779.2461
 305  785.4684
 306  652.0723
 307  676.6725
 308  817.8754
 309  845.891
 310  776.6499
 311  674.996
 312  767.3068
 313  748.7965
 314  697.2051
 315  679.2451
 316  710.6266
 317  670.1345
 318  638.3991
 319  668.2768
 320  775.1913
 321  721.38
 322  682.2137
 323  674.7116
 324  746.3271
 325  799.7019
 326  781.4766
 327  699.4005
 328  804.4355
 329  786.8546
 330  752.1763
 331  676.4088
 332  732.5828
 333  749.2207
 334  735.5897
 335  682.6717
 336  673.7888
 337  693.0991
 338  755.7271
 339  721.8858
 340  708.6872
 341  707.6558
 342  749.7678
 343  725.8363
 344  673.819
 345  669.2971
 346  667.364
 347  611.9317
 348  713.5311
 349  814.689
 350  725.402
 351  664.0135
 352  679.9868
 353  699.5919
 354  628.9489
 355  648.8468
 356  786.964
 357  710.9919
 358  724.7246
 359  778.9693
 360  855.5892
 361  954.4265
 362  816.0856
 363  759.9968
 364  805.2072
 365  813.0406
 366  839.4886
 367  815.8088
 368  764.0828
 369  733.626
 370  882.5167
 371  851.1526
 372  741.9855
 373  728.278
 374  698.4078
 375  699.6796
 376  693.3486
 377  732.6965
 378  626.3013
 379  631.7052
 380  766.517
 381  760.6661
 382  680.5208
 383  638.2229
 384  672.1568
 385  742.8807
 386  807.5062
 387  731.4726
 388  682.5248
 389  692.6055
 390  767.7625
 391  767.8176
 392  737.4671
 393  708.0142
 394  689.9965
 395  735.037
 396  781.6144
 397  761.2634
 398  780.196
 399  747.0362
 400  744.3326
 401  741.7999
 402  770.936
 403  788.5585
 404  806.7576
 405  834.0301
 406  797.9897
 407  801.3166
 408  850.0099
 409  925.6328
 410  910.1503
 411  934.4176
 412  825.734
 413  830.2357
 414  882.3948
 415  884.1204
 416  914.9712
 417  960.3578
 418  986.9582
 419  857.5514
 420  905.3632
 421  937.7886
 422  799.4111
 423  771.7892
 424  894.5451
 425  867.3115
 426  870.768
 427  867.9942
 428  785.81
 429  750.6127
 430  789.4127
 431  810.6938
 432  829.3154
 433  820.4318
 434  851.7664
 435  835.5891
 436  694.2405
 437  710.7747
 438  795.1365
 439  817.3588
 440  808.3107
 441  747.3221
 442  800.4785
 443  843.0511
 444  844.4272
 445  805.9174
 446  830.5392
 447  861.8701
 448  826.6082
 449  861.0863
 450  791.2989
 451  818.9852
 452  735.093
 453  717.9337
 454  689.8335
 455  772.994
 456  728.0717
 457  711.0672
 458  721.1183
 459  689.499
 460  708.467
 461  629.5994
 462  666.9006
 463  683.0531
 464  660.5753
 465  601.7968
 466  621.624
 467  664.399
 468  690.6466
 469  666.8781
 470  575.7222
 471  616.4861
 472  725.9806
 473  655.1968
 474  579.697
 475  563.4305
 476  535.8482
 477  580.2566
 478  664.7175
 479  757.321
 480  796.4885
 481  634.0569
 482  693.4927
 483  729.278
 484  775.0985
 485  707.0506
 486  597.8852
 487  570.8243
 488  668.3337
 489  651.4879
 490  660.3433
 491  707.8152
 492  757.1512
 493  730.046
 494  711.7423
 495  760.5499
 496  762.3526
 497  778.5698
 498  741.5776
 499  668.0893
 500  792.0485
 501  830.9586
 502  766.5913
 503  743.446
 504  750.1934
 505  748.7759
 506  656.7883
 507  635.7516
 508  790.3463
 509  942.1575
 510  1043.262
 511  1103.036
