# Input file       =  1182319293.117347_cleaned.dat
# Candidate        =  PSR_0332+5434
# Telescope        =  AR
# Epoch_topo       =  57928.250869413736
# Epoch_bary       =  N/A
# T_sample         =  0.002
# Data Folded      =  7340032
# Data Avg         =  0.0400606192051006
# Data StdDev      =  1.00015469593059 
# Profile Bins     =  512
# Profile Avg      =  574.383766628951 
# Profile StdDev   =  119.751558590251 
# Reduced chi-sqr  =  1.057
# Prob(Noise)      <  0.181   (~0.9 sigma)
# P_topo (ms)      =  714.494912068392  +/- 0.000212
# P'_topo (s/s)    =  -0                +/- 1.12e-10
# P''_topo (s/s^2) =  0                 +/- 4.93e-14
# P_bary (ms)      =  N/A
# P'_bary (s/s)    =  N/A
# P''_bary (s/s^2) =  N/A
# P_orb (s)        =  N/A
# asin(i)/c (s)    =  N/A
# eccentricity     =  N/A
# w (rad)          =  N/A
# T_peri           =  N/A
######################################################
   0  558.6358
   1  547.4919
   2  442.2498
   3  465.1555
   4  475.3608
   5  575.9618
   6  526.0042
   7  537.158
   8  570.7877
   9  586.9055
  10  579.5586
  11  607.9979
  12  651.6818
  13  694.0839
  14  625.7443
  15  586.099
  16  634.4977
  17  694.9905
  18  678.3992
  19  660.9362
  20  715.1299
  21  714.1667
  22  748.3253
  23  614.0073
  24  569.3667
  25  581.0143
  26  581.6716
  27  608.5701
  28  504.6308
  29  508.2505
  30  485.9791
  31  512.6996
  32  557.1776
  33  446.0456
  34  589.4266
  35  628.2311
  36  617.8527
  37  641.114
  38  552.18
  39  581.5812
  40  625.6102
  41  614.9843
  42  649.8141
  43  593.1801
  44  602.4068
  45  681.4404
  46  573.6696
  47  492.4551
  48  521.5727
  49  605.7338
  50  659.8618
  51  688.1912
  52  658.0781
  53  645.9832
  54  550.0298
  55  483.3884
  56  581.3541
  57  533.8613
  58  544.0296
  59  706.9006
  60  722.9543
  61  699.2415
  62  769.1256
  63  584.8359
  64  533.4308
  65  556.4382
  66  568.3955
  67  619.9089
  68  577.0242
  69  545.4932
  70  559.0039
  71  601.9631
  72  519.9533
  73  567.6281
  74  556.8754
  75  507.8461
  76  359.3355
  77  479.3879
  78  516.7037
  79  596.9137
  80  568.8798
  81  626.8368
  82  585.8024
  83  501.6655
  84  507.7064
  85  596.4418
  86  667.3094
  87  646.4622
  88  692.1594
  89  901.1872
  90  1031.638
  91  959.0252
  92  926.9727
  93  774.3929
  94  585.6835
  95  532.7363
  96  493.5376
  97  598.191
  98  628.9199
  99  690.6902
 100  718.1355
 101  676.6992
 102  607.1087
 103  565.2332
 104  690.4706
 105  714.3309
 106  777.8918
 107  804.8873
 108  600.132
 109  667.4475
 110  606.1735
 111  608.9549
 112  654.0112
 113  589.8853
 114  488.9133
 115  428.9993
 116  498.3479
 117  546.665
 118  552.6501
 119  575.375
 120  611.4464
 121  558.7177
 122  570.2336
 123  470.1786
 124  658.6295
 125  610.7446
 126  534.4025
 127  463.5012
 128  458.3172
 129  524.4659
 130  573.8523
 131  589.7244
 132  595.3974
 133  550.6639
 134  574.6387
 135  657.0555
 136  698.4389
 137  613.4991
 138  499.3593
 139  571.5549
 140  604.5321
 141  617.543
 142  636.0087
 143  586.2311
 144  644.4857
 145  711.7403
 146  619.313
 147  622.7234
 148  546.4859
 149  510.9366
 150  598.4741
 151  637.5598
 152  553.3175
 153  543.4061
 154  546.0477
 155  468.6393
 156  312.4716
 157  330.9748
 158  398.5399
 159  334.8729
 160  472.0113
 161  537.6772
 162  533.8152
 163  470.7749
 164  377.26
 165  358.9357
 166  486.7578
 167  447.1753
 168  471.3239
 169  477.7384
 170  507.4138
 171  524.9378
 172  554.2681
 173  527.5798
 174  555.9211
 175  545.1945
 176  445.7198
 177  392.8798
 178  477.6526
 179  525.9567
 180  563.1121
 181  452.3321
 182  542.1476
 183  499.1393
 184  511.8621
 185  481.3369
 186  593.3366
 187  665.5774
 188  727.6534
 189  698.1293
 190  686.415
 191  684.5902
 192  614.2344
 193  680.7963
 194  676.4948
 195  752.1589
 196  707.7879
 197  718.3986
 198  628.2724
 199  681.5266
 200  660.5734
 201  593.3373
 202  589.5742
 203  609.2672
 204  578.4326
 205  635.2247
 206  669.1171
 207  719.8592
 208  701.8051
 209  604.6113
 210  558.5822
 211  511.5429
 212  534.7523
 213  621.4995
 214  651.2147
 215  590.1641
 216  548.6639
 217  668.2669
 218  602.56
 219  596.3425
 220  661.9749
 221  682.0002
 222  618.9731
 223  621.3547
 224  687.9158
 225  671.3931
 226  511.9083
 227  616.6865
 228  731.584
 229  641.9432
 230  627.7091
 231  607.6854
 232  566.7203
 233  604.2798
 234  631.3232
 235  633.5251
 236  554.305
 237  524.5366
 238  536.9482
 239  570.4236
 240  558.7698
 241  565.7029
 242  545.0209
 243  538.1451
 244  475.3263
 245  432.6827
 246  441.786
 247  491.7725
 248  525.9014
 249  499.4084
 250  493.2463
 251  394.8491
 252  498.748
 253  561.8785
 254  633.91
 255  548.2917
 256  587.0785
 257  587.7672
 258  493.6664
 259  464.9257
 260  518.7716
 261  612.4819
 262  522.2103
 263  500.5872
 264  475.0253
 265  475.1211
 266  550.3873
 267  544.2721
 268  573.4264
 269  641.5079
 270  657.7166
 271  555.9045
 272  558.506
 273  596.7668
 274  633.3283
 275  690.9005
 276  666.5151
 277  613.2513
 278  703.1111
 279  658.4371
 280  591.8726
 281  662.4701
 282  621.2692
 283  541.7188
 284  511.7031
 285  491.7045
 286  508.8093
 287  517.6492
 288  506.996
 289  503.239
 290  489.6181
 291  347.8599
 292  389.156
 293  353.6681
 294  493.6094
 295  486.5333
 296  460.8948
 297  456.2345
 298  472.1364
 299  513.3166
 300  450.0349
 301  408.66
 302  517.235
 303  586.9528
 304  495.6169
 305  407.3116
 306  445.3477
 307  593.0055
 308  520.4645
 309  554.0553
 310  518.1942
 311  552.7339
 312  544.6371
 313  573.1904
 314  669.3748
 315  617.476
 316  587.5674
 317  559.3267
 318  540.3859
 319  551.3286
 320  483.8263
 321  531.7855
 322  596.7307
 323  641.276
 324  685.2675
 325  617.0244
 326  584.1138
 327  541.813
 328  505.6446
 329  488.5891
 330  475.04
 331  573.5373
 332  394.8174
 333  386.7105
 334  377.9652
 335  383.4709
 336  462.2111
 337  518.3172
 338  420.7164
 339  397.2439
 340  488.3135
 341  521.1324
 342  547.2764
 343  579.9865
 344  587.7639
 345  585.2145
 346  516.6485
 347  566.1003
 348  513.5836
 349  527.63
 350  496.5936
 351  581.6134
 352  707.7014
 353  661.9424
 354  616.3601
 355  628.3865
 356  746.6295
 357  751.9236
 358  618.6313
 359  585.2266
 360  613.2285
 361  682.6263
 362  677.3968
 363  608.8488
 364  661.2224
 365  676.1646
 366  546.7949
 367  616.742
 368  641.7637
 369  650.7912
 370  606.9948
 371  619.8659
 372  555.6928
 373  480.3533
 374  515.9026
 375  617.2773
 376  647.4252
 377  561.3532
 378  545.3682
 379  561.4364
 380  600.3226
 381  551.5623
 382  584.8938
 383  533.6547
 384  680.2878
 385  627.2568
 386  606.7915
 387  566.084
 388  526.0563
 389  654.0068
 390  638.5523
 391  617.5076
 392  679.128
 393  676.5657
 394  532.1047
 395  445.0056
 396  607.0475
 397  741.4549
 398  663.4328
 399  603.7917
 400  606.1743
 401  592.0504
 402  548.3154
 403  630.0103
 404  713.1176
 405  705.4778
 406  654.3698
 407  611.2108
 408  724.515
 409  671.3051
 410  610.4139
 411  565.7985
 412  542.1451
 413  583.3574
 414  507.4557
 415  452.692
 416  462.6588
 417  513.4177
 418  504.6537
 419  512.8162
 420  523.0219
 421  554.1942
 422  583.6595
 423  530.4971
 424  563.0991
 425  508.7694
 426  508.028
 427  575.6573
 428  635.6841
 429  577.0215
 430  571.4737
 431  507.7758
 432  457.1786
 433  536.2612
 434  574.7202
 435  575.8611
 436  512.2095
 437  448.1213
 438  555.3739
 439  600.5777
 440  456.4158
 441  471.9937
 442  611.251
 443  676.704
 444  622.1359
 445  565.4276
 446  649.9406
 447  596.4937
 448  677.2189
 449  740.1321
 450  692.31
 451  646.3879
 452  614.9692
 453  600.3915
 454  556.3562
 455  500.6234
 456  405.2383
 457  366.4644
 458  391.4357
 459  460.8239
 460  490.3218
 461  511.6654
 462  486.5652
 463  521.7977
 464  554.5699
 465  544.4252
 466  430.1025
 467  507.9025
 468  503.16
 469  588.6518
 470  572.7765
 471  564.3782
 472  613.2101
 473  594.9412
 474  663.9067
 475  578.6077
 476  516.7977
 477  603.4587
 478  704.3202
 479  638.3328
 480  641.3552
 481  634.8339
 482  606.4896
 483  516.0014
 484  497.4907
 485  533.4703
 486  578.2783
 487  511.9023
 488  544.6031
 489  625.5262
 490  624.7347
 491  634.9245
 492  619.5452
 493  605.3297
 494  588.5131
 495  605.1957
 496  621.2661
 497  633.5357
 498  517.2476
 499  567.2547
 500  497.2857
 501  486.1669
 502  522.57
 503  489.3741
 504  568.2608
 505  531.8956
 506  629.0146
 507  687.5881
 508  497.2141
 509  551.4549
 510  613.3464
 511  566.4164
