# Input file       =  1182490991.128987_cleaned.dat
# Candidate        =  PSR_0332+5434
# Telescope        =  AR
# Epoch_topo       =  57930.238114918830
# Epoch_bary       =  N/A
# T_sample         =  0.002
# Data Folded      =  7340032
# Data Avg         =  0.0411086861366482
# Data StdDev      =  1.00012749277156 
# Profile Bins     =  512
# Profile Avg      =  589.339980473586 
# Profile StdDev   =  119.748301473421 
# Reduced chi-sqr  =  0.998
# Prob(Noise)      <  0.505   (~0.0 sigma)
# P_topo (ms)      =  714.493188345325  +/- 4.88e-05
# P'_topo (s/s)    =  -0                +/- 2.57e-11
# P''_topo (s/s^2) =  0                 +/- 1.14e-14
# P_bary (ms)      =  N/A
# P'_bary (s/s)    =  N/A
# P''_bary (s/s^2) =  N/A
# P_orb (s)        =  N/A
# asin(i)/c (s)    =  N/A
# eccentricity     =  N/A
# w (rad)          =  N/A
# T_peri           =  N/A
######################################################
   0  623.466
   1  561.4119
   2  556.593
   3  532.6567
   4  626.1981
   5  618.2257
   6  681.1481
   7  555.3958
   8  568.7885
   9  591.4417
  10  552.1002
  11  633.2378
  12  648.6148
  13  545.4569
  14  622.4677
  15  630.7718
  16  617.3623
  17  590.3895
  18  564.2664
  19  607.3488
  20  530.2691
  21  525.288
  22  573.4395
  23  617.8873
  24  577.6444
  25  464.7358
  26  397.4859
  27  490.3203
  28  531.1847
  29  524.6108
  30  548.2747
  31  526.9913
  32  533.0223
  33  576.2627
  34  529.4774
  35  532.7909
  36  519.2709
  37  584.6201
  38  572.728
  39  493.8889
  40  465.3077
  41  557.3282
  42  586.1953
  43  553.8358
  44  430.2032
  45  459.176
  46  513.3913
  47  565.8619
  48  609.4758
  49  500.5192
  50  604.4006
  51  703.2303
  52  668.6465
  53  563.4416
  54  471.8199
  55  591.5794
  56  669.9915
  57  722.9169
  58  701.0461
  59  632.4986
  60  610.0764
  61  629.5096
  62  595.2305
  63  529.9457
  64  509.5498
  65  559.8644
  66  537.4651
  67  686.7759
  68  590.9141
  69  570.0176
  70  678.5036
  71  755.8041
  72  686.5859
  73  716.1284
  74  817.4961
  75  978.2912
  76  1056.49
  77  1032.739
  78  1038.142
  79  960.5869
  80  924.8112
  81  718.741
  82  657.0064
  83  628.9484
  84  650.1628
  85  708.509
  86  652.1353
  87  583.4401
  88  629.8164
  89  698.0752
  90  725.3421
  91  771.6282
  92  724.8518
  93  699.2756
  94  617.4889
  95  692.2389
  96  685.5063
  97  687.4359
  98  632.7148
  99  589.2867
 100  627.0124
 101  604.5176
 102  636.5599
 103  679.9014
 104  657.903
 105  566.511
 106  546.1731
 107  534.1769
 108  536.7435
 109  545.3851
 110  594.3892
 111  579.0696
 112  612.7971
 113  615.9346
 114  624.6956
 115  736.2172
 116  739.236
 117  726.6127
 118  693.8872
 119  750.5011
 120  659.2875
 121  580.546
 122  595.8549
 123  665.8008
 124  674.2566
 125  755.6711
 126  739.6771
 127  663.2739
 128  703.8081
 129  645.3696
 130  564.9984
 131  515.8901
 132  477.3235
 133  608.8471
 134  702.5295
 135  689.5485
 136  632.8279
 137  569.2402
 138  551.1703
 139  525.4639
 140  564.5298
 141  636.307
 142  638.1469
 143  720.386
 144  696.9498
 145  581.6711
 146  578.7614
 147  594.3886
 148  596.5916
 149  559.3715
 150  545.4059
 151  654.9693
 152  691.1499
 153  644.1494
 154  589.6042
 155  556.0046
 156  582.3243
 157  581.5795
 158  624.8477
 159  592.0715
 160  465.7396
 161  439.569
 162  539.084
 163  471.1868
 164  448.4503
 165  486.4736
 166  606.1387
 167  606.681
 168  583.7947
 169  528.5129
 170  476.2021
 171  553.8605
 172  635.8729
 173  607.5707
 174  519.9377
 175  482.9577
 176  537.6093
 177  564.5187
 178  612.943
 179  604.791
 180  555.3525
 181  637.4904
 182  693.5232
 183  646.6306
 184  661.5988
 185  670.2001
 186  702.3102
 187  673.3118
 188  553.053
 189  507.382
 190  578.5139
 191  617.4039
 192  614.8218
 193  568.0594
 194  596.1566
 195  654.1524
 196  588.3162
 197  505.4649
 198  491.3734
 199  532.1491
 200  626.8727
 201  769.6578
 202  681.6701
 203  600.118
 204  486.9642
 205  536.1934
 206  704.8279
 207  747.248
 208  613.9645
 209  508.1244
 210  555.808
 211  570.2692
 212  468.336
 213  534.4426
 214  615.2974
 215  677.7179
 216  636.8771
 217  602.1499
 218  539.584
 219  621.9794
 220  642.838
 221  657.9778
 222  489.1684
 223  540.0627
 224  621.1534
 225  579.3821
 226  557.34
 227  609.9319
 228  659.2867
 229  662.9849
 230  553.3889
 231  536.0051
 232  474.5311
 233  487.1393
 234  576.7214
 235  514.2346
 236  485.6891
 237  505.3593
 238  565.5918
 239  550.61
 240  479.9287
 241  478.9183
 242  521.0143
 243  547.9601
 244  621.8579
 245  581.0001
 246  494.5287
 247  620.6672
 248  713.8331
 249  735.0664
 250  670.42
 251  594.9316
 252  582.2386
 253  615.0663
 254  569.9084
 255  561.8525
 256  572.4539
 257  679.8227
 258  746.9066
 259  636.0872
 260  582.2487
 261  532.2847
 262  574.8514
 263  651.2766
 264  590.6038
 265  535.9929
 266  625.9163
 267  654.3587
 268  623.6284
 269  604.8962
 270  566.356
 271  532.2192
 272  657.7722
 273  629.6832
 274  629.9556
 275  625.181
 276  572.239
 277  611.4784
 278  624.5264
 279  559.5208
 280  456.5938
 281  534.2783
 282  661.9949
 283  598.2163
 284  519.1436
 285  593.4653
 286  687.075
 287  697.0375
 288  700.3454
 289  518.4206
 290  471.0208
 291  577.4482
 292  616.8039
 293  544.8171
 294  552.479
 295  478.1245
 296  608.0722
 297  613.2664
 298  589.1701
 299  630.6459
 300  741.6192
 301  634.5707
 302  605.627
 303  517.2871
 304  533.9623
 305  563.3754
 306  619.5801
 307  575.9281
 308  624.6088
 309  695.8997
 310  753.192
 311  702.6047
 312  642.9009
 313  685.0393
 314  711.6409
 315  679.5676
 316  689.3322
 317  594.6309
 318  543.8378
 319  552.0276
 320  527.702
 321  508.7938
 322  542.5042
 323  500.0439
 324  618.4753
 325  570.3517
 326  487.6301
 327  513.6801
 328  495.5622
 329  523.0103
 330  473.6144
 331  452.224
 332  434.0833
 333  552.1285
 334  644.155
 335  647.3978
 336  584.1819
 337  546.7776
 338  561.9736
 339  638.6373
 340  654.7084
 341  572.1553
 342  569.1356
 343  517.2996
 344  581.3154
 345  620.9708
 346  567.5954
 347  486.1488
 348  572.8839
 349  545.6394
 350  592.8082
 351  580.0518
 352  542.8946
 353  505.013
 354  516.303
 355  461.2411
 356  580.1739
 357  581.544
 358  544.8472
 359  489.9466
 360  387.7932
 361  391.789
 362  432.2409
 363  539.1093
 364  515.8595
 365  481.5123
 366  455.8954
 367  477.9234
 368  516.4625
 369  551.8548
 370  512.5961
 371  458.2305
 372  571.4885
 373  585.2471
 374  519.8307
 375  486.6933
 376  561.0422
 377  604.5171
 378  684.5399
 379  525.3491
 380  491.2951
 381  475.4268
 382  593.4417
 383  501.3265
 384  486.3082
 385  477.9199
 386  490.6987
 387  530.8047
 388  585.2355
 389  543.8417
 390  545.0882
 391  563.4402
 392  518.5879
 393  409.4332
 394  457.4691
 395  520.9935
 396  549.4705
 397  619.7116
 398  550.051
 399  491.7826
 400  489.5014
 401  487.8753
 402  443.6819
 403  563.525
 404  635.8131
 405  642.9167
 406  604.3176
 407  569.2567
 408  663.0416
 409  494.101
 410  505.9874
 411  584.5034
 412  627.7447
 413  513.6577
 414  431.3175
 415  530.5914
 416  508.7668
 417  598.223
 418  508.417
 419  618.7878
 420  719.0977
 421  775.3174
 422  713.7264
 423  587.1171
 424  562.8018
 425  553.3528
 426  594.4478
 427  460.0539
 428  465.0422
 429  597.6145
 430  593.0965
 431  519.4145
 432  512.3682
 433  604.4408
 434  647.2694
 435  664.4963
 436  523.5695
 437  592.3217
 438  596.8398
 439  653.713
 440  623.1099
 441  638.343
 442  656.7895
 443  720.1943
 444  750.4026
 445  617.3702
 446  547.182
 447  629.282
 448  596.5374
 449  625.2554
 450  627.5555
 451  578.2518
 452  555.11
 453  651.4072
 454  645.9015
 455  621.803
 456  614.0855
 457  563.9332
 458  580.6033
 459  703.3907
 460  646.335
 461  567.274
 462  586.9678
 463  625.0562
 464  603.3456
 465  573.6078
 466  537.748
 467  486.9253
 468  519.7823
 469  666.1586
 470  625.3217
 471  553.0112
 472  472.7331
 473  517.4307
 474  647.3531
 475  580.7899
 476  493.1295
 477  614.3246
 478  611.4781
 479  547.332
 480  479.0809
 481  503.1284
 482  612.8877
 483  585.0779
 484  621.4162
 485  487.6438
 486  500.3156
 487  618.8047
 488  582.7167
 489  556.1036
 490  482.6217
 491  533.8464
 492  571.3202
 493  559.2015
 494  604.4223
 495  570.9316
 496  588.0441
 497  599.5041
 498  641.4679
 499  552.5111
 500  529.5746
 501  603.5634
 502  660.2434
 503  670.3806
 504  655.6824
 505  605.2602
 506  607.6717
 507  583.034
 508  504.946
 509  483.6673
 510  402.1964
 511  399.647
