# Input file       =  1182490991.128987_cleaned.dat
# Candidate        =  PSR_0332+5434
# Telescope        =  AR
# Epoch_topo       =  57930.238114918830
# Epoch_bary       =  N/A
# T_sample         =  0.002
# Data Folded      =  7340032
# Data Avg         =  0.0411086861366482
# Data StdDev      =  1.00012749277156 
# Profile Bins     =  512
# Profile Avg      =  589.339970530271 
# Profile StdDev   =  119.748301473421 
# Reduced chi-sqr  =  0.995
# Prob(Noise)      <  0.522   (~0.0 sigma)
# P_topo (ms)      =  714.49318706652   +/- 4.86e-05
# P'_topo (s/s)    =  -0                +/- 2.56e-11
# P''_topo (s/s^2) =  0                 +/- 1.13e-14
# P_bary (ms)      =  N/A
# P'_bary (s/s)    =  N/A
# P''_bary (s/s^2) =  N/A
# P_orb (s)        =  N/A
# asin(i)/c (s)    =  N/A
# eccentricity     =  N/A
# w (rad)          =  N/A
# T_peri           =  N/A
######################################################
   0  1056.68
   1  956.2313
   2  949.277
   3  740.7529
   4  667.0663
   5  626.8992
   6  641.8967
   7  710.2247
   8  666.8214
   9  585.0591
  10  616.7488
  11  692.3105
  12  709.9597
  13  774.3784
  14  730.9832
  15  713.8533
  16  615.9816
  17  687.3865
  18  691.6721
  19  687.9913
  20  642.1545
  21  594.1245
  22  619.1898
  23  611.5142
  24  624.9459
  25  669.7346
  26  670.9155
  27  576.7811
  28  542.6788
  29  547.0292
  30  530.3325
  31  547.3456
  32  589.6625
  33  576.6861
  34  598.013
  35  626.0481
  36  604.9667
  37  728.3111
  38  739.2944
  39  740.7121
  40  689.6276
  41  746.131
  42  678.5472
  43  583.608
  44  596.5853
  45  647.9612
  46  684.7789
  47  728.0445
  48  765.3
  49  660.3074
  50  699.7886
  51  664.7205
  52  574.3077
  53  525.5021
  54  475.0451
  55  581.6667
  56  687.4611
  57  698.6218
  58  650.6946
  59  577.6769
  60  550.9898
  61  528.5715
  62  551.1117
  63  623.2822
  64  639.0245
  65  703.194
  66  712.188
  67  593.6764
  68  576.1666
  69  594.5389
  70  599.9739
  71  570.6526
  72  537.913
  73  637.7196
  74  684.5372
  75  658.1428
  76  597.0187
  77  562.4111
  78  576.6691
  79  583.9608
  80  611.6212
  81  608.0154
  82  486.1756
  83  429.3503
  84  528.5059
  85  486.5243
  86  450.9711
  87  467.5438
  88  594.8224
  89  613.4861
  90  586.936
  91  539.031
  92  474.0609
  93  547.4257
  94  619.0267
  95  622.8849
  96  531.998
  97  478.1673
  98  534.3241
  99  553.6108
 100  608.473
 101  615.9171
 102  557.4974
 103  617.9344
 104  691.4206
 105  651.435
 106  652.8634
 107  680.5756
 108  689.0654
 109  690.1973
 110  571.6822
 111  495.7231
 112  575.6632
 113  611.9812
 114  619.1037
 115  572.6512
 116  584.276
 117  661.7076
 118  595.7651
 119  514.3639
 120  482.8487
 121  534.1363
 122  604.7819
 123  759.397
 124  698.2635
 125  618.4515
 126  498.7768
 127  515.6814
 128  669.8928
 129  755.0743
 130  644.9659
 131  516.9506
 132  544.6188
 133  582.9499
 134  476.5365
 135  513.4078
 136  599.0891
 137  674.8998
 138  649.3497
 139  608.7869
 140  542.969
 141  605.377
 142  640.7601
 143  670.2522
 144  508.2791
 145  512.004
 146  628.0117
 147  579.2232
 148  569.0822
 149  588.7287
 150  658.3214
 151  669.704
 152  570.8481
 153  535.3517
 154  483.768
 155  474.4936
 156  573.3554
 157  523.6277
 158  486.5686
 159  497.1867
 160  562.9269
 161  555.6676
 162  494.6338
 163  470.0021
 164  521.9345
 165  531.1631
 166  621.4344
 167  591.0307
 168  500.6062
 169  590.268
 170  704.061
 171  738.2661
 172  687.413
 173  602.2971
 174  585.6451
 175  606.5207
 176  582.5484
 177  556.508
 178  569.4838
 179  655.7589
 180  751.7333
 181  659.0969
 182  584.0696
 183  534.2446
 184  554.9303
 185  652.6776
 186  606.6435
 187  529.1055
 188  617.7277
 189  650.1229
 190  636.6042
 191  599.0942
 192  582.8076
 193  524.5562
 194  639.39
 195  643.0897
 196  617.1153
 197  640.2571
 198  575.5463
 199  606.889
 200  625.5728
 201  571.576
 202  472.0058
 203  507.5526
 204  649.6691
 205  617.0142
 206  521.4108
 207  575.7704
 208  684.1027
 209  690.8083
 210  710.0531
 211  547.7504
 212  460.3449
 213  561.4324
 214  625.2113
 215  545.7753
 216  562.4318
 217  473.9261
 218  590.5486
 219  619.9901
 220  594.0725
 221  610.6871
 222  734.6207
 223  652.3087
 224  605.2339
 225  535.076
 226  525.0554
 227  555.3387
 228  623.9321
 229  580.6091
 230  609.6201
 231  687.7015
 232  742.6018
 233  721.312
 234  646.5533
 235  678.3143
 236  704.8643
 237  679.2353
 238  691.1397
 239  621.0426
 240  540.2316
 241  556.5898
 242  534.1776
 243  502.3355
 244  543.4987
 245  500.2661
 246  594.5908
 247  592.6875
 248  494.5671
 249  511.8808
 250  506.7932
 251  510.8636
 252  484.9094
 253  454.8363
 254  427.8701
 255  529.7139
 256  634.6931
 257  655.6381
 258  587.9612
 259  558.2002
 260  546.2315
 261  629.9389
 262  659.5284
 263  586.323
 264  566.1487
 265  525.1075
 266  563.2535
 267  619.3231
 268  588.361
 269  480.9981
 270  562.3808
 271  559.5125
 272  578.8514
 273  590.8494
 274  541.0663
 275  512.1288
 276  521.6584
 277  458.8412
 278  565.8082
 279  583.1964
 280  556.9022
 281  490.8208
 282  411.9218
 283  378.5393
 284  428.0673
 285  525.8054
 286  524.3647
 287  475.2874
 288  466.3513
 289  463.3689
 290  521.4929
 291  540.2173
 292  532.4206
 293  448.5573
 294  559.3005
 295  591.451
 296  537.3265
 297  483.7173
 298  543.0167
 299  591.9131
 300  692.1611
 301  546.8235
 302  491.8599
 303  461.2208
 304  587.0301
 305  523.3088
 306  483.6467
 307  481.2599
 308  479.3239
 309  531.9437
 310  575.1673
 311  559.9217
 312  536.0936
 313  561.9071
 314  529.6338
 315  425.1236
 316  448.4117
 317  506.6002
 318  545.4898
 319  605.451
 320  571.2825
 321  491.7671
 322  494.4792
 323  491.7797
 324  446.7922
 325  533.3829
 326  631.1081
 327  646.7332
 328  610.0871
 329  570.3403
 330  654.3433
 331  531.8881
 332  484.9016
 333  575.3124
 334  621.2064
 335  545.552
 336  426.2363
 337  514.8615
 338  513.1716
 339  595.7233
 340  517.0491
 341  597.519
 342  696.5074
 343  781.4366
 344  730.749
 345  600.3129
 346  561.2653
 347  549.6789
 348  602.0249
 349  480.4
 350  450.3836
 351  576.4349
 352  603.2617
 353  529.4169
 354  499.9608
 355  593.499
 356  644.3689
 357  672.7435
 358  538.5421
 359  579.4051
 360  596.4069
 361  645.9887
 362  626.2792
 363  634.5379
 364  650.597
 365  708.9548
 366  761.9272
 367  639.9637
 368  548.4205
 369  613.5623
 370  607.8071
 371  613.2825
 372  638.6215
 373  584.3638
 374  552.9985
 375  633.2452
 376  658.7697
 377  617.5707
 378  619.824
 379  573.6365
 380  561.9835
 381  692.3769
 382  655.9417
 383  584.4647
 384  568.3995
 385  628.6109
 386  607.9957
 387  580.6533
 388  547.1942
 389  492.6177
 390  503.873
 391  644.8175
 392  642.4022
 393  563.8851
 394  482.0031
 395  495.7611
 396  633.9714
 397  607.4261
 398  482.1649
 399  605.4408
 400  612.4365
 401  568.2101
 402  485.4219
 403  487.0367
 404  608.7501
 405  589.8731
 406  618.0847
 407  518.3518
 408  469.2425
 409  622.8747
 410  580.5564
 411  568.1634
 412  481.5361
 413  524.0701
 414  568.92
 415  561.252
 416  597.5596
 417  575.5916
 418  588.4164
 419  593.8618
 420  640.8698
 421  571.8933
 422  522.5408
 423  581.528
 424  662.525
 425  668.2537
 426  662.9393
 427  610.5179
 428  605.2324
 429  594.2422
 430  519.222
 431  483.8188
 432  421.3459
 433  376.0039
 434  602.0436
 435  575.9475
 436  557.3521
 437  526.0298
 438  612.7675
 439  624.3432
 440  673.8575
 441  584.2396
 442  544.0154
 443  601.6383
 444  543.6648
 445  622.6224
 446  657.228
 447  560.9495
 448  594.7483
 449  647.0385
 450  611.7877
 451  608.5494
 452  554.638
 453  613.7355
 454  536.0311
 455  523.0768
 456  561.1122
 457  622.5663
 458  584.7266
 459  482.409
 460  400.0634
 461  463.0447
 462  541.2028
 463  519.5297
 464  547.9927
 465  533.3581
 466  527.1902
 467  570.6337
 468  544.4585
 469  526.5274
 470  515.4601
 471  571.486
 472  580.7432
 473  512.1772
 474  460.3202
 475  548.5638
 476  579.9708
 477  571.4777
 478  441.682
 479  448.8887
 480  502.3654
 481  549.9193
 482  620.0652
 483  513.0982
 484  576.581
 485  699.9404
 486  674.8798
 487  589.3995
 488  466.4837
 489  575.048
 490  658.8659
 491  716.1365
 492  713.2581
 493  648.2947
 494  602.6569
 495  631.6921
 496  597.8346
 497  547.087
 498  501.5863
 499  559.6814
 500  527.4573
 501  674.0821
 502  613.3947
 503  564.5056
 504  651.907
 505  748.3167
 506  701.5651
 507  700.6443
 508  807.1809
 509  934.7452
 510  1074.378
 511  1019.882
