# Input file       =  1182921607.112785_cleaned.dat
# Candidate        =  PSR_0332+5434
# Telescope        =  AR
# Epoch_topo       =  57935.222096212790
# Epoch_bary       =  N/A
# T_sample         =  0.002
# Data Folded      =  7340032
# Data Avg         =  0.0443238558111983
# Data StdDev      =  1.0001291799854  
# Profile Bins     =  512
# Profile Avg      =  635.446568553009 
# Profile StdDev   =  119.748503488658 
# Reduced chi-sqr  =  1.105
# Prob(Noise)      <  0.0506   (~1.6 sigma)
# P_topo (ms)      =  714.48905034804   +/- 0.000417
# P'_topo (s/s)    =  -0                +/- 2.2e-10
# P''_topo (s/s^2) =  0                 +/- 9.71e-14
# P_bary (ms)      =  N/A
# P'_bary (s/s)    =  N/A
# P''_bary (s/s^2) =  N/A
# P_orb (s)        =  N/A
# asin(i)/c (s)    =  N/A
# eccentricity     =  N/A
# w (rad)          =  N/A
# T_peri           =  N/A
######################################################
   0  1114.56
   1  1137.313
   2  1034.07
   3  852.3398
   4  766.3736
   5  691.7012
   6  551.4631
   7  554.8167
   8  595.9491
   9  559.2103
  10  617.611
  11  681.4454
  12  637.6216
  13  527.6137
  14  614.9729
  15  656.9073
  16  586.3411
  17  608.2759
  18  599.9911
  19  573.8638
  20  608.5518
  21  605.0988
  22  645.2629
  23  658.1346
  24  640.2478
  25  659.9249
  26  692.5004
  27  670.5157
  28  756.2767
  29  725.5458
  30  713.5205
  31  617.1179
  32  665.5921
  33  670.5323
  34  613.9427
  35  710.8933
  36  700.2388
  37  653.4833
  38  611.9155
  39  554.2531
  40  577.7443
  41  676.1998
  42  666.7621
  43  672.8655
  44  699.0862
  45  703.286
  46  574.9189
  47  558.9321
  48  529.7574
  49  452.1809
  50  569.2967
  51  593.1934
  52  518.2824
  53  553.3729
  54  484.0993
  55  538.822
  56  597.2602
  57  657.3307
  58  590.3566
  59  497.6605
  60  489.9772
  61  458.9034
  62  338.1775
  63  416.9358
  64  569.4212
  65  650.3439
  66  591.5931
  67  555.2937
  68  526.6874
  69  496.4972
  70  515.6517
  71  590.9059
  72  574.6575
  73  499.3734
  74  491.3801
  75  541.5792
  76  605.1414
  77  633.9525
  78  568.7544
  79  555.9321
  80  629.9922
  81  658.7747
  82  613.3498
  83  506.414
  84  519.1541
  85  619.6149
  86  668.3854
  87  602.7748
  88  618.3047
  89  520.1263
  90  538.4633
  91  579.1979
  92  677.9315
  93  661.1541
  94  663.6302
  95  659.6682
  96  783.5862
  97  708.0225
  98  698.2415
  99  632.7485
 100  706.4466
 101  725.6476
 102  724.289
 103  746.9376
 104  728.2496
 105  511.8311
 106  584.8926
 107  724.0229
 108  554.9513
 109  653.3444
 110  762.4482
 111  690.4185
 112  589.5886
 113  570.5646
 114  568.0783
 115  645.3953
 116  546.2395
 117  692.0564
 118  654.5468
 119  531.3818
 120  601.6918
 121  701.983
 122  684.3198
 123  664.6387
 124  687.7644
 125  758.247
 126  782.7719
 127  670.2636
 128  552.0532
 129  692.3388
 130  628.7741
 131  602.3771
 132  618.0042
 133  607.5428
 134  627.3965
 135  626.0424
 136  641.3164
 137  686.319
 138  598.0594
 139  674.5806
 140  716.4163
 141  691.9504
 142  581.2773
 143  650.0872
 144  605.7477
 145  611.6426
 146  641.8614
 147  645.98
 148  609.1088
 149  507.0854
 150  512.478
 151  700.4041
 152  718.5298
 153  589.4969
 154  506.1957
 155  633.5736
 156  710.3942
 157  652.3744
 158  609.6846
 159  555.0266
 160  524.812
 161  526.4449
 162  635.131
 163  577.4772
 164  514.3426
 165  591.7734
 166  657.3529
 167  663.4579
 168  665.719
 169  657.4704
 170  647.8392
 171  703.417
 172  731.0408
 173  714.325
 174  693.9193
 175  704.4416
 176  680.82
 177  686.9015
 178  826.8049
 179  758.7711
 180  721.9815
 181  708.5341
 182  694.7252
 183  631.9804
 184  597.1409
 185  552.2991
 186  645.0131
 187  655.6658
 188  681.6314
 189  644.2535
 190  698.7526
 191  577.5225
 192  589.8118
 193  500.1062
 194  563.8569
 195  571.4761
 196  639.7873
 197  648.1464
 198  537.1743
 199  531.9953
 200  476.5219
 201  503.8239
 202  674.1783
 203  766.5466
 204  682.2344
 205  539.2969
 206  512.386
 207  587.2903
 208  638.5068
 209  716.7286
 210  620.0106
 211  644.9144
 212  623.3483
 213  522.8561
 214  503.1819
 215  558.6602
 216  609.9243
 217  615.1183
 218  531.4095
 219  568.6461
 220  598.5748
 221  598.8638
 222  677.7244
 223  788.7413
 224  775.5616
 225  735.1509
 226  696.3608
 227  631.4039
 228  800.2671
 229  821.0535
 230  729.4373
 231  744.6244
 232  729.535
 233  695.8205
 234  645.83
 235  583.6594
 236  608.0137
 237  592.9902
 238  670.1677
 239  687.6636
 240  631.5607
 241  619.7617
 242  734.0678
 243  682.0749
 244  602.4122
 245  562.8651
 246  649.2433
 247  736.5267
 248  634.4214
 249  591.1547
 250  569.7697
 251  562.5551
 252  659.3777
 253  634.644
 254  545.4691
 255  605.569
 256  559.8387
 257  581.6918
 258  686.5039
 259  723.4504
 260  665.1274
 261  711.8869
 262  811.7852
 263  778.1562
 264  756.2303
 265  639.4981
 266  692.8207
 267  709.9656
 268  632.7913
 269  649.6364
 270  706.5804
 271  704.2151
 272  619.4099
 273  674.3812
 274  683.064
 275  662.6148
 276  619.4965
 277  642.9717
 278  744.1744
 279  752.792
 280  777.7868
 281  736.0211
 282  664.0092
 283  704.5636
 284  782.4371
 285  791.2191
 286  690.5658
 287  572.293
 288  638.204
 289  742.0001
 290  726.4453
 291  665.3535
 292  701.6494
 293  729.4708
 294  653.5065
 295  647.6234
 296  647.6228
 297  601.9174
 298  656.9998
 299  728.0327
 300  649.8401
 301  547.2743
 302  727.5618
 303  759.2136
 304  715.9203
 305  643.1516
 306  664.5059
 307  674.4691
 308  602.1896
 309  666.332
 310  659.3006
 311  651.0864
 312  719.0991
 313  668.0271
 314  632.2087
 315  723.8871
 316  730.7287
 317  760.5237
 318  749.7896
 319  796.4345
 320  550.1251
 321  554.0541
 322  772.9153
 323  853.1711
 324  840.8624
 325  782.0912
 326  678.9855
 327  620.3606
 328  616.539
 329  758.3184
 330  728.1735
 331  730.5742
 332  771.0232
 333  765.7318
 334  724.4904
 335  662.7457
 336  555.0668
 337  607.7232
 338  558.0338
 339  687.9666
 340  673.4908
 341  659.2087
 342  772.5993
 343  788.7031
 344  776.1784
 345  812.4179
 346  724.0859
 347  704.4301
 348  746.5546
 349  687.0574
 350  738.7866
 351  731.3793
 352  661.6169
 353  674.4857
 354  732.593
 355  695.7455
 356  689.6078
 357  618.9018
 358  630.0469
 359  689.0739
 360  647.36
 361  713.5969
 362  744.9474
 363  706.9053
 364  719.4235
 365  547.3367
 366  633.7488
 367  601.5468
 368  624.1025
 369  598.5172
 370  663.9023
 371  543.9109
 372  513.1689
 373  627.111
 374  649.927
 375  630.2839
 376  616.6088
 377  610.063
 378  591.3505
 379  630.1981
 380  685.9042
 381  638.3818
 382  658.1172
 383  674.7288
 384  644.2906
 385  565.8503
 386  597.7374
 387  688.7667
 388  715.5043
 389  681.1296
 390  537.2535
 391  539.579
 392  595.5302
 393  633.6133
 394  706.248
 395  655.7356
 396  610.9232
 397  543.7057
 398  633.7136
 399  616.9958
 400  652.2047
 401  653.1627
 402  569.0751
 403  581.7557
 404  588.8125
 405  444.9415
 406  437.991
 407  526.2098
 408  623.9252
 409  628.3479
 410  592.0707
 411  568.775
 412  473.4705
 413  488.3707
 414  524.358
 415  528.649
 416  467.3022
 417  471.6315
 418  494.5273
 419  527.7324
 420  563.6982
 421  609.4343
 422  562.1586
 423  537.9848
 424  506.2202
 425  531.0139
 426  657.183
 427  629.3105
 428  489.319
 429  477.2604
 430  567.9325
 431  634.4287
 432  717.7348
 433  589.0746
 434  595.757
 435  514.7771
 436  558.7722
 437  569.7065
 438  536.9232
 439  611.8161
 440  594.9462
 441  601.2792
 442  538.7691
 443  582.9164
 444  692.2614
 445  644.2897
 446  453.1334
 447  524.9263
 448  647.7222
 449  624.3504
 450  471.4724
 451  530.4695
 452  565.5209
 453  556.2075
 454  545.298
 455  434.298
 456  588.3149
 457  665.1026
 458  579.1764
 459  504.5408
 460  534.5365
 461  567.9048
 462  516.0549
 463  502.7552
 464  574.8093
 465  618.4154
 466  546.8645
 467  636.9929
 468  635.9235
 469  651.4694
 470  727.7736
 471  587.5422
 472  612.3655
 473  629.0421
 474  619.3012
 475  650.6987
 476  557.3477
 477  603.5873
 478  626.8091
 479  702.609
 480  623.974
 481  508.4565
 482  491.5032
 483  493.0938
 484  548.6166
 485  627.5906
 486  539.438
 487  518.1213
 488  609.3358
 489  539.1217
 490  522.8093
 491  502.9951
 492  535.575
 493  652.4818
 494  677.8476
 495  656.3502
 496  617.4193
 497  654.7761
 498  691.5615
 499  716.6843
 500  797.9801
 501  707.3469
 502  597.7408
 503  669.2004
 504  648.5287
 505  607.48
 506  642.639
 507  685.642
 508  686.6058
 509  747.472
 510  929.2607
 511  1049.559
