# Input file       =  1182243875.12681_cleaned.dat
# Candidate        =  PSR_0332+5434
# Telescope        =  AR
# Epoch_topo       =  57927.377976004747
# Epoch_bary       =  N/A
# T_sample         =  0.002
# Data Folded      =  7340032
# Data Avg         =  0.0512280115635396
# Data StdDev      =  1.00013269412147 
# Profile Bins     =  512
# Profile Avg      =  734.398027829176 
# Profile StdDev   =  119.748924246839 
# Reduced chi-sqr  =  0.919
# Prob(Noise)      <  0.904   (~0.0 sigma)
# P_topo (ms)      =  714.495908054636  +/- 0.000144
# P'_topo (s/s)    =  -0                +/- 7.62e-11
# P''_topo (s/s^2) =  0                 +/- 3.36e-14
# P_bary (ms)      =  N/A
# P'_bary (s/s)    =  N/A
# P''_bary (s/s^2) =  N/A
# P_orb (s)        =  N/A
# asin(i)/c (s)    =  N/A
# eccentricity     =  N/A
# w (rad)          =  N/A
# T_peri           =  N/A
######################################################
   0  718.937
   1  666.5063
   2  678.1335
   3  734.183
   4  741.7302
   5  713.845
   6  705.7244
   7  719.9815
   8  761.719
   9  682.3705
  10  672.2036
  11  686.555
  12  619.5115
  13  661.5103
  14  778.4932
  15  774.9547
  16  681.8557
  17  660.8184
  18  703.5778
  19  664.9789
  20  610.3981
  21  749.2515
  22  755.5533
  23  695.8065
  24  755.7756
  25  797.7936
  26  944.6122
  27  901.1121
  28  760.2592
  29  781.8128
  30  792.1321
  31  837.7502
  32  832.1547
  33  809.1439
  34  713.0598
  35  821.3414
  36  880.0637
  37  795.1248
  38  720.9065
  39  733.7614
  40  676.6366
  41  699.8647
  42  709.6034
  43  698.761
  44  592.7584
  45  712.8137
  46  790.141
  47  707.9171
  48  653.3689
  49  645.3021
  50  709.781
  51  797.5912
  52  767.925
  53  710.0755
  54  650.6628
  55  757.5028
  56  759.4686
  57  762.6166
  58  721.094
  59  693.2198
  60  703.1682
  61  770.8099
  62  758.4877
  63  786.8879
  64  750.8392
  65  769.9234
  66  719.291
  67  780.0272
  68  756.8487
  69  802.3508
  70  811.6938
  71  832.0907
  72  801.9357
  73  801.0311
  74  906.6362
  75  912.3152
  76  927.3986
  77  891.2126
  78  803.3665
  79  873.4664
  80  877.1063
  81  895.346
  82  941.0056
  83  987.5654
  84  920.6808
  85  850.7375
  86  964.1238
  87  870.7786
  88  745.3822
  89  852.9681
  90  893.4664
  91  848.913
  92  885.7381
  93  810.6625
  94  776.3178
  95  750.8228
  96  815.6284
  97  815.0593
  98  828.7394
  99  833.8456
 100  863.6148
 101  762.4077
 102  683.3218
 103  757.5322
 104  802.7924
 105  827.0311
 106  765.3505
 107  774.7502
 108  819.4014
 109  850.2617
 110  822.7229
 111  807.8357
 112  857.8932
 113  843.7622
 114  845.8854
 115  833.1102
 116  789.406
 117  793.5171
 118  702.429
 119  703.4235
 120  723.8405
 121  782.1512
 122  689.9071
 123  731.5686
 124  696.2852
 125  714.6932
 126  666.858
 127  634.0253
 128  683.1528
 129  682.4731
 130  617.0225
 131  616.2668
 132  631.5121
 133  693.6204
 134  682.1179
 135  611.1057
 136  588.0251
 137  672.7524
 138  723.8983
 139  583.0493
 140  588.7774
 141  538.8986
 142  546.7266
 143  627.2208
 144  703.0059
 145  827.5367
 146  681.4667
 147  656.4851
 148  706.1005
 149  787.9863
 150  732.2285
 151  670.5966
 152  543.8979
 153  632.2112
 154  660.2063
 155  641.2151
 156  693.3517
 157  725.2374
 158  765.1699
 159  686.7879
 160  766.7586
 161  755.4778
 162  769.7524
 163  755.4202
 164  700.4936
 165  729.8313
 166  840.3118
 167  785.597
 168  744.5117
 169  748.4241
 170  749.9297
 171  711.6154
 172  630.2635
 173  710.8754
 174  884.6525
 175  993.5843
 176  1082.322
 177  1118.998
 178  1102.311
 179  976.1928
 180  861.549
 181  919.9828
 182  812.5934
 183  672.7547
 184  692.5327
 185  799.4005
 186  838.7946
 187  822.2582
 188  803.9875
 189  854.7783
 190  789.8027
 191  828.5106
 192  766.5914
 193  650.0332
 194  823.3238
 195  851.3384
 196  776.7725
 197  790.6024
 198  786.811
 199  833.5782
 200  734.1382
 201  654.5604
 202  711.3411
 203  697.665
 204  684.9108
 205  809.3879
 206  741.0994
 207  758.5369
 208  753.1902
 209  736.2449
 210  650.6899
 211  598.1132
 212  711.4791
 213  714.1646
 214  732.7046
 215  702.1923
 216  631.3491
 217  624.6187
 218  669.2021
 219  672.728
 220  746.4921
 221  721.5027
 222  678.8903
 223  648.2583
 224  655.8591
 225  601.8447
 226  678.1728
 227  721.3485
 228  740.025
 229  700.3185
 230  708.3065
 231  696.5586
 232  633.7071
 233  708.9884
 234  715.6796
 235  704.7358
 236  675.5479
 237  738.879
 238  783.6326
 239  810.3704
 240  697.0817
 241  669.0463
 242  761.8574
 243  830.8643
 244  747.3273
 245  720.3397
 246  712.1716
 247  684.6365
 248  712.1378
 249  614.1611
 250  614.8354
 251  619.8663
 252  624.0887
 253  601.341
 254  696.5976
 255  579.0845
 256  578.7639
 257  640.2472
 258  695.6552
 259  644.5477
 260  579.8368
 261  627.4024
 262  774.3719
 263  785.1694
 264  670.6982
 265  632.6242
 266  690.2293
 267  686.4742
 268  627.1793
 269  664.1207
 270  736.4781
 271  728.204
 272  781.0499
 273  733.4592
 274  619.1045
 275  723.239
 276  686.8307
 277  690.1229
 278  740.438
 279  740.9028
 280  781.1141
 281  797.2993
 282  715.4717
 283  705.7802
 284  700.2421
 285  733.6476
 286  716.9755
 287  689.6486
 288  745.7433
 289  679.791
 290  615.9128
 291  691.0682
 292  764.262
 293  747.1209
 294  710.1309
 295  716.3906
 296  666.7146
 297  635.86
 298  605.0655
 299  730.648
 300  806.5564
 301  793.8486
 302  674.6469
 303  671.3323
 304  607.7574
 305  654.8226
 306  752.0239
 307  655.2634
 308  653.368
 309  672.714
 310  672.3823
 311  651.4484
 312  546.074
 313  620.9912
 314  665.0254
 315  630.7953
 316  730.032
 317  708.0689
 318  769.3093
 319  837.7982
 320  883.9492
 321  756.6424
 322  654.2316
 323  781.1362
 324  751.1899
 325  822.126
 326  819.503
 327  782.0312
 328  817.8474
 329  775.6964
 330  780.3344
 331  827.9496
 332  858.1424
 333  751.3182
 334  678.7679
 335  726.3834
 336  760.8254
 337  755.5419
 338  734.5502
 339  782.3374
 340  792.2288
 341  795.8693
 342  897.5966
 343  905.8504
 344  733.6246
 345  706.4095
 346  842.1785
 347  779.3123
 348  808.0202
 349  826.2621
 350  815.7234
 351  752.3538
 352  672.7549
 353  742.8909
 354  751.3957
 355  659.9435
 356  695.9926
 357  704.3787
 358  685.3582
 359  699.8743
 360  614.8935
 361  661.564
 362  741.0421
 363  766.545
 364  667.6642
 365  605.6846
 366  733.2053
 367  708.8217
 368  641.4019
 369  748.0229
 370  830.4
 371  759.8087
 372  772.2422
 373  713.2067
 374  761.2342
 375  726.9841
 376  707.1345
 377  792.8389
 378  667.7232
 379  653.3446
 380  647.5875
 381  738.6058
 382  776.7405
 383  745.8543
 384  723.9003
 385  717.1508
 386  673.6122
 387  636.3871
 388  684.3643
 389  711.511
 390  775.2228
 391  771.8638
 392  807.1924
 393  725.2288
 394  681.3454
 395  788.2762
 396  710.3298
 397  729.0551
 398  642.4794
 399  700.6282
 400  741.3428
 401  691.1909
 402  689.1094
 403  644.684
 404  756.6084
 405  821.6727
 406  769.2271
 407  695.8616
 408  551.7598
 409  646.8508
 410  709.2899
 411  577.5278
 412  591.3569
 413  674.3992
 414  738.7945
 415  686.4756
 416  708.8002
 417  714.5136
 418  597.8989
 419  565.5097
 420  734.2541
 421  719.7607
 422  724.1439
 423  715.2926
 424  723.7101
 425  685.1061
 426  690.3158
 427  697.6536
 428  729.9683
 429  774.8976
 430  694.4825
 431  775.4161
 432  847.3445
 433  939.0294
 434  849.4475
 435  745.0057
 436  726.1417
 437  804.9471
 438  873.4228
 439  819.1085
 440  742.462
 441  716.8903
 442  736.5123
 443  719.2357
 444  810.1223
 445  843.0555
 446  814.1082
 447  667.4117
 448  726.8407
 449  800.1979
 450  697.2474
 451  706.7845
 452  791.5856
 453  825.4691
 454  761.28
 455  713.5277
 456  665.1089
 457  759.3683
 458  839.8112
 459  711.3157
 460  722.4377
 461  666.075
 462  724.6171
 463  705.5344
 464  549.1846
 465  615.5421
 466  663.543
 467  709.4135
 468  682.3615
 469  688.5922
 470  669.282
 471  676.4822
 472  606.065
 473  647.0881
 474  606.0283
 475  566.5514
 476  680.9327
 477  767.8497
 478  793.777
 479  687.4499
 480  689.118
 481  736.9608
 482  809.3735
 483  696.8983
 484  652.9261
 485  747.5281
 486  860.834
 487  819.4633
 488  706.4937
 489  710.9561
 490  772.0273
 491  724.4622
 492  672.6061
 493  714.2308
 494  673.6105
 495  652.1554
 496  631.3972
 497  746.2535
 498  765.7228
 499  682.011
 500  677.3056
 501  692.9924
 502  797.7346
 503  797.9657
 504  733.0126
 505  745.1453
 506  801.2467
 507  775.6482
 508  716.7555
 509  685.2038
 510  763.3352
 511  731.787
