# Input file       =  1182663277.113445_cleaned.dat
# Candidate        =  PSR_0332+5434
# Telescope        =  AR
# Epoch_topo       =  57932.232165664871
# Epoch_bary       =  N/A
# T_sample         =  0.002
# Data Folded      =  7340032
# Data Avg         =  0.0330952084113597
# Data StdDev      =  1.00013024723769 
# Profile Bins     =  512
# Profile Avg      =  474.45442805332  
# Profile StdDev   =  119.748631274014 
# Reduced chi-sqr  =  1.232
# Prob(Noise)      <  0.000249   (~3.5 sigma)
# P_topo (ms)      =  714.491504433105  +/- 5.2e-05
# P'_topo (s/s)    =  -0                +/- 2.74e-11
# P''_topo (s/s^2) =  0                 +/- 1.21e-14
# P_bary (ms)      =  N/A
# P'_bary (s/s)    =  N/A
# P''_bary (s/s^2) =  N/A
# P_orb (s)        =  N/A
# asin(i)/c (s)    =  N/A
# eccentricity     =  N/A
# w (rad)          =  N/A
# T_peri           =  N/A
######################################################
   0  340.3185
   1  394.5811
   2  413.437
   3  386.4936
   4  428.694
   5  420.269
   6  381.5972
   7  328.6058
   8  397.6195
   9  478.4404
  10  493.7902
  11  477.7086
  12  495.6989
  13  457.769
  14  362.6568
  15  394.4248
  16  395.3506
  17  465.5011
  18  376.3145
  19  337.3114
  20  396.7952
  21  516.8012
  22  451.2562
  23  416.5381
  24  481.3322
  25  424.9218
  26  369.1356
  27  413.0589
  28  352.5528
  29  246.5897
  30  319.4917
  31  369.4271
  32  460.858
  33  478.7153
  34  377.1487
  35  422.6559
  36  420.0477
  37  353.3319
  38  455.42
  39  393.432
  40  410.5574
  41  521.9712
  42  427.6361
  43  478.5517
  44  409.4965
  45  495.5074
  46  576.0972
  47  426.3279
  48  358.5741
  49  383.2159
  50  460.9468
  51  445.6505
  52  431.6119
  53  432.8823
  54  541.4578
  55  517.5778
  56  487.3638
  57  426.5168
  58  378.0068
  59  484.6978
  60  536.7168
  61  495.8385
  62  379.1938
  63  408.2515
  64  423.4217
  65  442.7847
  66  488.8839
  67  443.5262
  68  404.5619
  69  457.1007
  70  353.3312
  71  427.7193
  72  307.7569
  73  351.1503
  74  453.5771
  75  469.836
  76  434.4614
  77  447.2134
  78  580.144
  79  540.6514
  80  495.787
  81  564.4039
  82  531.048
  83  580.6156
  84  635.476
  85  605.2224
  86  488.9755
  87  512.9138
  88  505.9363
  89  505.5068
  90  516.2244
  91  436.5414
  92  365.5767
  93  400.6216
  94  551.7763
  95  497.421
  96  413.9873
  97  376.0199
  98  351.4141
  99  388.6631
 100  378.6231
 101  359.4752
 102  360.0987
 103  444.5492
 104  564.4375
 105  508.8302
 106  518.7301
 107  484.183
 108  552.6371
 109  532.2609
 110  394.807
 111  351.2572
 112  364.5508
 113  441.0467
 114  467.7242
 115  393.6726
 116  437.0002
 117  530.0328
 118  454.7649
 119  390.5977
 120  415.8362
 121  359.0466
 122  387.8238
 123  439.448
 124  496.8658
 125  408.4962
 126  369.5964
 127  448.1362
 128  514.406
 129  401.9795
 130  383.0309
 131  391.7581
 132  516.9653
 133  503.896
 134  378.9148
 135  390.5485
 136  522.6847
 137  489.2086
 138  466.7361
 139  422.6447
 140  404.3933
 141  493.5784
 142  570.7795
 143  479.2272
 144  446.6201
 145  551.1744
 146  466.5308
 147  480.9049
 148  411.877
 149  461.8867
 150  537.0115
 151  651.431
 152  621.1304
 153  508.2199
 154  411.4074
 155  443.9815
 156  440.4753
 157  524.5584
 158  467.094
 159  421.3665
 160  478.4333
 161  544.5607
 162  597.0836
 163  589.447
 164  550.4734
 165  523.8236
 166  572.8848
 167  653.3445
 168  581.8004
 169  506.6367
 170  424.6337
 171  388.9528
 172  524.4656
 173  415.4253
 174  423.4117
 175  578.5343
 176  426.1187
 177  335.0711
 178  447.0757
 179  386.2585
 180  426.0438
 181  466.4684
 182  473.7735
 183  491.5337
 184  501.4664
 185  564.1949
 186  550.0359
 187  481.2352
 188  498.9703
 189  536.6361
 190  529.0211
 191  533.6012
 192  474.0583
 193  516.9822
 194  550.6501
 195  632.5266
 196  626.6583
 197  454.0314
 198  392.1712
 199  428.1328
 200  470.4404
 201  455.1413
 202  458.9728
 203  586.735
 204  608.2001
 205  566.8231
 206  580.2143
 207  546.158
 208  618.7585
 209  671.5593
 210  652.9191
 211  468.4494
 212  377.6222
 213  508.987
 214  570.064
 215  389.8717
 216  453.4436
 217  475.2531
 218  598.0179
 219  587.7457
 220  450.6231
 221  412.8201
 222  405.5678
 223  375.6705
 224  449.7302
 225  364.9505
 226  378.0367
 227  369.3326
 228  409.5119
 229  461.1975
 230  528.1
 231  534.5864
 232  566.064
 233  532.6527
 234  479.4817
 235  470.5135
 236  506.8689
 237  486.6032
 238  513.0443
 239  409.8633
 240  412.5696
 241  508.8348
 242  577.6678
 243  511.6974
 244  419.8555
 245  522.0596
 246  566.9724
 247  507.9242
 248  454.4875
 249  504.4637
 250  519.4485
 251  523.0994
 252  442.8629
 253  418.6249
 254  404.2171
 255  346.2935
 256  446.8311
 257  472.6292
 258  444.621
 259  359.2232
 260  355.128
 261  466.3704
 262  601.624
 263  540.6996
 264  422.6243
 265  468.1702
 266  552.2089
 267  596.9366
 268  436.825
 269  461.2458
 270  529.7684
 271  603.2708
 272  456.4931
 273  437.0963
 274  369.4952
 275  349.2765
 276  341.4989
 277  359.6715
 278  483.304
 279  410.7053
 280  459.5095
 281  521.9434
 282  519.3011
 283  416.3409
 284  473.7774
 285  555.6608
 286  528.4173
 287  558.5984
 288  530.2228
 289  414.0521
 290  460.7146
 291  563.0613
 292  568.1091
 293  488.4194
 294  585.3491
 295  595.4062
 296  479.455
 297  440.6276
 298  456.4241
 299  529.8187
 300  598.1434
 301  448.5727
 302  513.7568
 303  626.9248
 304  547.9722
 305  534.3971
 306  497.6796
 307  606.437
 308  618.9003
 309  739.4443
 310  700.1767
 311  497.0269
 312  534.6415
 313  563.4742
 314  563.9551
 315  587.0734
 316  645.8379
 317  564.4787
 318  662.6862
 319  764.9781
 320  776.828
 321  872.4255
 322  1037.193
 323  1247.093
 324  1097.891
 325  866.5372
 326  615.7911
 327  482.3178
 328  618.2056
 329  588.7635
 330  446.8003
 331  514.2819
 332  549.9009
 333  542.4166
 334  486.8043
 335  516.9529
 336  518.4148
 337  449.8777
 338  477.7412
 339  462.5643
 340  498.516
 341  353.2166
 342  370.5888
 343  463.5602
 344  439.9034
 345  381.3213
 346  409.6569
 347  392.0775
 348  437.0447
 349  308.5208
 350  397.7165
 351  380.6031
 352  385.6115
 353  461.4623
 354  427.7034
 355  345.345
 356  422.2644
 357  495.1711
 358  504.6299
 359  426.0732
 360  412.3717
 361  473.93
 362  469.8909
 363  347.0251
 364  413.0634
 365  353.3471
 366  409.7073
 367  466.7751
 368  365.8061
 369  398.5234
 370  426.9315
 371  514.2057
 372  422.5717
 373  383.6512
 374  465.5438
 375  535.0502
 376  528.7408
 377  483.1771
 378  398.8534
 379  424.5383
 380  484.0173
 381  465.4648
 382  575.8373
 383  582.588
 384  476.9912
 385  552.9205
 386  606.3423
 387  462.0044
 388  477.1852
 389  550.2012
 390  490.7719
 391  565.1455
 392  509.6303
 393  529.4006
 394  465.7858
 395  454.41
 396  449.8636
 397  360.2054
 398  357.2392
 399  575.0063
 400  562.5981
 401  479.1395
 402  479.7186
 403  563.1294
 404  531.9203
 405  516.4806
 406  494.0921
 407  456.6701
 408  409.6806
 409  497.863
 410  446.6746
 411  372.9954
 412  436.4553
 413  434.8056
 414  345.1937
 415  396.8914
 416  457.7802
 417  391.0394
 418  418.1521
 419  445.8794
 420  563.1912
 421  475.7033
 422  486.9077
 423  595.476
 424  564.1854
 425  474.4904
 426  484.2683
 427  395.8686
 428  457.03
 429  438.7047
 430  443.3516
 431  424.8898
 432  432.0798
 433  528.1767
 434  516.8899
 435  620.0517
 436  487.399
 437  464.5627
 438  493.1541
 439  424.217
 440  394.3381
 441  339.3138
 442  300.4715
 443  400.136
 444  394.0016
 445  388.3255
 446  404.7831
 447  408.9953
 448  461.1944
 449  481.1975
 450  314.8453
 451  343.3882
 452  409.7379
 453  458.7345
 454  365.9038
 455  421.0487
 456  425.4388
 457  462.3129
 458  553.5917
 459  523.4465
 460  456.8614
 461  450.9404
 462  549.3544
 463  597.8661
 464  500.7964
 465  457.1143
 466  458.7844
 467  532.7631
 468  612.6812
 469  500.1672
 470  406.2404
 471  473.6402
 472  450.6054
 473  421.2784
 474  349.7691
 475  377.0024
 476  386.4729
 477  420.2162
 478  411.3367
 479  440.512
 480  402.9522
 481  432.0203
 482  427.8688
 483  416.4296
 484  372.6642
 485  379.0988
 486  447.2241
 487  503.0943
 488  412.6572
 489  366.3594
 490  362.9919
 491  519.3598
 492  526.1884
 493  433.5126
 494  432.5398
 495  606.5831
 496  572.6188
 497  506.2886
 498  527.7906
 499  514.7017
 500  529.7598
 501  507.1634
 502  377.2686
 503  320.8064
 504  429.1778
 505  558.1774
 506  503.731
 507  484.158
 508  390.6472
 509  426.3297
 510  401.8399
 511  423.0721
