# Input file       =  1182319293.117347_cleaned.dat
# Candidate        =  PSR_0332+5434
# Telescope        =  AR
# Epoch_topo       =  57928.250869413736
# Epoch_bary       =  N/A
# T_sample         =  0.002
# Data Folded      =  7340032
# Data Avg         =  0.0400606192051006
# Data StdDev      =  1.00015469593059 
# Profile Bins     =  512
# Profile Avg      =  574.383801130648 
# Profile StdDev   =  119.751558590251 
# Reduced chi-sqr  =  1.063
# Prob(Noise)      <  0.156   (~1.0 sigma)
# P_topo (ms)      =  714.494910971207  +/- 0.000212
# P'_topo (s/s)    =  -0                +/- 1.12e-10
# P''_topo (s/s^2) =  0                 +/- 4.93e-14
# P_bary (ms)      =  N/A
# P'_bary (s/s)    =  N/A
# P''_bary (s/s^2) =  N/A
# P_orb (s)        =  N/A
# asin(i)/c (s)    =  N/A
# eccentricity     =  N/A
# w (rad)          =  N/A
# T_peri           =  N/A
######################################################
   0  1003.512
   1  936.4695
   2  869.8041
   3  631.5273
   4  554.2338
   5  474.9744
   6  571.4272
   7  610.5955
   8  680.3068
   9  701.2877
  10  705.1523
  11  632.9858
  12  567.949
  13  630.5803
  14  717.5417
  15  739.937
  16  833.7216
  17  668.6786
  18  625.45
  19  660.4272
  20  573.9702
  21  656.6592
  22  605.162
  23  538.9024
  24  429.5153
  25  463.3662
  26  542.696
  27  558.0686
  28  554.247
  29  613.8997
  30  558.0228
  31  590.7469
  32  487.3555
  33  586.1782
  34  645.7216
  35  560.559
  36  488.6292
  37  450.9836
  38  500.0097
  39  551.0604
  40  595.4733
  41  592.0419
  42  573.3041
  43  550.7103
  44  627.517
  45  679.9845
  46  675.8657
  47  515.0665
  48  538.2372
  49  598.6898
  50  601.907
  51  646.217
  52  604.4567
  53  605.5954
  54  704.6716
  55  640.7589
  56  629.6621
  57  583.7111
  58  513.3206
  59  548.8116
  60  642.311
  61  581.4103
  62  542.1157
  63  556.3198
  64  518.7983
  65  362.4392
  66  299.6201
  67  389.6321
  68  357.5578
  69  396.2402
  70  542.5938
  71  523.6583
  72  515.5137
  73  408.8476
  74  338.4553
  75  458.4921
  76  464.1928
  77  463.5801
  78  461.894
  79  500.6605
  80  519.9808
  81  543.0928
  82  545.4266
  83  529.5013
  84  558.8141
  85  500.6834
  86  381.8472
  87  454.1859
  88  489.8325
  89  571.1443
  90  487.3661
  91  506.477
  92  516.4625
  93  516.2263
  94  472.3984
  95  551.6945
  96  640.2705
  97  713.6896
  98  710.5854
  99  675.09
 100  712.3595
 101  626.1225
 102  666.2511
 103  660.7743
 104  732.7452
 105  722.0019
 106  726.4075
 107  653.7145
 108  664.0408
 109  666.6801
 110  631.2996
 111  576.2164
 112  624.1596
 113  570.5728
 114  607.8967
 115  653.4485
 116  703.3203
 117  730.4077
 118  634.2197
 119  575.7283
 120  518.1395
 121  512.537
 122  594.0543
 123  654.107
 124  633.6923
 125  530.8451
 126  630.4046
 127  640.5434
 128  577.1054
 129  641.9933
 130  676.1237
 131  656.0861
 132  594.3668
 133  669.0317
 134  697.3846
 135  568.6914
 136  542.7303
 137  719.0086
 138  687.6807
 139  618.9811
 140  628.0817
 141  557.9716
 142  593.7399
 143  624.48
 144  640.6214
 145  597.2533
 146  510.0434
 147  544.7529
 148  560.9106
 149  567.9443
 150  566.6985
 151  531.5536
 152  554.8184
 153  493.7545
 154  460.4816
 155  433.2956
 156  467.1059
 157  525.616
 158  494.408
 159  509.306
 160  414.8976
 161  448.7402
 162  549.3163
 163  604.4814
 164  598.5457
 165  537.856
 166  621.0734
 167  527.8858
 168  460.8374
 169  487.3529
 170  580.6153
 171  571.5889
 172  492.9862
 173  504.9148
 174  452.4562
 175  532.8414
 176  536.0999
 177  582.1857
 178  589.0183
 179  690.813
 180  583.1741
 181  542.6329
 182  582.5126
 183  613.923
 184  666.9371
 185  710.0864
 186  602.3344
 187  673.294
 188  693.1543
 189  602.7973
 190  637.7601
 191  649.7951
 192  561.4041
 193  525.0204
 194  513.5118
 195  485.1085
 196  529.1207
 197  505.639
 198  493.5964
 199  517.7141
 200  393.6616
 201  369.4572
 202  361.9587
 203  408.7996
 204  533.7982
 205  447.0394
 206  477.7065
 207  434.4719
 208  519.3699
 209  492.4447
 210  413.7058
 211  455.8592
 212  570.8862
 213  546.9983
 214  439.943
 215  398.4824
 216  550.6614
 217  553.8323
 218  530.9299
 219  539.9321
 220  538.1672
 221  552.0866
 222  543.9625
 223  643.3596
 224  639.3061
 225  604.9911
 226  564.2693
 227  547.1329
 228  546.4415
 229  522.6569
 230  487.942
 231  587.6801
 232  611.4435
 233  675.4286
 234  657.9291
 235  593.6287
 236  566.433
 237  501.6293
 238  507.0508
 239  455.4082
 240  558.4738
 241  473.5812
 242  370.817
 243  394.4069
 244  373.6678
 245  421.8729
 246  505.1415
 247  474.4487
 248  378.7029
 249  467.3535
 250  499.3067
 251  542.8645
 252  564.3192
 253  589.58
 254  589.673
 255  541.397
 256  542.2881
 257  541.8301
 258  508.0986
 259  524.2252
 260  509.4736
 261  694.5821
 262  679.5677
 263  635.0718
 264  609.4103
 265  680.5734
 266  801.8769
 267  645.8009
 268  595.0302
 269  591.497
 270  656.9445
 271  703.9541
 272  621.5
 273  642.6739
 274  690.1832
 275  596.4196
 276  558.5863
 277  650.067
 278  640.5621
 279  627.042
 280  608.4807
 281  600.9957
 282  490.2226
 283  503.3227
 284  564.7557
 285  659.8701
 286  598.3772
 287  544.5775
 288  548.4815
 289  588.3215
 290  562.4157
 291  581.8651
 292  533.3554
 293  627.9968
 294  673.1964
 295  598.4088
 296  610.3467
 297  499.6807
 298  618.5946
 299  655.1197
 300  616.4471
 301  646.3141
 302  695.0335
 303  602.8786
 304  445.7478
 305  524.9299
 306  716.0479
 307  719.2257
 308  597.4612
 309  601.3792
 310  610.084
 311  558.3666
 312  593.1491
 313  670.5043
 314  737.5684
 315  662.517
 316  631.9805
 317  656.7263
 318  737.0722
 319  607.9719
 320  598.3564
 321  539.8206
 322  568.5672
 323  557.1849
 324  459.5146
 325  457.563
 326  491.8251
 327  504.669
 328  512.0689
 329  512.243
 330  549.5461
 331  571.1983
 332  559.2604
 333  534.6897
 334  543.3961
 335  485.8437
 336  553.797
 337  618.6027
 338  624.029
 339  548.9401
 340  571.035
 341  435.6996
 342  517.1658
 343  539.1326
 344  599.5888
 345  540.9301
 346  454.7702
 347  493.0519
 348  613.3929
 349  525.6696
 350  431.891
 351  562.8729
 352  654.8207
 353  668.2557
 354  566.4832
 355  619.5366
 356  631.7219
 357  607.4775
 358  753.2506
 359  708.3275
 360  670.8282
 361  611.7294
 362  602.0392
 363  570.4338
 364  534.7916
 365  447.1388
 366  371.528
 367  381.2777
 368  413.3424
 369  507.558
 370  486.7222
 371  519.9321
 372  472.8852
 373  566.8625
 374  553.0941
 375  473.4551
 376  466.5807
 377  513.7448
 378  553.3635
 379  585.9172
 380  560.0427
 381  594.3352
 382  593.5434
 383  635.5898
 384  625.3872
 385  526.9828
 386  548.468
 387  681.7274
 388  671.8647
 389  641.3729
 390  628.0303
 391  645.1378
 392  537.7263
 393  511.0186
 394  499.1754
 395  583.1266
 396  535.1088
 397  502.2124
 398  608.8575
 399  619.5196
 400  641.7276
 401  624.6173
 402  607.1616
 403  603.0897
 404  595.162
 405  609.5581
 406  650.7881
 407  551.7795
 408  532.0871
 409  555.8865
 410  450.976
 411  541.0697
 412  474.1121
 413  560.761
 414  539.4819
 415  566.9559
 416  698.3866
 417  564.6729
 418  503.7619
 419  601.7373
 420  606.0652
 421  540.6935
 422  575.581
 423  469.3855
 424  455.4706
 425  464.3942
 426  541.2863
 427  555.1217
 428  514.1552
 429  568.9587
 430  575.0084
 431  580.2523
 432  604.3279
 433  619.9885
 434  693.002
 435  669.3766
 436  577.7449
 437  619.2006
 438  665.2109
 439  697.2367
 440  663.7828
 441  682.1859
 442  724.4137
 443  726.1031
 444  698.2999
 445  549.863
 446  597.4
 447  561.4723
 448  625.2233
 449  540.5812
 450  497.8125
 451  510.6771
 452  470.9386
 453  567.8982
 454  483.1921
 455  510.5651
 456  649.3152
 457  600.0168
 458  641.0009
 459  589.782
 460  542.3087
 461  624.2707
 462  614.0936
 463  637.873
 464  641.6218
 465  562.9466
 466  669.3476
 467  627.7966
 468  513.2179
 469  500.1741
 470  565.4101
 471  647.6006
 472  679.2261
 473  668.259
 474  670.9023
 475  590.254
 476  502.307
 477  533.6772
 478  567.4984
 479  515.966
 480  628.3602
 481  757.5223
 482  670.8162
 483  777.3804
 484  654.4205
 485  539.6353
 486  550.7824
 487  552.5868
 488  617.2268
 489  583.7714
 490  566.3934
 491  537.7513
 492  600.0725
 493  554.4871
 494  539.9072
 495  563.816
 496  552.7662
 497  384.0928
 498  432.6529
 499  500.9287
 500  573.6683
 501  586.3433
 502  584.9222
 503  627.8981
 504  517.369
 505  500.1975
 506  552.6916
 507  655.9229
 508  661.2891
 509  643.9888
 510  809.1434
 511  1009.856
