# Input file       =  1182835593.123291_cleaned.dat
# Candidate        =  PSR_0332+5434
# Telescope        =  AR
# Epoch_topo       =  57934.226563926983
# Epoch_bary       =  N/A
# T_sample         =  0.002
# Data Folded      =  7340032
# Data Avg         =  0.040703191823729
# Data StdDev      =  1.00004036931075 
# Profile Bins     =  512
# Profile Avg      =  583.543249569688 
# Profile StdDev   =  119.737869916919 
# Reduced chi-sqr  =  1.027
# Prob(Noise)      <  0.325   (~0.5 sigma)
# P_topo (ms)      =  714.489858543798  +/- 0.000545
# P'_topo (s/s)    =  -0                +/- 2.87e-10
# P''_topo (s/s^2) =  0                 +/- 1.27e-13
# P_bary (ms)      =  N/A
# P'_bary (s/s)    =  N/A
# P''_bary (s/s^2) =  N/A
# P_orb (s)        =  N/A
# asin(i)/c (s)    =  N/A
# eccentricity     =  N/A
# w (rad)          =  N/A
# T_peri           =  N/A
######################################################
   0  1148.887
   1  1065.852
   2  935.4104
   3  800.7903
   4  669.4885
   5  632.0069
   6  590.4188
   7  547.2245
   8  495.2785
   9  619.0149
  10  673.9414
  11  560.9126
  12  466.8711
  13  581.473
  14  569.5563
  15  590.1143
  16  624.4325
  17  472.7921
  18  448.6243
  19  478.57
  20  583.0272
  21  528.0452
  22  472.6625
  23  476.8419
  24  428.7525
  25  537.4844
  26  519.7131
  27  400.3617
  28  466.0908
  29  556.2335
  30  537.1647
  31  584.4955
  32  591.041
  33  541.8867
  34  588.4832
  35  526.4985
  36  505.5455
  37  568.1818
  38  626.6667
  39  523.2437
  40  497.2925
  41  522.967
  42  490.1149
  43  491.0546
  44  442.414
  45  464.9411
  46  551.554
  47  587.7139
  48  576.0639
  49  580.4373
  50  595.1993
  51  666.9774
  52  592.8661
  53  563.4899
  54  509.7574
  55  569.9214
  56  714.214
  57  656.629
  58  651.8964
  59  611.1564
  60  491.9481
  61  635.442
  62  637.6992
  63  623.9944
  64  694.5779
  65  664.5449
  66  553.2788
  67  576.1087
  68  561.1631
  69  555.8249
  70  555.4588
  71  679.091
  72  692.4807
  73  688.0469
  74  697.0313
  75  598.4302
  76  596.5071
  77  674.3754
  78  700.3625
  79  629.0216
  80  512.2314
  81  632.3234
  82  654.4805
  83  681.231
  84  615.5129
  85  611.8721
  86  456.9148
  87  415.44
  88  597.6777
  89  699.6343
  90  733.2089
  91  666.6281
  92  454.0628
  93  411.8781
  94  421.798
  95  405.2344
  96  445.0538
  97  494.1855
  98  545.7831
  99  507.5677
 100  445.8398
 101  530.3808
 102  494.7725
 103  447.8991
 104  554.9897
 105  529.34
 106  519.3459
 107  596.498
 108  570.634
 109  505.6812
 110  536.7501
 111  504.2649
 112  504.4982
 113  607.2764
 114  635.3641
 115  633.1982
 116  468.0145
 117  555.3373
 118  585.3975
 119  620.9468
 120  616.9228
 121  557.8337
 122  554.2252
 123  500.2393
 124  525.0587
 125  540.2412
 126  543.2738
 127  431.0044
 128  425.3839
 129  491.4969
 130  520.8299
 131  561.6172
 132  548.0048
 133  541.2479
 134  507.1953
 135  588.5284
 136  641.0493
 137  611.2857
 138  624.8476
 139  536.4833
 140  489.7576
 141  541.4077
 142  506.5184
 143  589.6606
 144  570.926
 145  524.1272
 146  474.5219
 147  524.0356
 148  585.8317
 149  596.5341
 150  569.1608
 151  497.5489
 152  548.7582
 153  588.9489
 154  565.4329
 155  560.8511
 156  646.0471
 157  609.7027
 158  663.1743
 159  508.4697
 160  448.1949
 161  548.9183
 162  564.0339
 163  513.3085
 164  538.9926
 165  588.4626
 166  560.7962
 167  651.7855
 168  525.6508
 169  383.6526
 170  530.1339
 171  555.5645
 172  662.4786
 173  525.2155
 174  557.2268
 175  629.5341
 176  476.3113
 177  499.6299
 178  532.2568
 179  538.1347
 180  566.0203
 181  630.303
 182  541.9023
 183  453.1067
 184  456.6164
 185  545.5632
 186  583.5223
 187  638.0112
 188  535.9524
 189  500.7635
 190  478.9973
 191  428.8676
 192  396.3589
 193  408.5265
 194  404.3856
 195  427.5446
 196  571.0905
 197  569.2716
 198  484.8438
 199  472.4479
 200  491.0368
 201  495.8949
 202  545.959
 203  603.676
 204  561.2584
 205  554.6223
 206  581.549
 207  616.537
 208  645.2222
 209  602.426
 210  540.3455
 211  475.9669
 212  482.2481
 213  492.4383
 214  634.3159
 215  643.4625
 216  548.5632
 217  612.2962
 218  589.9363
 219  541.4177
 220  520.8421
 221  495.0932
 222  576.1003
 223  565.3931
 224  467.7479
 225  382.9825
 226  501.246
 227  569.0612
 228  512.0074
 229  453.1902
 230  468.9373
 231  506.1046
 232  539.6638
 233  544.1123
 234  488.214
 235  450.6851
 236  525.051
 237  498.8642
 238  422.9161
 239  520.8002
 240  498.1213
 241  518.3534
 242  567.1871
 243  615.0612
 244  641.5887
 245  658.6472
 246  583.7541
 247  621.9684
 248  705.2191
 249  607.5498
 250  496.1086
 251  571.1673
 252  569.5653
 253  516.7924
 254  560.5657
 255  593.3381
 256  535.7036
 257  482.3316
 258  600.1721
 259  510.9174
 260  546.0533
 261  705.1946
 262  618.7353
 263  515.5208
 264  562.4225
 265  595.4771
 266  586.5955
 267  599.9366
 268  598.6726
 269  532.4637
 270  472.5526
 271  517.1187
 272  659.1685
 273  671.9236
 274  651.9899
 275  661.0167
 276  608.9506
 277  562.402
 278  701.8992
 279  652.6799
 280  639.7295
 281  699.4971
 282  676.5815
 283  633.6992
 284  672.5201
 285  667.31
 286  544.2088
 287  514.4863
 288  570.6721
 289  599.9155
 290  672.0694
 291  662.1141
 292  618.1772
 293  590.2028
 294  579.3867
 295  619.0643
 296  559.0635
 297  571.5958
 298  589.3715
 299  628.4937
 300  680.6539
 301  605.9185
 302  568.2407
 303  634.4884
 304  569.9683
 305  557.1749
 306  592.8857
 307  628.13
 308  587.5648
 309  593.4439
 310  606.154
 311  626.4555
 312  702.7479
 313  757.8911
 314  699.2516
 315  702.772
 316  714.7831
 317  681.4575
 318  677.1782
 319  633.5549
 320  575.796
 321  667.5251
 322  710.7446
 323  713.0031
 324  596.9559
 325  684.3475
 326  733.6956
 327  730.2731
 328  675.1678
 329  674.9276
 330  674.2081
 331  659.1599
 332  572.65
 333  685.0647
 334  792.7829
 335  875.6891
 336  770.5394
 337  680.5549
 338  655.9255
 339  619.7528
 340  631.3159
 341  586.2084
 342  605.6258
 343  531.8596
 344  556.3719
 345  592.4302
 346  667.0366
 347  595.0789
 348  550.0218
 349  610.9621
 350  600.8819
 351  432.5312
 352  411.7696
 353  442.843
 354  491.3108
 355  580.765
 356  557.3207
 357  518.1526
 358  611.3639
 359  662.5823
 360  506.3292
 361  543.2004
 362  521.5988
 363  567.2494
 364  561.1053
 365  552.5922
 366  626.358
 367  656.6187
 368  621.3159
 369  572.6047
 370  549.5256
 371  715.1951
 372  676.5864
 373  652.3254
 374  653.632
 375  665.6056
 376  592.112
 377  553.5908
 378  615.5899
 379  523.9102
 380  668.1766
 381  562.3531
 382  560.4506
 383  576.7096
 384  603.3535
 385  566.0664
 386  496.898
 387  525.9498
 388  568.6431
 389  587.3954
 390  518.5888
 391  530.9755
 392  569.5595
 393  655.5845
 394  570.7894
 395  543.6775
 396  599.5756
 397  583.2643
 398  591.0895
 399  630.0125
 400  620.495
 401  594.4014
 402  552.4463
 403  542.2457
 404  576.5903
 405  572.0303
 406  600.2107
 407  505.7974
 408  552.353
 409  546.3405
 410  593.668
 411  615.2329
 412  614.1089
 413  671.9274
 414  591.1176
 415  592.2964
 416  569.2576
 417  616.9589
 418  653.0581
 419  629.869
 420  651.7101
 421  609.8706
 422  611.7473
 423  596.3061
 424  571.7486
 425  540.4748
 426  564.4377
 427  476.1984
 428  511.9214
 429  567.5398
 430  516.8296
 431  579.4058
 432  573.6629
 433  566.8853
 434  661.6264
 435  637.3099
 436  646.6543
 437  561.3852
 438  545.1423
 439  462.0309
 440  482.3174
 441  511.1339
 442  497.2033
 443  556.1661
 444  641.9888
 445  641.7946
 446  571.3181
 447  567.3215
 448  683.7578
 449  704.0126
 450  681.8828
 451  624.5602
 452  534.7721
 453  627.5469
 454  638.5111
 455  584.0988
 456  641.8232
 457  658.5037
 458  594.4326
 459  584.6678
 460  660.3529
 461  666.3011
 462  610.8996
 463  561.5279
 464  494.4127
 465  460.4583
 466  494.8998
 467  613.3871
 468  648.1611
 469  677.8714
 470  671.889
 471  586.1832
 472  559.4809
 473  564.0046
 474  707.3096
 475  648.7712
 476  599.842
 477  543.2337
 478  614.7239
 479  681.3796
 480  606.0056
 481  526.2221
 482  593.4723
 483  648.9758
 484  565.263
 485  552.8831
 486  639.2209
 487  690.611
 488  661.274
 489  649.4944
 490  620.6236
 491  651.5771
 492  625.5831
 493  603.2172
 494  714.21
 495  574.1422
 496  554.0826
 497  512.0927
 498  566.9061
 499  589.729
 500  590.398
 501  634.8234
 502  714.1615
 503  694.9642
 504  701.9153
 505  668.446
 506  618.2225
 507  702.2646
 508  760.8926
 509  705.0285
 510  924.8165
 511  1125.291
