# Input file       =  1183611107.093294_cleaned.dat
# Candidate        =  PSR_0332+5434
# Telescope        =  AR
# Epoch_topo       =  57943.202420061272
# Epoch_bary       =  N/A
# T_sample         =  0.002
# Data Folded      =  7340032
# Data Avg         =  0.0409853097087338
# Data StdDev      =  1.00005254028772 
# Profile Bins     =  512
# Profile Avg      =  587.932043753334 
# Profile StdDev   =  119.739327184946 
# Reduced chi-sqr  =  1.380
# Prob(Noise)      <  2.3e-08   (~5.5 sigma)
# P_topo (ms)      =  714.482950528954  +/- 0.000304
# P'_topo (s/s)    =  -0                +/- 1.61e-10
# P''_topo (s/s^2) =  0                 +/- 7.09e-14
# P_bary (ms)      =  N/A
# P'_bary (s/s)    =  N/A
# P''_bary (s/s^2) =  N/A
# P_orb (s)        =  N/A
# asin(i)/c (s)    =  N/A
# eccentricity     =  N/A
# w (rad)          =  N/A
# T_peri           =  N/A
######################################################
   0  555.5795
   1  621.3199
   2  641.9032
   3  700.1747
   4  672.1606
   5  644.5836
   6  571.3364
   7  589.0651
   8  616.4025
   9  555.499
  10  473.6357
  11  469.1853
  12  506.3722
  13  554.6058
  14  623.9565
  15  647.0688
  16  561.4539
  17  516.9099
  18  525.7393
  19  481.0508
  20  421.6852
  21  419.2408
  22  477.0177
  23  501.8283
  24  439.3687
  25  308.2264
  26  369.6314
  27  392.8245
  28  444.3544
  29  473.6458
  30  411.0784
  31  384.7427
  32  383.3489
  33  456.613
  34  504.5798
  35  507.9291
  36  526.3517
  37  490.9689
  38  448.8593
  39  498.9347
  40  540.8691
  41  684.4716
  42  654.48
  43  653.8206
  44  574.9363
  45  609.2631
  46  636.9471
  47  577.4207
  48  584.6632
  49  683.5784
  50  664.2393
  51  541.3076
  52  599.8082
  53  564.4036
  54  533.1459
  55  545.4296
  56  592.037
  57  586.7717
  58  619.7032
  59  561.3602
  60  552.6664
  61  543.3145
  62  470.6147
  63  412.067
  64  478.9694
  65  578.0828
  66  626.9362
  67  570.5641
  68  524.4677
  69  504.947
  70  437.1707
  71  546.35
  72  595.2902
  73  569.9744
  74  457.3842
  75  542.7698
  76  488.1894
  77  505.6696
  78  395.7428
  79  357.7596
  80  360.111
  81  512.132
  82  556.3084
  83  550.7491
  84  470.1915
  85  511.9249
  86  438.707
  87  519.9576
  88  564.1479
  89  471.8734
  90  459.8103
  91  493.9209
  92  595.5487
  93  647.1503
  94  546.0319
  95  470.9718
  96  454.8884
  97  504.8981
  98  522.6209
  99  456.5729
 100  566.6174
 101  585.7003
 102  533.4136
 103  498.6071
 104  509.0134
 105  516.0404
 106  573.056
 107  630.0639
 108  607.7759
 109  571.0583
 110  575.4548
 111  488.87
 112  454.5544
 113  541.0257
 114  515.0408
 115  475.9169
 116  504.44
 117  466.7779
 118  478.7673
 119  587.0391
 120  628.4319
 121  581.3921
 122  588.4009
 123  512.8601
 124  605.623
 125  678.1622
 126  679.387
 127  747.2195
 128  802.8306
 129  713.4307
 130  694.7281
 131  680.062
 132  600.3243
 133  589.043
 134  619.3639
 135  599.8951
 136  529.4525
 137  559.6876
 138  550.7209
 139  530.4125
 140  625.2049
 141  623.5661
 142  591.9231
 143  647.7335
 144  732.2455
 145  774.7342
 146  845.0755
 147  1134.196
 148  1222.569
 149  1247.914
 150  1139.993
 151  859.0528
 152  612.382
 153  578.4848
 154  553.9253
 155  550.6746
 156  447.9995
 157  540.3975
 158  670.2044
 159  651.6154
 160  624.4326
 161  560.2927
 162  467.2509
 163  447.9365
 164  517.3856
 165  592.594
 166  627.9552
 167  674.464
 168  633.5097
 169  697.0531
 170  662.6931
 171  591.68
 172  578.2358
 173  513.5242
 174  475.6133
 175  558.3041
 176  573.5024
 177  589.694
 178  665.5442
 179  616.7084
 180  533.1593
 181  560.6443
 182  571.7152
 183  483.8727
 184  552.4818
 185  616.8079
 186  653.5371
 187  512.0023
 188  597.3425
 189  585.798
 190  593.778
 191  595.4696
 192  558.8784
 193  485.3134
 194  547.4192
 195  625.6166
 196  706.3907
 197  610.6518
 198  575.4117
 199  534.7137
 200  591.2513
 201  616.3815
 202  774.8512
 203  608.1486
 204  626.6467
 205  572.7703
 206  566.4661
 207  679.765
 208  756.7053
 209  680.2664
 210  809.2869
 211  767.2972
 212  624.4791
 213  640.3376
 214  754.5571
 215  671.9953
 216  633.8334
 217  669.5669
 218  574.6387
 219  616.9431
 220  734.7147
 221  731.3818
 222  622.3566
 223  722.7399
 224  638.6304
 225  528.644
 226  548.7787
 227  528.4407
 228  561.6347
 229  480.0191
 230  687.2205
 231  623.5607
 232  638.5917
 233  539.4688
 234  531.2632
 235  620.9601
 236  572.3698
 237  508.1064
 238  531.8685
 239  515.9982
 240  429.506
 241  453.072
 242  495.8557
 243  423.9231
 244  421.2657
 245  576.2556
 246  467.7181
 247  497.7332
 248  692.7421
 249  556.4658
 250  587.1162
 251  473.3642
 252  506.7347
 253  556.8847
 254  494.1906
 255  550.8292
 256  400.605
 257  514.3096
 258  561.3196
 259  560.3769
 260  543.2473
 261  585.8987
 262  623.2267
 263  674.4892
 264  637.0847
 265  604.6702
 266  585.3679
 267  604.0114
 268  527.8709
 269  578.06
 270  598.5602
 271  631.9454
 272  571.7042
 273  495.0464
 274  439.9437
 275  508.5207
 276  653.8085
 277  578.5375
 278  606.1041
 279  642.3124
 280  644.7202
 281  669.2345
 282  621.4421
 283  587.8749
 284  592.5225
 285  577.7535
 286  560.1601
 287  499.6774
 288  502.848
 289  522.5596
 290  640.4361
 291  647.6034
 292  653.1232
 293  619.9581
 294  708.9874
 295  592.3521
 296  539.603
 297  668.027
 298  661.3832
 299  702.5255
 300  625.5606
 301  589.516
 302  608.7238
 303  624.6064
 304  600.8644
 305  499.0522
 306  574.2271
 307  628.8007
 308  620.3361
 309  716.7047
 310  683.2728
 311  578.5909
 312  567.1229
 313  611.8802
 314  558.5549
 315  461.0358
 316  544.9749
 317  517.1816
 318  524.5933
 319  559.1111
 320  477.3596
 321  473.2926
 322  466.6725
 323  527.394
 324  496.844
 325  466.2124
 326  465.589
 327  548.5337
 328  534.5156
 329  629.4344
 330  635.8356
 331  663.2258
 332  634.7798
 333  621.813
 334  615.0662
 335  622.9009
 336  629.171
 337  683.8843
 338  634.1462
 339  475.4599
 340  405.8229
 341  639.1936
 342  680.2511
 343  539.996
 344  634.3652
 345  695.4117
 346  645.9468
 347  608.9502
 348  636.5812
 349  696.0999
 350  811.7236
 351  765.3015
 352  667.1048
 353  738.5441
 354  748.684
 355  736.8557
 356  680.018
 357  678.7692
 358  657.8788
 359  601.6398
 360  653.7933
 361  718.3682
 362  665.8818
 363  600.4509
 364  568.2423
 365  595.7711
 366  600.3544
 367  617.1563
 368  633.4475
 369  630.432
 370  663.6783
 371  640.2928
 372  632.9014
 373  611.5261
 374  622.8812
 375  639.6729
 376  636.0751
 377  755.7605
 378  731.7319
 379  761.9243
 380  732.0618
 381  740.0988
 382  743.7208
 383  773.1902
 384  669.0187
 385  686.8622
 386  703.2804
 387  667.1075
 388  626.6526
 389  576.7281
 390  653.3271
 391  656.642
 392  608.4718
 393  576.2692
 394  680.1521
 395  600.1255
 396  503.435
 397  556.9842
 398  585.1868
 399  642.988
 400  614.5958
 401  541.9354
 402  556.4266
 403  520.9363
 404  543.446
 405  494.5903
 406  522.7577
 407  552.9506
 408  628.463
 409  697.8151
 410  608.1696
 411  543.6011
 412  576.6528
 413  495.1149
 414  491.586
 415  498.8744
 416  559.7613
 417  667.5898
 418  677.2669
 419  542.4599
 420  530.8678
 421  535.9642
 422  625.3539
 423  668.5762
 424  676.0681
 425  635.5204
 426  593.223
 427  556.9339
 428  602.1335
 429  607.7672
 430  659.0891
 431  720.9504
 432  754.2358
 433  737.9164
 434  660.5684
 435  606.8364
 436  565.316
 437  625.9169
 438  650.484
 439  644.3064
 440  592.5826
 441  551.506
 442  572.9039
 443  583.9104
 444  537.1642
 445  529.7228
 446  477.5978
 447  586.3245
 448  559.3505
 449  582.6296
 450  692.6697
 451  570.1351
 452  583.1107
 453  667.6824
 454  646.5604
 455  565.8795
 456  475.9978
 457  565.4393
 458  503.0673
 459  455.9669
 460  490.5846
 461  523.849
 462  567.1395
 463  530.1392
 464  533.5939
 465  569.6741
 466  601.6309
 467  606.2368
 468  700.1973
 469  737.5016
 470  737.1219
 471  664.0013
 472  746.0184
 473  723.9235
 474  765.7774
 475  720.051
 476  724.4778
 477  725.83
 478  691.0631
 479  602.059
 480  578.9769
 481  545.4315
 482  622.2167
 483  686.2972
 484  581.3837
 485  496.2434
 486  548.0052
 487  522.8261
 488  469.0598
 489  462.263
 490  633.0225
 491  652.6304
 492  564.4556
 493  495.7102
 494  369.8387
 495  470.7955
 496  439.72
 497  419.6201
 498  358.7171
 499  472.0176
 500  523.5258
 501  460.2654
 502  579.5868
 503  613.1133
 504  579.3746
 505  594.9911
 506  593.8477
 507  664.4388
 508  579.0578
 509  548.2902
 510  571.1935
 511  559.9009
