# Input file       =  1183008434.122497_cleaned.dat
# Candidate        =  PSR_0332+5434
# Telescope        =  AR
# Epoch_topo       =  57936.227038454825
# Epoch_bary       =  N/A
# T_sample         =  0.002
# Data Folded      =  7340032
# Data Avg         =  0.0467422795596865
# Data StdDev      =  1.00011220749926 
# Profile Bins     =  512
# Profile Avg      =  669.901698976928 
# Profile StdDev   =  119.746471321357 
# Reduced chi-sqr  =  1.591
# Prob(Noise)      <  3.79e-16   (~8.1 sigma)
# P_topo (ms)      =  714.488255790307  +/- 0.000437
# P'_topo (s/s)    =  -0                +/- 2.31e-10
# P''_topo (s/s^2) =  0                 +/- 1.02e-13
# P_bary (ms)      =  N/A
# P'_bary (s/s)    =  N/A
# P''_bary (s/s^2) =  N/A
# P_orb (s)        =  N/A
# asin(i)/c (s)    =  N/A
# eccentricity     =  N/A
# w (rad)          =  N/A
# T_peri           =  N/A
######################################################
   0  1387.969
   1  1359.831
   2  1165.582
   3  1091.33
   4  891.241
   5  809.1846
   6  751.1453
   7  761.995
   8  627.7242
   9  700.1913
  10  729.8593
  11  856.2539
  12  823.3371
  13  842.4557
  14  850.5549
  15  813.7296
  16  766.4626
  17  794.0558
  18  821.0449
  19  773.4229
  20  727.215
  21  682.9085
  22  676.2085
  23  678.6782
  24  669.2881
  25  735.0867
  26  669.7146
  27  679.84
  28  696.1044
  29  647.3574
  30  732.5854
  31  746.2466
  32  697.7695
  33  663.5981
  34  743.322
  35  712.1014
  36  755.72
  37  835.0962
  38  657.5834
  39  651.7084
  40  718.1021
  41  806.6612
  42  788.6138
  43  794.9935
  44  826.2188
  45  805.4113
  46  728.9621
  47  762.4767
  48  877.3397
  49  932.0698
  50  792.0866
  51  716.1669
  52  718.6802
  53  707.9191
  54  734.8666
  55  755.2318
  56  790.8282
  57  785.6985
  58  754.5046
  59  770.7075
  60  773.1384
  61  748.1616
  62  732.034
  63  834.192
  64  860.6454
  65  823.9133
  66  839.5217
  67  682.6171
  68  780.5974
  69  886.126
  70  751.3876
  71  679.8613
  72  731.2033
  73  776.1597
  74  803.3622
  75  699.2512
  76  668.6624
  77  754.2431
  78  658.4149
  79  686.1927
  80  808.0303
  81  778.162
  82  692.5089
  83  645.2473
  84  809.2001
  85  798.8345
  86  650.5812
  87  623.8398
  88  743.3334
  89  630.6182
  90  609.497
  91  685.2112
  92  627.962
  93  635.0127
  94  591.2006
  95  617.352
  96  644.8749
  97  605.4421
  98  585.4787
  99  679.6387
 100  735.9891
 101  772.7134
 102  801.5124
 103  697.5042
 104  657.4011
 105  704.9882
 106  757.2898
 107  707.6298
 108  637.1323
 109  682.7485
 110  635.8231
 111  631.647
 112  670.4807
 113  691.1624
 114  662.5923
 115  595.2156
 116  624.3912
 117  676.2572
 118  635.9878
 119  617.8759
 120  612.1521
 121  710.4359
 122  688.2708
 123  674.7285
 124  673.8627
 125  629.3842
 126  613.3729
 127  586.56
 128  500.7189
 129  503.2937
 130  630.8018
 131  678.3138
 132  652.6833
 133  551.0543
 134  582.042
 135  502.029
 136  518.6787
 137  628.1873
 138  643.4515
 139  583.1078
 140  604.2291
 141  653.0974
 142  530.2424
 143  493.8555
 144  436.6246
 145  533.587
 146  708.2359
 147  689.8685
 148  658.2065
 149  659.7978
 150  670.0035
 151  726.0645
 152  686.1552
 153  678.235
 154  593.1345
 155  605.8422
 156  666.6169
 157  696.4029
 158  669.7338
 159  643.3323
 160  636.4906
 161  606.5402
 162  604.8455
 163  586.452
 164  631.496
 165  574.6251
 166  572.9128
 167  688.5282
 168  745.7776
 169  762.7958
 170  730.0944
 171  668.6788
 172  696.389
 173  660.1277
 174  599.0045
 175  601.4674
 176  639.8358
 177  612.4204
 178  667.7731
 179  726.9472
 180  693.1559
 181  768.5959
 182  812.0396
 183  686.3855
 184  681.4909
 185  677.0715
 186  728.1996
 187  686.0222
 188  767.0256
 189  811.2382
 190  669.5712
 191  565.4818
 192  542.1099
 193  614.4384
 194  724.692
 195  717.2982
 196  645.7388
 197  647.1069
 198  728.2044
 199  715.1698
 200  688.6285
 201  607.9009
 202  655.9521
 203  695.7477
 204  619.2253
 205  783.0688
 206  772.8907
 207  637.1659
 208  669.3122
 209  617.8654
 210  557.2556
 211  583.4422
 212  747.9135
 213  774.4332
 214  670.3813
 215  628.3911
 216  624.2673
 217  577.399
 218  652.1749
 219  668.3417
 220  555.4658
 221  591.0923
 222  632.0342
 223  743.6511
 224  702.0039
 225  625.4614
 226  653.7208
 227  751.0571
 228  701.7268
 229  655.089
 230  750.9783
 231  775.15
 232  717.5599
 233  695.7555
 234  735.8934
 235  787.8226
 236  689.6829
 237  671.2982
 238  753.7458
 239  645.3553
 240  639.1949
 241  564.4471
 242  625.0693
 243  645.6153
 244  657.3871
 245  721.1852
 246  651.6058
 247  640.6335
 248  690.2328
 249  696.3839
 250  661.4544
 251  519.1799
 252  440.8817
 253  553.4587
 254  515.335
 255  529.0168
 256  601.1105
 257  603.3881
 258  503.3042
 259  447.3823
 260  428.2481
 261  486.5715
 262  577.9349
 263  537.8615
 264  498.139
 265  561.3758
 266  570.1227
 267  591.5921
 268  595.0811
 269  602.3599
 270  647.7724
 271  643.541
 272  709.1122
 273  689.9057
 274  621.1639
 275  563.0408
 276  549.507
 277  638.1274
 278  693.9389
 279  667.7649
 280  685.9036
 281  722.2343
 282  788.6405
 283  763.4531
 284  764.216
 285  726.7197
 286  629.7783
 287  669.502
 288  718.559
 289  770.8493
 290  587.3187
 291  595.5275
 292  631.4273
 293  676.4631
 294  630.0193
 295  586.3232
 296  589.7763
 297  652.334
 298  700.4411
 299  675.1469
 300  627.4148
 301  630.1339
 302  614.2418
 303  680.341
 304  689.2034
 305  588.9476
 306  634.096
 307  683.2654
 308  622.338
 309  641.5567
 310  584.7828
 311  733.1842
 312  758.5421
 313  598.1382
 314  638.295
 315  670.3959
 316  600.2824
 317  556.1707
 318  647.0521
 319  720.3835
 320  718.7827
 321  690.6205
 322  682.566
 323  674.9661
 324  765.9782
 325  744.2273
 326  652.8674
 327  634.4987
 328  614.7798
 329  555.1284
 330  603.2097
 331  588.9479
 332  434.5964
 333  534.7348
 334  499.0393
 335  425.2769
 336  542.9128
 337  511.4496
 338  637.7169
 339  550.6974
 340  600.7664
 341  598.9342
 342  443.3259
 343  401.2461
 344  557.8044
 345  571.7169
 346  601.6182
 347  607.2879
 348  502.8799
 349  642.496
 350  583.5412
 351  538.9043
 352  563.0179
 353  691.4876
 354  662.6549
 355  624.0385
 356  653.3116
 357  650.8752
 358  713.7134
 359  657.1274
 360  715.5145
 361  578.639
 362  654.8654
 363  807.1911
 364  850.754
 365  877.3153
 366  747.8091
 367  822.4839
 368  865.998
 369  783.3571
 370  692.905
 371  724.0211
 372  712.6243
 373  752.5172
 374  844.1716
 375  785.0034
 376  690.9238
 377  707.8196
 378  720.0435
 379  705.4948
 380  651.6901
 381  751.3022
 382  776.6589
 383  707.2966
 384  716.7025
 385  698.8613
 386  641.4387
 387  612.6545
 388  691.9101
 389  650.6369
 390  708.3866
 391  741.8661
 392  790.1046
 393  687.2745
 394  637.1353
 395  686.8663
 396  658.173
 397  632.0894
 398  651.0801
 399  636.72
 400  657.2728
 401  608.5604
 402  688.9017
 403  813.406
 404  687.0838
 405  642.9729
 406  663.4714
 407  716.9351
 408  761.1776
 409  775.9059
 410  771.1443
 411  583.1794
 412  622.9582
 413  687.7773
 414  700.4715
 415  681.6888
 416  749.8107
 417  707.7239
 418  698.0239
 419  735.1102
 420  663.2465
 421  625.8879
 422  600.0378
 423  559.9615
 424  544.6261
 425  523.3978
 426  585.2858
 427  610.9267
 428  654.2
 429  620.239
 430  582.4187
 431  603.5891
 432  604.7983
 433  609.8387
 434  528.8987
 435  503.4719
 436  604.0969
 437  599.3195
 438  647.5493
 439  711.2758
 440  683.2094
 441  671.8839
 442  658.8724
 443  615.8106
 444  625.6334
 445  613.651
 446  523.5547
 447  492.9708
 448  693.8478
 449  738.7641
 450  592.2275
 451  687.836
 452  848.1573
 453  734.303
 454  604.9254
 455  627.8994
 456  652.2184
 457  695.7971
 458  607.572
 459  636.7183
 460  642.0909
 461  536.5469
 462  479.3235
 463  564.4667
 464  636.0389
 465  593.801
 466  632.1049
 467  534.5444
 468  494.0863
 469  647.1491
 470  634.8867
 471  613.52
 472  648.7729
 473  750.0298
 474  666.4066
 475  576.723
 476  536.3926
 477  513.8011
 478  531.6093
 479  477.3719
 480  410.3599
 481  557.328
 482  538.6272
 483  515.1089
 484  522.9319
 485  610.6189
 486  615.8417
 487  532.8098
 488  577.3453
 489  523.2297
 490  507.8929
 491  534.8913
 492  584.088
 493  621.7115
 494  624.9955
 495  681.5093
 496  597.0807
 497  566.1459
 498  577.5595
 499  606.1844
 500  630.5788
 501  730.5438
 502  722.8124
 503  689.7487
 504  634.9763
 505  596.7045
 506  736.6799
 507  827.8602
 508  935.5406
 509  954.3185
 510  1121.501
 511  1291.084
