# Input file       =  1183281104.121031_cleaned.dat
# Candidate        =  PSR_0332+5434
# Telescope        =  AR
# Epoch_topo       =  57939.382941215634
# Epoch_bary       =  N/A
# T_sample         =  0.002
# Data Folded      =  7340032
# Data Avg         =  0.0628430862636198
# Data StdDev      =  0.999933708435548
# Profile Bins     =  512
# Profile Avg      =  900.943932939139 
# Profile StdDev   =  119.725099086468 
# Reduced chi-sqr  =  0.870
# Prob(Noise)      <  0.985   (~0.0 sigma)
# P_topo (ms)      =  714.486117502832  +/- 0.000547
# P'_topo (s/s)    =  -0                +/- 2.89e-10
# P''_topo (s/s^2) =  0                 +/- 1.27e-13
# P_bary (ms)      =  N/A
# P'_bary (s/s)    =  N/A
# P''_bary (s/s^2) =  N/A
# P_orb (s)        =  N/A
# asin(i)/c (s)    =  N/A
# eccentricity     =  N/A
# w (rad)          =  N/A
# T_peri           =  N/A
######################################################
   0  1430.188
   1  1254.111
   2  1200.273
   3  1080.006
   4  906.0057
   5  937.4466
   6  967.1813
   7  899.6786
   8  874.0963
   9  825.8644
  10  797.9857
  11  853.2076
  12  827.9811
  13  827.6101
  14  882.3292
  15  901.9998
  16  933.4484
  17  885.5758
  18  860.3519
  19  833.2415
  20  856.1035
  21  927.9764
  22  953.7901
  23  919.4222
  24  870.4137
  25  867.841
  26  887.5011
  27  856.3957
  28  832.9315
  29  904.0492
  30  824.9014
  31  921.1212
  32  981.6877
  33  1021.413
  34  883.7023
  35  866.4285
  36  908.5385
  37  932.472
  38  870.8908
  39  819.1434
  40  827.9977
  41  828.2527
  42  857.8823
  43  850.118
  44  852.6282
  45  821.0601
  46  870.2717
  47  821.1717
  48  828.4716
  49  816.1946
  50  821.2023
  51  834.3221
  52  903.9071
  53  1025.776
  54  961.6006
  55  880.9221
  56  805.0676
  57  815.2415
  58  779.5107
  59  828.2417
  60  817.7137
  61  851.832
  62  944.1483
  63  908.2957
  64  1007.912
  65  990.2005
  66  951.3032
  67  1029.882
  68  1034.744
  69  1094.845
  70  994.2592
  71  969.5784
  72  978.1003
  73  957.7019
  74  974.4082
  75  1041.099
  76  952.3032
  77  913.9399
  78  857.6235
  79  891.563
  80  958.9102
  81  884.1858
  82  885.4275
  83  934.8167
  84  943.0186
  85  929.8203
  86  890.2045
  87  904.0581
  88  773.5228
  89  857.8043
  90  836.8189
  91  720.7396
  92  842.1782
  93  851.7888
  94  795.7919
  95  803.6449
  96  773.6247
  97  793.0815
  98  849.5905
  99  789.8361
 100  709.3525
 101  753.8411
 102  807.0162
 103  864.6157
 104  894.3823
 105  852.8729
 106  822.6118
 107  813.4227
 108  860.4273
 109  773.6057
 110  803.373
 111  899.7519
 112  912.3693
 113  901.1943
 114  884.086
 115  864.4666
 116  905.8445
 117  914.4728
 118  940.5608
 119  949.6556
 120  888.9639
 121  825.9942
 122  809.7374
 123  769.4736
 124  697.2166
 125  850.1316
 126  887.1928
 127  848.3467
 128  798.5107
 129  857.4283
 130  872.8264
 131  965.0314
 132  1012.336
 133  874.0154
 134  873.7171
 135  917.8259
 136  875.4545
 137  859.0805
 138  878.9761
 139  948.3677
 140  860.5295
 141  774.588
 142  826.3857
 143  878.1262
 144  809.8918
 145  893.4439
 146  914.2599
 147  947.7197
 148  1012.703
 149  949.5435
 150  900.6418
 151  864.6816
 152  954.8581
 153  1005.994
 154  1006.093
 155  871.5818
 156  913.963
 157  968.9363
 158  976.4517
 159  984.9923
 160  1022.96
 161  984.0703
 162  946.492
 163  892.3007
 164  968.1805
 165  955.9685
 166  839.4543
 167  774.8036
 168  824.8088
 169  796.0769
 170  878.8741
 171  952.3922
 172  888.5292
 173  920.3379
 174  900.6783
 175  961.4138
 176  898.6908
 177  867.9229
 178  903.7419
 179  943.0776
 180  958.7315
 181  1001.007
 182  846.4571
 183  807.0575
 184  931.6937
 185  942.3673
 186  947.878
 187  1007.91
 188  1006.06
 189  914.7271
 190  894.7869
 191  874.2806
 192  878.6527
 193  884.2761
 194  940.5605
 195  1010.47
 196  995.7495
 197  913.627
 198  839.0059
 199  829.0488
 200  873.4614
 201  874.8279
 202  930.0173
 203  992.2595
 204  861.8416
 205  872.2924
 206  841.3167
 207  965.7518
 208  1032.88
 209  962.1507
 210  1033.911
 211  982.9768
 212  957.8855
 213  1001.251
 214  957.0537
 215  893.4299
 216  890.9821
 217  932.2222
 218  914.67
 219  943.7308
 220  937.2815
 221  952.2704
 222  913.5202
 223  860.6838
 224  875.1762
 225  886.993
 226  957.2333
 227  935.0236
 228  898.9193
 229  880.7977
 230  983.7166
 231  1002.124
 232  952.171
 233  833.2692
 234  921.1541
 235  962.092
 236  890.785
 237  895.5726
 238  946.7117
 239  885.0381
 240  800.6929
 241  874.9677
 242  980.742
 243  988.0665
 244  969.5189
 245  880.4717
 246  830.375
 247  920.8658
 248  952.4543
 249  821.2421
 250  872.4813
 251  891.5893
 252  892.212
 253  910.8813
 254  884.4371
 255  779.8503
 256  855.8286
 257  795.3737
 258  841.4103
 259  875.0157
 260  861.9032
 261  826.0609
 262  830.3671
 263  839.2426
 264  821.5554
 265  836.706
 266  911.9529
 267  920.5991
 268  876.8701
 269  805.1002
 270  849.3571
 271  799.8107
 272  801.5686
 273  781.8601
 274  855.0599
 275  989.309
 276  984.2128
 277  893.0405
 278  796.2728
 279  774.2219
 280  787.1511
 281  772.8809
 282  838.4492
 283  871.1332
 284  919.4301
 285  962.6464
 286  928.4182
 287  865.2318
 288  876.1868
 289  898.5887
 290  889.6039
 291  858.0112
 292  896.7034
 293  973.0448
 294  888.7457
 295  861.0742
 296  899.8981
 297  860.1285
 298  885.886
 299  873.4028
 300  932.5434
 301  954.0458
 302  954.5164
 303  989.9156
 304  924.6937
 305  979.1678
 306  905.6606
 307  883.9232
 308  955.3455
 309  903.3922
 310  938.1526
 311  1002.258
 312  852.2078
 313  846.6944
 314  908.7806
 315  965.6534
 316  900.0442
 317  891.2545
 318  987.1511
 319  986.3092
 320  918.9271
 321  948.7054
 322  824.3949
 323  850.1337
 324  930.0496
 325  949.9265
 326  949.002
 327  913.0184
 328  905.3614
 329  919.595
 330  785.412
 331  841.8574
 332  971.8237
 333  867.571
 334  879.2791
 335  939.6431
 336  935.3789
 337  1008.055
 338  929.6096
 339  935.7843
 340  917.5628
 341  829.6885
 342  950.4603
 343  1011.478
 344  1028.49
 345  1012.574
 346  1031.506
 347  1028.105
 348  1000.524
 349  1009.783
 350  978.6985
 351  892.8752
 352  927.1181
 353  964.7736
 354  969.3055
 355  897.4078
 356  832.7737
 357  781.9382
 358  854.8257
 359  840.5598
 360  874.4333
 361  959.8288
 362  889.1475
 363  875.2496
 364  776.8533
 365  832.0117
 366  911.6994
 367  921.501
 368  906.3182
 369  880.0518
 370  881.003
 371  886.1325
 372  982.6478
 373  946.4752
 374  876.3328
 375  772.7657
 376  817.5344
 377  863.1342
 378  834.0406
 379  873.5554
 380  874.7449
 381  929.825
 382  976.3281
 383  862.3275
 384  796.4489
 385  844.6367
 386  869.3315
 387  946.8481
 388  939.7107
 389  900.9796
 390  953.4922
 391  954.5458
 392  881.5999
 393  793.0349
 394  801.0272
 395  855.9501
 396  963.5565
 397  884.8402
 398  898.3479
 399  932.7291
 400  982.3273
 401  963.4302
 402  891.4113
 403  869.5612
 404  892.9883
 405  864.9431
 406  884.5027
 407  835.3761
 408  844.9883
 409  881.2151
 410  835.9201
 411  893.0676
 412  941.4868
 413  841.6521
 414  832.7247
 415  827.5431
 416  881.239
 417  874.1232
 418  932.2083
 419  894.4456
 420  877.0355
 421  921.3695
 422  880.0625
 423  856.55
 424  872.6936
 425  968.6406
 426  967.8834
 427  901.1275
 428  896.5292
 429  949.0984
 430  867.6932
 431  902.519
 432  958.7775
 433  990.027
 434  909.9548
 435  783.8341
 436  775.8136
 437  867.6948
 438  812.6215
 439  880.7643
 440  842.6936
 441  769.3203
 442  851.2097
 443  845.4296
 444  747.2119
 445  818.4608
 446  848.3542
 447  820.164
 448  861.687
 449  922.6893
 450  780.1531
 451  820.4967
 452  875.4584
 453  805.933
 454  768.4212
 455  776.6439
 456  786.7957
 457  788.7956
 458  832.5887
 459  818.2405
 460  842.5724
 461  864.199
 462  853.4604
 463  772.3015
 464  809.3094
 465  926.5506
 466  898.6094
 467  977.3397
 468  900.7399
 469  887.8293
 470  893.9122
 471  947.7252
 472  1007.355
 473  891.2712
 474  909.1754
 475  901.2612
 476  927.7274
 477  964.6218
 478  982.7085
 479  916.755
 480  770.3739
 481  847.865
 482  943.5502
 483  904.5764
 484  923.0377
 485  964.0761
 486  1041.998
 487  979.9948
 488  942.46
 489  834.0685
 490  881.873
 491  928.6298
 492  963.811
 493  1007.255
 494  1022.427
 495  955.769
 496  918.3423
 497  961.772
 498  981.1758
 499  1017.866
 500  998.6925
 501  864.7216
 502  798.5188
 503  856.4491
 504  996.6302
 505  1087.321
 506  1038.8
 507  1080.829
 508  1123.854
 509  1221.068
 510  1268.346
 511  1388.293
