# Input file       =  1183094583.125446_cleaned.dat
# Candidate        =  PSR_0332+5434
# Telescope        =  AR
# Epoch_topo       =  57937.224133396368
# Epoch_bary       =  N/A
# T_sample         =  0.002
# Data Folded      =  7340032
# Data Avg         =  0.0525988977029981
# Data StdDev      =  1.00019776190018 
# Profile Bins     =  512
# Profile Avg      =  753.894771975286 
# Profile StdDev   =  119.756715009554 
# Reduced chi-sqr  =  1.336
# Prob(Noise)      <  5.22e-07   (~4.9 sigma)
# P_topo (ms)      =  714.487469259076  +/- 0.00019
# P'_topo (s/s)    =  -0                +/- 1e-10
# P''_topo (s/s^2) =  0                 +/- 4.42e-14
# P_bary (ms)      =  N/A
# P'_bary (s/s)    =  N/A
# P''_bary (s/s^2) =  N/A
# P_orb (s)        =  N/A
# asin(i)/c (s)    =  N/A
# eccentricity     =  N/A
# w (rad)          =  N/A
# T_peri           =  N/A
######################################################
   0  557.4289
   1  640.9768
   2  672.9972
   3  776.4489
   4  701.5269
   5  702.3719
   6  770.3206
   7  736.9201
   8  748.8285
   9  761.7072
  10  794.3216
  11  782.916
  12  808.882
  13  818.1014
  14  841.4556
  15  729.2174
  16  697.7691
  17  699.2133
  18  789.2257
  19  809.9023
  20  795.1257
  21  717.8915
  22  722.8437
  23  688.7637
  24  634.2773
  25  637.7672
  26  715.1821
  27  656.2825
  28  703.1185
  29  699.1039
  30  590.4966
  31  554.3942
  32  603.7429
  33  620.9955
  34  549.5107
  35  539.2511
  36  608.2094
  37  565.1879
  38  655.8916
  39  558.778
  40  622.91
  41  709.2614
  42  758.1474
  43  691.1075
  44  625.8438
  45  639.9864
  46  703.1555
  47  791.8731
  48  767.9982
  49  712.7748
  50  759.0974
  51  824.6637
  52  888.4539
  53  823.168
  54  782.95
  55  718.6193
  56  752.6274
  57  799.0628
  58  810.3058
  59  778.9957
  60  691.0071
  61  732.4021
  62  764.4911
  63  826.537
  64  785.0098
  65  726.9226
  66  757.9382
  67  738.5562
  68  618.3295
  69  705.8268
  70  798.6837
  71  857.3969
  72  807.1802
  73  757.6667
  74  643.9907
  75  718.5273
  76  811.7089
  77  859.2793
  78  813.6185
  79  902.0035
  80  889.3018
  81  760.55
  82  770.2374
  83  947.8883
  84  928.8887
  85  881.7109
  86  889.1224
  87  961.9564
  88  905.1301
  89  854.9307
  90  890.0514
  91  933.5458
  92  848.176
  93  853.8463
  94  853.3369
  95  900.0365
  96  923.1471
  97  723.5546
  98  739.3776
  99  769.04
 100  735.5933
 101  704.9741
 102  675.1486
 103  666.2057
 104  766.1277
 105  725.4194
 106  637.9695
 107  645.1476
 108  725.5136
 109  691.9224
 110  822.2359
 111  731.2018
 112  689.8523
 113  755.4999
 114  838.5743
 115  796.0398
 116  738.4494
 117  662.0108
 118  649.8073
 119  748.6504
 120  806.3371
 121  800.3749
 122  784.5521
 123  701.8282
 124  764.136
 125  852.1081
 126  740.7608
 127  686.6376
 128  776.5533
 129  818.1912
 130  708.9177
 131  649.2444
 132  739.2181
 133  765.2647
 134  662.7146
 135  702.8918
 136  656.2867
 137  736.3618
 138  842.9761
 139  774.4016
 140  768.7017
 141  731.7703
 142  768.4122
 143  692.0728
 144  747.3155
 145  809.3548
 146  730.0398
 147  798.3893
 148  718.4372
 149  753.9286
 150  752.5997
 151  711.8903
 152  725.527
 153  824.8868
 154  812.4429
 155  760.9395
 156  825.1763
 157  682.2689
 158  667.8033
 159  758.0779
 160  767.3138
 161  801.2498
 162  850.222
 163  708.7588
 164  700.7255
 165  698.681
 166  757.7134
 167  793.0728
 168  711.0464
 169  750.7241
 170  785.8593
 171  816.2467
 172  816.9082
 173  792.3697
 174  821.9891
 175  844.6747
 176  862.7711
 177  876.848
 178  826.1208
 179  841.1198
 180  796.8365
 181  828.5812
 182  856.071
 183  800.0234
 184  734.6596
 185  747.723
 186  782.7731
 187  751.3959
 188  698.3307
 189  678.457
 190  701.9892
 191  744.0449
 192  727.8387
 193  639.3344
 194  718.8201
 195  717.6852
 196  630.4677
 197  672.0806
 198  671.6569
 199  701.496
 200  745.2486
 201  711.7766
 202  682.2084
 203  639.4038
 204  598.2285
 205  666.6808
 206  712.7144
 207  630.5005
 208  642.8253
 209  691.2506
 210  788.8046
 211  743.6733
 212  818.8949
 213  716.8655
 214  688.2193
 215  820.1701
 216  821.891
 217  751.4382
 218  738.8878
 219  831.3275
 220  772.9886
 221  782.0381
 222  744.3882
 223  844.2969
 224  863.0555
 225  919.3908
 226  820.7427
 227  873.7959
 228  887.4305
 229  898.7762
 230  845.3741
 231  787.88
 232  731.9895
 233  786.496
 234  845.5308
 235  812.3876
 236  805.0557
 237  750.7102
 238  717.3962
 239  747.3751
 240  807.4209
 241  773.7186
 242  833.1433
 243  684.0044
 244  666.7817
 245  689.1224
 246  677.6017
 247  762.4513
 248  754.8313
 249  893.6613
 250  856.4048
 251  711.6329
 252  802.1133
 253  838.2277
 254  808.0659
 255  780.201
 256  853.4906
 257  779.4334
 258  829.8685
 259  710.9192
 260  827.5944
 261  884.5823
 262  858.495
 263  822.3459
 264  881.2432
 265  894.4467
 266  801.8099
 267  776.5092
 268  820.0065
 269  795.6757
 270  725.634
 271  682.4548
 272  697.1947
 273  666.8625
 274  676.5713
 275  634.813
 276  685.6248
 277  705.7234
 278  715.0821
 279  531.2736
 280  466.9883
 281  532.7076
 282  617.144
 283  678.577
 284  705.3534
 285  639.913
 286  669.6123
 287  710.4665
 288  776.6476
 289  877.6916
 290  849.1917
 291  745.3749
 292  728.1229
 293  771.0563
 294  804.6097
 295  817.0544
 296  873.3831
 297  782.2988
 298  750.3535
 299  798.1107
 300  761.0297
 301  811.2269
 302  860.07
 303  853.1273
 304  895.0698
 305  842.3452
 306  849.4704
 307  850.6152
 308  900.1318
 309  885.8079
 310  827.7064
 311  907.2729
 312  916.3223
 313  943.0486
 314  875.9833
 315  931.066
 316  885.2935
 317  813.5782
 318  866.341
 319  874.2087
 320  879.7711
 321  769.09
 322  782.558
 323  815.6203
 324  805.1346
 325  830.1713
 326  845.7713
 327  811.835
 328  776.3255
 329  753.8796
 330  737.9188
 331  746.9742
 332  694.3409
 333  716.8253
 334  827.9698
 335  885.723
 336  1092.218
 337  1270.025
 338  1360.003
 339  1380.936
 340  1256.639
 341  1018.316
 342  892.8119
 343  877.7805
 344  798.9623
 345  710.3528
 346  755.6618
 347  776.5555
 348  857.2732
 349  869.0381
 350  921.6913
 351  856.6143
 352  866.7285
 353  972.0361
 354  1017.551
 355  863.6748
 356  745.4202
 357  768.1704
 358  740.0696
 359  746.5743
 360  752.611
 361  715.8445
 362  645.0369
 363  658.126
 364  721.619
 365  665.6212
 366  626.8715
 367  662.988
 368  701.7698
 369  679.9012
 370  647.6967
 371  580.0172
 372  636.942
 373  699.2538
 374  738.0508
 375  626.7945
 376  697.1122
 377  733.7574
 378  784.552
 379  700.0057
 380  727.7156
 381  719.0477
 382  688.3226
 383  698.3429
 384  772.5997
 385  730.725
 386  764.071
 387  807.7813
 388  900.1306
 389  720.5532
 390  712.9022
 391  855.4068
 392  890.9352
 393  761.6877
 394  812.9937
 395  776.0126
 396  795.7501
 397  831.9985
 398  769.6537
 399  797.6905
 400  655.4958
 401  706.9415
 402  743.3018
 403  664.7989
 404  540.4733
 405  592.4211
 406  618.1797
 407  688.2971
 408  610.182
 409  604.3146
 410  723.467
 411  720.384
 412  777.7817
 413  716.5657
 414  668.9922
 415  753.2666
 416  721.1641
 417  620.7118
 418  610.3099
 419  714.883
 420  739.0741
 421  708.1068
 422  624.6322
 423  648.912
 424  688.9089
 425  718.8639
 426  745.8524
 427  776.2665
 428  709.5329
 429  789.1723
 430  800.0225
 431  788.0707
 432  743.2161
 433  730.3
 434  738.3324
 435  670.8586
 436  628.256
 437  725.2197
 438  803.5315
 439  713.2351
 440  657.8171
 441  679.6668
 442  652.4638
 443  676.4819
 444  739.9734
 445  742.3335
 446  676.3162
 447  695.9983
 448  716.4029
 449  704.21
 450  688.0007
 451  685.5211
 452  722.6456
 453  718.8735
 454  654.8112
 455  652.9615
 456  658.3511
 457  707.1624
 458  709.6832
 459  687.6624
 460  640.0972
 461  702.8936
 462  682.1322
 463  656.0718
 464  719.2656
 465  700.9206
 466  628.7846
 467  624.6873
 468  646.4592
 469  658.309
 470  664.1437
 471  702.9603
 472  707.1428
 473  698.8022
 474  733.0601
 475  744.4681
 476  748.7595
 477  782.7531
 478  830.7914
 479  779.6793
 480  840.119
 481  855.7042
 482  874.5071
 483  896.2191
 484  811.6816
 485  769.6469
 486  803.0429
 487  821.6594
 488  756.2959
 489  692.0701
 490  737.8693
 491  774.0284
 492  682.858
 493  612.3484
 494  648.7761
 495  664.8607
 496  667.7844
 497  719.1769
 498  655.9765
 499  588.892
 500  646.1827
 501  631.0315
 502  794.8841
 503  725.53
 504  587.1196
 505  620.5109
 506  625.7374
 507  605.2706
 508  584.7414
 509  607.7551
 510  680.0736
 511  666.4648
