# Input file       =  1183281104.121031_cleaned.dat
# Candidate        =  PSR_0332+5434
# Telescope        =  AR
# Epoch_topo       =  57939.382941215634
# Epoch_bary       =  N/A
# T_sample         =  0.002
# Data Folded      =  7340032
# Data Avg         =  0.0628430862636198
# Data StdDev      =  0.999933708435548
# Profile Bins     =  512
# Profile Avg      =  900.943932905682 
# Profile StdDev   =  119.725099086468 
# Reduced chi-sqr  =  0.872
# Prob(Noise)      <  0.983   (~0.0 sigma)
# P_topo (ms)      =  714.486117562441  +/- 0.000547
# P'_topo (s/s)    =  -0                +/- 2.89e-10
# P''_topo (s/s^2) =  0                 +/- 1.28e-13
# P_bary (ms)      =  N/A
# P'_bary (s/s)    =  N/A
# P''_bary (s/s^2) =  N/A
# P_orb (s)        =  N/A
# asin(i)/c (s)    =  N/A
# eccentricity     =  N/A
# w (rad)          =  N/A
# T_peri           =  N/A
######################################################
   0  1339.551
   1  1205.378
   2  1150.463
   3  976.0436
   4  901.3374
   5  978.0647
   6  916.871
   7  890.6573
   8  841.3446
   9  806.919
  10  818.9167
  11  855.3331
  12  812.596
  13  864.7952
  14  891.6679
  15  929.077
  16  912.3947
  17  860.153
  18  856.2297
  19  825.3556
  20  910.012
  21  933.1427
  22  958.0013
  23  878.9827
  24  867.9631
  25  871.311
  26  881.5027
  27  828.5557
  28  886.8073
  29  853.1302
  30  869.5111
  31  961.9694
  32  1013.12
  33  954.9387
  34  852.7834
  35  897.8741
  36  911.4984
  37  922.5279
  38  812.1789
  39  845.6707
  40  805.6845
  41  855.7454
  42  842.364
  43  861.0311
  44  828.1974
  45  858.8545
  46  831.4279
  47  836.323
  48  810.8575
  49  830.0783
  50  829.1801
  51  855.1705
  52  993.0932
  53  986.2809
  54  920.545
  55  823.9202
  56  815.2307
  57  800.4766
  58  798.6105
  59  832.9272
  60  818.4265
  61  905.5893
  62  940.3209
  63  941.1613
  64  1038.997
  65  926.7175
  66  1016.477
  67  1021.907
  68  1089.551
  69  1040.076
  70  975.5309
  71  970.0272
  72  978.9146
  73  932.403
  74  1033.347
  75  997.1351
  76  933.1288
  77  869.5823
  78  869.6924
  79  941.1982
  80  915.6713
  81  870.3647
  82  921.9228
  83  943.457
  84  948.7021
  85  894.4848
  86  905.9505
  87  832.2665
  88  790.0739
  89  888.6036
  90  748.1387
  91  781.4112
  92  869.669
  93  822.5404
  94  789.6929
  95  796.898
  96  765.5828
  97  824.1283
  98  827.5656
  99  736.285
 100  724.3126
 101  796.1497
 102  843.3158
 103  876.4058
 104  886.4323
 105  813.756
 106  826.1442
 107  828.3065
 108  837.1132
 109  753.9632
 110  881.5853
 111  906.2548
 112  916.2081
 113  886.6815
 114  871.4323
 115  878.0085
 116  915.0068
 117  912.1337
 118  952.6362
 119  927.9527
 120  855.3922
 121  823.1065
 122  792.973
 123  716.3573
 124  755.2202
 125  902.6467
 126  861.4898
 127  812.9777
 128  838.7197
 129  856.9977
 130  917.1283
 131  1008.555
 132  950.6232
 133  836.5668
 134  918.6871
 135  886.781
 136  875.4224
 137  845.0524
 138  933.6588
 139  916.5049
 140  797.1639
 141  789.8452
 142  862.444
 143  851.5538
 144  839.4285
 145  931.2171
 146  911.1801
 147  991.2336
 148  992.224
 149  911.0347
 150  877.0205
 151  899.7883
 152  996.8411
 153  1021.483
 154  928.1757
 155  875.5839
 156  952.8421
 157  978.5162
 158  971.0452
 159  1014.831
 160  1011.544
 161  963.0112
 162  906.609
 163  930.4221
 164  970.4111
 165  915.1324
 166  770.051
 167  814.7202
 168  802.4402
 169  821.6348
 170  945.8474
 171  907.1053
 172  902.0745
 173  916.8701
 174  924.3632
 175  955.319
 176  861.2876
 177  886.4009
 178  922.5634
 179  940.2332
 180  1011.442
 181  924.5445
 182  790.0029
 183  883.189
 184  936.2401
 185  962.899
 186  962.2913
 187  1035.477
 188  944.4969
 189  894.6889
 190  886.2226
 191  876.5005
 192  874.7706
 193  913.5062
 194  967.2068
 195  1027.974
 196  944.0222
 197  877.7485
 198  827.6878
 199  851.605
 200  885.4916
 201  874.02
 202  999.6306
 203  902.604
 204  867.1518
 205  851.3329
 206  880.9478
 207  1056.005
 208  969.894
 209  1006.685
 210  1019.203
 211  952.2999
 212  984.4485
 213  992.1265
 214  905.8478
 215  897.2849
 216  914.7546
 217  931.0645
 218  914.0237
 219  949.4512
 220  941.907
 221  936.0519
 222  882.7406
 223  856.6725
 224  892.8968
 225  916.989
 226  963.7748
 227  896.3763
 228  899.9067
 229  915.6578
 230  1035.604
 231  961.6482
 232  877.1323
 233  854.3271
 234  979.8101
 235  923.0196
 236  876.6235
 237  925.6909
 238  937.6265
 239  814.1659
 240  839.2665
 241  931.6388
 242  1012.725
 243  966.4386
 244  929.6628
 245  834.4238
 246  859.1622
 247  977.925
 248  860.2081
 249  845.8201
 250  888.4377
 251  895.6025
 252  895.4106
 253  916.4828
 254  813.4064
 255  815.0909
 256  831.7703
 257  796.1596
 258  867.0747
 259  887.4633
 260  836.662
 261  837.4422
 262  829.658
 263  831.5425
 264  813.6193
 265  875.1839
 266  930.5453
 267  896.5238
 268  837.6426
 269  814.4146
 270  847.5534
 271  777.8921
 272  815.4401
 273  782.9127
 274  947.2166
 275  1006.305
 276  921.0879
 277  845.5546
 278  770.2749
 279  787.746
 280  774.5826
 281  799.4906
 282  869.3293
 283  895.059
 284  945.7073
 285  953.5703
 286  884.3381
 287  867.7341
 288  886.7502
 289  911.6292
 290  855.8687
 291  880.8611
 292  946.7191
 293  948.9965
 294  850.249
 295  889.4667
 296  870.3917
 297  877.0054
 298  868.3417
 299  913.1124
 300  944.004
 301  955.9656
 302  974.8219
 303  957.463
 304  941.4438
 305  970.0753
 306  856.7086
 307  942.7687
 308  928.2889
 309  902.0999
 310  1000.246
 311  914.48
 312  820.7737
 313  886.0782
 314  943.9797
 315  953.6202
 316  869.4771
 317  943.5696
 318  1002.396
 319  947.0542
 320  937.0161
 321  902.7363
 322  801.8016
 323  918.3499
 324  933.6725
 325  939.7357
 326  939.7184
 327  895.1149
 328  943.4423
 329  838.8212
 330  771.6474
 331  936.1893
 332  928.2527
 333  850.6583
 334  926.3728
 335  940.4499
 336  968.3399
 337  986.0242
 338  908.9671
 339  946.3824
 340  852.7042
 341  882.5662
 342  996.5072
 343  1025.279
 344  1002.144
 345  1040.485
 346  1029.792
 347  1020.735
 348  1002.66
 349  999.9894
 350  926.9289
 351  890.4501
 352  968.1572
 353  950.425
 354  948.4367
 355  847.3801
 356  805.6993
 357  808.0471
 358  867.1357
 359  843.1502
 360  934.8668
 361  926.7371
 362  880.7234
 363  825.2631
 364  789.7347
 365  874.5714
 366  932.0729
 367  909.8748
 368  894.1673
 369  879.9946
 370  874.0784
 371  949.0337
 372  977.9854
 373  906.3751
 374  802.0784
 375  780.1567
 376  851.2806
 377  861.441
 378  842.1902
 379  881.5831
 380  886.3538
 381  984.2444
 382  920.0215
 383  818.1501
 384  797.5153
 385  878.5215
 386  898.2389
 387  968.5557
 388  903.6342
 389  920.0026
 390  977.8949
 391  911.5075
 392  832.2205
 393  785.072
 394  806.1113
 395  939.811
 396  920.8835
 397  889.7568
 398  906.4274
 399  970.0565
 400  981.7487
 401  924.5596
 402  876.0912
 403  872.2512
 404  894.9178
 405  854.0659
 406  892.8205
 407  793.9119
 408  901.4335
 409  841.2594
 410  860.2305
 411  944.5532
 412  874.7329
 413  834.0015
 414  829.6373
 415  853.6401
 416  885.5361
 417  892.0308
 418  935.1315
 419  851.7878
 420  925.4932
 421  887.3011
 422  887.9697
 423  845.7467
 424  931.559
 425  978.0046
 426  917.9097
 427  888.5444
 428  933.2903
 429  915.2432
 430  869.5443
 431  938.2726
 432  989.544
 433  957.3915
 434  841.1642
 435  745.4774
 436  841.4967
 437  837.274
 438  840.1912
 439  878.4059
 440  791.7626
 441  803.4627
 442  875.2926
 443  773.2687
 444  775.5468
 445  857.6529
 446  836.0514
 447  824.7629
 448  912.3343
 449  843.9197
 450  764.6985
 451  883.1942
 452  833.1431
 453  781.574
 454  772.7548
 455  785.3516
 456  793.1974
 457  802.2408
 458  830.1196
 459  819.8829
 460  861.9475
 461  870.8031
 462  812.7245
 463  754.205
 464  903.6512
 465  894.0402
 466  964.924
 467  919.3497
 468  897.9421
 469  888.4354
 470  917.7586
 471  992.4875
 472  952.8306
 473  878.033
 474  916.2102
 475  904.0283
 476  961.6975
 477  975.6852
 478  970.3955
 479  814.7393
 480  793.6
 481  918.2775
 482  928.8961
 483  888.4479
 484  957.799
 485  1017.276
 486  1018.654
 487  954.7977
 488  867.062
 489  853.1461
 490  905.1864
 491  966.4313
 492  976.303
 493  1040.946
 494  976.6918
 495  936.7261
 496  927.6039
 497  972.2468
 498  1009.115
 499  1006.064
 500  945.0017
 501  793.6987
 502  829.6422
 503  919.3104
 504  1081.104
 505  1051.483
 506  1064.657
 507  1095.573
 508  1186.975
 509  1235.902
 510  1338.818
 511  1434.358
