# Input file       =  1183453964.104919_cleaned.dat
# Candidate        =  PSR_0332+5434
# Telescope        =  AR
# Epoch_topo       =  57941.383635473598
# Epoch_bary       =  N/A
# T_sample         =  0.002
# Data Folded      =  7340032
# Data Avg         =  0.0507137270093815
# Data StdDev      =  1.00010342482206 
# Profile Bins     =  512
# Profile Avg      =  727.162028216422 
# Profile StdDev   =  119.745419744748 
# Reduced chi-sqr  =  1.064
# Prob(Noise)      <  0.154   (~1.0 sigma)
# P_topo (ms)      =  714.484624672567  +/- 5.29e-05
# P'_topo (s/s)    =  -0                +/- 2.79e-11
# P''_topo (s/s^2) =  0                 +/- 1.23e-14
# P_bary (ms)      =  N/A
# P'_bary (s/s)    =  N/A
# P''_bary (s/s^2) =  N/A
# P_orb (s)        =  N/A
# asin(i)/c (s)    =  N/A
# eccentricity     =  N/A
# w (rad)          =  N/A
# T_peri           =  N/A
######################################################
   0  1264.889
   1  1035.274
   2  852.8904
   3  814.9958
   4  752.9028
   5  691.3913
   6  722.2195
   7  701.2257
   8  674.7631
   9  787.9811
  10  732.6485
  11  616.4566
  12  610.5191
  13  638.4029
  14  780.2988
  15  759.6899
  16  768.8405
  17  746.8868
  18  644.9763
  19  623.1962
  20  598.35
  21  531.6553
  22  609.8436
  23  711.3284
  24  714.7308
  25  529.2874
  26  514.7887
  27  558.2555
  28  640.3943
  29  681.4792
  30  664.0411
  31  697.2834
  32  592.7703
  33  660.6924
  34  649.335
  35  620.4556
  36  656.4025
  37  656.0059
  38  721.0536
  39  758.3641
  40  665.5934
  41  682.7333
  42  713.864
  43  714.7015
  44  702.6528
  45  629.2175
  46  661.0264
  47  813.8491
  48  726.2557
  49  687.5188
  50  716.896
  51  719.4275
  52  741.029
  53  698.597
  54  771.0549
  55  723.7625
  56  723.0109
  57  833.9742
  58  695.2482
  59  552.8182
  60  655.7634
  61  660.9033
  62  663.5607
  63  634.572
  64  541.3587
  65  645.6512
  66  718.6464
  67  719.6722
  68  724.1827
  69  717.866
  70  663.4847
  71  697.4638
  72  674.882
  73  714.0124
  74  670.8676
  75  604.6411
  76  607.7484
  77  543.7084
  78  633.6791
  79  632.3803
  80  725.4806
  81  731.8541
  82  680.7247
  83  758.5887
  84  719.7856
  85  771.7979
  86  780.9586
  87  734.6917
  88  772.6833
  89  800.1235
  90  794.8673
  91  752.7893
  92  639.5392
  93  668.749
  94  650.005
  95  690.1664
  96  625.1622
  97  622.7195
  98  679.9415
  99  739.8434
 100  748.4567
 101  673.6007
 102  642.8342
 103  727.1728
 104  769.6974
 105  765.4183
 106  690.6921
 107  754.5221
 108  729.4611
 109  730.6704
 110  701.434
 111  629.6935
 112  591.2395
 113  661.1121
 114  831.9807
 115  824.1083
 116  812.6932
 117  851.6879
 118  869.59
 119  828.8742
 120  826.5276
 121  656.5208
 122  691.9241
 123  734.9736
 124  888.5576
 125  763.5714
 126  740.4609
 127  791.6697
 128  869.9886
 129  865.6242
 130  797.2479
 131  719.2682
 132  685.7737
 133  744.7769
 134  809.447
 135  792.2604
 136  794.2299
 137  741.9797
 138  811.3981
 139  706.3105
 140  768.4896
 141  834.2893
 142  816.1786
 143  789.446
 144  729.2272
 145  734.2442
 146  704.7577
 147  777.2607
 148  848.1302
 149  675.051
 150  622.541
 151  662.0541
 152  779.8301
 153  770.8132
 154  671.9395
 155  744.0109
 156  711.2553
 157  706.3191
 158  733.5325
 159  749.4482
 160  718.1942
 161  788.3503
 162  847.8234
 163  827.3541
 164  811.6257
 165  732.1893
 166  752.8035
 167  739.4874
 168  680.3646
 169  644.4165
 170  671.011
 171  700.2799
 172  652.5312
 173  625.7806
 174  641.197
 175  576.0269
 176  677.9065
 177  766.303
 178  703.5323
 179  629.7455
 180  646.5189
 181  657.9966
 182  635.1257
 183  605.8931
 184  739.664
 185  718.1731
 186  567.6539
 187  583.373
 188  582.1754
 189  623.5646
 190  709.7844
 191  727.0607
 192  709.356
 193  646.0952
 194  713.6368
 195  753.5585
 196  697.0758
 197  603.7011
 198  538.8499
 199  635.6636
 200  671.126
 201  804.0411
 202  639.0836
 203  630.6269
 204  686.4183
 205  751.3974
 206  712.2571
 207  648.1352
 208  687.3998
 209  644.3301
 210  665.464
 211  733.2087
 212  723.4825
 213  661.0432
 214  693.0098
 215  620.8224
 216  584.4165
 217  582.6074
 218  598.8607
 219  726.8408
 220  654.0818
 221  640.2612
 222  603.3576
 223  571.0984
 224  544.903
 225  610.1893
 226  564.003
 227  586.8848
 228  653.893
 229  794.7232
 230  766.84
 231  633.9175
 232  533.2982
 233  674.8499
 234  676.8596
 235  639.6293
 236  735.8738
 237  746.6462
 238  675.9589
 239  688.3661
 240  689.0973
 241  623.6747
 242  719.4898
 243  772.0551
 244  784.1983
 245  698.1222
 246  623.6561
 247  667.8676
 248  717.6258
 249  682.0923
 250  695.629
 251  765.7823
 252  681.909
 253  609.1799
 254  617.2577
 255  540.2741
 256  590.091
 257  761.829
 258  717.1385
 259  675.349
 260  679.4893
 261  730.74
 262  738.9326
 263  724.8796
 264  784.6971
 265  775.5552
 266  778.9973
 267  877.863
 268  809.8305
 269  754.707
 270  839.9572
 271  891.7158
 272  847.415
 273  733.7758
 274  681.596
 275  716.9472
 276  794.0154
 277  795.9858
 278  775.6545
 279  712.7772
 280  733.3531
 281  833.1868
 282  849.9037
 283  798.4328
 284  726.558
 285  744.4322
 286  727.669
 287  662.9842
 288  643.6229
 289  659.3449
 290  748.4946
 291  857.1627
 292  880.9089
 293  796.1901
 294  697.4526
 295  732.755
 296  780.7379
 297  749.4901
 298  688.4804
 299  736.353
 300  798.3241
 301  830.3132
 302  838.2974
 303  836.4014
 304  677.5867
 305  699.1158
 306  726.6516
 307  762.4696
 308  642.1176
 309  666.6321
 310  731.8883
 311  712.1415
 312  675.9951
 313  642.246
 314  762.2017
 315  807.2115
 316  732.0652
 317  740.2925
 318  660.4551
 319  734.7256
 320  771.05
 321  790.0604
 322  743.1221
 323  811.3069
 324  868.526
 325  684.174
 326  687.0672
 327  691.7498
 328  749.2853
 329  678.191
 330  667.0739
 331  651.6773
 332  577.1019
 333  713.3117
 334  829.7685
 335  670.1357
 336  564.4714
 337  548.4781
 338  733.6443
 339  822.6596
 340  711.5732
 341  736.3519
 342  781.6636
 343  777.647
 344  675.4036
 345  747.9416
 346  757.0543
 347  656.1895
 348  706.1961
 349  733.9872
 350  709.052
 351  745.4625
 352  644.5674
 353  689.7354
 354  680.9882
 355  705.0954
 356  813.5424
 357  695.7932
 358  635.3853
 359  707.6108
 360  623.2717
 361  583.2468
 362  622.8433
 363  686.123
 364  741.8477
 365  754.4551
 366  819.6514
 367  785.2169
 368  677.7448
 369  615.5726
 370  576.7189
 371  650.5259
 372  788.8227
 373  809.7039
 374  736.3005
 375  661.4373
 376  659.1694
 377  754.7369
 378  710.932
 379  753.8824
 380  653.4512
 381  658.7563
 382  803.1744
 383  807.2909
 384  687.2746
 385  691.3184
 386  748.1202
 387  772.4473
 388  688.3638
 389  677.6201
 390  725.6671
 391  714.9426
 392  753.6736
 393  713.4576
 394  686.286
 395  652.7163
 396  651.7556
 397  722.3015
 398  675.8975
 399  695.6571
 400  855.1943
 401  907.0324
 402  909.6046
 403  873.1471
 404  851.1675
 405  840.1937
 406  835.9442
 407  760.2759
 408  724.6371
 409  753.8873
 410  777.024
 411  815.5047
 412  783.4464
 413  584.9574
 414  664.7403
 415  747.7374
 416  819.8418
 417  797.4163
 418  677.1742
 419  625.3804
 420  706.1916
 421  701.1266
 422  723.8721
 423  688.4296
 424  667.2018
 425  765.2856
 426  692.533
 427  703.7021
 428  658.1297
 429  604.3235
 430  802.7333
 431  778.7056
 432  790.8542
 433  764.0181
 434  686.6026
 435  793.0389
 436  796.8208
 437  825.0768
 438  901.7852
 439  822.4756
 440  857.222
 441  871.4334
 442  721.7039
 443  790.1944
 444  922.3541
 445  814.1732
 446  754.3885
 447  729.8787
 448  747.9322
 449  832.879
 450  801.3113
 451  729.4142
 452  758.0208
 453  806.608
 454  861.8676
 455  764.1699
 456  715.6369
 457  707.6453
 458  794.3724
 459  880.8177
 460  827.9338
 461  815.3503
 462  873.6507
 463  926.1029
 464  798.5345
 465  825.5918
 466  889.0579
 467  800.3113
 468  815.0314
 469  826.2659
 470  831.3539
 471  842.1866
 472  846.6732
 473  790.0635
 474  811.5842
 475  919.4387
 476  915.1904
 477  808.4724
 478  850.5557
 479  769.0674
 480  603.7453
 481  671.7399
 482  766.5685
 483  796.1765
 484  701.5497
 485  631.7673
 486  790.0153
 487  737.9297
 488  681.7612
 489  641.4973
 490  690.0875
 491  760.0502
 492  759.0437
 493  825.0059
 494  779.5919
 495  733.2941
 496  810.186
 497  832.5972
 498  822.9562
 499  745.9849
 500  688.9897
 501  758.4908
 502  779.2828
 503  756.695
 504  733.4579
 505  804.2969
 506  770.9941
 507  836.9014
 508  884.3519
 509  996.3683
 510  1132.301
 511  1238.631
