# Input file       =  1183180763.103634_cleaned.dat
# Candidate        =  PSR_0332+5434
# Telescope        =  AR
# Epoch_topo       =  57938.221586847620
# Epoch_bary       =  N/A
# T_sample         =  0.002
# Data Folded      =  7340032
# Data Avg         =  0.037891452720672
# Data StdDev      =  1.00002364194421 
# Profile Bins     =  512
# Profile Avg      =  543.351242459432 
# Profile StdDev   =  119.735867098532 
# Reduced chi-sqr  =  1.597
# Prob(Noise)      <  2.04e-16   (~8.1 sigma)
# P_topo (ms)      =  714.486691739603  +/- 0.000294
# P'_topo (s/s)    =  -0                +/- 1.55e-10
# P''_topo (s/s^2) =  0                 +/- 6.85e-14
# P_bary (ms)      =  N/A
# P'_bary (s/s)    =  N/A
# P''_bary (s/s^2) =  N/A
# P_orb (s)        =  N/A
# asin(i)/c (s)    =  N/A
# eccentricity     =  N/A
# w (rad)          =  N/A
# T_peri           =  N/A
######################################################
   0  551.2651
   1  423.754
   2  414.6156
   3  581.6257
   4  549.0547
   5  489.1275
   6  506.6038
   7  521.2289
   8  654.5233
   9  703.5665
  10  614.1528
  11  507.0327
  12  508.1624
  13  588.7405
  14  542.9681
  15  516.6108
  16  548.8907
  17  621.7501
  18  632.8886
  19  756.0847
  20  739.3643
  21  662.1926
  22  525.2572
  23  542.6427
  24  611.8923
  25  668.9021
  26  676.1057
  27  673.7899
  28  666.574
  29  543.6179
  30  534.3813
  31  610.2137
  32  580.4084
  33  562.5606
  34  636.7941
  35  683.5856
  36  607.8224
  37  574.2144
  38  594.6043
  39  717.4617
  40  705.4466
  41  754.7144
  42  657.4511
  43  536.6922
  44  480.7389
  45  615.827
  46  696.2099
  47  590.7319
  48  478.7029
  49  477.9347
  50  501.9392
  51  540.871
  52  488.4783
  53  478.0959
  54  419.4746
  55  475.6857
  56  569.0493
  57  568.8074
  58  544.2056
  59  464.5762
  60  660.8613
  61  594.5726
  62  552.6425
  63  578.4651
  64  522.9761
  65  398.5342
  66  501.5996
  67  561.1462
  68  569.2473
  69  436.3492
  70  492.727
  71  514.8979
  72  578.771
  73  577.4072
  74  524.4883
  75  556.5597
  76  555.6588
  77  442.8706
  78  500.8888
  79  525.4577
  80  521.5076
  81  574.2104
  82  539.1852
  83  396.6687
  84  438.2878
  85  558.6502
  86  516.5697
  87  529.9189
  88  522.6333
  89  492.8874
  90  661.6389
  91  572.2468
  92  475.7957
  93  396.49
  94  575.3224
  95  488.5852
  96  399.1815
  97  470.0509
  98  464.9201
  99  456.4721
 100  501.4106
 101  537.2665
 102  530.5695
 103  513.7866
 104  434.0945
 105  370.0287
 106  393.4605
 107  472.921
 108  522.4185
 109  536.5881
 110  434.9175
 111  422.4187
 112  410.2133
 113  440.5801
 114  467.8954
 115  452.4483
 116  478.6599
 117  493.6532
 118  428.0541
 119  530.5427
 120  479.9484
 121  376.198
 122  347.3252
 123  503.7098
 124  489.5094
 125  412.9799
 126  494.6523
 127  599.132
 128  495.7668
 129  448.3888
 130  493.3397
 131  506.7867
 132  591.4183
 133  552.7597
 134  511.4426
 135  546.2046
 136  537.6597
 137  572.9537
 138  677.2863
 139  512.7794
 140  540.6533
 141  640.1802
 142  579.1474
 143  559.2823
 144  450.6074
 145  541.0018
 146  541.4293
 147  472.5078
 148  554.7208
 149  502.8127
 150  447.4959
 151  420.3702
 152  486.7672
 153  487.2587
 154  589.644
 155  636.8203
 156  625.4356
 157  639.3306
 158  473.1425
 159  469.6146
 160  618.3623
 161  613.7612
 162  610.199
 163  635.3146
 164  620.6006
 165  504.1294
 166  411.5231
 167  403.31
 168  398.1124
 169  549.0318
 170  525.5786
 171  504.6376
 172  514.7092
 173  563.9715
 174  502.8786
 175  508.2012
 176  511.6748
 177  589.164
 178  550.0526
 179  596.5842
 180  622.7812
 181  480.8297
 182  425.8926
 183  505.8459
 184  568.5203
 185  545.2059
 186  336.0518
 187  458.2494
 188  610.08
 189  640.4956
 190  698.8228
 191  582.1088
 192  672.1381
 193  705.1334
 194  601.9803
 195  589.972
 196  579.5783
 197  643.725
 198  655.5075
 199  690.0978
 200  633.7667
 201  617.2017
 202  566.8985
 203  387.7852
 204  426.0574
 205  545.3751
 206  588.3906
 207  541.1057
 208  480.0322
 209  555.4295
 210  582.3828
 211  595.9607
 212  643.4546
 213  518.2902
 214  489.9728
 215  538.9167
 216  475.3987
 217  522.7379
 218  524.8281
 219  667.2889
 220  636.8771
 221  581.1048
 222  508.4854
 223  476.34
 224  471.9625
 225  548.0882
 226  556.2383
 227  516.8577
 228  586.6115
 229  577.1707
 230  551.2192
 231  599.867
 232  554.7808
 233  525.4861
 234  555.5352
 235  624.4691
 236  593.7216
 237  492.4541
 238  556.0591
 239  482.9789
 240  400.54
 241  444.8984
 242  459.6688
 243  548.9229
 244  547.7777
 245  597.6473
 246  473.5227
 247  543.2277
 248  676.0239
 249  640.7499
 250  535.669
 251  542.7851
 252  536.3157
 253  619.8112
 254  684.3461
 255  744.3739
 256  564.7797
 257  493.4464
 258  626.1583
 259  584.8502
 260  570.6039
 261  587.2569
 262  567.8894
 263  611.222
 264  596.6221
 265  566.7335
 266  670.0974
 267  556.797
 268  530.5806
 269  662.0895
 270  679.4287
 271  630.8813
 272  505.4382
 273  510.294
 274  610.708
 275  547.8606
 276  638.3228
 277  528.924
 278  479.4566
 279  499.9221
 280  530.0726
 281  491.8629
 282  367.2308
 283  504.1943
 284  638.6117
 285  607.978
 286  555.0432
 287  612.3346
 288  559.6688
 289  358.6466
 290  436.0691
 291  479.6713
 292  529.1918
 293  625.8236
 294  638.5389
 295  529.7402
 296  485.6252
 297  460.092
 298  506.9164
 299  548.6805
 300  550.5854
 301  532.236
 302  501.6049
 303  426.6256
 304  496.6371
 305  541.572
 306  487.8653
 307  472.4988
 308  472.9692
 309  545.1663
 310  614.066
 311  541.0287
 312  475.2548
 313  415.6409
 314  515.6347
 315  674.3375
 316  551.2922
 317  571.2138
 318  603.04
 319  503.9978
 320  547.7103
 321  409.2114
 322  269.4383
 323  279.8358
 324  412.2365
 325  502.1998
 326  518.9171
 327  499.93
 328  404.302
 329  398.4787
 330  500.4734
 331  502.1852
 332  384.0089
 333  511.8277
 334  504.7379
 335  438.7961
 336  382.537
 337  305.8564
 338  361.0598
 339  426.5816
 340  505.8285
 341  472.1992
 342  535.2063
 343  568.0347
 344  587.1794
 345  547.2961
 346  565.2394
 347  527.4597
 348  526.9478
 349  559.8481
 350  430.1287
 351  395.0396
 352  470.0603
 353  615.1435
 354  624.5843
 355  470.6338
 356  481.8432
 357  471.7994
 358  540.9896
 359  646.191
 360  624.4044
 361  630.0913
 362  566.6685
 363  441.6933
 364  616.2422
 365  549.9153
 366  486.0811
 367  525.0863
 368  543.7995
 369  507.5146
 370  408.7082
 371  459.0522
 372  524.3574
 373  433.8493
 374  535.2744
 375  689.4089
 376  637.2289
 377  788.2997
 378  867.1497
 379  984.3879
 380  1260.901
 381  1335.795
 382  1338.94
 383  1256.606
 384  1015.545
 385  797.0063
 386  624.5093
 387  508.5717
 388  466.9035
 389  544.1012
 390  569.4684
 391  536.5511
 392  506.3989
 393  446.389
 394  551.0269
 395  602.3821
 396  594.1125
 397  582.5293
 398  732.7168
 399  586.8292
 400  437.1803
 401  404.13
 402  544.3914
 403  596.8935
 404  502.7433
 405  548.2957
 406  635.1024
 407  524.5314
 408  555.8984
 409  511.4892
 410  551.1992
 411  519.9181
 412  472.8439
 413  525.2477
 414  515.6724
 415  461.5302
 416  589.6031
 417  442.6003
 418  421.9003
 419  461.4337
 420  525.9656
 421  507.0409
 422  413.5629
 423  428.9704
 424  452.0533
 425  460.4633
 426  521.1201
 427  597.4846
 428  519.2635
 429  512.8846
 430  490.479
 431  476.6513
 432  532.6128
 433  515.2424
 434  687.8281
 435  638.7815
 436  584.7451
 437  637.5134
 438  617.6854
 439  599.5656
 440  591.3369
 441  613.7101
 442  568.7811
 443  544.3131
 444  540.3973
 445  561.8926
 446  471.9557
 447  413.8868
 448  507.425
 449  678.9323
 450  664.8606
 451  582.8318
 452  489.1351
 453  568.2531
 454  519.371
 455  457.0451
 456  379.6028
 457  373.2494
 458  514.0283
 459  479.6646
 460  482.989
 461  552.9779
 462  531.611
 463  472.7411
 464  379.2554
 465  508.0125
 466  513.0573
 467  461.8901
 468  411.7874
 469  454.7689
 470  487.8289
 471  498.0822
 472  380.2054
 473  482.4496
 474  515.5816
 475  435.0431
 476  441.389
 477  521.8265
 478  508.5112
 479  471.1364
 480  551.9683
 481  629.9959
 482  586.9717
 483  642.0996
 484  589.3499
 485  476.0663
 486  432.6104
 487  625.2401
 488  597.7656
 489  534.0156
 490  443.428
 491  558.2585
 492  600.8837
 493  570.0704
 494  560.2831
 495  562.0241
 496  621.5775
 497  598.0965
 498  612.8314
 499  561.5129
 500  538.2929
 501  542.3937
 502  584.6652
 503  471.537
 504  440.6075
 505  417.1006
 506  485.7192
 507  520.0807
 508  551.1848
 509  666.5128
 510  691.7864
 511  591.4014
