# Input file       =  1183008434.122497_cleaned.dat
# Candidate        =  PSR_0332+5434
# Telescope        =  AR
# Epoch_topo       =  57936.227038454825
# Epoch_bary       =  N/A
# T_sample         =  0.002
# Data Folded      =  7340032
# Data Avg         =  0.0467422795596865
# Data StdDev      =  1.00011220749926 
# Profile Bins     =  512
# Profile Avg      =  669.901698994753 
# Profile StdDev   =  119.746471321357 
# Reduced chi-sqr  =  1.593
# Prob(Noise)      <  3e-16   (~8.1 sigma)
# P_topo (ms)      =  714.488255916801  +/- 0.000437
# P'_topo (s/s)    =  -0                +/- 2.3e-10
# P''_topo (s/s^2) =  0                 +/- 1.02e-13
# P_bary (ms)      =  N/A
# P'_bary (s/s)    =  N/A
# P''_bary (s/s^2) =  N/A
# P_orb (s)        =  N/A
# asin(i)/c (s)    =  N/A
# eccentricity     =  N/A
# w (rad)          =  N/A
# T_peri           =  N/A
######################################################
   0  1420.124
   1  1243.719
   2  1125.753
   3  972.0665
   4  826.961
   5  770.2141
   6  777.6231
   7  689.4146
   8  657.2388
   9  708.1409
  10  803.7612
  11  835.5275
  12  831.0677
  13  855.4674
  14  841.2593
  15  794.056
  16  762.0756
  17  816.4752
  18  798.0417
  19  743.9424
  20  699.3537
  21  677.0665
  22  676.795
  23  665.1872
  24  718.317
  25  705.1699
  26  656.2551
  27  715.9914
  28  632.8138
  29  714.3132
  30  727.8865
  31  750.9293
  32  647.855
  33  713.2328
  34  728.6317
  35  716.4797
  36  837.3313
  37  743.0619
  38  628.5847
  39  679.5703
  40  778.313
  41  796.4488
  42  791.2265
  43  808.561
  44  834.1808
  45  756.0278
  46  735.9082
  47  820.587
  48  928.3913
  49  868.1757
  50  724.635
  51  722.7736
  52  715.212
  53  720.9824
  54  747.851
  55  751.7382
  56  819.6572
  57  745.4745
  58  786.2347
  59  765.0692
  60  769.1747
  61  716.514
  62  783.6467
  63  864.7598
  64  829.6775
  65  849.0107
  66  751.0216
  67  703.7407
  68  868.9361
  69  829.4597
  70  685.9485
  71  707.5979
  72  761.3979
  73  785.6766
  74  769.8482
  75  635.3854
  76  749.7657
  77  697.0828
  78  649.2538
  79  764.5319
  80  803.1503
  81  753.0131
  82  629.7952
  83  741.6313
  84  825.0641
  85  719.4078
  86  602.167
  87  699.3407
  88  707.5969
  89  573.8701
  90  679.7225
  91  645.0105
  92  639.3653
  93  613.1526
  94  586.3712
  95  663.4879
  96  612.1378
  97  594.2237
  98  615.6299
  99  724.5993
 100  750.9616
 101  818.1348
 102  734.3011
 103  667.239
 104  664.6279
 105  759.5767
 106  733.934
 107  652.9556
 108  661.2117
 109  667.4505
 110  634.9379
 111  635.3846
 112  697.4276
 113  661.2905
 114  643.6982
 115  585.8387
 116  680.5437
 117  643.6931
 118  633.0509
 119  599.6601
 120  669.3779
 121  710.17
 122  667.202
 123  679.6428
 124  657.0122
 125  616.2412
 126  604.636
 127  542.257
 128  474.2848
 129  571.076
 130  671.183
 131  684.2401
 132  584.5596
 133  575.7278
 134  534.7924
 135  501.7149
 136  561.779
 137  668.1113
 138  594.1504
 139  608.3759
 140  630.9992
 141  595.2613
 142  484.2231
 143  473.794
 144  460.8102
 145  650.0943
 146  704.1352
 147  666.9083
 148  663.0732
 149  657.0779
 150  714.3757
 151  714.6806
 152  672.3012
 153  636.9373
 154  569.2187
 155  649.1807
 156  697.3686
 157  682.4863
 158  645.8428
 159  649.5264
 160  611.0845
 161  608.9395
 162  578.5388
 163  616.8232
 164  613.9821
 165  565.6221
 166  619.0786
 167  737.6981
 168  751.9786
 169  752.1724
 170  696.8054
 171  671.502
 172  697.0479
 173  619.5879
 174  587.5313
 175  630.5158
 176  624.0751
 177  628.2225
 178  709.1862
 179  718.5609
 180  711.1064
 181  823.1769
 182  742.208
 183  673.1888
 184  677.5095
 185  719.7855
 186  699.8941
 187  715.3717
 188  810.145
 189  745.2084
 190  587.4639
 191  559.0112
 192  558.2109
 193  698.2117
 194  719.1682
 195  686.8578
 196  623.1977
 197  708.8141
 198  719.0464
 199  715.5758
 200  618.7013
 201  634.5401
 202  690.9507
 203  649.4008
 204  684.2456
 205  817.0681
 206  687.8199
 207  647.8667
 208  656.5736
 209  572.8311
 210  556.1321
 211  672.2298
 212  795.4327
 213  721.146
 214  624.6273
 215  638.2022
 216  578.9355
 217  618.7573
 218  684.6996
 219  597.8547
 220  560.2104
 221  598.4192
 222  703.0698
 223  750.4064
 224  648.5064
 225  625.2324
 226  709.0832
 227  752.8149
 228  649.8241
 229  704.7812
 230  778.229
 231  736.8435
 232  708.775
 233  703.694
 234  789.1631
 235  750.2464
 236  632.082
 237  760.4031
 238  664.5137
 239  662.7443
 240  577.4608
 241  592.3783
 242  647.7391
 243  646.7687
 244  699.4381
 245  706.0063
 246  615.8782
 247  673.8575
 248  692.7014
 249  692.1857
 250  598.9649
 251  436.745
 252  503.6252
 253  547.3548
 254  504.465
 255  582.8487
 256  595.8723
 257  566.4689
 258  440.6057
 259  460.0175
 260  436.9969
 261  560.9454
 262  548.7135
 263  507.9626
 264  536.7798
 265  568.4149
 266  586.3777
 267  591.1536
 268  591.178
 269  636.1068
 270  637.7578
 271  683.2136
 272  721.5092
 273  646.9047
 274  580.6388
 275  543.3935
 276  575.4908
 277  702.4346
 278  663.9475
 279  690.4105
 280  690.8481
 281  779.6038
 282  775.1049
 283  763.3303
 284  756.6033
 285  666.0869
 286  646.1047
 287  684.3427
 288  766.3315
 289  670.1704
 290  576.6457
 291  614.358
 292  654.3057
 293  653.8752
 294  601.1771
 295  582.9223
 296  626.3887
 297  681.4288
 298  704.1824
 299  639.0127
 300  628.4901
 301  617.1411
 302  640.6978
 303  713.2736
 304  630.674
 305  581.8073
 306  681.8169
 307  644.2718
 308  645.2612
 309  603.3387
 310  645.5184
 311  789.8496
 312  650.1369
 313  607.902
 314  666.9781
 315  643.0556
 316  562.6569
 317  597.4435
 318  697.9561
 319  727.8821
 320  697.261
 321  697.0229
 322  657.4947
 323  720.6746
 324  784.1378
 325  679.6647
 326  639.0035
 327  633.5671
 328  567.7697
 329  573.3052
 330  629.3199
 331  494.3143
 332  474.9608
 333  540.8904
 334  421.1396
 335  486.676
 336  533.8934
 337  576.8633
 338  614.8665
 339  550.9391
 340  631.3444
 341  507.342
 342  397.8822
 343  481.3281
 344  588.1542
 345  568.3023
 346  633.1254
 347  530.6614
 348  580.1643
 349  626.2593
 350  556.1832
 351  522.7754
 352  644.8984
 353  696.7553
 354  625.2815
 355  642.4161
 356  637.5705
 357  698.142
 358  676.8818
 359  695.1322
 360  656.5177
 361  571.2859
 362  772.1959
 363  818.5333
 364  890.5777
 365  791.6953
 366  780.8423
 367  866.0269
 368  826.5952
 369  715.5291
 370  708.1613
 371  731.9125
 372  715.3452
 373  813.9618
 374  826.6609
 375  724.8269
 376  687.1722
 377  720.4429
 378  716.0148
 379  670.3661
 380  696.589
 381  788.3519
 382  741.4406
 383  698.5806
 384  719.7972
 385  668.3732
 386  602.6987
 387  669.764
 388  671.3506
 389  677.6497
 390  732.1367
 391  758.4291
 392  758.721
 393  624.0911
 394  678.4236
 395  684.0678
 396  646.3252
 397  631.8923
 398  651.2733
 399  633.3174
 400  645.1805
 401  621.8621
 402  782.3723
 403  757.6279
 404  633.6337
 405  656.307
 406  692.2754
 407  745.0902
 408  765.0391
 409  796.4411
 410  666.475
 411  585.4749
 412  667.0062
 413  691.4307
 414  684.1851
 415  723.0954
 416  734.116
 417  694.0258
 418  720.5267
 419  720.349
 420  633.4267
 421  625.7151
 422  546.108
 423  575.121
 424  502.6964
 425  571.3909
 426  592.3467
 427  641.3888
 428  641.388
 429  591.7156
 430  597.8098
 431  605.1199
 432  608.2324
 433  572.2042
 434  490.5582
 435  575.1465
 436  604.1651
 437  617.0698
 438  678.6969
 439  714.5266
 440  666.0812
 441  668.1545
 442  636.6476
 443  599.2557
 444  642.7924
 445  574.1788
 446  470.9601
 447  595.2253
 448  768.3432
 449  648.5499
 450  619.0479
 451  789.1674
 452  807.9749
 453  641.639
 454  611.2452
 455  636.0099
 456  681.1294
 457  655.027
 458  612.0917
 459  665.4184
 460  586.6384
 461  481.153
 462  513.9128
 463  626.1567
 464  610.0107
 465  609.0453
 466  589.8883
 467  483.4612
 468  579.1472
 469  672.369
 470  609.8952
 471  621.5853
 472  713.2056
 473  721.5421
 474  624.9348
 475  524.3102
 476  540.2947
 477  492.7445
 478  547.0696
 479  403.5095
 480  497.1832
 481  543.8411
 482  541.6534
 483  494.6316
 484  592.1275
 485  623.9922
 486  550.7811
 487  563.834
 488  544.2562
 489  527.4848
 490  507.3898
 491  573.793
 492  599.4417
 493  619.3759
 494  659.6759
 495  648.8758
 496  559.466
 497  572.5771
 498  595.4432
 499  608.2407
 500  689.0082
 501  749.8836
 502  697.4501
 503  664.6921
 504  588.8449
 505  655.5119
 506  816.6302
 507  876.6679
 508  971.7606
 509  994.1696
 510  1248.218
 511  1336.345
