# Input file       =  1183611107.093294_cleaned.dat
# Candidate        =  PSR_0332+5434
# Telescope        =  AR
# Epoch_topo       =  57943.202420061272
# Epoch_bary       =  N/A
# T_sample         =  0.002
# Data Folded      =  7340032
# Data Avg         =  0.0409853097087338
# Data StdDev      =  1.00005254028772 
# Profile Bins     =  512
# Profile Avg      =  587.932083664209 
# Profile StdDev   =  119.739327184946 
# Reduced chi-sqr  =  1.381
# Prob(Noise)      <  2.27e-08   (~5.5 sigma)
# P_topo (ms)      =  714.482949401841  +/- 0.000303
# P'_topo (s/s)    =  -0                +/- 1.6e-10
# P''_topo (s/s^2) =  0                 +/- 7.06e-14
# P_bary (ms)      =  N/A
# P'_bary (s/s)    =  N/A
# P''_bary (s/s^2) =  N/A
# P_orb (s)        =  N/A
# asin(i)/c (s)    =  N/A
# eccentricity     =  N/A
# w (rad)          =  N/A
# T_peri           =  N/A
######################################################
   0  1231.526
   1  1232.34
   2  1042.848
   3  747.7901
   4  578.7051
   5  584.2426
   6  533.1777
   7  544.4509
   8  437.3103
   9  629.2646
  10  654.1398
  11  634.9802
  12  598.2888
  13  529.874
  14  452.4725
  15  465.541
  16  551.5446
  17  602.1043
  18  639.9042
  19  669.191
  20  641.6246
  21  720.1489
  22  624.603
  23  589.6088
  24  558.4293
  25  477.5585
  26  497.745
  27  583.3779
  28  570.3165
  29  629.7675
  30  652.9286
  31  586.898
  32  516.3683
  33  604.0609
  34  513.4024
  35  507.9346
  36  561.7969
  37  668.0754
  38  575.9619
  39  549.587
  40  597.944
  41  593.0719
  42  593.9427
  43  582.2577
  44  540.4092
  45  480.9438
  46  588.7359
  47  652.8248
  48  685.2572
  49  578.4765
  50  566.2793
  51  557.3026
  52  588.8806
  53  691.2202
  54  729.2205
  55  587.795
  56  615.7639
  57  546.0189
  58  609.0652
  59  732.5569
  60  725.3997
  61  698.4384
  62  837.5005
  63  705.906
  64  607.1102
  65  691.3889
  66  743.2804
  67  641.0931
  68  661.5965
  69  629.5035
  70  576.9432
  71  644.2585
  72  783.7341
  73  659.1545
  74  655.3336
  75  721.1361
  76  577.9476
  77  549.0462
  78  523.071
  79  552.8484
  80  508.9154
  81  553.9246
  82  693.2207
  83  622.2449
  84  604.9111
  85  537.6693
  86  543.9617
  87  645.3174
  88  520.7481
  89  513.1306
  90  536.8559
  91  478.4902
  92  420.8875
  93  495.0314
  94  470.1554
  95  397.8488
  96  481.963
  97  556.0522
  98  443.395
  99  581.1204
 100  674.7588
 101  547.9912
 102  564.5523
 103  443.4359
 104  557.6983
 105  522.8813
 106  519.2798
 107  505.4398
 108  403.7598
 109  554.4167
 110  563.7572
 111  549.6794
 112  566.9189
 113  583.0126
 114  660.321
 115  654.4455
 116  637.3068
 117  583.7761
 118  604.4659
 119  564.3294
 120  538.276
 121  590.0939
 122  611.1738
 123  621.9819
 124  540.4834
 125  481.1202
 126  429.1573
 127  601.7061
 128  612.1531
 129  593.6273
 130  615.5109
 131  646.1395
 132  644.4651
 133  673.6051
 134  592.5274
 135  603.7313
 136  560.7986
 137  596.1775
 138  526.918
 139  504.3899
 140  490.7932
 141  556.3602
 142  670.1514
 143  640.1613
 144  649.4328
 145  648.2308
 146  710.1545
 147  524.3121
 148  583.6772
 149  669.6303
 150  672.7455
 151  702.0358
 152  580.4272
 153  621.0831
 154  591.6132
 155  645.9679
 156  536.2687
 157  518.4619
 158  598.9547
 159  630.3857
 160  641.7125
 161  738.4614
 162  639.116
 163  554.1594
 164  597.4835
 165  597.6641
 166  514.2972
 167  474.4624
 168  564.959
 169  489.7316
 170  565.3513
 171  517.3663
 172  482.5411
 173  470.3184
 174  485.5288
 175  529.8516
 176  471.9997
 177  461.9518
 178  497.0275
 179  538.8263
 180  575.214
 181  635.2774
 182  652.251
 183  653.8118
 184  641.1013
 185  597.8867
 186  622.0844
 187  608.6589
 188  661.9944
 189  681.6162
 190  581.0816
 191  427.3439
 192  462.0662
 193  714.7164
 194  602.1202
 195  562.0315
 196  679.3811
 197  675.0228
 198  629.0997
 199  599.6165
 200  659.5253
 201  744.1805
 202  820.3951
 203  717.2409
 204  680.3906
 205  752.809
 206  744.1254
 207  711.4482
 208  678.9191
 209  674.3865
 210  641.2852
 211  597.6362
 212  693.7069
 213  704.2701
 214  647.3254
 215  581.2595
 216  574.3316
 217  593.4749
 218  608.5662
 219  627.6607
 220  631.2004
 221  649.976
 222  650.2158
 223  638.9896
 224  620.7527
 225  613.8441
 226  638.2604
 227  631.2923
 228  674.0613
 229  765.6482
 230  719.4316
 231  760.7908
 232  744.7221
 233  732.8947
 234  757.2095
 235  738.7275
 236  648.6709
 237  724.1996
 238  677.1255
 239  665.4395
 240  591.1332
 241  604.2582
 242  661.2547
 243  656.9891
 244  570.9869
 245  617.7429
 246  669.6486
 247  550.7924
 248  518.8452
 249  559.363
 250  609.1968
 251  638.6787
 252  589.7994
 253  542.8945
 254  544.6383
 255  523.1747
 256  539.4976
 257  490.5862
 258  556.9608
 259  558.4823
 260  669.9311
 261  672.8414
 262  562.9078
 263  563.6816
 264  552.085
 265  487.1663
 266  487.0797
 267  524.699
 268  589.1555
 269  699.755
 270  627.7048
 271  519.3522
 272  527.6808
 273  564.2971
 274  647.8794
 275  682.2696
 276  661.3145
 277  622.1174
 278  571.8584
 279  576.9625
 280  596.4732
 281  635.3357
 282  676.835
 283  737.5334
 284  755.4032
 285  708.4747
 286  638.8281
 287  585.4289
 288  578.7169
 289  646.8553
 290  656.2495
 291  620.7415
 292  571.4197
 293  553.8432
 294  586.977
 295  565.6182
 296  536.7233
 297  505.6307
 298  505.8726
 299  596.4839
 300  533.9223
 301  649.9186
 302  657.9651
 303  552.6438
 304  612.0706
 305  685.4077
 306  613.111
 307  528.3149
 308  496.1467
 309  568.4896
 310  470.6472
 311  466.2871
 312  498.5374
 313  545.2722
 314  548.0746
 315  530.5692
 316  535.7545
 317  602.5895
 318  592.2725
 319  638.2779
 320  724.3593
 321  744.509
 322  706.2198
 323  674.8338
 324  754.8951
 325  728.8607
 326  764.3925
 327  707.6683
 328  729.7283
 329  718.1709
 330  654.3143
 331  601.3452
 332  554.5831
 333  559.0316
 334  658.8074
 335  675.7883
 336  523.4396
 337  513.6885
 338  547.3498
 339  502.8215
 340  445.2745
 341  520.0797
 342  671.7243
 343  611.6967
 344  551.8071
 345  426.0343
 346  403.35
 347  483.6749
 348  420.5094
 349  398.9214
 350  372.3911
 351  523.9764
 352  497.396
 353  477.5524
 354  634.7603
 355  580.2354
 356  589.6048
 357  561.0179
 358  646.7444
 359  633.6063
 360  576.9745
 361  543.7921
 362  586.5991
 363  541.9907
 364  575.9278
 365  636.7744
 366  648.9425
 367  711.1917
 368  661.4846
 369  615.413
 370  568.3085
 371  603.2866
 372  605.3086
 373  515.6472
 374  470.6639
 375  487.696
 376  521.715
 377  567.1664
 378  654.1518
 379  615.1859
 380  537.9112
 381  512.5147
 382  531.3698
 383  455.5762
 384  413.4199
 385  431.8263
 386  491.7789
 387  486.1288
 388  387.611
 389  312.2489
 390  404.6979
 391  382.9959
 392  475.9897
 393  444.4142
 394  402.1145
 395  376.0876
 396  411.4557
 397  476.7146
 398  521.5184
 399  498.1925
 400  531.3134
 401  445.2411
 402  484.0945
 403  489.1453
 404  612.8038
 405  678.5562
 406  647.7251
 407  649.4046
 408  556.6923
 409  651.8889
 410  586.5629
 411  582.5078
 412  613.9159
 413  728.8418
 414  580.4794
 415  570.6616
 416  577.1396
 417  564.3519
 418  517.8505
 419  571.9852
 420  596.4781
 421  600.8903
 422  613.255
 423  531.4252
 424  556.8944
 425  519.1661
 426  443.0281
 427  434.7089
 428  499.5986
 429  617.4678
 430  601.4072
 431  559.0848
 432  519.7654
 433  483.2227
 434  439.5894
 435  595.4461
 436  592.6709
 437  522.8496
 438  490.8235
 439  529.2982
 440  493.9981
 441  463.1066
 442  368.2014
 443  347.0385
 444  417.6953
 445  534.4417
 446  568.51
 447  515.8586
 448  468.6913
 449  508.0392
 450  434.938
 451  585.3214
 452  510.4194
 453  460.7621
 454  468.3734
 455  534.1257
 456  633.9167
 457  603.8851
 458  511.3465
 459  458.9739
 460  461.4415
 461  539.3687
 462  474.6349
 463  496.9841
 464  582.3572
 465  570.7603
 466  510.1372
 467  509.6216
 468  503.0444
 469  551.1401
 470  579.3616
 471  652.1435
 472  574.4949
 473  586.4012
 474  545.037
 475  450.3998
 476  490.8953
 477  544.3076
 478  501.4003
 479  475.8043
 480  497.119
 481  449.6736
 482  527.1005
 483  621.1737
 484  603.291
 485  586.4835
 486  556.7527
 487  534.1999
 488  645.2697
 489  674.364
 490  689.4964
 491  795.0864
 492  772.3182
 493  692.4137
 494  699.7177
 495  653.4417
 496  586.0385
 497  605.4623
 498  616.0897
 499  572.6864
 500  522.6106
 501  580.1996
 502  526.5162
 503  549.4648
 504  649.1743
 505  589.1773
 506  630.8322
 507  657.3578
 508  778.6853
 509  764.8311
 510  960.1637
 511  1192.019
