# Input file       =  1183783393.109526_cleaned.dat
# Candidate        =  PSR_0332+5434
# Telescope        =  AR
# Epoch_topo       =  57945.196471175070
# Epoch_bary       =  N/A
# T_sample         =  0.002
# Data Folded      =  7340032
# Data Avg         =  0.041052627583034
# Data StdDev      =  1.00013598660814 
# Profile Bins     =  512
# Profile Avg      =  588.07470423218  
# Profile StdDev   =  119.749318466265 
# Reduced chi-sqr  =  1.205
# Prob(Noise)      <  0.00096   (~3.1 sigma)
# P_topo (ms)      =  714.481524128888  +/- 0.00023
# P'_topo (s/s)    =  -0                +/- 1.21e-10
# P''_topo (s/s^2) =  0                 +/- 5.35e-14
# P_bary (ms)      =  N/A
# P'_bary (s/s)    =  N/A
# P''_bary (s/s^2) =  N/A
# P_orb (s)        =  N/A
# asin(i)/c (s)    =  N/A
# eccentricity     =  N/A
# w (rad)          =  N/A
# T_peri           =  N/A
######################################################
   0  1241.881
   1  1281.7
   2  1101.471
   3  898.2669
   4  775.1575
   5  547.0136
   6  572.2109
   7  554.3038
   8  511.1562
   9  604.0884
  10  675.7368
  11  650.0563
  12  632.4042
  13  604.8851
  14  568.3912
  15  693.3073
  16  663.9334
  17  576.8646
  18  510.9935
  19  538.6798
  20  665.8864
  21  670.4268
  22  627.3851
  23  558.3765
  24  618.1152
  25  700.3224
  26  664.5562
  27  661.0128
  28  600.5449
  29  698.283
  30  749.6247
  31  722.994
  32  615.8248
  33  646.2313
  34  733.7931
  35  763.382
  36  769.093
  37  691.2043
  38  725.1022
  39  696.4193
  40  542.2015
  41  580.3049
  42  693.037
  43  629.4747
  44  562.6369
  45  621.8503
  46  585.9064
  47  558.2193
  48  593.9005
  49  582.4982
  50  681.1091
  51  631.0625
  52  635.4075
  53  590.0591
  54  603.2006
  55  629.9454
  56  606.4366
  57  468.7481
  58  525.3491
  59  582.1844
  60  584.7572
  61  542.5265
  62  435.8279
  63  500.7228
  64  547.8195
  65  554.0463
  66  517.6471
  67  565.5336
  68  551.4859
  69  492.8207
  70  508.2769
  71  528.8849
  72  634.9968
  73  546.0807
  74  587.0893
  75  716.3807
  76  632.9194
  77  591.3303
  78  591.0765
  79  609.215
  80  561.533
  81  583.5845
  82  515.1219
  83  505.2799
  84  488.6387
  85  465.4578
  86  620.6652
  87  566.12
  88  648.4639
  89  630.2465
  90  585.2111
  91  663.1931
  92  699.1866
  93  683.6661
  94  622.0593
  95  653.4446
  96  552.9443
  97  495.5503
  98  431.4205
  99  531.7984
 100  584.4418
 101  539.5629
 102  533.2374
 103  570.6406
 104  557.6546
 105  474.9581
 106  510.4931
 107  491.6971
 108  598.4047
 109  564.7136
 110  526.7448
 111  528.005
 112  523.6328
 113  671.5571
 114  648.0054
 115  552.4408
 116  709.6008
 117  669.0654
 118  571.0036
 119  460.0172
 120  532.5779
 121  549.3107
 122  572.5812
 123  531.039
 124  427.3891
 125  538.7241
 126  505.8429
 127  497.2025
 128  619.4464
 129  596.8336
 130  647.3785
 131  656.0026
 132  538.9173
 133  543.686
 134  645.4259
 135  585.8565
 136  602.2229
 137  666.0569
 138  660.8655
 139  566.4681
 140  560.5365
 141  675.6666
 142  736.8221
 143  673.4252
 144  631.5942
 145  631.956
 146  580.2077
 147  533.7687
 148  583.91
 149  691.3359
 150  677.3903
 151  571.8346
 152  713.3143
 153  663.3645
 154  582.2659
 155  602.3375
 156  750.9744
 157  608.0939
 158  530.3715
 159  524.3123
 160  423.9688
 161  565.9386
 162  596.7
 163  522.101
 164  543.394
 165  635.5782
 166  606.1741
 167  507.0838
 168  545.4946
 169  659.869
 170  596.4839
 171  538.8171
 172  602.4146
 173  561.059
 174  559.5509
 175  586.3267
 176  625.1129
 177  526.1601
 178  512.0985
 179  642.6911
 180  546.3484
 181  521.4247
 182  548.257
 183  604.4302
 184  504.1512
 185  572.5267
 186  589.2522
 187  443.3703
 188  465.5976
 189  617.0474
 190  642.1198
 191  615.3348
 192  636.1237
 193  628.787
 194  498.3069
 195  617.653
 196  562.6962
 197  450.2274
 198  430.335
 199  470.8415
 200  552.5829
 201  472.0123
 202  464.4026
 203  611.6034
 204  691.3926
 205  564.658
 206  575.0541
 207  611.4578
 208  649.1917
 209  531.2181
 210  515.11
 211  568.2343
 212  531.9762
 213  579.2221
 214  578.1179
 215  583.744
 216  546.9637
 217  687.0043
 218  654.9845
 219  657.7954
 220  611.798
 221  573.7816
 222  537.9175
 223  604.5723
 224  578.1512
 225  560.9573
 226  536.3375
 227  443.8449
 228  550.7913
 229  550.7178
 230  548.6877
 231  617.9999
 232  593.0291
 233  682.6173
 234  600.1713
 235  558.2979
 236  628.3132
 237  582.8587
 238  444.3572
 239  474.9381
 240  500.0204
 241  503.0637
 242  599.7104
 243  493.0566
 244  612.6183
 245  674.163
 246  684.5765
 247  590.3637
 248  475.06
 249  524.3581
 250  651.154
 251  766.4167
 252  692.056
 253  533.5946
 254  534.2587
 255  660.4462
 256  697.908
 257  558.5004
 258  541.1785
 259  512.459
 260  519.9813
 261  565.7795
 262  678.6038
 263  774.1755
 264  691.3502
 265  604.8941
 266  627.7147
 267  663.8312
 268  569.7488
 269  548.6716
 270  664.688
 271  673.9872
 272  644.1848
 273  616.2061
 274  572.3879
 275  598.2474
 276  608.7753
 277  579.1974
 278  593.8251
 279  723.4572
 280  649.6082
 281  580.4743
 282  599.9236
 283  559.7887
 284  440.8377
 285  449.8497
 286  549.4217
 287  591.0856
 288  739.09
 289  559.262
 290  575.0872
 291  563.7231
 292  608.7251
 293  651.4621
 294  720.0856
 295  631.7888
 296  545.3526
 297  592.8864
 298  699.6491
 299  528.5944
 300  581.8432
 301  641.4853
 302  512.5275
 303  477.3114
 304  613.8079
 305  648.8604
 306  669.8913
 307  640.245
 308  701.7577
 309  730.2714
 310  546.4352
 311  558.3934
 312  622.2123
 313  647.5694
 314  534.9536
 315  456.9988
 316  557.4654
 317  582.5957
 318  542.3679
 319  563.3664
 320  635.3239
 321  621.7885
 322  547.554
 323  489.7685
 324  504.0289
 325  530.3063
 326  585.5407
 327  486.4991
 328  463.8846
 329  583.1477
 330  646.9402
 331  532.5703
 332  578.1128
 333  690.3069
 334  753.4611
 335  622.8096
 336  593.4074
 337  645.3769
 338  609.3748
 339  518.0041
 340  587.8674
 341  691.3771
 342  592.585
 343  489.456
 344  495.6919
 345  497.3254
 346  604.2388
 347  524.0922
 348  591.2916
 349  728.6653
 350  564.8588
 351  618.5791
 352  682.2122
 353  605.0397
 354  616.2015
 355  535.1309
 356  563.666
 357  564.6703
 358  504.0736
 359  569.0793
 360  549.9983
 361  576.798
 362  653.0785
 363  514.3931
 364  513.004
 365  565.7416
 366  565.4162
 367  580.5474
 368  611.4201
 369  507.1908
 370  583.3331
 371  475.3272
 372  467.7902
 373  527.5959
 374  591.8251
 375  581.2503
 376  558.9975
 377  576.6456
 378  673.8181
 379  510.2241
 380  420.9059
 381  524.8168
 382  485.8459
 383  462.8881
 384  515.0449
 385  529.6921
 386  514.4885
 387  491.7808
 388  420.8389
 389  394.2301
 390  452.9307
 391  380.0555
 392  417.4862
 393  559.2785
 394  612.4818
 395  597.8428
 396  531.6492
 397  497.6193
 398  498.2212
 399  622.5441
 400  619.0583
 401  490.8561
 402  427.3467
 403  444.8658
 404  441.341
 405  458.6262
 406  536.7215
 407  559.7948
 408  450.3756
 409  468.2317
 410  506.004
 411  515.3203
 412  553.6895
 413  581.0869
 414  699.9345
 415  744.0715
 416  704.7061
 417  562.1603
 418  508.6832
 419  489.9103
 420  498.9316
 421  554.0674
 422  552.4713
 423  649.3969
 424  678.4912
 425  624.8708
 426  488.6988
 427  554.3316
 428  473.694
 429  503.7966
 430  533.6937
 431  594.6233
 432  609.511
 433  540.9289
 434  566.3131
 435  603.3575
 436  544.579
 437  558.6475
 438  619.1682
 439  680.6875
 440  703.6257
 441  514.7428
 442  610.3975
 443  672.9398
 444  694.473
 445  598.6567
 446  432.3996
 447  495.6499
 448  541.5118
 449  574.9514
 450  669.8566
 451  622.2752
 452  641.4391
 453  543.6592
 454  448.9401
 455  573.3269
 456  521.1956
 457  675.6721
 458  666.5682
 459  548.2764
 460  566.7392
 461  541.6755
 462  578.6028
 463  450.7701
 464  519.1265
 465  551.2982
 466  569.0721
 467  614.6098
 468  473.0533
 469  484.2983
 470  564.0292
 471  626.4903
 472  646.7077
 473  565.9041
 474  515.9407
 475  518.1076
 476  512.0522
 477  591.394
 478  579.0505
 479  531.8261
 480  539.0168
 481  553.9003
 482  456.0405
 483  541.6313
 484  555.8737
 485  559.7662
 486  638.7972
 487  512.4088
 488  552.8068
 489  648.0567
 490  582.9835
 491  630.5525
 492  634.8287
 493  516.0269
 494  646.6516
 495  724.6041
 496  575.9583
 497  496.015
 498  535.7229
 499  712.9098
 500  717.374
 501  658.0504
 502  636.8048
 503  649.5336
 504  689.9237
 505  660.8403
 506  660.0479
 507  762.6542
 508  779.0593
 509  879.204
 510  1005.924
 511  1115.328
