# Input file       =  1183439200.089815_cleaned.dat
# Candidate        =  PSR_0332+5434
# Telescope        =  AR
# Epoch_topo       =  57941.212755669156
# Epoch_bary       =  N/A
# T_sample         =  0.002
# Data Folded      =  7340032
# Data Avg         =  0.0444988543480607
# Data StdDev      =  0.999927402424868
# Profile Bins     =  512
# Profile Avg      =  637.930599003801 
# Profile StdDev   =  119.724344048662 
# Reduced chi-sqr  =  1.487
# Prob(Noise)      <  4.95e-12   (~6.8 sigma)
# P_topo (ms)      =  714.484416943998  +/- 0.000457
# P'_topo (s/s)    =  -0                +/- 2.41e-10
# P''_topo (s/s^2) =  0                 +/- 1.06e-13
# P_bary (ms)      =  N/A
# P'_bary (s/s)    =  N/A
# P''_bary (s/s^2) =  N/A
# P_orb (s)        =  N/A
# asin(i)/c (s)    =  N/A
# eccentricity     =  N/A
# w (rad)          =  N/A
# T_peri           =  N/A
######################################################
   0  1099.996
   1  1227.052
   2  1068.277
   3  822.4809
   4  721.7639
   5  611.309
   6  716.4699
   7  655.9038
   8  767.8928
   9  817.6526
  10  817.2327
  11  793.1882
  12  716.4037
  13  770.7111
  14  703.1916
  15  800.1897
  16  808.6132
  17  721.7766
  18  747.4901
  19  767.0963
  20  717.9902
  21  822.6056
  22  742.1841
  23  731.8339
  24  688.8893
  25  704.7515
  26  766.062
  27  716.4324
  28  704.2337
  29  600.2668
  30  600.3046
  31  752.2168
  32  788.8333
  33  722.9766
  34  721.9822
  35  660.739
  36  544.6797
  37  693.0671
  38  718.4784
  39  648.2771
  40  650.8995
  41  619.0565
  42  661.7975
  43  675.2336
  44  621.7036
  45  528.0671
  46  471.4443
  47  647.4073
  48  763.8196
  49  709.2623
  50  677.6259
  51  573.6542
  52  511.1638
  53  500.0262
  54  603.1442
  55  488.0578
  56  511.7181
  57  488.9542
  58  436.3167
  59  535.3012
  60  506.6764
  61  438.335
  62  405.6122
  63  542.4338
  64  730.3646
  65  717.5301
  66  680.225
  67  709.3597
  68  626.5273
  69  618.8499
  70  568.8901
  71  608.2726
  72  676.3207
  73  619.0118
  74  590.8304
  75  622.7036
  76  619.087
  77  577.6193
  78  539.4328
  79  519.4989
  80  588.4002
  81  467.6354
  82  435.6387
  83  638.3752
  84  624.8686
  85  527.2535
  86  472.9779
  87  472.2693
  88  541.2245
  89  521.8369
  90  397.2773
  91  472.882
  92  509.3508
  93  558.3826
  94  537.1853
  95  532.079
  96  476.2049
  97  449.8304
  98  486.6042
  99  538.0815
 100  619.4989
 101  687.6276
 102  536.1393
 103  573.135
 104  515.5604
 105  609.349
 106  602.1639
 107  539.6815
 108  448.1618
 109  567.9616
 110  715.6483
 111  679.9931
 112  681.4746
 113  623.129
 114  805.0364
 115  832.4882
 116  795.6646
 117  754.7505
 118  708.2774
 119  661.8688
 120  642.5004
 121  683.1699
 122  685.8611
 123  683.3273
 124  687.0684
 125  582.9274
 126  591.7996
 127  595.7952
 128  638.4649
 129  505.8781
 130  494.5357
 131  530.8801
 132  503.9944
 133  651.241
 134  628.887
 135  591.4735
 136  509.148
 137  481.6402
 138  461.3764
 139  573.7342
 140  647.2467
 141  542.4553
 142  523.3565
 143  550.2585
 144  548.4764
 145  502.7711
 146  559.2551
 147  521.3526
 148  499.0124
 149  587.2865
 150  684.404
 151  658.2671
 152  673.3148
 153  539.4532
 154  640.2285
 155  665.4669
 156  561.5054
 157  516.2549
 158  516.2167
 159  631.4764
 160  552.2443
 161  595.9916
 162  658.0125
 163  566.7227
 164  493.3932
 165  556.4304
 166  624.3672
 167  653.9634
 168  572.2325
 169  511.2375
 170  583.7811
 171  607.621
 172  671.9294
 173  710.7543
 174  488.5831
 175  509.0652
 176  702.9075
 177  674.6736
 178  634.631
 179  591.6865
 180  579.2348
 181  624.1837
 182  595.2718
 183  528.4322
 184  576.2206
 185  574.0762
 186  568.2181
 187  602.6266
 188  641.5045
 189  642.5843
 190  569.4102
 191  641.0334
 192  692.2604
 193  661.3207
 194  652.4464
 195  591.7048
 196  566.0931
 197  606.9132
 198  626.132
 199  543.2873
 200  575.8597
 201  610.4136
 202  513.6139
 203  539.5143
 204  597.218
 205  631.6218
 206  671.6594
 207  668.1246
 208  672.4005
 209  608.372
 210  593.3135
 211  565.4505
 212  505.2834
 213  445.5181
 214  569.0414
 215  495.6194
 216  507.365
 217  556.2026
 218  439.2618
 219  507.3621
 220  548.9969
 221  516.2316
 222  394.4136
 223  449.3448
 224  634.1918
 225  684.5156
 226  668.7671
 227  614.8683
 228  602.5638
 229  648.4371
 230  741.9661
 231  717.5251
 232  656.9144
 233  691.2017
 234  709.3378
 235  635.0504
 236  659.3254
 237  727.7882
 238  695.3873
 239  599.2018
 240  647.2495
 241  742.4719
 242  666.7054
 243  623.8875
 244  627.1953
 245  615.9025
 246  579.5213
 247  641.7387
 248  589.6568
 249  611.0465
 250  583.3856
 251  634.8295
 252  773.4474
 253  732.0911
 254  570.6394
 255  598.4946
 256  677.3322
 257  620.9474
 258  583.3372
 259  541.1047
 260  743.2336
 261  704.7302
 262  722.7228
 263  565.6151
 264  531.8546
 265  577.897
 266  662.9696
 267  670.4177
 268  558.1662
 269  567.9994
 270  618.9091
 271  564.8926
 272  621.7131
 273  644.2615
 274  659.9232
 275  712.2009
 276  558.2262
 277  620.8328
 278  653.467
 279  679.0049
 280  636.7342
 281  525.5157
 282  537.6042
 283  644.5449
 284  607.9327
 285  580.0856
 286  569.1305
 287  633.9074
 288  562.991
 289  613.3722
 290  656.3566
 291  546.258
 292  489.8466
 293  711.8233
 294  762.527
 295  758.0118
 296  657.8287
 297  619.8915
 298  675.1755
 299  712.5715
 300  639.05
 301  717.0706
 302  697.9917
 303  636.3273
 304  684.0121
 305  680.6619
 306  771.8937
 307  736.9591
 308  703.8922
 309  724.0182
 310  788.6609
 311  766.9509
 312  764.8763
 313  759.4932
 314  757.3354
 315  681.0562
 316  701.0365
 317  644.7143
 318  712.0667
 319  777.2169
 320  635.1229
 321  658.2416
 322  674.4967
 323  749.3146
 324  730.3773
 325  690.7131
 326  606.3846
 327  660.0205
 328  661.8469
 329  713.9591
 330  773.0035
 331  759.6169
 332  792.8568
 333  757.9922
 334  806.0507
 335  778.2572
 336  640.1283
 337  571.0922
 338  624.2239
 339  595.8817
 340  658.7663
 341  651.8218
 342  625.6933
 343  602.451
 344  673.9537
 345  659.3485
 346  691.853
 347  632.6662
 348  593.3136
 349  693.9777
 350  682.6735
 351  699.7067
 352  531.9531
 353  589.2672
 354  678.6171
 355  732.8975
 356  794.9994
 357  733.9623
 358  642.5255
 359  791.5166
 360  773.504
 361  633.5034
 362  690.6294
 363  737.137
 364  627.0026
 365  585.4097
 366  679.509
 367  780.2612
 368  643.1441
 369  613.8389
 370  662.3369
 371  629.8162
 372  590.0099
 373  578.7583
 374  654.5773
 375  584.4879
 376  606.2314
 377  618.8362
 378  563.2325
 379  560.4913
 380  593.1876
 381  624.8082
 382  478.4366
 383  542.6876
 384  624.4247
 385  645.4467
 386  622.452
 387  575.5093
 388  508.5506
 389  567.6367
 390  729.2007
 391  650.7335
 392  596.2072
 393  602.9651
 394  629.6845
 395  613.9503
 396  574.8836
 397  571.5942
 398  547.7658
 399  597.3984
 400  551.9559
 401  434.3799
 402  572.4514
 403  599.0987
 404  521.7266
 405  466.1321
 406  461.8464
 407  610.4322
 408  556.6705
 409  616.2679
 410  647.2829
 411  533.1913
 412  506.2031
 413  629.121
 414  601.7591
 415  550.9742
 416  596.8822
 417  541.4681
 418  621.5189
 419  660.9517
 420  659.8271
 421  629.148
 422  630.4016
 423  643.5482
 424  585.4066
 425  602.8977
 426  685.1707
 427  590.9923
 428  543.8213
 429  548.3472
 430  548.3953
 431  580.0215
 432  607.4906
 433  651.2161
 434  642.0554
 435  638.451
 436  603.0424
 437  639.6954
 438  604.3657
 439  679.749
 440  600.2272
 441  654.3234
 442  660.1486
 443  502.9153
 444  668.4069
 445  703.8107
 446  720.2012
 447  615.8321
 448  610.9422
 449  529.9615
 450  504.1129
 451  647.05
 452  594.5594
 453  577.27
 454  698.9548
 455  710.6833
 456  619.7471
 457  545.8829
 458  497.8014
 459  621.8229
 460  803.4481
 461  613.3251
 462  446.2599
 463  595.1626
 464  621.5625
 465  551.7805
 466  702.1597
 467  717.874
 468  697.2843
 469  652.5914
 470  732.7607
 471  707.2812
 472  662.0956
 473  720.2978
 474  695.2199
 475  704.0919
 476  612.016
 477  560.8995
 478  669.2416
 479  638.1691
 480  645.1161
 481  630.8595
 482  679.9153
 483  565.1194
 484  613.8764
 485  738.2964
 486  695.9244
 487  696.3894
 488  690.7003
 489  631.7881
 490  746.6257
 491  867.0159
 492  743.2233
 493  699.3744
 494  789.6533
 495  888.9521
 496  868.5431
 497  833.5128
 498  813.1855
 499  766.0196
 500  778.5874
 501  813.9951
 502  844.6558
 503  879.4886
 504  803.5213
 505  707.8387
 506  712.4645
 507  827.3493
 508  882.4182
 509  1099.58
 510  1181.409
 511  1199.449
