# Input file       =  1183094583.125446_cleaned.dat
# Candidate        =  PSR_0332+5434
# Telescope        =  AR
# Epoch_topo       =  57937.224133396368
# Epoch_bary       =  N/A
# T_sample         =  0.002
# Data Folded      =  7340032
# Data Avg         =  0.0525988977029981
# Data StdDev      =  1.00019776190018 
# Profile Bins     =  512
# Profile Avg      =  753.894768163604 
# Profile StdDev   =  119.756715009554 
# Reduced chi-sqr  =  1.335
# Prob(Noise)      <  5.62e-07   (~4.9 sigma)
# P_topo (ms)      =  714.487468211791  +/- 0.000187
# P'_topo (s/s)    =  -0                +/- 9.89e-11
# P''_topo (s/s^2) =  0                 +/- 4.36e-14
# P_bary (ms)      =  N/A
# P'_bary (s/s)    =  N/A
# P''_bary (s/s^2) =  N/A
# P_orb (s)        =  N/A
# asin(i)/c (s)    =  N/A
# eccentricity     =  N/A
# w (rad)          =  N/A
# T_peri           =  N/A
######################################################
   0  1379.956
   1  1277.539
   2  1037.862
   3  897.2005
   4  879.9402
   5  808.9238
   6  714.303
   7  750.4016
   8  771.3083
   9  854.3443
  10  865.8669
  11  917.1147
  12  867.9481
  13  855.8853
  14  966.9302
  15  1019.019
  16  883.843
  17  748.8015
  18  762.7685
  19  743.6859
  20  746.4579
  21  750.4962
  22  722.4556
  23  650.4487
  24  651.3058
  25  723.7009
  26  673.0779
  27  626.3767
  28  658.2602
  29  704.6564
  30  676.3635
  31  655.1217
  32  581.9587
  33  629.2992
  34  689.9444
  35  745.4313
  36  628.4799
  37  692.0247
  38  732.164
  39  782.6126
  40  708.8105
  41  718.7022
  42  725.9744
  43  691.1345
  44  690.7497
  45  768.3763
  46  732.873
  47  759.6255
  48  805.747
  49  895.4645
  50  743.6533
  51  698.9195
  52  847.017
  53  892.6327
  54  772.4845
  55  803.623
  56  785.1877
  57  785.8395
  58  833.9188
  59  772.4698
  60  796.0958
  61  673.2369
  62  694.1956
  63  748.3578
  64  673.328
  65  546.3866
  66  586.6891
  67  613.8046
  68  690.0652
  69  619.1527
  70  590.7825
  71  719.7933
  72  720.1565
  73  771.2352
  74  731.7383
  75  663.5485
  76  746.9459
  77  730.8055
  78  628.0334
  79  605.0333
  80  703.5236
  81  742.4772
  82  712.1796
  83  627.8291
  84  648.9327
  85  683.0419
  86  722.6548
  87  733.7395
  88  783.6942
  89  706.5903
  90  782.16
  91  802.9927
  92  791.3407
  93  747.3564
  94  725.1218
  95  744.4737
  96  675.9586
  97  629.6739
  98  707.0773
  99  806.8595
 100  725.4992
 101  655.9006
 102  681.2396
 103  651.0065
 104  678.0105
 105  728.2606
 106  753.4728
 107  672.9633
 108  696.1149
 109  713.1833
 110  708.8285
 111  689.2925
 112  681.6295
 113  720.2385
 114  725.0347
 115  658.482
 116  650.1615
 117  658.8565
 118  708.9086
 119  707.1843
 120  689.8121
 121  634.8958
 122  700.4387
 123  684.0628
 124  661.7264
 125  707.9277
 126  711.6325
 127  631.2932
 128  622.2423
 129  646.1505
 130  660.3979
 131  662.0689
 132  699.697
 133  708.8027
 134  694.2679
 135  730.7389
 136  742.2211
 137  749.7459
 138  778.9399
 139  828.9006
 140  781.8099
 141  833.583
 142  858.2746
 143  865.3162
 144  905.2161
 145  815.0146
 146  776.0597
 147  794.8996
 148  823.1853
 149  761.7781
 150  693.9744
 151  732.4274
 152  774.1742
 153  700.1714
 154  608.6509
 155  647.6721
 156  662.5203
 157  666.1409
 158  718.7017
 159  662.293
 160  591.4075
 161  641.6829
 162  628.752
 163  779.2017
 164  748.8497
 165  584.954
 166  623.3226
 167  620.1182
 168  613.6487
 169  580.4954
 170  604.3449
 171  672.6991
 172  678.2861
 173  561.7148
 174  634.7682
 175  658.6847
 176  778.6451
 177  709.412
 178  693.5704
 179  767.4223
 180  738.6829
 181  743.6083
 182  764.9603
 183  792.6852
 184  784.3798
 185  803.3579
 186  821.7495
 187  839.2446
 188  744.4189
 189  694.7073
 190  697.4954
 191  780.4962
 192  807.7883
 193  800.7182
 194  720.0754
 195  722.4554
 196  697.0507
 197  639.4901
 198  635.0939
 199  708.2237
 200  664.4407
 201  695.4533
 202  703.6683
 203  604.618
 204  548.2014
 205  600.0726
 206  622.939
 207  555.6724
 208  535.0765
 209  605.5399
 210  563.0694
 211  655.2077
 212  570.4631
 213  607.2443
 214  704.2771
 215  756.3709
 216  702.7435
 217  629.0834
 218  633.0356
 219  696.8339
 220  783.0028
 221  774.9244
 222  714.9713
 223  750.6268
 224  821.2036
 225  885.0515
 226  833.8604
 227  781.9054
 228  724.9558
 229  750.2512
 230  790.2123
 231  812.4675
 232  785.6301
 233  695.5692
 234  727.58
 235  760.1855
 236  824.903
 237  788.8522
 238  733.1129
 239  749.0081
 240  752.3163
 241  621.1964
 242  695.3183
 243  787.9117
 244  859.7354
 245  809.6734
 246  766.4232
 247  648.6851
 248  709.2006
 249  802.3997
 250  860.8475
 251  812.7819
 252  892.6085
 253  901.9728
 254  763.6205
 255  764.7053
 256  936.6102
 257  936.5234
 258  881.8212
 259  881.0567
 260  967.6102
 261  904.6476
 262  862.1068
 263  883.1863
 264  932.4899
 265  856.3102
 266  847.6983
 267  857.8457
 268  892.0626
 269  932.4829
 270  739.4412
 271  727.8892
 272  769.5725
 273  741.4827
 274  708.0497
 275  678.7337
 276  664.9144
 277  754.9902
 278  737.179
 279  642.0154
 280  636.002
 281  726.6062
 282  688.4417
 283  813.7517
 284  746.7466
 285  680.386
 286  753.0465
 287  831.3578
 288  809.4335
 289  736.5492
 290  676.0726
 291  637.9821
 292  742.5076
 293  803.8651
 294  801.2054
 295  790.2145
 296  703.8928
 297  754.3105
 298  853.5977
 299  751.8489
 300  683.0302
 301  770.1867
 302  819.4182
 303  722.0767
 304  647.5701
 305  725.7532
 306  777.4335
 307  658.0083
 308  705.3448
 309  657.4102
 310  722.9835
 311  845.6876
 312  773.6116
 313  770.6606
 314  729.0137
 315  777.0376
 316  692.98
 317  742.1876
 318  806.4077
 319  734.4386
 320  792.4622
 321  726.7798
 322  749.5464
 323  758.1195
 324  712.681
 325  718.7935
 326  819.777
 327  819.4885
 328  755.6026
 329  828.9316
 330  695.0527
 331  660.9717
 332  750.3771
 333  771.0969
 334  792.8519
 335  853.9283
 336  725.0972
 337  689.4908
 338  703.6436
 339  744.7265
 340  807.1766
 341  706.2214
 342  747.0552
 343  781.6146
 344  814.7884
 345  820.0186
 346  794.1959
 347  816.4741
 348  846.6171
 349  858.1943
 350  876.9169
 351  828.7258
 352  840.4635
 353  802.8411
 354  820.7135
 355  855.2681
 356  808.8123
 357  740.9655
 358  742.2944
 359  783.8909
 360  752.5671
 361  708.9447
 362  674.6841
 363  698.6656
 364  737.3415
 365  736.0287
 366  641.885
 367  707.7604
 368  730.7288
 369  628.0554
 370  675.1085
 371  668.976
 372  694.5279
 373  746.4995
 374  716.4059
 375  683.3171
 376  643.4787
 377  600.5615
 378  652.0312
 379  724.5102
 380  632.0721
 381  639.6883
 382  680.6931
 383  790.4915
 384  744.1837
 385  813.5496
 386  735.1456
 387  671.7681
 388  818.2203
 389  821.5394
 390  761.2586
 391  730.9872
 392  827.8625
 393  778.0298
 394  783.2001
 395  741.613
 396  838.0917
 397  858.6649
 398  919.4547
 399  826.2949
 400  868.0809
 401  890.3591
 402  897.1868
 403  853.4883
 404  786.93
 405  739.2897
 406  774.7452
 407  848.0225
 408  811.9274
 409  805.4326
 410  758.5911
 411  719.34
 412  740.0439
 413  807.2046
 414  771.2473
 415  836.3435
 416  698.3123
 417  663.7136
 418  691.3035
 419  671.2971
 420  760.5427
 421  752.7451
 422  875.7493
 423  872.9913
 424  713.9419
 425  793.4849
 426  839.3232
 427  815.0398
 428  773.9681
 429  853.7576
 430  785.0959
 431  826.0774
 432  718.0211
 433  806.0009
 434  890.7502
 435  860.9661
 436  825.7022
 437  870.3873
 438  898.5513
 439  812.7992
 440  774.2909
 441  823.3486
 442  798.1854
 443  729.9387
 444  684.6342
 445  695.3404
 446  672.5808
 447  671.5098
 448  642.5347
 449  676.1112
 450  706.4513
 451  720.0223
 452  547.9938
 453  461.8516
 454  526.8928
 455  607.0086
 456  676.9385
 457  708.1713
 458  644.8134
 459  663.2177
 460  703.3
 461  770.4634
 462  873.2316
 463  856.603
 464  753.8115
 465  723.7496
 466  769.4066
 467  802.7251
 468  812.0153
 469  871.6819
 470  792.9675
 471  746.821
 472  798.9055
 473  762.522
 474  805.7454
 475  857.4903
 476  852.8295
 477  891.3078
 478  850.6784
 479  840.8931
 480  852.5912
 481  890.4103
 482  897.253
 483  825.613
 484  908.3435
 485  909.1479
 486  945.9182
 487  875.5759
 488  928.4497
 489  897.2693
 490  810.9091
 491  861.6748
 492  872.6608
 493  885.1697
 494  778.9038
 495  773.8851
 496  817.5038
 497  803.1141
 498  830.9639
 499  845.0882
 500  817.1113
 501  780.6021
 502  755.3837
 503  733.9504
 504  751.6185
 505  694.4551
 506  714.416
 507  815.1613
 508  878.0112
 509  1070.771
 510  1260.086
 511  1354.056
