# Input file       =  1183525578.105013_cleaned.dat
# Candidate        =  PSR_0332+5434
# Telescope        =  AR
# Epoch_topo       =  57942.212501215428
# Epoch_bary       =  N/A
# T_sample         =  0.002
# Data Folded      =  7340032
# Data Avg         =  0.0578101713653471
# Data StdDev      =  1.00005045521363 
# Profile Bins     =  512
# Profile Avg      =  828.864982393784 
# Profile StdDev   =  119.739077532695 
# Reduced chi-sqr  =  1.057
# Prob(Noise)      <  0.181   (~0.9 sigma)
# P_topo (ms)      =  714.483680816533  +/- 0.000362
# P'_topo (s/s)    =  -0                +/- 1.91e-10
# P''_topo (s/s^2) =  0                 +/- 8.43e-14
# P_bary (ms)      =  N/A
# P'_bary (s/s)    =  N/A
# P''_bary (s/s^2) =  N/A
# P_orb (s)        =  N/A
# asin(i)/c (s)    =  N/A
# eccentricity     =  N/A
# w (rad)          =  N/A
# T_peri           =  N/A
######################################################
   0  1449.02
   1  1424.216
   2  1270.828
   3  1094.485
   4  1012.144
   5  979.0974
   6  937.33
   7  903.0182
   8  836.093
   9  812.7416
  10  813.952
  11  859.2271
  12  876.3355
  13  883.0528
  14  934.1
  15  869.0069
  16  825.1556
  17  690.8873
  18  708.114
  19  814.3964
  20  778.3009
  21  834.6676
  22  749.1538
  23  714.562
  24  737.5041
  25  736.1281
  26  679.4437
  27  716.4645
  28  715.455
  29  654.3813
  30  746.3719
  31  801.8159
  32  796.7557
  33  783.1129
  34  772.107
  35  774.5771
  36  800.3859
  37  783.355
  38  834.447
  39  742.7557
  40  800.9238
  41  831.1546
  42  795.5341
  43  815.288
  44  788.6682
  45  801.5246
  46  813.9647
  47  759.0883
  48  732.2693
  49  769.6021
  50  770.613
  51  766.4689
  52  800.3749
  53  795.6344
  54  827.2158
  55  768.0285
  56  821.9935
  57  861.6454
  58  768.7514
  59  747.0721
  60  753.6159
  61  697.1592
  62  717.9622
  63  805.2643
  64  717.9655
  65  681.8919
  66  748.7715
  67  821.4576
  68  787.5277
  69  774.1466
  70  819.2888
  71  881.6702
  72  906.5093
  73  915.5617
  74  788.922
  75  789.7358
  76  836.8116
  77  740.0934
  78  767.3899
  79  863.9872
  80  831.5415
  81  687.221
  82  789.2479
  83  873.3073
  84  764.7325
  85  823.0696
  86  854.7075
  87  910.4487
  88  901.879
  89  817.5407
  90  717.1735
  91  664.5026
  92  783.05
  93  805.2484
  94  842.2089
  95  976.7457
  96  917.2241
  97  902.3015
  98  746.0059
  99  728.1227
 100  766.3826
 101  780.5609
 102  775.6506
 103  795.888
 104  770.3136
 105  761.5368
 106  786.1964
 107  763.0523
 108  813.7904
 109  850.4359
 110  767.0837
 111  720.855
 112  731.6058
 113  824.9382
 114  837.8179
 115  804.1945
 116  841.6676
 117  718.6316
 118  663.9703
 119  737.0942
 120  624.5146
 121  693.0058
 122  765.0885
 123  733.5834
 124  775.5708
 125  888.157
 126  962.8182
 127  898.2595
 128  822.7036
 129  841.2981
 130  915.1675
 131  784.507
 132  771.4269
 133  814.1616
 134  911.2659
 135  907.0371
 136  914.3331
 137  885.9343
 138  910.0429
 139  856.7345
 140  691.3483
 141  737.8088
 142  808.0902
 143  855.571
 144  836.8174
 145  768.6645
 146  834.4991
 147  850.9225
 148  776.3321
 149  796.4435
 150  768.4445
 151  718.2641
 152  727.237
 153  802.391
 154  849.0051
 155  831.3431
 156  760.7581
 157  816.0383
 158  832.0266
 159  767.5836
 160  816.5078
 161  830.8637
 162  800.4507
 163  827.5211
 164  871.6495
 165  793.8425
 166  858.6199
 167  816.1929
 168  767.6053
 169  746.4924
 170  807.5554
 171  804.0001
 172  888.3152
 173  906.5638
 174  801.1494
 175  841.2375
 176  850.0624
 177  898.0483
 178  893.1044
 179  920.963
 180  899.0374
 181  1025.588
 182  976.6899
 183  929.9589
 184  945.3444
 185  894.9689
 186  897.9632
 187  971.5585
 188  936.1404
 189  927.3659
 190  886.6438
 191  868.9603
 192  801.6821
 193  824.6929
 194  906.4265
 195  879.3353
 196  826.0233
 197  860.7603
 198  809.7068
 199  797.517
 200  795.0133
 201  866.0417
 202  888.8706
 203  836.1047
 204  817.5397
 205  812.5936
 206  823.278
 207  786.537
 208  820.6567
 209  734.5869
 210  765.0909
 211  853.1558
 212  828.5922
 213  855.5515
 214  817.0363
 215  919.66
 216  854.8187
 217  753.0796
 218  818.0268
 219  830.4373
 220  845.3116
 221  769.123
 222  776.3301
 223  815.7759
 224  729.4453
 225  677.069
 226  667.8195
 227  668.0046
 228  727.2696
 229  860.672
 230  724.5048
 231  753.0814
 232  773.3642
 233  859.3477
 234  852.3167
 235  932.8125
 236  886.2588
 237  849.5117
 238  849.0669
 239  847.2927
 240  830.8201
 241  784.0723
 242  880.3907
 243  908.5227
 244  794.1037
 245  891.4222
 246  830.1877
 247  754.4583
 248  760.751
 249  700.7266
 250  754.5526
 251  845.251
 252  845.1055
 253  801.2183
 254  726.0541
 255  746.5233
 256  762.9886
 257  673.8447
 258  789.3218
 259  826.2346
 260  781.5759
 261  761.5802
 262  822.6649
 263  730.001
 264  690.7538
 265  828.7141
 266  820.5731
 267  766.1101
 268  833.7666
 269  918.6261
 270  926.4297
 271  867.6982
 272  902.0329
 273  855.2855
 274  838.8513
 275  810.7106
 276  773.6108
 277  814.5351
 278  770.9897
 279  755.0485
 280  840.2404
 281  872.2535
 282  825.3277
 283  792.4794
 284  783.8353
 285  783.8823
 286  867.1383
 287  954.3168
 288  900.7867
 289  845.6777
 290  845.8422
 291  849.214
 292  753.5948
 293  730.5471
 294  823.5292
 295  911.7437
 296  882.311
 297  903.1609
 298  879.8197
 299  865.6251
 300  953.6334
 301  933.9882
 302  895.9734
 303  847.4814
 304  832.3676
 305  790.7228
 306  840.8755
 307  802.8687
 308  776.8467
 309  748.4262
 310  637.6243
 311  766.9376
 312  786.629
 313  767.2585
 314  917.1756
 315  906.9742
 316  859.2749
 317  831.5323
 318  922.7222
 319  909.5342
 320  856.4814
 321  917.5186
 322  872.004
 323  840.6266
 324  856.7123
 325  861.4083
 326  866.5895
 327  931.0842
 328  927.9265
 329  957.0139
 330  1003.371
 331  893.4935
 332  796.3047
 333  827.3252
 334  856.456
 335  881.0602
 336  877.9316
 337  850.5209
 338  869.6404
 339  975.5778
 340  943.4846
 341  950.4659
 342  871.9303
 343  864.8591
 344  874.1234
 345  905.2061
 346  872.3663
 347  901.276
 348  899.4957
 349  889.6817
 350  855.4536
 351  818.3353
 352  764.3103
 353  731.3344
 354  732.8467
 355  798.8962
 356  787.3192
 357  739.136
 358  726.7784
 359  817.7253
 360  931.0447
 361  853.3485
 362  754.8262
 363  722.6173
 364  732.5546
 365  792.3562
 366  946.6173
 367  916.7025
 368  839.353
 369  900.3983
 370  829.2156
 371  789.9349
 372  763.5579
 373  811.4555
 374  808.8999
 375  799.405
 376  851.7428
 377  773.6786
 378  705.8441
 379  718.3952
 380  734.9417
 381  742.7939
 382  691.006
 383  693.1088
 384  779.2217
 385  754.6852
 386  772.2364
 387  844.9748
 388  873.3953
 389  837.649
 390  894.5515
 391  950.0045
 392  861.4364
 393  808.9461
 394  748.7597
 395  811.5118
 396  706.4691
 397  721.0686
 398  748.7381
 399  852.7894
 400  953.041
 401  935.1694
 402  808.7104
 403  706.507
 404  716.7256
 405  857.2491
 406  903.1685
 407  820.1531
 408  834.7
 409  844.2692
 410  881.9945
 411  882.3618
 412  937.3032
 413  926.3623
 414  860.8402
 415  783.345
 416  793.0091
 417  809.1828
 418  777.8171
 419  791.5988
 420  771.4969
 421  814.1365
 422  869.0656
 423  880.5389
 424  833.8141
 425  769.0491
 426  692.6064
 427  727.5532
 428  793.8541
 429  790.4865
 430  854.0346
 431  863.2531
 432  785.1727
 433  742.0167
 434  825.681
 435  840.0079
 436  837.0303
 437  781.9645
 438  820.7602
 439  875.7855
 440  871.6741
 441  808.0512
 442  869.2261
 443  905.7274
 444  898.0398
 445  877.2435
 446  871.342
 447  876.3389
 448  852.3349
 449  810.0673
 450  822.5682
 451  838.1397
 452  889.4036
 453  837.5144
 454  796.886
 455  855.1918
 456  866.1026
 457  878.4785
 458  750.5408
 459  822.8327
 460  828.7434
 461  868.3234
 462  884.389
 463  803.8892
 464  807.1866
 465  756.5653
 466  673.6582
 467  711.0983
 468  819.2211
 469  887.9048
 470  842.8623
 471  773.283
 472  698.5601
 473  778.0489
 474  765.6552
 475  812.684
 476  899.7883
 477  826.6134
 478  733.0306
 479  780.3554
 480  749.0475
 481  779.7396
 482  855.9564
 483  967.7034
 484  908.9
 485  889.9783
 486  864.4503
 487  862.4449
 488  793.4263
 489  834.6135
 490  829.0837
 491  909.6749
 492  927.849
 493  979.4542
 494  875.149
 495  845.9362
 496  901.9293
 497  901.131
 498  815.3406
 499  801.8688
 500  823.7916
 501  830.227
 502  890.5842
 503  781.489
 504  832.6391
 505  934.7956
 506  966.0084
 507  1023.817
 508  958.5584
 509  985.7856
 510  1218.978
 511  1448.757
