# Input file       =  1183697231.101892_cleaned.dat
# Candidate        =  PSR_0332+5434
# Telescope        =  AR
# Epoch_topo       =  57944.199225716344
# Epoch_bary       =  N/A
# T_sample         =  0.002
# Data Folded      =  7340032
# Data Avg         =  0.0486727294292567
# Data StdDev      =  1.00012226632278 
# Profile Bins     =  512
# Profile Avg      =  697.230385202235 
# Profile StdDev   =  119.747675694839 
# Reduced chi-sqr  =  1.337
# Prob(Noise)      <  4.82e-07   (~4.9 sigma)
# P_topo (ms)      =  714.482231575195  +/- 0.000606
# P'_topo (s/s)    =  -0                +/- 3.2e-10
# P''_topo (s/s^2) =  0                 +/- 1.41e-13
# P_bary (ms)      =  N/A
# P'_bary (s/s)    =  N/A
# P''_bary (s/s^2) =  N/A
# P_orb (s)        =  N/A
# asin(i)/c (s)    =  N/A
# eccentricity     =  N/A
# w (rad)          =  N/A
# T_peri           =  N/A
######################################################
   0  1348.034
   1  1299.274
   2  1217.5
   3  1030.186
   4  857.308
   5  737.4821
   6  725.2194
   7  804.8588
   8  812.5917
   9  730.6985
  10  748.1142
  11  717.9648
  12  680.9198
  13  675.9658
  14  744.097
  15  728.8345
  16  801.2914
  17  765.2114
  18  636.1395
  19  556.2234
  20  638.4382
  21  647.8146
  22  600.6612
  23  513.2551
  24  664.9338
  25  711.8536
  26  628.9279
  27  568.6062
  28  573.7189
  29  677.5164
  30  686.4836
  31  685.3159
  32  749.9885
  33  610.7704
  34  603.2212
  35  747.9174
  36  734.3754
  37  600.576
  38  622.8798
  39  657.3043
  40  680.4604
  41  711.0828
  42  643.6486
  43  645.3672
  44  678.6559
  45  713.0252
  46  689.7065
  47  596.0975
  48  599.8382
  49  697.8845
  50  578.8172
  51  743.1266
  52  760.213
  53  683.061
  54  602.7601
  55  690.7318
  56  667.6779
  57  681.3828
  58  683.5826
  59  690.6702
  60  710.6934
  61  749.0611
  62  800.2123
  63  759.4543
  64  719.66
  65  717.0753
  66  786.0529
  67  800.7811
  68  809.4637
  69  874.5093
  70  853.3122
  71  754.1799
  72  688.7553
  73  721.0309
  74  658.0653
  75  690.9676
  76  722.4366
  77  756.9189
  78  708.6407
  79  709.5396
  80  826.4109
  81  806.2567
  82  785.3276
  83  740.5485
  84  746.2905
  85  779.9949
  86  719.7952
  87  600.6229
  88  603.1802
  89  599.3882
  90  608.8278
  91  614.3304
  92  714.0723
  93  595.8032
  94  626.03
  95  631.5121
  96  636.7931
  97  747.0636
  98  679.8526
  99  636.584
 100  590.8071
 101  528.4362
 102  657.6633
 103  696.5565
 104  730.9706
 105  696.6888
 106  635.1804
 107  713.7134
 108  741.1395
 109  637.4133
 110  615.8021
 111  620.0115
 112  651.3868
 113  674.4842
 114  622.5095
 115  610.5178
 116  697.2522
 117  724.3426
 118  597.5334
 119  647.1123
 120  608.5745
 121  660.737
 122  691.9076
 123  680.3309
 124  696.2177
 125  718.332
 126  744.2387
 127  750.0458
 128  702.9194
 129  663.7736
 130  667.5222
 131  608.8597
 132  665.0667
 133  661.6146
 134  632.485
 135  670.5583
 136  670.0441
 137  714.5922
 138  756.3025
 139  826.0143
 140  699.0504
 141  728.6086
 142  875.4296
 143  832.3814
 144  706.2561
 145  688.4247
 146  690.9871
 147  722.5276
 148  714.934
 149  747.845
 150  620.9174
 151  682.4351
 152  752.2277
 153  699.37
 154  497.0139
 155  467.533
 156  604.5322
 157  720.3427
 158  631.2705
 159  657.9848
 160  636.4345
 161  579.9417
 162  732.2941
 163  695.3491
 164  676.6579
 165  682.8608
 166  674.298
 167  706.3113
 168  693.6112
 169  590.1654
 170  605.7926
 171  729.7021
 172  728.9092
 173  684.6792
 174  663.6908
 175  584.4067
 176  548.0973
 177  555.0941
 178  637.2576
 179  654.7511
 180  683.0295
 181  691.7534
 182  628.9155
 183  679.2675
 184  642.6893
 185  656.1849
 186  714.8156
 187  728.2504
 188  665.9207
 189  660.3044
 190  646.8661
 191  484.1893
 192  541.3891
 193  676.0538
 194  709.0222
 195  568.407
 196  597.8814
 197  686.869
 198  653.3784
 199  601.9469
 200  671.4694
 201  693.48
 202  646.5644
 203  701.0181
 204  724.8519
 205  716.0284
 206  617.355
 207  565.929
 208  579.851
 209  632.0114
 210  657.9594
 211  712.071
 212  682.7335
 213  692.9878
 214  683.993
 215  746.1498
 216  722.3403
 217  582.8836
 218  560.7231
 219  584.6199
 220  653.1296
 221  715.0953
 222  716.8221
 223  629.0021
 224  611.9953
 225  631.6028
 226  569.532
 227  536.7979
 228  533.5059
 229  652.5034
 230  630.4745
 231  471.0755
 232  536.1942
 233  587.8131
 234  718.8187
 235  620.6436
 236  609.4172
 237  632.0004
 238  621.24
 239  654.533
 240  633.6605
 241  550.5264
 242  494.8131
 243  504.8194
 244  635.2154
 245  679.3821
 246  638.4531
 247  669.855
 248  637.5786
 249  575.7954
 250  581.4591
 251  581.0634
 252  619.6332
 253  695.3235
 254  678.0315
 255  684.7376
 256  738.7678
 257  680.0946
 258  651.3607
 259  660.6296
 260  658.5414
 261  559.1157
 262  588.8997
 263  631.4671
 264  616.0063
 265  549.8347
 266  693.5241
 267  742.9631
 268  648.7416
 269  586.3592
 270  734.1099
 271  579.9303
 272  638.0671
 273  674.8741
 274  722.8769
 275  724.5153
 276  669.2549
 277  744.5866
 278  730.1804
 279  658.5737
 280  672.5137
 281  721.6266
 282  756.8587
 283  648.3677
 284  618.1214
 285  620.2454
 286  546.3378
 287  590.5717
 288  721.0005
 289  780.4669
 290  717.6469
 291  687.2133
 292  723.0385
 293  768.7868
 294  777.7422
 295  661.6263
 296  654.0057
 297  744.1776
 298  679.5362
 299  680.0318
 300  762.9028
 301  720.5596
 302  815.9717
 303  815.2396
 304  635.8704
 305  686.0073
 306  787.024
 307  732.1311
 308  725.0433
 309  653.4803
 310  707.7762
 311  762.5003
 312  725.0964
 313  626.1755
 314  597.7153
 315  691.9895
 316  678.1942
 317  577.4265
 318  648.295
 319  657.4793
 320  687.2158
 321  700.8773
 322  758.2926
 323  676.879
 324  782.5742
 325  802.7167
 326  743.2894
 327  633.4767
 328  704.03
 329  719.6246
 330  665.0264
 331  718.815
 332  798.8979
 333  654.878
 334  627.0762
 335  531.8376
 336  702.1741
 337  627.3323
 338  614.3492
 339  678.2946
 340  644.6954
 341  664.4984
 342  719.6782
 343  651.8439
 344  667.9567
 345  663.0084
 346  697.7708
 347  696.754
 348  677.3363
 349  571.2902
 350  543.4362
 351  447.9822
 352  555.0733
 353  577.5635
 354  580.418
 355  685.1301
 356  609.4747
 357  549.5764
 358  565.7833
 359  582.7501
 360  610.6701
 361  521.9037
 362  616.356
 363  666.7952
 364  591.9354
 365  597.2546
 366  672.7694
 367  671.9675
 368  620.8324
 369  646.232
 370  643.8384
 371  634.5406
 372  562.8578
 373  703.9877
 374  716.9665
 375  691.8188
 376  673.2369
 377  621.1113
 378  609.7538
 379  731.28
 380  673.1898
 381  728.43
 382  723.5294
 383  596.6739
 384  614.5235
 385  728.5046
 386  655.842
 387  664.0648
 388  731.1727
 389  788.4113
 390  757.3961
 391  601.7722
 392  661.1395
 393  741.8235
 394  716.6112
 395  690.1633
 396  795.3232
 397  779.1987
 398  782.6761
 399  791.0922
 400  698.9878
 401  691.976
 402  718.9219
 403  793.8267
 404  683.2616
 405  794.5194
 406  764.041
 407  687.6093
 408  660.1669
 409  700.5247
 410  750.5505
 411  742.0328
 412  840.3786
 413  852.9122
 414  734.1147
 415  703.9541
 416  637.6977
 417  762.4318
 418  929.1098
 419  842.6955
 420  881.0068
 421  896.1945
 422  838.0429
 423  836.7414
 424  821.0283
 425  845.7067
 426  857.5545
 427  782.3515
 428  797.9979
 429  821.2726
 430  847.5772
 431  846.6125
 432  789.4456
 433  650.9594
 434  776.2587
 435  828.9304
 436  779.3044
 437  739.1007
 438  813.9191
 439  730.8445
 440  816.9236
 441  799.6002
 442  832.2923
 443  918.5413
 444  899.8246
 445  794.5047
 446  727.1086
 447  700.371
 448  718.7041
 449  819.338
 450  777.6935
 451  666.0549
 452  651.8734
 453  668.7108
 454  670.8466
 455  731.8829
 456  746.0511
 457  698.0494
 458  704.5731
 459  658.217
 460  713.2966
 461  724.8355
 462  768.1274
 463  792.5662
 464  774.349
 465  808.5735
 466  778.6462
 467  732.326
 468  617.5551
 469  685.9105
 470  758.8928
 471  675.232
 472  727.9646
 473  631.2861
 474  527.0211
 475  642.8376
 476  776.5897
 477  795.3674
 478  723.9408
 479  613.8795
 480  621.6949
 481  728.6671
 482  713.9967
 483  745.8394
 484  801.6368
 485  826.1243
 486  853.0652
 487  777.7153
 488  735.4601
 489  712.938
 490  763.5872
 491  689.8735
 492  787.8693
 493  813.0558
 494  771.8419
 495  713.3901
 496  680.8651
 497  749.7271
 498  837.8989
 499  843.5794
 500  853.058
 501  839.2504
 502  847.9462
 503  837.3039
 504  849.8709
 505  791.0017
 506  748.7882
 507  791.2532
 508  882.0917
 509  986.635
 510  1143.029
 511  1300.098
