# Input file       =  1183783393.109526_cleaned.dat
# Candidate        =  PSR_0332+5434
# Telescope        =  AR
# Epoch_topo       =  57945.196471175070
# Epoch_bary       =  N/A
# T_sample         =  0.002
# Data Folded      =  7340032
# Data Avg         =  0.041052627583034
# Data StdDev      =  1.00013598660814 
# Profile Bins     =  512
# Profile Avg      =  588.074704083581 
# Profile StdDev   =  119.749318466265 
# Reduced chi-sqr  =  1.204
# Prob(Noise)      <  0.00104   (~3.1 sigma)
# P_topo (ms)      =  714.481524135703  +/- 0.000213
# P'_topo (s/s)    =  -0                +/- 1.13e-10
# P''_topo (s/s^2) =  0                 +/- 4.97e-14
# P_bary (ms)      =  N/A
# P'_bary (s/s)    =  N/A
# P''_bary (s/s^2) =  N/A
# P_orb (s)        =  N/A
# asin(i)/c (s)    =  N/A
# eccentricity     =  N/A
# w (rad)          =  N/A
# T_peri           =  N/A
######################################################
   0  1295.817
   1  1203.923
   2  968.7357
   3  848.175
   4  637.0892
   5  536.3454
   6  587.7707
   7  509.6486
   8  551.9918
   9  663.8904
  10  648.7708
  11  651.6396
  12  616.5663
  13  569.1714
  14  638.2477
  15  704.2309
  16  616.5441
  17  537.4352
  18  506.352
  19  607.6181
  20  685.1484
  21  634.5503
  22  606.7523
  23  550.6414
  24  698.1301
  25  664.1798
  26  672.4473
  27  630.0727
  28  637.9853
  29  747.4265
  30  732.9181
  31  669.3705
  32  593.9086
  33  708.1779
  34  744.699
  35  784.4424
  36  723.4923
  37  693.7368
  38  746.5168
  39  607.9091
  40  530.595
  41  655.6465
  42  686.6484
  43  568.7895
  44  600.6641
  45  610.1439
  46  553.8586
  47  593.2065
  48  557.8544
  49  645.1061
  50  656.9582
  51  635.3994
  52  613.3912
  53  599.5024
  54  615.5665
  55  640.3802
  56  513.1046
  57  483.3663
  58  562.4609
  59  592.481
  60  574.3583
  61  471.6739
  62  452.2457
  63  545.6135
  64  539.1625
  65  547.2762
  66  526.3531
  67  591.976
  68  495.554
  69  503.4259
  70  508.2025
  71  602.815
  72  595.2282
  73  539.944
  74  672.9156
  75  687.1735
  76  585.7721
  77  600.4491
  78  600.2571
  79  590.0349
  80  563.6006
  81  556.7761
  82  486.2871
  83  519.6354
  84  450.8024
  85  559.6964
  86  605.5059
  87  590.51
  88  679.1174
  89  578.7271
  90  638.9983
  91  673.0861
  92  698.55
  93  632.2301
  94  653.7792
  95  613.6201
  96  502.3112
  97  450.0513
  98  465.0433
  99  596.9877
 100  562.1182
 101  532.6089
 102  549.3239
 103  581.5168
 104  501.1969
 105  493.5962
 106  481.5016
 107  549.4791
 108  605.345
 109  528.0965
 110  540.1919
 111  508.8979
 112  608.072
 113  691.1705
 114  553.0167
 115  635.6793
 116  713.1622
 117  621.0729
 118  502.2959
 119  476.8615
 120  558.6437
 121  551.7526
 122  585.5254
 123  452.7182
 124  466.1428
 125  554.6395
 126  456.3929
 127  588.9643
 128  608.7425
 129  626.7349
 130  665.6125
 131  607.1163
 132  512.2456
 133  601.377
 134  631.1479
 135  557.8917
 136  651.5443
 137  673.895
 138  614.3657
 139  548.035
 140  611.4816
 141  729.0411
 142  707.9099
 143  647.9985
 144  614.2018
 145  604.8635
 146  551.8997
 147  552.4208
 148  658.227
 149  711.0477
 150  589.9333
 151  640.9963
 152  723.0336
 153  607.2764
 154  576.957
 155  702.2786
 156  681.2551
 157  533.3483
 158  534.0585
 159  466.7019
 160  482.8742
 161  613.2144
 162  556.8092
 163  513.907
 164  601.1771
 165  633.3829
 166  542.4572
 167  511.8342
 168  618.3159
 169  649.2555
 170  543.5993
 171  579.6623
 172  581.5944
 173  552.4514
 174  566.0278
 175  621.3155
 176  585.59
 177  491.647
 178  595.8334
 179  594.6956
 180  511.4843
 181  531.5983
 182  614.4586
 183  547.6525
 184  510.8846
 185  606.7036
 186  504.9777
 187  428.8146
 188  559.0764
 189  647.0428
 190  622.7758
 191  628.3566
 192  654.9387
 193  534.3879
 194  547.1855
 195  611.3522
 196  503.7932
 197  412.9942
 198  458.9441
 199  513.1807
 200  526.7277
 201  446.2319
 202  525.2834
 203  709.9764
 204  595.4622
 205  580.3719
 206  567.8065
 207  676.7527
 208  570.5823
 209  503.3148
 210  547.2161
 211  544.3764
 212  562.1796
 213  577.982
 214  591.466
 215  539.3564
 216  646.5113
 217  662.2523
 218  671.3855
 219  621.2216
 220  610.6835
 221  530.1328
 222  577.7439
 223  591.2406
 224  579.2263
 225  548.4456
 226  484.717
 227  487.3082
 228  567.3521
 229  529.2659
 230  589.8015
 231  603.4932
 232  633.4846
 233  673.071
 234  534.5292
 235  618.0723
 236  624.7754
 237  499.9198
 238  433.2005
 239  511.105
 240  469.7828
 241  599.2139
 242  528.371
 243  540.1537
 244  663.8304
 245  675.8649
 246  658.1606
 247  506.5113
 248  487.1307
 249  583.5753
 250  730.0745
 251  758.2756
 252  589.1346
 253  529.6037
 254  573.0164
 255  724.7097
 256  605.5359
 257  541.4269
 258  527.6341
 259  510.8084
 260  549.1136
 261  615.9454
 262  757.1686
 263  723.1364
 264  633.0269
 265  617.0735
 266  656.1382
 267  628.1573
 268  527.9761
 269  613.3974
 270  695.6125
 271  642.2862
 272  640.5631
 273  591.7796
 274  578.2445
 275  610.9925
 276  599.957
 277  549.3309
 278  678.8586
 279  708.7634
 280  591.8173
 281  596.4607
 282  574.5855
 283  508.0886
 284  410.2762
 285  525.5146
 286  566.1533
 287  688.3024
 288  656.3766
 289  531.8843
 290  578.3662
 291  582.6288
 292  626.1417
 293  708.5952
 294  685.2699
 295  574.635
 296  538.8728
 297  679.4236
 298  618.3096
 299  522.0497
 300  637.7317
 301  586.5607
 302  456.3131
 303  563.4798
 304  629.082
 305  677.6663
 306  630.2726
 307  675.4426
 308  736.467
 309  641.4583
 310  525.322
 311  593.9197
 312  651.7414
 313  609.6672
 314  464.9922
 315  495.7938
 316  584.1202
 317  557.3542
 318  552.9232
 319  606.5834
 320  633.4545
 321  588.9582
 322  506.1247
 323  495.9789
 324  514.465
 325  567.5152
 326  542.6923
 327  447.0722
 328  515.465
 329  656.1298
 330  579.8865
 331  541.0785
 332  644.7967
 333  735.4599
 334  697.8622
 335  570.2448
 336  635.2215
 337  631.4062
 338  568.0607
 339  520.3852
 340  675.2784
 341  641.2601
 342  522.1024
 343  485.1244
 344  487.3466
 345  564.8149
 346  572.9092
 347  521.6677
 348  710.1627
 349  643.9165
 350  565.2927
 351  678.8641
 352  636.0347
 353  611.5057
 354  574.3117
 355  515.1537
 356  601.4447
 357  507.5252
 358  554.3182
 359  558.6858
 360  552.2233
 361  639.0697
 362  582.3875
 363  487.1459
 364  548.4355
 365  583.8883
 366  550.3546
 367  621.2691
 368  533.6845
 369  550.9459
 370  543.4014
 371  439.8249
 372  503.9023
 373  574.3145
 374  592.0558
 375  566.7362
 376  556.5566
 377  633.0328
 378  629.8463
 379  407.8601
 380  498.2453
 381  507.8268
 382  467.9422
 383  479.4075
 384  536.9291
 385  515.9046
 386  503.9281
 387  456.2056
 388  389.3688
 389  433.3659
 390  429.7677
 391  356.7531
 392  522.3193
 393  571.8265
 394  641.1135
 395  529.1053
 396  536.4688
 397  470.6232
 398  576.0326
 399  636.2693
 400  567.1636
 401  433.8182
 402  430.2366
 403  441.9201
 404  445.6243
 405  497.7495
 406  576.3494
 407  500.0156
 408  442.9373
 409  498.958
 410  488.677
 411  554.3701
 412  554.7557
 413  661.4393
 414  728.8635
 415  737.1464
 416  618.0559
 417  523.5115
 418  501.2235
 419  474.8241
 420  537.9724
 421  548.1233
 422  604.5632
 423  678.8855
 424  656.8868
 425  546.1927
 426  514.6169
 427  525.3613
 428  458.7007
 429  541.4012
 430  548.0862
 431  627.8964
 432  571.9135
 433  544.5734
 434  601.2584
 435  564.8207
 436  534.4733
 437  602.725
 438  628.6639
 439  745.7134
 440  579.071
 441  555.9457
 442  646.5079
 443  697.2944
 444  659.1176
 445  490.3875
 446  440.6378
 447  528.1617
 448  560.4208
 449  622.8269
 450  658.1199
 451  622.0029
 452  624.7602
 453  454.3236
 454  530.5336
 455  534.085
 456  593.1982
 457  709.9258
 458  585.1994
 459  565.6018
 460  533.1218
 461  580.6819
 462  508.4837
 463  468.837
 464  560.9943
 465  541.1987
 466  610.7593
 467  544.7017
 468  441.1953
 469  537.7812
 470  594.3839
 471  657.9135
 472  600.0948
 473  543.8779
 474  509.7588
 475  515.0574
 476  538.1439
 477  602.2278
 478  541.8483
 479  533.801
 480  569.7173
 481  486.9757
 482  480.3239
 483  582.989
 484  544.347
 485  615.9217
 486  582.9877
 487  487.0721
 488  641.2798
 489  599.5476
 490  595.4365
 491  678.2672
 492  538.8558
 493  577.8508
 494  695.4321
 495  670.0117
 496  506.9157
 497  508.7129
 498  636.5013
 499  738.2515
 500  672.9818
 501  654.8199
 502  632.3663
 503  686.7511
 504  680.6317
 505  638.3375
 506  721.0408
 507  765.9655
 508  824.5428
 509  945.7047
 510  1066.854
 511  1178.874
