# Input file       =  1183008434.122497_cleaned.dat
# Candidate        =  PSR_0332+5434
# Telescope        =  AR
# Epoch_topo       =  57936.227038454825
# Epoch_bary       =  N/A
# T_sample         =  0.002
# Data Folded      =  7340032
# Data Avg         =  0.0467422795596865
# Data StdDev      =  1.00011220749926 
# Profile Bins     =  512
# Profile Avg      =  669.901708637795 
# Profile StdDev   =  119.746471321357 
# Reduced chi-sqr  =  1.587
# Prob(Noise)      <  5.49e-16   (~8.0 sigma)
# P_topo (ms)      =  714.488257017786  +/- 0.000438
# P'_topo (s/s)    =  -0                +/- 2.31e-10
# P''_topo (s/s^2) =  0                 +/- 1.02e-13
# P_bary (ms)      =  N/A
# P'_bary (s/s)    =  N/A
# P''_bary (s/s^2) =  N/A
# P_orb (s)        =  N/A
# asin(i)/c (s)    =  N/A
# eccentricity     =  N/A
# w (rad)          =  N/A
# T_peri           =  N/A
######################################################
   0  592.5921
   1  627.743
   2  512.4578
   3  515.4391
   4  667.5934
   5  613.884
   6  618.7698
   7  667.927
   8  747.5438
   9  650.3503
  10  552.3452
  11  544.7345
  12  503.6507
  13  547.895
  14  442.3641
  15  436.9179
  16  564.0615
  17  541.1895
  18  501.2065
  19  541.0532
  20  612.1292
  21  600.0154
  22  540.3403
  23  572.6411
  24  526.5458
  25  496.7784
  26  560.0462
  27  582.3079
  28  623.3143
  29  634.6053
  30  674.0546
  31  581.0052
  32  567.9923
  33  587.0239
  34  609.8268
  35  644.7495
  36  744.451
  37  706.7759
  38  688.4404
  39  613.6799
  40  610.9121
  41  771.0563
  42  840.0836
  43  961.4169
  44  950.9205
  45  1174.894
  46  1302.519
  47  1412.929
  48  1319.797
  49  1140.579
  50  1056.146
  51  863.1968
  52  802.4274
  53  755.9916
  54  742.0913
  55  626.7029
  56  708.0084
  57  750.8149
  58  856.8168
  59  819.5038
  60  849.6851
  61  843.6159
  62  815.3268
  63  758.7248
  64  807.3244
  65  812.5287
  66  764.8148
  67  711.2703
  68  682.1061
  69  673.4605
  70  677.145
  71  690.4463
  72  732.2932
  73  652.62
  74  694.9813
  75  670.6174
  76  674.5735
  77  727.901
  78  754.3387
  79  674.1594
  80  677.6763
  81  748.3106
  82  705.3199
  83  787.0462
  84  808.5158
  85  637.6716
  86  661.5394
  87  738.8664
  88  801.677
  89  788.1948
  90  801.4365
  91  832.9395
  92  788.0955
  93  731.0287
  94  781.1751
  95  894.6922
  96  921.1244
  97  760.2637
  98  722.3254
  99  715.1285
 100  704.9716
 101  743.813
 102  748.866
 103  806.4189
 104  774.9009
 105  759.7021
 106  769.5855
 107  772.1309
 108  738.9829
 109  747.326
 110  849.5635
 111  852.0372
 112  822.814
 113  818.0761
 114  678.974
 115  813.2017
 116  874.6299
 117  720.2366
 118  692.4332
 119  742.7051
 120  780.8249
 121  798.2559
 122  667.4017
 123  699.1419
 124  738.2178
 125  647.5272
 126  716.57
 127  811.3538
 128  770.132
 129  667.6254
 130  672.6115
 131  818.8524
 132  773.401
 133  628.9974
 134  645.6479
 135  742.8644
 136  600.9348
 137  633.8019
 138  678.5277
 139  632.3076
 140  629.4224
 141  582.2723
 142  634.832
 143  633.913
 144  601.9177
 145  593.8218
 146  700.5288
 147  742.6548
 148  784.263
 149  781.9468
 150  682.0106
 151  651.9098
 152  730.5931
 153  753.4623
 154  685.8494
 155  637.4541
 156  692.1831
 157  633.5292
 158  634.9892
 159  677.2332
 160  673.5294
 161  660.9718
 162  586.1539
 163  644.0755
 164  671.2675
 165  635.993
 166  613.1881
 167  621.3416
 168  712.6409
 169  680.3147
 170  679.212
 171  672.3555
 172  622.0058
 173  611.2079
 174  573.3713
 175  483.2716
 176  523.9215
 177  655.2653
 178  675.9228
 179  634.6556
 180  551.9485
 181  576.6552
 182  495.7177
 183  530.2296
 184  647.973
 185  622.0128
 186  594.8013
 187  603.6872
 188  645.9653
 189  511.4717
 190  487.2691
 191  435.5045
 192  573.8619
 193  710.9012
 194  684.7361
 195  661.6381
 196  656.0546
 197  682.4539
 198  727.4677
 199  675.8367
 200  676.2526
 201  572.455
 202  618.9864
 203  679.5912
 204  695.5284
 205  661.8309
 206  645.4594
 207  628.949
 208  607.0732
 209  598.1173
 210  590.8132
 211  630.49
 212  565.562
 213  582.1765
 214  713.7383
 215  750.5594
 216  757.2349
 217  720.7972
 218  663.0527
 219  700.9197
 220  647.7823
 221  595.2795
 222  614.554
 223  631.3591
 224  614.2263
 225  687.8597
 226  726.8002
 227  686.543
 228  795.4453
 229  797.9975
 230  677.8511
 231  678.0559
 232  687.3954
 233  724.0364
 234  690.9438
 235  783.0681
 236  794.7885
 237  634.8591
 238  566.3054
 239  533.2241
 240  649.5328
 241  729.8399
 242  708.9914
 243  635.0945
 244  665.5662
 245  726.7759
 246  716.2308
 247  661.0203
 248  612.6771
 249  675.699
 250  688.4054
 251  626.5872
 252  802.8486
 253  743.09
 254  634.7968
 255  675.4302
 256  597.1846
 257  554.1588
 258  607.0624
 259  772.4273
 260  758.1041
 261  645.909
 262  636.9796
 263  607.625
 264  596.6696
 265  663.6246
 266  645.3852
 267  548.9445
 268  597.4904
 269  648.0162
 270  757.209
 271  685.8046
 272  622.4501
 273  668.738
 274  760.187
 275  678.1734
 276  669.9186
 277  762.5394
 278  761.1987
 279  713.0344
 280  693.1627
 281  758.7717
 282  778.8946
 283  665.7461
 284  703.7881
 285  723.4003
 286  654.5624
 287  618.5516
 288  565.8449
 289  638.7096
 290  644.3499
 291  667.7521
 292  725.5128
 293  627.7307
 294  658.104
 295  689.2656
 296  692.4962
 297  650.6852
 298  482.0251
 299  459.7187
 300  555.7874
 301  508.5762
 302  552.1794
 303  599.796
 304  599.2323
 305  476.8424
 306  453.3628
 307  422.3066
 308  511.0069
 309  570.0417
 310  530.2071
 311  509.3102
 312  565.0502
 313  573.3167
 314  591.3143
 315  592.9174
 316  612.5251
 317  644.025
 318  657.6375
 319  723.2834
 320  672.4952
 321  605.8693
 322  553.4604
 323  553.8582
 324  671.05
 325  683.8792
 326  674.1892
 327  682.4399
 328  743.5687
 329  790.4913
 330  755.2949
 331  761.825
 332  710.6187
 333  629.1155
 334  676.1728
 335  734.1371
 336  746.3771
 337  577.0031
 338  602.7133
 339  633.587
 340  675.6459
 341  615.5376
 342  581.6293
 343  599.2169
 344  670.9608
 345  695.545
 346  669.2642
 347  621.1457
 348  627.674
 349  620.4431
 350  696.0288
 351  670.8586
 352  586.8626
 353  653.4287
 354  673.5355
 355  624.2436
 356  630.0128
 357  590.6444
 358  760.0278
 359  723.3016
 360  599.079
 361  653.2513
 362  665.1539
 363  577.6126
 364  570.1957
 365  666.22
 366  726.3367
 367  712.5065
 368  694.6357
 369  669.2764
 370  688.9948
 371  778.1631
 372  716.6949
 373  651.5439
 374  629.7598
 375  602.5776
 376  557.7725
 377  618.97
 378  560.3805
 379  437.2101
 380  544.5623
 381  469.8299
 382  441.7403
 383  544.5246
 384  524.1144
 385  652.8287
 386  535.7789
 387  617.3856
 388  568.2674
 389  419.8772
 390  420.6293
 391  581.0715
 392  562.9219
 393  617.8736
 394  587.9757
 395  516.6498
 396  643.9711
 397  570.9799
 398  531.6046
 399  592.4017
 400  700.0529
 401  645.3986
 402  632.6457
 403  648.0909
 404  667.0987
 405  698.2896
 406  663.8253
 407  713.5131
 408  562.3086
 409  697.8278
 410  808.4162
 411  870.2502
 412  847.9708
 413  749.0975
 414  846.0631
 415  856.5061
 416  757.8394
 417  693.9409
 418  726.7079
 419  709.9454
 420  774.6596
 421  843.9344
 422  761.7377
 423  686.8292
 424  714.0774
 425  720.246
 426  698.0639
 427  658.9923
 428  765.4141
 429  768.8479
 430  694.1564
 431  724.788
 432  687.7853
 433  627.3521
 434  632.8983
 435  684.9736
 436  657.2763
 437  718.4371
 438  745.2997
 439  790.6829
 440  652.1324
 441  652.4417
 442  692.4286
 443  658.4781
 444  620.0182
 445  654.6139
 446  633.1807
 447  665.6348
 448  604.14
 449  718.613
 450  806.3389
 451  660.36
 452  642.1212
 453  670.088
 454  729.2712
 455  766.6815
 456  789.1043
 457  742.5718
 458  567.6066
 459  639.8657
 460  685.813
 461  702.2467
 462  693.7628
 463  745.8282
 464  700.7301
 465  707.6476
 466  730.6719
 467  645.8127
 468  632.9215
 469  578.4257
 470  567.7517
 471  526.9979
 472  545.8782
 473  586.2107
 474  623.9262
 475  646.6379
 476  610.0662
 477  584.0733
 478  604.2403
 479  607.4192
 480  603.8322
 481  514.3354
 482  522.9485
 483  608.8216
 484  600.6251
 485  655.091
 486  721.1948
 487  673.8015
 488  668.2599
 489  651.2884
 490  609.6276
 491  637.9725
 492  595.2546
 493  502.0565
 494  521.5214
 495  729.8722
 496  714.5322
 497  592.3421
 498  722.1479
 499  847.5668
 500  697.8138
 501  600.1885
 502  631.5639
 503  661.92
 504  684.7308
 505  602.7188
 506  644.9343
 507  628.0098
 508  518.3559
 509  487.6929
 510  590.3235
 511  628.4716
