# Input file       =  1184056858.110486_cleaned.dat
# Candidate        =  PSR_0332+5434
# Telescope        =  AR
# Epoch_topo       =  57948.361575352850
# Epoch_bary       =  N/A
# T_sample         =  0.002
# Data Folded      =  7340032
# Data Avg         =  0.0321238035228437
# Data StdDev      =  1.00009690080087 
# Profile Bins     =  512
# Profile Avg      =  460.500805436743 
# Profile StdDev   =  119.744638603881 
# Reduced chi-sqr  =  0.934
# Prob(Noise)      <  0.856   (~0.0 sigma)
# P_topo (ms)      =  714.479681755511  +/- 0.000313
# P'_topo (s/s)    =  -0                +/- 1.65e-10
# P''_topo (s/s^2) =  0                 +/- 7.29e-14
# P_bary (ms)      =  N/A
# P'_bary (s/s)    =  N/A
# P''_bary (s/s^2) =  N/A
# P_orb (s)        =  N/A
# asin(i)/c (s)    =  N/A
# eccentricity     =  N/A
# w (rad)          =  N/A
# T_peri           =  N/A
######################################################
   0  1089.282
   1  903.2598
   2  791.4093
   3  561.6472
   4  441.1551
   5  388.9638
   6  383.2419
   7  421.2097
   8  429.6946
   9  455.3245
  10  375.0598
  11  527.6181
  12  461.7885
  13  343.4678
  14  458.8809
  15  559.5695
  16  483.9344
  17  424.6448
  18  384.0394
  19  460.9947
  20  451.959
  21  427.1368
  22  489.0348
  23  462.1641
  24  420.1119
  25  403.4306
  26  484.7972
  27  517.858
  28  502.6443
  29  537.0271
  30  365.9671
  31  372.1699
  32  530.4736
  33  381.2846
  34  337.146
  35  409.0856
  36  554.1738
  37  499.3232
  38  371.2906
  39  505.554
  40  498.1686
  41  440.2519
  42  443.9131
  43  443.7365
  44  459.8968
  45  347.0385
  46  283.7742
  47  412.3588
  48  519.8512
  49  514.3904
  50  483.1755
  51  376.5922
  52  412.7976
  53  448.979
  54  384.6412
  55  492.3235
  56  407.4159
  57  439.598
  58  498.6284
  59  449.2475
  60  333.7769
  61  425.6578
  62  473.9019
  63  503.0848
  64  396.5946
  65  443.1176
  66  488.7341
  67  423.0439
  68  489.0921
  69  494.1199
  70  465.4539
  71  457.7374
  72  357.4587
  73  429.1125
  74  502.6488
  75  475.9033
  76  446.149
  77  491.6553
  78  450.8427
  79  415.612
  80  414.5023
  81  410.937
  82  483.8834
  83  537.8736
  84  447.6679
  85  579.9802
  86  687.2458
  87  536.619
  88  577.4045
  89  512.9031
  90  427.3859
  91  473.6466
  92  483.821
  93  468.0358
  94  455.922
  95  428.5008
  96  495.7155
  97  546.4017
  98  508.6971
  99  528.2849
 100  442.7612
 101  479.4425
 102  502.8372
 103  521.868
 104  516.9152
 105  446.0006
 106  550.3647
 107  444.4874
 108  485.9315
 109  484.1852
 110  514.7819
 111  481.6969
 112  424.0237
 113  419.3784
 114  437.2861
 115  505.8116
 116  457.85
 117  404.6975
 118  403.5828
 119  374.7322
 120  417.301
 121  475.7754
 122  490.4852
 123  495.161
 124  467.6361
 125  509.7867
 126  495.8422
 127  445.4988
 128  362.9615
 129  408.1433
 130  420.3029
 131  444.0742
 132  401.3886
 133  487.8305
 134  386.3656
 135  446.8986
 136  521.9882
 137  423.1541
 138  438.0692
 139  375.07
 140  415.8982
 141  452.5294
 142  484.7382
 143  457.2823
 144  463.6682
 145  516.8843
 146  488.0393
 147  548.322
 148  488.3301
 149  535.2598
 150  422.6037
 151  485.3771
 152  417.2502
 153  404.7162
 154  383.3191
 155  312.7315
 156  201.775
 157  190.5409
 158  239.7974
 159  314.6551
 160  376.4772
 161  461.2252
 162  409.7803
 163  383.0191
 164  425.9628
 165  475.564
 166  444.5669
 167  410.0695
 168  420.9182
 169  427.1756
 170  415.5799
 171  424.6132
 172  523.784
 173  543.2148
 174  569.1782
 175  583.2885
 176  535.6627
 177  541.9707
 178  502.8342
 179  521.4119
 180  453.5702
 181  534.1591
 182  539.1804
 183  467.2262
 184  393.3686
 185  417.665
 186  507.86
 187  616.6483
 188  539.5029
 189  504.0908
 190  490.4978
 191  515.3959
 192  472.7008
 193  481.3633
 194  456.035
 195  389.115
 196  317.6155
 197  321.5675
 198  383.0541
 199  409.3085
 200  365.8328
 201  343.9902
 202  408.2745
 203  429.0526
 204  411.2253
 205  386.376
 206  515.5006
 207  417.5895
 208  410.8338
 209  417.2375
 210  482.0803
 211  568.816
 212  602.8429
 213  600.9122
 214  432.0403
 215  446.5681
 216  357.6532
 217  389.3968
 218  403.0599
 219  484.2291
 220  539.8508
 221  448.5936
 222  545.0463
 223  465.595
 224  527.5615
 225  494.1938
 226  482.6781
 227  465.1426
 228  427.6566
 229  486.4459
 230  497.9331
 231  453.3068
 232  384.3405
 233  417.7251
 234  465.3853
 235  380.0054
 236  300.8152
 237  392.5828
 238  426.1682
 239  445.0898
 240  383.3655
 241  422.7182
 242  466.1454
 243  410.6038
 244  480.1879
 245  492.1465
 246  467.6906
 247  502.6942
 248  467.1493
 249  568.9869
 250  568.6135
 251  509.1688
 252  465.4848
 253  481.8445
 254  412.6439
 255  431.6737
 256  478.6155
 257  501.1649
 258  416.444
 259  373.843
 260  459.0225
 261  576.293
 262  554.1703
 263  562.9632
 264  498.8636
 265  626.4811
 266  593.5074
 267  542.6369
 268  592.3368
 269  626.8725
 270  516.6138
 271  582.3536
 272  537.468
 273  457.1588
 274  461.1132
 275  459.5269
 276  462.2043
 277  541.8239
 278  488.4355
 279  473.7824
 280  438.0672
 281  480.3396
 282  419.8527
 283  367.9132
 284  420.7917
 285  428.3872
 286  486.9874
 287  488.0163
 288  502.6306
 289  439.9937
 290  501.1761
 291  437.8014
 292  428.3512
 293  384.3582
 294  314.7681
 295  398.9742
 296  417.4036
 297  316.1529
 298  239.8925
 299  298.5802
 300  361.7701
 301  405.8629
 302  383.5959
 303  359.6651
 304  424.003
 305  461.0565
 306  446.0507
 307  396.3839
 308  417.3911
 309  420.233
 310  435.091
 311  373.4707
 312  449.5508
 313  414.62
 314  424.5513
 315  437.7717
 316  381.7641
 317  454.9665
 318  385.2298
 319  411.2301
 320  346.1876
 321  365.4331
 322  389.1921
 323  341.5783
 324  359.0306
 325  406.3504
 326  327.5259
 327  323.0426
 328  288.9972
 329  343.6855
 330  432.3428
 331  401.3383
 332  453.875
 333  393.6514
 334  405.2128
 335  541.8667
 336  431.9743
 337  384.0047
 338  327.924
 339  378.223
 340  455.0614
 341  441.5616
 342  501.7809
 343  512.011
 344  430.7259
 345  525.4584
 346  562.9191
 347  527.2398
 348  435.4088
 349  386.9516
 350  442.3885
 351  513.5438
 352  418.3434
 353  441.0306
 354  483.2177
 355  372.6767
 356  360.4181
 357  331.2422
 358  373.6888
 359  411.1297
 360  431.6676
 361  478.3102
 362  465.6835
 363  510.5831
 364  537.2106
 365  463.5782
 366  458.5782
 367  501.8447
 368  429.5892
 369  431.6705
 370  397.0879
 371  563.1967
 372  579.4607
 373  469.3471
 374  468.3038
 375  510.0266
 376  486.2392
 377  531.1753
 378  450.9854
 379  474.7887
 380  573.8608
 381  495.5024
 382  448.9442
 383  436.0594
 384  422.1127
 385  455.8415
 386  482.365
 387  522.0109
 388  458.6492
 389  465.5461
 390  419.2714
 391  303.9211
 392  375.6489
 393  432.3454
 394  398.5857
 395  441.2026
 396  471.9444
 397  431.0406
 398  480.401
 399  483.5055
 400  509.4313
 401  482.1173
 402  482.7905
 403  412.1637
 404  471.842
 405  570.8199
 406  558.7087
 407  473.3673
 408  441.0262
 409  451.0899
 410  534.4003
 411  581.6418
 412  592.8195
 413  545.4131
 414  516.3952
 415  421.8533
 416  390.8745
 417  435.2106
 418  424.3379
 419  611.3362
 420  610.1028
 421  561.0764
 422  492.4211
 423  459.0365
 424  542.8126
 425  618.4943
 426  561.7141
 427  407.3595
 428  473.7372
 429  554.7499
 430  476.5518
 431  488.2205
 432  504.9952
 433  540.4304
 434  501.6445
 435  431.7488
 436  560.7656
 437  410.9289
 438  394.234
 439  449.8759
 440  487.4233
 441  566.6473
 442  575.7853
 443  566.6202
 444  441.0807
 445  405.7064
 446  497.0497
 447  429.9197
 448  375.3368
 449  473.9586
 450  518.179
 451  419.7082
 452  346.5492
 453  473.6126
 454  559.0411
 455  475.2495
 456  418.9297
 457  413.1078
 458  427.6661
 459  425.2688
 460  489.8666
 461  564.0646
 462  446.9969
 463  402.1688
 464  459.3777
 465  448.9925
 466  453.6384
 467  445.8349
 468  367.311
 469  441.1569
 470  547.2576
 471  539.5101
 472  507.5157
 473  479.9164
 474  511.1776
 475  435.7909
 476  475.014
 477  545.3096
 478  471.0833
 479  545.8132
 480  468.7747
 481  410.0709
 482  427.5221
 483  466.4587
 484  565.7375
 485  462.1563
 486  524.7347
 487  425.6553
 488  369.8856
 489  427.0277
 490  357.5866
 491  335.3241
 492  432.7296
 493  471.2308
 494  449.4629
 495  399.2282
 496  361.6463
 497  360.4036
 498  378.1993
 499  343.554
 500  474.4459
 501  519.7058
 502  518.7638
 503  423.5607
 504  357.8438
 505  473.4416
 506  505.3984
 507  583.1245
 508  566.6497
 509  599.9957
 510  811.5768
 511  1049.854
