# Input file       =  1184731253.101969_cleaned.dat
# Candidate        =  PSR_0332+5434
# Telescope        =  AR
# Epoch_topo       =  57956.167072939454
# Epoch_bary       =  N/A
# T_sample         =  0.002
# Data Folded      =  7340032
# Data Avg         =  0.0298849167435483
# Data StdDev      =  1.00002676799039 
# Profile Bins     =  512
# Profile Avg      =  428.221661789911 
# Profile StdDev   =  119.736241389533 
# Reduced chi-sqr  =  1.668
# Prob(Noise)      <  1.58e-19   (~9.0 sigma)
# P_topo (ms)      =  714.474455889013  +/- 0.000335
# P'_topo (s/s)    =  -0                +/- 1.77e-10
# P''_topo (s/s^2) =  0                 +/- 7.81e-14
# P_bary (ms)      =  N/A
# P'_bary (s/s)    =  N/A
# P''_bary (s/s^2) =  N/A
# P_orb (s)        =  N/A
# asin(i)/c (s)    =  N/A
# eccentricity     =  N/A
# w (rad)          =  N/A
# T_peri           =  N/A
######################################################
   0  1185.554
   1  1092.202
   2  898.0128
   3  815.1368
   4  660.7765
   5  561.028
   6  527.0208
   7  418.5245
   8  355.7749
   9  413.0071
  10  474.7993
  11  449.8631
  12  460.995
  13  467.8962
  14  490.2722
  15  497.1135
  16  415.3197
  17  441.4179
  18  408.4909
  19  389.292
  20  339.5768
  21  454.2885
  22  367.0296
  23  415.5883
  24  535.5454
  25  495.2706
  26  506.3217
  27  431.8603
  28  431.5685
  29  504.4055
  30  424.651
  31  326.31
  32  327.4576
  33  254.6324
  34  365.707
  35  390.4114
  36  365.1926
  37  312.1682
  38  302.5004
  39  312.8401
  40  326.7248
  41  408.0977
  42  358.6427
  43  394.1701
  44  359.0966
  45  354.8947
  46  343.8167
  47  392.3766
  48  425.5634
  49  284.0594
  50  265.4067
  51  281.0811
  52  320.153
  53  362.7115
  54  468.0889
  55  433.0239
  56  408.4112
  57  304.599
  58  367.3225
  59  442.5528
  60  469.6233
  61  381.7887
  62  355.9657
  63  421.7498
  64  450.6149
  65  413.1197
  66  379.2496
  67  359.2891
  68  399.6581
  69  468.1803
  70  370.8182
  71  441.1631
  72  437.3304
  73  488.0505
  74  471.1823
  75  333.7505
  76  371.733
  77  461.9789
  78  438.1046
  79  521.035
  80  492.2466
  81  468.859
  82  482.4734
  83  499.7543
  84  486.9494
  85  487.0596
  86  347.4339
  87  355.8649
  88  445.4824
  89  440.2817
  90  511.384
  91  486.3302
  92  455.3163
  93  448.5153
  94  423.7877
  95  406.8518
  96  343.1008
  97  267.6776
  98  302.5811
  99  391.9942
 100  344.981
 101  295.6226
 102  367.4984
 103  305.4441
 104  360.945
 105  394.5581
 106  433.0446
 107  437.7076
 108  354.6364
 109  228.1189
 110  217.2339
 111  282.8793
 112  341.1371
 113  440.2433
 114  403.6834
 115  351.5162
 116  338.9003
 117  377.6171
 118  393.5591
 119  449.7372
 120  517.8548
 121  348.8334
 122  353.7212
 123  473.0323
 124  452.9602
 125  410.696
 126  381.9577
 127  365.5575
 128  375.9228
 129  320.7452
 130  432.2195
 131  410.1611
 132  351.9931
 133  280.492
 134  321.7495
 135  522.8962
 136  344.8655
 137  397.1337
 138  353.5551
 139  405.2247
 140  498.6149
 141  388.4802
 142  371.7895
 143  435.5114
 144  407.611
 145  356.2573
 146  439.0315
 147  420.8157
 148  343.4709
 149  388.5523
 150  429.997
 151  335.0166
 152  325.0284
 153  307.6873
 154  393.3782
 155  489.9113
 156  512.6165
 157  331.052
 158  344.3792
 159  476.3534
 160  522.4345
 161  458.8809
 162  549.6094
 163  483.0691
 164  374.1527
 165  446.9024
 166  645.3312
 167  602.4625
 168  513.3413
 169  469.2834
 170  447.2208
 171  508.4441
 172  534.8943
 173  570.7567
 174  614.1832
 175  526.6509
 176  542.6677
 177  537.2217
 178  649.8613
 179  641.3309
 180  505.9337
 181  502.2774
 182  555.4717
 183  462.5839
 184  538.6126
 185  518.1749
 186  585.2224
 187  509.2902
 188  425.3151
 189  433.8975
 190  455.1409
 191  385.0956
 192  333.5872
 193  448.2529
 194  376.8958
 195  316.8706
 196  342.4543
 197  489.2106
 198  475.0901
 199  425.6969
 200  383.892
 201  396.3831
 202  394.9926
 203  238.7995
 204  336.679
 205  384.9183
 206  391.9916
 207  295.7735
 208  303.6324
 209  427.1637
 210  381.1993
 211  342.8982
 212  272.4636
 213  267.8505
 214  452.1596
 215  484.7152
 216  383.9357
 217  346.8257
 218  320.0022
 219  327.2709
 220  357.6589
 221  315.7652
 222  227.373
 223  240.1978
 224  389.2539
 225  359.96
 226  386.8521
 227  414.1304
 228  341.0923
 229  188.0611
 230  359.0266
 231  392.9531
 232  377.8755
 233  321.0447
 234  301.344
 235  424.4781
 236  476.7829
 237  440.5369
 238  344.1492
 239  354.3742
 240  400.774
 241  368.4723
 242  281.6035
 243  328.9333
 244  352.6735
 245  349.1268
 246  383.4987
 247  448.2787
 248  261.423
 249  360.9344
 250  383.882
 251  411.2669
 252  380.6473
 253  340.6747
 254  377.9803
 255  328.7406
 256  332.7792
 257  300.0959
 258  293.4627
 259  321.6536
 260  252.1656
 261  249.6862
 262  295.3754
 263  429.0388
 264  376.0257
 265  287.0229
 266  345.9228
 267  339.1926
 268  317.2448
 269  218.6597
 270  296.7992
 271  518.2084
 272  394.0443
 273  306.0107
 274  373.0926
 275  402.8048
 276  394.8525
 277  373.0732
 278  451.3088
 279  434.6642
 280  362.6139
 281  236.5161
 282  422.6236
 283  433.9646
 284  350.6277
 285  435.8816
 286  343.3481
 287  323.6787
 288  253.5068
 289  457.4128
 290  499.0905
 291  509.0713
 292  523.9805
 293  592.0233
 294  481.3274
 295  328.3875
 296  301.5185
 297  330.0679
 298  413.7366
 299  373.1079
 300  380.9507
 301  419.4443
 302  377.8379
 303  347.7853
 304  505.8055
 305  402.8805
 306  276.0311
 307  417.2464
 308  244.9709
 309  352.4721
 310  416.7103
 311  378.2916
 312  362.476
 313  319.8286
 314  451.3853
 315  456.2455
 316  473.1245
 317  438.9691
 318  492.5046
 319  481.5183
 320  408.1773
 321  294.5291
 322  494.9532
 323  525.226
 324  381.4792
 325  394.5353
 326  493.5694
 327  473.8659
 328  377.6164
 329  344.6269
 330  447.0673
 331  427.8604
 332  348.278
 333  349.6786
 334  325.2452
 335  214.7248
 336  248.9358
 337  407.2826
 338  410.0957
 339  250.0016
 340  284.1153
 341  438.3253
 342  408.4453
 343  381.6861
 344  284.3264
 345  413.0331
 346  473.455
 347  355.1573
 348  425.8168
 349  391.3953
 350  343.1672
 351  338.7944
 352  278.304
 353  228.5776
 354  288.4589
 355  349.4723
 356  483.1328
 357  565.9507
 358  381.3896
 359  329.3953
 360  406.7435
 361  390.2775
 362  390.2843
 363  366.1374
 364  403.6798
 365  547.0142
 366  424.2981
 367  438.348
 368  393.0369
 369  421.2259
 370  475.6286
 371  413.8763
 372  487.1783
 373  567.4311
 374  507.5666
 375  536.118
 376  553.0187
 377  556.6534
 378  429.4628
 379  485.4229
 380  514.2224
 381  524.6677
 382  574.5287
 383  542.0417
 384  528.4615
 385  499.4455
 386  547.4884
 387  627.4852
 388  439.3879
 389  510.4713
 390  443.1133
 391  466.9817
 392  507.0179
 393  564.6673
 394  483.1854
 395  412.4659
 396  450.1521
 397  405.4747
 398  530.3835
 399  623.8269
 400  525.9501
 401  389.9347
 402  410.813
 403  458.5637
 404  464.7135
 405  430.0697
 406  506.0375
 407  483.6515
 408  453.5906
 409  356.9804
 410  511.659
 411  478.5171
 412  392.5188
 413  389.4941
 414  492.4625
 415  411.7546
 416  483.5487
 417  584.6967
 418  451.2289
 419  372.7571
 420  490.4556
 421  461.4977
 422  443.5266
 423  440.536
 424  479.6476
 425  458.7433
 426  399.6297
 427  540.0925
 428  522.6188
 429  430.1159
 430  376.7618
 431  457.2245
 432  504.481
 433  477.4586
 434  472.1745
 435  507.4806
 436  414.3652
 437  313.6886
 438  409.9633
 439  326.3308
 440  414.1284
 441  511.2695
 442  542.4144
 443  567.3611
 444  603.8877
 445  588.7928
 446  547.2359
 447  490.8828
 448  477.8639
 449  399.0417
 450  453.4167
 451  457.0709
 452  341.1395
 453  452.0099
 454  529.2184
 455  450.6774
 456  518.4825
 457  412.987
 458  320.5175
 459  277.0098
 460  445.927
 461  474.8508
 462  381.705
 463  399.5922
 464  350.6206
 465  473.6577
 466  501.8651
 467  448.0454
 468  405.6651
 469  403.1315
 470  383.0749
 471  455.8358
 472  541.5081
 473  592.0455
 474  547.2994
 475  445.8636
 476  445.9855
 477  541.8806
 478  424.3033
 479  387.5771
 480  607.7441
 481  562.3958
 482  520.408
 483  561.1362
 484  645.517
 485  543.4971
 486  488.6688
 487  437.4093
 488  511.6755
 489  514.643
 490  477.7087
 491  400.3812
 492  419.7486
 493  433.0415
 494  460.0837
 495  527.4124
 496  416.0474
 497  403.1053
 498  443.8904
 499  372.6238
 500  507.0906
 501  712.5879
 502  615.6443
 503  408.1811
 504  519.9924
 505  543.6663
 506  556.7632
 507  623.9429
 508  713.8918
 509  883.9777
 510  991.7047
 511  1191.89
