# Input file       =  1184315356.111366_cleaned.dat
# Candidate        =  PSR_0332+5434
# Telescope        =  AR
# Epoch_topo       =  57951.353450363036
# Epoch_bary       =  N/A
# T_sample         =  0.002
# Data Folded      =  7340032
# Data Avg         =  0.0420712559375956
# Data StdDev      =  1.00020093256636 
# Profile Bins     =  512
# Profile Avg      =  603.067157771288 
# Profile StdDev   =  119.757094643044 
# Reduced chi-sqr  =  1.260
# Prob(Noise)      <  5.49e-05   (~3.9 sigma)
# P_topo (ms)      =  714.477721723539  +/- 0.000308
# P'_topo (s/s)    =  -0                +/- 1.63e-10
# P''_topo (s/s^2) =  0                 +/- 7.18e-14
# P_bary (ms)      =  N/A
# P'_bary (s/s)    =  N/A
# P''_bary (s/s^2) =  N/A
# P_orb (s)        =  N/A
# asin(i)/c (s)    =  N/A
# eccentricity     =  N/A
# w (rad)          =  N/A
# T_peri           =  N/A
######################################################
   0  1277.634
   1  1276.071
   2  1078.51
   3  959.676
   4  787.175
   5  727.4178
   6  609.0622
   7  627.4341
   8  709.3188
   9  663.52
  10  634.1578
  11  578.562
  12  592.0993
  13  680.3839
  14  658.1197
  15  650.423
  16  726.7994
  17  822.8638
  18  696.3415
  19  637.3093
  20  694.3715
  21  717.0608
  22  682.2439
  23  588.3819
  24  793.1625
  25  710.3963
  26  615.7934
  27  528.914
  28  575.7429
  29  637.179
  30  599.3898
  31  627.2148
  32  753.1938
  33  620.4988
  34  579.2253
  35  493.6542
  36  582.62
  37  515.6174
  38  535.069
  39  614.9708
  40  468.0242
  41  608.8486
  42  617.7697
  43  556.1471
  44  652.9143
  45  706.9854
  46  588.1934
  47  455.5684
  48  503.3358
  49  505.3051
  50  567.2194
  51  643.0234
  52  658.9503
  53  675.5457
  54  517.3948
  55  514.5081
  56  639.5754
  57  575.9309
  58  567.9234
  59  478.7709
  60  515.8199
  61  598.4166
  62  639.1071
  63  542.7562
  64  591.1878
  65  683.9366
  66  691.4854
  67  592.8268
  68  670.3832
  69  680.147
  70  650.1474
  71  648.7678
  72  562.8636
  73  497.8
  74  487.9151
  75  603.5038
  76  582.9008
  77  496.7321
  78  613.3878
  79  601.434
  80  580.6084
  81  589.0536
  82  549.3304
  83  571.6369
  84  530.5897
  85  520.418
  86  475.9025
  87  639.9341
  88  639.1711
  89  520.5493
  90  493.0914
  91  650.2548
  92  680.7448
  93  746.3885
  94  727.8458
  95  747.176
  96  655.748
  97  689.8893
  98  681.4216
  99  643.8813
 100  607.1796
 101  603.727
 102  728.345
 103  666.8735
 104  698.5762
 105  687.5851
 106  682.9904
 107  767.7518
 108  745.8604
 109  642.3578
 110  650.3715
 111  679.5635
 112  577.0922
 113  692.5305
 114  652.0739
 115  730.1478
 116  693.4751
 117  626.769
 118  693.6996
 119  627.6602
 120  649.7915
 121  691.2682
 122  783.0761
 123  672.105
 124  629.9421
 125  701.6002
 126  715.3218
 127  616.3908
 128  522.5035
 129  605.3659
 130  598.4338
 131  573.8413
 132  591.2245
 133  601.3358
 134  561.7428
 135  505.7499
 136  625.6331
 137  586.9128
 138  522.6929
 139  623.3442
 140  649.5731
 141  602.8362
 142  657.4772
 143  641.6833
 144  670.7567
 145  627.178
 146  637.9507
 147  552.3347
 148  671.1203
 149  701.8699
 150  630.114
 151  644.9452
 152  635.7075
 153  589.6738
 154  603.6512
 155  602.0637
 156  559.2615
 157  631.2567
 158  648.6594
 159  638.3477
 160  637.4614
 161  693.5068
 162  762.0703
 163  583.2041
 164  466.6305
 165  515.1837
 166  588.6589
 167  619.4053
 168  609.2976
 169  668.7703
 170  658.7188
 171  586.7241
 172  572.8976
 173  530.1219
 174  496.5509
 175  483.579
 176  530.552
 177  478.8223
 178  546.7119
 179  590.494
 180  648.2011
 181  643.7355
 182  580.5394
 183  522.1555
 184  476.1533
 185  409.8745
 186  446.1267
 187  587.8323
 188  541.0491
 189  541.9006
 190  683.8898
 191  708.016
 192  606.7938
 193  567.9418
 194  603.0535
 195  561.528
 196  702.068
 197  710.9347
 198  664.2696
 199  647.933
 200  710.2393
 201  694.662
 202  677.8839
 203  696.4894
 204  687.0731
 205  636.5343
 206  635.7947
 207  541.4642
 208  561.7394
 209  637.0482
 210  587.4894
 211  594.7368
 212  665.0335
 213  708.8043
 214  717.6284
 215  622.1882
 216  657.1887
 217  633.5441
 218  538.2258
 219  572.817
 220  545.7938
 221  589.8509
 222  647.4432
 223  540.3888
 224  618.6161
 225  553.3028
 226  497.9297
 227  518.0886
 228  635.0618
 229  599.9578
 230  573.9674
 231  516.9462
 232  472.803
 233  371.4049
 234  427.2118
 235  491.8266
 236  556.5887
 237  686.6448
 238  669.7926
 239  574.7447
 240  648.3218
 241  541.7812
 242  526.4542
 243  524.9622
 244  538.9074
 245  637.8881
 246  542.3783
 247  663.4228
 248  627.1557
 249  524.8663
 250  442.7739
 251  456.6794
 252  455.4862
 253  393.8041
 254  391.5473
 255  469.8752
 256  553.1416
 257  595.7526
 258  521.322
 259  517.4538
 260  518.9939
 261  511.1919
 262  483.5472
 263  538.2708
 264  619.4172
 265  665.5583
 266  626.6541
 267  517.3365
 268  522.212
 269  543.2518
 270  475.6619
 271  499.9338
 272  534.8713
 273  549.9748
 274  500.9883
 275  533.329
 276  495.5678
 277  503.9245
 278  567.3435
 279  470.5414
 280  585.8393
 281  574.1922
 282  569.1281
 283  664.4377
 284  708.915
 285  529.1054
 286  468.2589
 287  532.533
 288  529.9233
 289  599.562
 290  728.1116
 291  575.0474
 292  495.1289
 293  545.7449
 294  689.9667
 295  679.8486
 296  627.42
 297  646.9672
 298  658.6146
 299  551.2917
 300  599.6226
 301  620.5876
 302  750.8132
 303  678.6171
 304  665.6818
 305  628.0501
 306  652.3831
 307  612.5016
 308  605.368
 309  579.3739
 310  588.0137
 311  557.2334
 312  487.4289
 313  550.4599
 314  583.7986
 315  546.3935
 316  573.0841
 317  678.8223
 318  605.3631
 319  513.515
 320  572.063
 321  588.0496
 322  546.2742
 323  558.5823
 324  675.2391
 325  569.6442
 326  493.5481
 327  615.3544
 328  509.4146
 329  516.7327
 330  592.6586
 331  587.0361
 332  627.7702
 333  639.486
 334  625.7826
 335  472.667
 336  551.4021
 337  552.1789
 338  511.0792
 339  526.9601
 340  498.567
 341  611.0341
 342  565.7445
 343  568.8967
 344  628.6028
 345  546.4573
 346  531.7509
 347  544.1422
 348  604.8757
 349  569.5306
 350  495.6555
 351  639.2906
 352  591.7738
 353  487.1139
 354  553.9797
 355  589.2715
 356  612.1276
 357  515.422
 358  534.759
 359  540.9818
 360  519.501
 361  570.6425
 362  567.8664
 363  645.9813
 364  674.8259
 365  669.3621
 366  681.5425
 367  584.9379
 368  594.9152
 369  734.9359
 370  721.2804
 371  623.5693
 372  656.0693
 373  651.6648
 374  621.3323
 375  626.9484
 376  675.79
 377  666.4307
 378  741.0693
 379  754.8037
 380  661.2135
 381  617.2005
 382  593.8113
 383  475.1202
 384  523.6672
 385  576.865
 386  627.3281
 387  547.8052
 388  554.1288
 389  461.6658
 390  418.7549
 391  470.5463
 392  543.2192
 393  495.6193
 394  528.2701
 395  546.3715
 396  714.8054
 397  693.5322
 398  502.2725
 399  510.2324
 400  508.559
 401  480.6183
 402  571.3179
 403  677.345
 404  722.951
 405  525.7899
 406  554.0472
 407  736.5038
 408  593.8347
 409  543.7394
 410  560.0661
 411  502.703
 412  577.9933
 413  606.6176
 414  541.1268
 415  667.5622
 416  625.6546
 417  444.8674
 418  491.4481
 419  497.7995
 420  391.5781
 421  322.7349
 422  511.8981
 423  552.4169
 424  551.1116
 425  626.9217
 426  544.9318
 427  535.9556
 428  623.5962
 429  628.4579
 430  583.0046
 431  630.4689
 432  799.8612
 433  665.0233
 434  634.6308
 435  683.2444
 436  662.0209
 437  695.087
 438  756.1139
 439  545.1606
 440  523.8002
 441  483.091
 442  581.537
 443  656.2655
 444  612.3238
 445  599.4857
 446  629.5432
 447  653.4544
 448  608.3326
 449  581.7615
 450  531.5613
 451  600.7618
 452  633.2504
 453  597.8882
 454  476.0535
 455  619.8549
 456  677.6956
 457  606.9723
 458  724.2593
 459  603.2177
 460  565.6577
 461  545.132
 462  524.379
 463  598.2391
 464  699.5411
 465  661.3152
 466  602.9744
 467  625.4312
 468  573.1121
 469  627.6573
 470  597.8445
 471  566.2648
 472  638.4605
 473  583.3216
 474  639.5093
 475  501.3465
 476  498.5748
 477  566.1899
 478  540.1903
 479  552.523
 480  615.9506
 481  541.8077
 482  490.8044
 483  559.9556
 484  598.9475
 485  527.6208
 486  455.1461
 487  586.5891
 488  525.0272
 489  461.8364
 490  576.3931
 491  726.3987
 492  643.3929
 493  625.0171
 494  591.6761
 495  507.2081
 496  561.2476
 497  622.0632
 498  663.5571
 499  561.12
 500  514.9542
 501  627.4728
 502  664.725
 503  638.7996
 504  534.1309
 505  737.4084
 506  767.6393
 507  723.0055
 508  762.4926
 509  813.633
 510  990.707
 511  1160.287
