# Input file       =  1184573858.104995_cleaned.dat
# Candidate        =  PSR_0332+5434
# Telescope        =  AR
# Epoch_topo       =  57954.345371585594
# Epoch_bary       =  N/A
# T_sample         =  0.002
# Data Folded      =  7340032
# Data Avg         =  0.0487257000807877
# Data StdDev      =  1.00013830669717 
# Profile Bins     =  512
# Profile Avg      =  698.508358908218 
# Profile StdDev   =  119.74959625757  
# Reduced chi-sqr  =  1.288
# Prob(Noise)      <  1.1e-05   (~4.2 sigma)
# P_topo (ms)      =  714.475864894077  +/- 0.000312
# P'_topo (s/s)    =  -0                +/- 1.65e-10
# P''_topo (s/s^2) =  0                 +/- 7.27e-14
# P_bary (ms)      =  N/A
# P'_bary (s/s)    =  N/A
# P''_bary (s/s^2) =  N/A
# P_orb (s)        =  N/A
# asin(i)/c (s)    =  N/A
# eccentricity     =  N/A
# w (rad)          =  N/A
# T_peri           =  N/A
######################################################
   0  1294.235
   1  1281.463
   2  1137.5
   3  883.3889
   4  767.1318
   5  708.905
   6  706.4667
   7  661.7709
   8  613.2137
   9  612.7745
  10  620.9095
  11  654.0411
  12  717.1912
  13  682.9969
  14  725.6505
  15  678.9069
  16  602.1168
  17  715.8215
  18  762.8566
  19  697.8367
  20  625.5668
  21  647.6815
  22  670.3593
  23  610.878
  24  529.1896
  25  592.0304
  26  682.872
  27  840.1545
  28  754.4351
  29  749.0808
  30  695.3045
  31  653.0284
  32  698.3568
  33  599.9423
  34  578.3584
  35  692.0784
  36  714.4612
  37  726.9276
  38  652.0106
  39  600.0259
  40  625.6839
  41  589.6472
  42  580.3474
  43  630.5646
  44  642.4811
  45  575.9512
  46  546.5935
  47  514.736
  48  575.6624
  49  682.9199
  50  625.4014
  51  561.6265
  52  691.7013
  53  634.8841
  54  591.176
  55  561.5273
  56  697.4215
  57  685.5067
  58  577.2785
  59  499.4969
  60  569.5769
  61  508.5031
  62  571.4345
  63  650.4026
  64  526.1268
  65  587.399
  66  563.4766
  67  536.6976
  68  572.8503
  69  600.2708
  70  622.6516
  71  722.0707
  72  614.4349
  73  526.24
  74  577.2015
  75  561.1293
  76  609.7734
  77  635.8732
  78  734.6647
  79  707.4453
  80  571.5848
  81  575.6616
  82  575.1358
  83  463.4563
  84  521.4352
  85  599.416
  86  642.1063
  87  594.0466
  88  530.4376
  89  567.0051
  90  589.7163
  91  513.4813
  92  575.9459
  93  673.1049
  94  680.7412
  95  544.9448
  96  524.5331
  97  565.1434
  98  535.8232
  99  442.525
 100  449.9853
 101  577.132
 102  631.2269
 103  586.1698
 104  539.3508
 105  592.7516
 106  655.3611
 107  649.6587
 108  691.7445
 109  603.429
 110  672.112
 111  781.4728
 112  885.4029
 113  793.9109
 114  696.2573
 115  746.4771
 116  728.2864
 117  625.9932
 118  628.9717
 119  758.4117
 120  709.9123
 121  687.5855
 122  773.1039
 123  779.2795
 124  737.2985
 125  753.3211
 126  714.4621
 127  631.5023
 128  650.2188
 129  638.4822
 130  582.825
 131  493.2722
 132  614.7524
 133  566.6254
 134  623.8525
 135  644.5079
 136  740.7424
 137  746.4432
 138  616.5676
 139  577.0486
 140  551.8072
 141  591.7436
 142  609.7336
 143  579.6957
 144  715.5987
 145  742.0906
 146  673.6199
 147  684.5555
 148  599.7695
 149  618.934
 150  682.8544
 151  684.6038
 152  706.2305
 153  692.2875
 154  692.8583
 155  642.2783
 156  678.0836
 157  808.9426
 158  796.4499
 159  657.0383
 160  574.3732
 161  687.3566
 162  760.7682
 163  726.4243
 164  671.3075
 165  683.2487
 166  686.4767
 167  619.4434
 168  773.0424
 169  821.7061
 170  740.1252
 171  701.9362
 172  708.9552
 173  686.1956
 174  564.254
 175  549.8755
 176  632.3745
 177  574.5624
 178  653.6459
 179  770.9788
 180  696.184
 181  666.9195
 182  719.4246
 183  811.8023
 184  720.9798
 185  588.0146
 186  625.1979
 187  618.1497
 188  597.6737
 189  656.91
 190  806.8198
 191  691.9706
 192  730.1699
 193  683.3412
 194  671.3611
 195  601.5699
 196  560.6927
 197  592.387
 198  712.0927
 199  695.645
 200  683.6633
 201  791.3712
 202  731.6417
 203  707.2471
 204  729.3599
 205  769.3452
 206  802.5546
 207  749.9907
 208  698.8649
 209  668.4481
 210  688.0087
 211  702.6852
 212  709.0635
 213  634.0848
 214  562.488
 215  543.2736
 216  633.9229
 217  695.3135
 218  668.1288
 219  650.0971
 220  772.8127
 221  740.2203
 222  780.029
 223  741.3757
 224  607.2434
 225  643.4423
 226  712.6949
 227  682.4857
 228  713.9078
 229  603.7597
 230  596.9099
 231  674.2972
 232  676.1011
 233  627.3594
 234  625.202
 235  629.1245
 236  635.6899
 237  661.7897
 238  686.3917
 239  627.9283
 240  616.555
 241  726.9843
 242  753.9473
 243  761.4229
 244  833.6599
 245  800.2947
 246  743.3986
 247  783.1503
 248  743.6272
 249  713.1608
 250  653.9914
 251  682.095
 252  700.3958
 253  619.3074
 254  663.3737
 255  727.8096
 256  774.1581
 257  759.4289
 258  646.7686
 259  638.9641
 260  693.1492
 261  745.1779
 262  712.7082
 263  723.8749
 264  617.5018
 265  684.833
 266  735.2068
 267  704.3423
 268  771.3322
 269  713.5802
 270  771.9304
 271  727.4472
 272  714.4364
 273  770.9082
 274  763.4855
 275  792.7176
 276  643.1592
 277  706.5627
 278  904.4725
 279  810.3635
 280  605.9749
 281  557.4466
 282  712.7322
 283  660.957
 284  570.2873
 285  588.2618
 286  673.2966
 287  825.6772
 288  699.3796
 289  647.4771
 290  709.9888
 291  698.9112
 292  617.5179
 293  687.8478
 294  759.7042
 295  622.3081
 296  586.6995
 297  659.4637
 298  658.9024
 299  702.6951
 300  706.5704
 301  699.1879
 302  764.1432
 303  779.9513
 304  725.5063
 305  844.8293
 306  789.4808
 307  803.3807
 308  796.0553
 309  646.1714
 310  601.6287
 311  565.4493
 312  601.0478
 313  533.3858
 314  633.4079
 315  715.8788
 316  597.6025
 317  610.4162
 318  757.0467
 319  869.7601
 320  752.7279
 321  756.0459
 322  706.0522
 323  736.0031
 324  644.8831
 325  733.7783
 326  837.6582
 327  893.834
 328  876.6488
 329  771.2424
 330  725.6685
 331  782.5781
 332  874.0995
 333  873.9266
 334  833.4182
 335  757.0593
 336  782.0901
 337  790.0095
 338  719.4164
 339  723.0121
 340  671.3511
 341  712.9338
 342  818.687
 343  709.0704
 344  755.7798
 345  809.9557
 346  788.9977
 347  699.4775
 348  594.9257
 349  636.457
 350  702.0571
 351  807.0958
 352  712.6308
 353  779.9138
 354  786.797
 355  753.5595
 356  778.3237
 357  638.9305
 358  749.0064
 359  847.3412
 360  840.6278
 361  723.136
 362  714.9611
 363  854.5396
 364  738.5754
 365  728.817
 366  660.9106
 367  676.2204
 368  724.5987
 369  705.8697
 370  649.9062
 371  679.0733
 372  755.2901
 373  762.8278
 374  715.4111
 375  674.0781
 376  757.1288
 377  703.8375
 378  726.9263
 379  838.2454
 380  816.7623
 381  887.8249
 382  813.4835
 383  835.5181
 384  856.7911
 385  877.9265
 386  811.3863
 387  875.1543
 388  781.9507
 389  816.3057
 390  844.5861
 391  865.7881
 392  733.5447
 393  719.8519
 394  830.8635
 395  896.8171
 396  815.8713
 397  669.6006
 398  724.0304
 399  721.3926
 400  728.6953
 401  682.7967
 402  621.3719
 403  703.6633
 404  663.6979
 405  722.9812
 406  713.2626
 407  700.8157
 408  634.8422
 409  732.6069
 410  656.3463
 411  741.1774
 412  693.2087
 413  701.0767
 414  687.6122
 415  690.1075
 416  738.9954
 417  807.9459
 418  803.059
 419  743.3408
 420  753.074
 421  763.1298
 422  695.9205
 423  690.0258
 424  764.6569
 425  744.2928
 426  715.8953
 427  681.8779
 428  763.1127
 429  821.2974
 430  750.0509
 431  761.2453
 432  807.3627
 433  675.6036
 434  715.5242
 435  801.5668
 436  770.61
 437  664.4785
 438  670.7412
 439  783.3974
 440  711.8085
 441  660.1521
 442  681.1108
 443  682.1471
 444  718.8134
 445  710.8718
 446  708.9023
 447  765.7556
 448  758.4247
 449  677.5135
 450  694.4652
 451  759.2968
 452  681.9781
 453  701.4296
 454  632.9373
 455  664.9791
 456  633.6797
 457  651.606
 458  585.4343
 459  624.0408
 460  700.7237
 461  788.7672
 462  734.7966
 463  757.255
 464  832.6925
 465  749.8644
 466  759.3417
 467  849.3344
 468  816.6848
 469  829.6699
 470  877.6225
 471  834.0992
 472  709.6651
 473  782.3694
 474  808.9451
 475  866.9959
 476  829.5563
 477  770.8924
 478  790.7731
 479  771.2915
 480  722.2991
 481  735.3394
 482  723.5291
 483  751.5928
 484  641.1856
 485  647.0031
 486  644.9697
 487  526.1211
 488  604.4225
 489  723.6176
 490  840.8864
 491  718.5874
 492  553.7722
 493  681.9426
 494  906.377
 495  899.7379
 496  743.0545
 497  660.0721
 498  726.2993
 499  748.2017
 500  731.8456
 501  608.0328
 502  597.8551
 503  593.0356
 504  623.0599
 505  737.3842
 506  711.5129
 507  644.1381
 508  714.1115
 509  826.3698
 510  998.0699
 511  1146.959
