# Input file       =  1184832292.10788_cleaned.dat
# Candidate        =  PSR_0332+5434
# Telescope        =  AR
# Epoch_topo       =  57957.336505878244
# Epoch_bary       =  N/A
# T_sample         =  0.002
# Data Folded      =  7340032
# Data Avg         =  0.0428424889621399
# Data StdDev      =  1.00047456118175 
# Profile Bins     =  512
# Profile Avg      =  614.106645934947 
# Profile StdDev   =  119.789857028003 
# Reduced chi-sqr  =  1.514
# Prob(Noise)      <  4.72e-13   (~7.1 sigma)
# P_topo (ms)      =  714.474123068443  +/- 0.000236
# P'_topo (s/s)    =  -0                +/- 1.24e-10
# P''_topo (s/s^2) =  0                 +/- 5.5e-14
# P_bary (ms)      =  N/A
# P'_bary (s/s)    =  N/A
# P''_bary (s/s^2) =  N/A
# P_orb (s)        =  N/A
# asin(i)/c (s)    =  N/A
# eccentricity     =  N/A
# w (rad)          =  N/A
# T_peri           =  N/A
######################################################
   0  1168.829
   1  1091.211
   2  1048.445
   3  940.5368
   4  707.7022
   5  706.0807
   6  648.6601
   7  614.1392
   8  556.4948
   9  573.1863
  10  581.794
  11  598.5309
  12  630.7434
  13  636.4587
  14  635.5654
  15  567.4974
  16  584.9579
  17  563.6586
  18  520.6713
  19  406.7122
  20  455.256
  21  570.8306
  22  644.4858
  23  522.9361
  24  542.1956
  25  460.2432
  26  417.7422
  27  443.4307
  28  449.4108
  29  405.5969
  30  505.0241
  31  558.4755
  32  536.5222
  33  604.1631
  34  646.2886
  35  510.5578
  36  537.7249
  37  680.1951
  38  623.566
  39  685.5359
  40  585.9389
  41  549.4
  42  576.6058
  43  577.1929
  44  539.7375
  45  495.5476
  46  519.6687
  47  516.7549
  48  446.813
  49  475.0705
  50  566.8553
  51  678.1478
  52  588.0049
  53  474.6759
  54  492.4901
  55  567.7871
  56  569.1284
  57  534.941
  58  490.4981
  59  369.1061
  60  418.7447
  61  531.9604
  62  476.279
  63  461.6391
  64  582.3901
  65  534.8477
  66  459.0392
  67  548.2468
  68  570.0953
  69  600.5624
  70  545.6385
  71  537.2156
  72  477.2451
  73  526.4575
  74  494.4063
  75  430.5752
  76  450.0799
  77  522.9879
  78  578.4962
  79  523.1235
  80  547.4692
  81  508.2484
  82  491.7505
  83  483.4864
  84  561.9691
  85  559.3741
  86  482.3953
  87  468.9512
  88  468.4748
  89  503.8312
  90  650.6443
  91  603.7076
  92  638.4379
  93  632.1141
  94  562.8269
  95  583.0016
  96  603.1192
  97  573.4369
  98  625.4854
  99  737.3718
 100  624.8884
 101  603.4344
 102  522.1313
 103  575.6441
 104  506.4958
 105  453.1989
 106  553.4025
 107  696.0225
 108  563.0742
 109  500.2827
 110  548.5627
 111  555.8991
 112  519.8345
 113  507.3504
 114  660.6842
 115  679.5182
 116  712.1493
 117  671.1016
 118  602.2426
 119  479.1981
 120  564.3975
 121  607.9491
 122  656.2214
 123  602.5355
 124  597.309
 125  503.5417
 126  502.0289
 127  607.9508
 128  587.2963
 129  547.6406
 130  488.658
 131  552.5637
 132  573.1918
 133  401.0695
 134  481.1064
 135  583.8306
 136  379.0406
 137  395.7886
 138  576.1585
 139  709.9793
 140  727.6954
 141  659.0044
 142  637.3019
 143  649.8048
 144  556.0646
 145  439.0349
 146  539.0563
 147  670.7501
 148  667.541
 149  616.3302
 150  625.9277
 151  609.562
 152  534.7677
 153  565.7502
 154  630.2485
 155  637.1852
 156  738.8241
 157  676.8695
 158  594.796
 159  657.7548
 160  692.1415
 161  677.3853
 162  750.9271
 163  803.7765
 164  738.9814
 165  624.5279
 166  683.4823
 167  761.1982
 168  726.1348
 169  723.0349
 170  591.4659
 171  519.6191
 172  590.6151
 173  608.3872
 174  619.9084
 175  638.9075
 176  655.6158
 177  559.935
 178  580.5639
 179  591.3147
 180  615.4771
 181  547.8062
 182  496.9055
 183  619.8619
 184  625.3934
 185  592.513
 186  632.8842
 187  715.629
 188  556.1666
 189  472.0772
 190  540.0756
 191  549.8995
 192  594.0078
 193  574.6676
 194  551.1494
 195  487.2232
 196  442.1163
 197  432.2308
 198  446.6559
 199  546.2691
 200  587.1772
 201  636.9456
 202  613.6823
 203  578.7769
 204  634.9164
 205  641.2059
 206  634.4341
 207  596.4056
 208  598.5034
 209  551.9465
 210  642.033
 211  694.9175
 212  743.347
 213  687.3863
 214  744.4069
 215  751.8207
 216  697.59
 217  661.2133
 218  541.1417
 219  630.8
 220  799.7463
 221  694.5351
 222  708.9665
 223  642.4037
 224  564.9653
 225  557.1484
 226  503.1111
 227  640.1557
 228  666.6572
 229  577.4558
 230  391.7513
 231  477.0932
 232  495.3379
 233  600.9976
 234  539.1802
 235  612.5286
 236  522.1059
 237  492.1723
 238  560.374
 239  714.4863
 240  599.0733
 241  527.366
 242  531.9327
 243  552.3931
 244  545.9109
 245  466.3929
 246  521.8288
 247  480.9879
 248  376.0308
 249  521.3041
 250  594.4107
 251  522.0618
 252  576.3873
 253  651.967
 254  515.8314
 255  549.7907
 256  562.3693
 257  591.7333
 258  453.1075
 259  507.3335
 260  488.5803
 261  550.7591
 262  537.9171
 263  638.2108
 264  699.3878
 265  604.109
 266  630.9296
 267  543.4498
 268  508.1129
 269  545.2579
 270  587.3558
 271  693.6108
 272  624.7598
 273  577.206
 274  593.2974
 275  474.9325
 276  455.5356
 277  547.1338
 278  606.8907
 279  514.0917
 280  556.7834
 281  632.2797
 282  597.9868
 283  640.9784
 284  662.0731
 285  493.673
 286  549.9346
 287  694.6038
 288  747.8428
 289  671.2498
 290  645.1919
 291  593.1124
 292  597.381
 293  553.6744
 294  647.3257
 295  718.5707
 296  656.6655
 297  630.4885
 298  648.6611
 299  653.2004
 300  580.4955
 301  473.968
 302  514.4217
 303  555.9005
 304  583.8032
 305  559.9694
 306  614.3726
 307  606.8345
 308  578.5922
 309  549.9193
 310  638.0753
 311  650.8256
 312  503.4418
 313  458.7038
 314  617.0654
 315  600.2441
 316  728.6015
 317  684.0517
 318  662.2852
 319  519.3021
 320  664.4719
 321  649.0348
 322  533.847
 323  634.1627
 324  772.0892
 325  673.7134
 326  576.3665
 327  578.4749
 328  625.7338
 329  652.5731
 330  787.8273
 331  759.2397
 332  684.9167
 333  611.6103
 334  613.6832
 335  725.2485
 336  790.0692
 337  860.5256
 338  839.9417
 339  812.0773
 340  748.4894
 341  752.1448
 342  825.6153
 343  826.8026
 344  870.894
 345  841.6196
 346  868.9015
 347  825.0967
 348  760.5445
 349  766.5845
 350  668.3838
 351  660.3494
 352  662.0295
 353  714.3157
 354  714.0298
 355  713.539
 356  726.6849
 357  790.0065
 358  692.8923
 359  614.1401
 360  635.8984
 361  521.0661
 362  636.7316
 363  702.2289
 364  570.8279
 365  561.9644
 366  572.3537
 367  643.4097
 368  674.9662
 369  628.1478
 370  514.198
 371  572.3047
 372  620.1063
 373  590.9148
 374  577.262
 375  579.3233
 376  676.3004
 377  619.3519
 378  553.9875
 379  537.4808
 380  670.7665
 381  718.8143
 382  735.2526
 383  720.059
 384  699.9077
 385  616.9758
 386  711.5688
 387  648.3561
 388  677.2099
 389  737.434
 390  738.5984
 391  664.3018
 392  686.5099
 393  722.3024
 394  813.9311
 395  723.0269
 396  660.325
 397  633.7597
 398  662.454
 399  694.7687
 400  731.4875
 401  785.8928
 402  720.8011
 403  629.4727
 404  689.2189
 405  652.6085
 406  688.6521
 407  622.3417
 408  602.9077
 409  616.2719
 410  597.4819
 411  675.486
 412  635.2987
 413  651.5959
 414  751.6403
 415  739.3267
 416  622.058
 417  666.3885
 418  645.137
 419  608.7748
 420  700.3571
 421  723.8636
 422  612.2708
 423  534.4875
 424  705.7108
 425  625.3171
 426  613.6371
 427  662.6935
 428  715.0244
 429  561.1868
 430  653.5927
 431  741.7233
 432  610.3715
 433  563.9688
 434  643.8823
 435  568.1347
 436  569.6606
 437  521.5706
 438  589.4473
 439  687.6005
 440  639.527
 441  502.4379
 442  702.3268
 443  700.2024
 444  628.6262
 445  600.591
 446  491.2008
 447  647.7671
 448  709.6276
 449  658.9018
 450  646.9151
 451  722.4212
 452  887.261
 453  737.7538
 454  684.3271
 455  687.7311
 456  653.0344
 457  757.3594
 458  762.68
 459  791.8473
 460  732.9139
 461  652.1017
 462  616.9633
 463  638.049
 464  688.5331
 465  596.4828
 466  551.6839
 467  576.1027
 468  558.3409
 469  518.3742
 470  499.648
 471  629.1623
 472  619.7069
 473  512.2924
 474  522.3689
 475  551.3713
 476  480.2257
 477  579.0939
 478  580.5764
 479  565.6037
 480  711.993
 481  643.8884
 482  633.3624
 483  631.2997
 484  646.9491
 485  548.1188
 486  624.3109
 487  660.8728
 488  646.2372
 489  643.6867
 490  570.9111
 491  532.6471
 492  564.3047
 493  610.2532
 494  760.5464
 495  651.3823
 496  662.6562
 497  440.7577
 498  574.9584
 499  625.4161
 500  535.6744
 501  626.5895
 502  621.4486
 503  600.0052
 504  772.8684
 505  679.0579
 506  706.0254
 507  598.5539
 508  723.6403
 509  950.1111
 510  1141.125
 511  1260.421
