# Input file       =  1184472772.105566_cleaned.dat
# Candidate        =  PSR_0332+5434
# Telescope        =  AR
# Epoch_topo       =  57953.175394740349
# Epoch_bary       =  N/A
# T_sample         =  0.002
# Data Folded      =  7340032
# Data Avg         =  0.0369622330524194
# Data StdDev      =  0.999873312175687
# Profile Bins     =  512
# Profile Avg      =  529.761024533217 
# Profile StdDev   =  119.717867658889 
# Reduced chi-sqr  =  1.655
# Prob(Noise)      <  6.18e-19   (~8.8 sigma)
# P_topo (ms)      =  714.476243763928  +/- 0.000354
# P'_topo (s/s)    =  -0                +/- 1.87e-10
# P''_topo (s/s^2) =  0                 +/- 8.25e-14
# P_bary (ms)      =  N/A
# P'_bary (s/s)    =  N/A
# P''_bary (s/s^2) =  N/A
# P_orb (s)        =  N/A
# asin(i)/c (s)    =  N/A
# eccentricity     =  N/A
# w (rad)          =  N/A
# T_peri           =  N/A
######################################################
   0  1321.086
   1  1342.795
   2  1148.418
   3  847.5801
   4  698.644
   5  640.4813
   6  658.437
   7  588.6543
   8  566.5727
   9  528.331
  10  536.4034
  11  540.3577
  12  642.1985
  13  743.712
  14  801.2901
  15  687.9664
  16  584.2977
  17  571.5377
  18  566.3838
  19  485.6167
  20  527.5777
  21  483.8176
  22  495.1952
  23  587.8276
  24  586.0325
  25  659.0257
  26  482.2968
  27  407.0359
  28  425.9486
  29  489.7428
  30  610.5938
  31  510.414
  32  431.1404
  33  460.3668
  34  534.4634
  35  480.1385
  36  440.881
  37  508.9961
  38  613.1563
  39  450.8036
  40  465.8347
  41  523.0101
  42  558.5219
  43  653.3845
  44  653.9785
  45  623.8391
  46  593.7859
  47  585.8633
  48  625.772
  49  439.3065
  50  448.2357
  51  640.6047
  52  493.4561
  53  509.4373
  54  565.2146
  55  559.1123
  56  530.6535
  57  505.2576
  58  593.5698
  59  709.8549
  60  510.3765
  61  462.5558
  62  528.8287
  63  545.5547
  64  512.8246
  65  588.8342
  66  622.4357
  67  609.3591
  68  690.0144
  69  673.6957
  70  627.5826
  71  730.7883
  72  772.3036
  73  594.2053
  74  554.9418
  75  711.8779
  76  695.7087
  77  598.591
  78  602.8768
  79  608.7596
  80  685.7961
  81  583.0148
  82  510.4188
  83  671.8096
  84  639.953
  85  630.545
  86  525.7311
  87  608.4221
  88  599.1122
  89  606.5538
  90  625.4971
  91  644.5571
  92  556.3434
  93  580.4542
  94  604.1724
  95  716.7497
  96  661.8393
  97  505.0147
  98  591.4243
  99  603.5894
 100  594.0869
 101  501.7755
 102  566.4498
 103  574.7736
 104  565.7234
 105  494.3064
 106  574.462
 107  548.4184
 108  587.3466
 109  556.5173
 110  546.4393
 111  593.0955
 112  646.9513
 113  719.3837
 114  717.5356
 115  589.6929
 116  610.0828
 117  567.1911
 118  537.7909
 119  535.9732
 120  535.2733
 121  538.9202
 122  627.6295
 123  597.7901
 124  603.5974
 125  537.0935
 126  570.3523
 127  457.1627
 128  436.9391
 129  492.6125
 130  622.4419
 131  558.3329
 132  437.312
 133  460.5782
 134  456.6413
 135  511.4172
 136  538.4049
 137  506.5645
 138  477.4022
 139  505.5129
 140  487.8768
 141  473.1048
 142  493.0375
 143  528.8912
 144  604.5015
 145  558.4792
 146  595.0975
 147  580.2837
 148  507.1321
 149  604.2849
 150  564.8835
 151  497.3935
 152  543.2597
 153  574.9615
 154  581.9511
 155  498.6819
 156  486.0704
 157  440.794
 158  473.8994
 159  419.2108
 160  503.6707
 161  592.7717
 162  528.6149
 163  503.8282
 164  469.6086
 165  355.291
 166  408.3916
 167  449.5824
 168  416.0151
 169  443.4626
 170  479.5927
 171  476.6841
 172  523.2598
 173  388.7085
 174  403.9759
 175  365.9161
 176  456.6466
 177  489.3217
 178  513.6769
 179  534.4899
 180  491.9109
 181  352.4594
 182  448.0392
 183  421.9259
 184  467.1645
 185  554.9129
 186  529.6048
 187  458.5871
 188  492.0955
 189  451.2589
 190  374.1303
 191  299.7407
 192  425.3965
 193  530.4361
 194  474.7799
 195  360.4994
 196  459.1739
 197  513.101
 198  570.0841
 199  499.1172
 200  337.0048
 201  395.6827
 202  445.2199
 203  581.7934
 204  555.8762
 205  625.0046
 206  689.8874
 207  476.3258
 208  445.2268
 209  507.8001
 210  458.741
 211  441.1134
 212  609.2853
 213  503.0663
 214  420.9543
 215  406.0642
 216  494.4354
 217  493.3402
 218  534.202
 219  539.851
 220  535.6717
 221  454.2751
 222  588.6002
 223  565.6086
 224  517.2762
 225  415.6843
 226  478.8179
 227  580.2364
 228  577.2229
 229  652.618
 230  726.1999
 231  701.7264
 232  616.3317
 233  643.5125
 234  538.1215
 235  369.413
 236  539.5816
 237  576.1354
 238  580.0543
 239  610.3819
 240  574.7463
 241  521.9268
 242  413.492
 243  449.2682
 244  534.0851
 245  540.9387
 246  590.7082
 247  499.1484
 248  385.248
 249  472.0715
 250  435.6396
 251  528.0258
 252  498.8836
 253  448.8563
 254  465.1891
 255  494.5736
 256  432.6119
 257  425.2278
 258  481.4417
 259  436.7586
 260  441.0639
 261  484.037
 262  426.6636
 263  309.7831
 264  338.4211
 265  484.436
 266  396.3833
 267  422.0389
 268  469.3369
 269  475.4661
 270  450.5553
 271  449.4539
 272  498.7264
 273  588.4061
 274  647.827
 275  708.1181
 276  633.0394
 277  513.3387
 278  487.3772
 279  525.9806
 280  562.9006
 281  623.4031
 282  541.7656
 283  493.9614
 284  515.6889
 285  489.7906
 286  507.8748
 287  601.0553
 288  590.7475
 289  565.6149
 290  607.3375
 291  543.8516
 292  527.001
 293  583.0149
 294  627.8288
 295  483.8945
 296  385.2465
 297  587.1872
 298  531.8402
 299  501.5924
 300  589.7283
 301  533.6906
 302  585.7637
 303  564.563
 304  570.9231
 305  494.396
 306  463.9374
 307  445.839
 308  535.7757
 309  586.7318
 310  440.4459
 311  396.5786
 312  445.6973
 313  493.6891
 314  529.9513
 315  560.1073
 316  515.1228
 317  445.1141
 318  463.7556
 319  458.7184
 320  421.606
 321  421.118
 322  502.9554
 323  499.8063
 324  388.7515
 325  412.4775
 326  353.4924
 327  481.1203
 328  409.2535
 329  396.0886
 330  494.8589
 331  450.3213
 332  472.1002
 333  472.0363
 334  537.1694
 335  453.8702
 336  413.576
 337  458.0198
 338  427.1539
 339  484.4223
 340  535.445
 341  540.9112
 342  475.7367
 343  495.6902
 344  452.9959
 345  529.8428
 346  508.0758
 347  527.7258
 348  394.0368
 349  413.2505
 350  539.3517
 351  503.8898
 352  455.1646
 353  420.2531
 354  470.6653
 355  467.7385
 356  407.8397
 357  426.8582
 358  497.3121
 359  457.0919
 360  457.3063
 361  485.7525
 362  457.5441
 363  615.0445
 364  649.1147
 365  530.5325
 366  499.6797
 367  426.3204
 368  537.2116
 369  515.8973
 370  479.8389
 371  545.9133
 372  530.3994
 373  572.0736
 374  473.8036
 375  499.2834
 376  534.2184
 377  501.9323
 378  466.7676
 379  408.5737
 380  510.8893
 381  539.1145
 382  469.9674
 383  402.7291
 384  493.9581
 385  501.3334
 386  491.8219
 387  577.5826
 388  604.5739
 389  622.7321
 390  568.3362
 391  461.4779
 392  449.1523
 393  377.1322
 394  505.365
 395  505.3452
 396  446.5812
 397  317.7943
 398  316.0294
 399  361.2126
 400  349.727
 401  308.8186
 402  424.4024
 403  493.458
 404  391.0524
 405  337.0491
 406  359.3315
 407  290.9004
 408  330.6527
 409  441.8761
 410  498.4188
 411  481.7738
 412  340.3717
 413  478.4297
 414  415.3201
 415  471.2366
 416  525.3431
 417  579.2778
 418  579.1663
 419  606.2633
 420  511.4128
 421  524.6365
 422  340.5285
 423  332.4867
 424  521.1518
 425  433.657
 426  459.4841
 427  423.7679
 428  478.7887
 429  364.2438
 430  403.4759
 431  487.9716
 432  598.699
 433  470.2173
 434  479.6826
 435  483.6942
 436  525.3745
 437  578.6411
 438  641.2977
 439  663.8089
 440  580.0106
 441  544.6035
 442  532.7299
 443  591.6311
 444  592.4227
 445  505.3111
 446  553.5146
 447  663.3215
 448  668.1732
 449  579.4318
 450  492.1005
 451  494.2505
 452  492.5632
 453  472.045
 454  455.5181
 455  525.9478
 456  533.0559
 457  545.9971
 458  529.1526
 459  512.17
 460  550.7184
 461  536.1054
 462  595.2366
 463  514.1808
 464  591.2089
 465  453.3227
 466  490.6382
 467  580.5681
 468  640.9606
 469  564.3414
 470  595.2693
 471  650.0178
 472  583.0469
 473  488.0581
 474  461.0754
 475  505.065
 476  557.5192
 477  547.2997
 478  515.2214
 479  591.6498
 480  520.7672
 481  541.5788
 482  569.8058
 483  514.3781
 484  538.3758
 485  504.5322
 486  499.4303
 487  457.8153
 488  488.1537
 489  586.7938
 490  617.2845
 491  610.009
 492  588.4066
 493  594.0612
 494  496.965
 495  597.1503
 496  565.7499
 497  607.46
 498  501.2493
 499  514.647
 500  502.6058
 501  593.4124
 502  563.6089
 503  547.0461
 504  573.4706
 505  711.8694
 506  689.7106
 507  770.9315
 508  666.3585
 509  805.863
 510  1116.355
 511  1250.56
