# Input file       =  1184660059.09953_cleaned.dat
# Candidate        =  PSR_0332+5434
# Telescope        =  AR
# Epoch_topo       =  57955.343068281596
# Epoch_bary       =  N/A
# T_sample         =  0.002
# Data Folded      =  7340032
# Data Avg         =  0.0430908420283416
# Data StdDev      =  1.00042450757584 
# Profile Bins     =  512
# Profile Avg      =  617.753397419645 
# Profile StdDev   =  119.783863957786 
# Reduced chi-sqr  =  1.340
# Prob(Noise)      <  3.99e-07   (~4.9 sigma)
# P_topo (ms)      =  714.475271682534  +/- 0.000466
# P'_topo (s/s)    =  -0                +/- 2.46e-10
# P''_topo (s/s^2) =  0                 +/- 1.09e-13
# P_bary (ms)      =  N/A
# P'_bary (s/s)    =  N/A
# P''_bary (s/s^2) =  N/A
# P_orb (s)        =  N/A
# asin(i)/c (s)    =  N/A
# eccentricity     =  N/A
# w (rad)          =  N/A
# T_peri           =  N/A
######################################################
   0  1094.957
   1  1067.701
   2  899.9719
   3  717.2559
   4  622.627
   5  558.9612
   6  541.6971
   7  501.7124
   8  541.6392
   9  601.3033
  10  673.3802
  11  699.87
  12  647.0452
  13  557.062
  14  592.2212
  15  656.9768
  16  674.0874
  17  660.7581
  18  614.9177
  19  567.104
  20  492.2645
  21  552.2142
  22  669.2282
  23  580.7153
  24  561.4399
  25  578.5914
  26  697.8054
  27  643.3436
  28  570.8574
  29  522.3279
  30  519.1356
  31  657.9111
  32  630.7811
  33  563.4566
  34  623.7688
  35  624.0488
  36  765.395
  37  762.8537
  38  712.2382
  39  680.7294
  40  743.1937
  41  746.2125
  42  722.9612
  43  655.4117
  44  607.2706
  45  641.4406
  46  665.2648
  47  563.0555
  48  494.5316
  49  525.715
  50  573.498
  51  645.5005
  52  751.0181
  53  674.0699
  54  488.9136
  55  505.4655
  56  586.6779
  57  573.7569
  58  534.0784
  59  580.4343
  60  661.4507
  61  703.9743
  62  721.7117
  63  678.8963
  64  715.7065
  65  625.5072
  66  574.2028
  67  658.7504
  68  657.7043
  69  626.9353
  70  682.7124
  71  746.0364
  72  753.4722
  73  647.1804
  74  632.822
  75  689.2402
  76  725.3262
  77  739.8779
  78  802.6424
  79  676.2153
  80  730.2939
  81  718.712
  82  783.8948
  83  684.5922
  84  825.955
  85  843.3423
  86  697.9597
  87  664.6672
  88  691.1096
  89  682.9559
  90  666.849
  91  635.9425
  92  518.7695
  93  646.0441
  94  619.8947
  95  637.3663
  96  607.644
  97  645.8434
  98  637.3389
  99  672.4349
 100  618.7462
 101  532.9749
 102  660.8087
 103  688.3572
 104  623.0242
 105  710.1882
 106  829.6858
 107  759.1904
 108  678.5577
 109  678.1575
 110  643.3245
 111  662.3548
 112  750.6721
 113  674.9752
 114  615.7398
 115  696.2839
 116  644.1327
 117  617.2723
 118  628.7406
 119  632.7661
 120  672.5923
 121  628.8135
 122  613.3277
 123  620.6254
 124  652.0509
 125  720.533
 126  776.7416
 127  758.9767
 128  655.4097
 129  720.3127
 130  810.0513
 131  767.2719
 132  645.2023
 133  807.0804
 134  855.2781
 135  669.1677
 136  635.2374
 137  652.5862
 138  773.0485
 139  703.1075
 140  617.6727
 141  653.1039
 142  635.8593
 143  705.2418
 144  715.4939
 145  744.06
 146  770.9602
 147  722.4958
 148  609.6603
 149  630.6722
 150  648.3806
 151  772.5734
 152  740.799
 153  689.6552
 154  628.1576
 155  743.3762
 156  678.999
 157  581.1863
 158  656.0364
 159  784.8619
 160  760.7925
 161  749.703
 162  701.6443
 163  665.7475
 164  741.9139
 165  698.3662
 166  626.2573
 167  734.2178
 168  714.4163
 169  635.0741
 170  640.0222
 171  652.865
 172  579.2443
 173  625.2123
 174  686.9536
 175  689.2954
 176  691.1501
 177  690.151
 178  622.8802
 179  593.5432
 180  807.5737
 181  743.3096
 182  714.6413
 183  770.8237
 184  676.936
 185  600.8633
 186  703.7083
 187  725.1408
 188  720.5248
 189  655.3062
 190  742.5878
 191  611.7928
 192  547.5776
 193  637.8542
 194  663.2121
 195  649.4518
 196  632.2977
 197  695.0627
 198  596.6282
 199  543.0255
 200  579.4848
 201  625.3043
 202  687.444
 203  627.1039
 204  582.4227
 205  708.5126
 206  766.1248
 207  799.0757
 208  745.4129
 209  618.5065
 210  577.7416
 211  591.4333
 212  538.1293
 213  590.5079
 214  649.6252
 215  566.165
 216  661.188
 217  602.2309
 218  596.0792
 219  627.5545
 220  572.2648
 221  687.7235
 222  699.7039
 223  675.1301
 224  682.2232
 225  627.1675
 226  595.0921
 227  630.7846
 228  588.7219
 229  563.56
 230  634.4739
 231  654.9078
 232  618.6271
 233  554.0984
 234  508.459
 235  457.4666
 236  590.0707
 237  612.7991
 238  546.7631
 239  602.2117
 240  555.5521
 241  601.4103
 242  658.6377
 243  707.2349
 244  612.9309
 245  585.8298
 246  617.4665
 247  688.3093
 248  656.4345
 249  574.7219
 250  590.9438
 251  497.3634
 252  524.7809
 253  683.2501
 254  766.6031
 255  744.6205
 256  761.2275
 257  808.2559
 258  722.0111
 259  638.1592
 260  629.4351
 261  603.4966
 262  556.298
 263  653.199
 264  605.821
 265  524.342
 266  635.2376
 267  575.9375
 268  603.4421
 269  601.8044
 270  542.6988
 271  437.6078
 272  494.045
 273  575.0675
 274  577.3831
 275  492.6698
 276  597.4234
 277  610.7751
 278  503.4602
 279  440.2524
 280  540.9028
 281  615.265
 282  635.615
 283  630.6163
 284  483.384
 285  520.5788
 286  493.0153
 287  567.7737
 288  655.074
 289  655.6035
 290  610.0596
 291  665.7902
 292  626.5947
 293  602.4385
 294  602.6494
 295  629.375
 296  605.6768
 297  507.6368
 298  673.3739
 299  626.7286
 300  564.7079
 301  609.3174
 302  542.365
 303  490.0959
 304  484.3444
 305  465.237
 306  497.7842
 307  614.1469
 308  505.0026
 309  557.1677
 310  499.0809
 311  652.9279
 312  660.6689
 313  537.5273
 314  588.8534
 315  521.3163
 316  580.3831
 317  670.2028
 318  608.9693
 319  635.9286
 320  570.3309
 321  536.833
 322  568.1552
 323  542.1534
 324  632.2861
 325  506.2911
 326  522.0353
 327  577.9001
 328  507.2766
 329  564.5881
 330  554.9343
 331  613.555
 332  682.4194
 333  534.4269
 334  451.2144
 335  433.8045
 336  483.1636
 337  515.9352
 338  554.0247
 339  557.5634
 340  487.6039
 341  465.6599
 342  425.9392
 343  425.1448
 344  496.7261
 345  609.3922
 346  639.3911
 347  572.0865
 348  532.4406
 349  556.0456
 350  501.4388
 351  630.104
 352  597.3464
 353  560.472
 354  460.9987
 355  494.7047
 356  487.8417
 357  564.3569
 358  456.7729
 359  398.4617
 360  402.7511
 361  386.5773
 362  419.3798
 363  450.257
 364  499.6132
 365  410.6875
 366  546.156
 367  424.0992
 368  431.3651
 369  455.6481
 370  434.6157
 371  453.9922
 372  409.5608
 373  445.8194
 374  469.6707
 375  527.3981
 376  574.3727
 377  568.1755
 378  473.1356
 379  542.3228
 380  615.628
 381  647.032
 382  541.7803
 383  440.2097
 384  528.9193
 385  483.5924
 386  546.6955
 387  521.8646
 388  501.6726
 389  427.7991
 390  555.9661
 391  491.04
 392  458.2292
 393  449.0846
 394  444.1427
 395  568.2562
 396  611.0424
 397  556.7379
 398  472.197
 399  412.2104
 400  501.3841
 401  429.3694
 402  434.9964
 403  398.6351
 404  412.946
 405  492.8855
 406  434.8723
 407  425.6522
 408  432.8768
 409  426.3798
 410  475.9376
 411  442.8589
 412  475.2958
 413  499.8044
 414  535.52
 415  471.9279
 416  490.0628
 417  485.8196
 418  543.6187
 419  634.5891
 420  583.4149
 421  517.1865
 422  501.9608
 423  566.0484
 424  635.6909
 425  652.5577
 426  712.6508
 427  679.5668
 428  604.1104
 429  507.9172
 430  575.1387
 431  659.112
 432  683.7278
 433  553.2674
 434  606.8267
 435  664.2516
 436  740.8325
 437  729.5837
 438  662.0692
 439  649.9929
 440  575.5388
 441  641.5468
 442  612.554
 443  581.6031
 444  599.3843
 445  557.1442
 446  635.9439
 447  567.7534
 448  702.184
 449  723.0964
 450  685.5586
 451  608.7682
 452  648.1312
 453  607.9193
 454  699.3519
 455  692.9771
 456  703.6521
 457  644.7693
 458  612.0616
 459  595.9547
 460  595.2928
 461  650.2518
 462  676.5822
 463  665.7989
 464  612.1113
 465  690.9189
 466  636.5023
 467  655.6344
 468  596.7047
 469  498.7668
 470  598.7426
 471  584.9956
 472  556.9684
 473  661.2415
 474  742.0485
 475  694.646
 476  593.4896
 477  533.532
 478  526.639
 479  606.4866
 480  653.963
 481  653.6811
 482  526.1972
 483  598.603
 484  681.2024
 485  713.3116
 486  724.3025
 487  671.5486
 488  669.1912
 489  715.6133
 490  649.5216
 491  596.1177
 492  685.6505
 493  728.9948
 494  667.4514
 495  625.3953
 496  622.5779
 497  611.0715
 498  591.1943
 499  695.3571
 500  746.4378
 501  634.5966
 502  670.2817
 503  701.9596
 504  763.9022
 505  758.3814
 506  672.7297
 507  738.3958
 508  765.3301
 509  886.5032
 510  944.5785
 511  1055.796
