# Input file       =  1184558949.114869_cleaned.dat
# Candidate        =  PSR_0332+5434
# Telescope        =  AR
# Epoch_topo       =  57954.172813829500
# Epoch_bary       =  N/A
# T_sample         =  0.002
# Data Folded      =  7340032
# Data Avg         =  0.0353336007154636
# Data StdDev      =  1.00033031861798 
# Profile Bins     =  512
# Profile Avg      =  506.582271494418 
# Profile StdDev   =  119.772586427868 
# Reduced chi-sqr  =  1.595
# Prob(Noise)      <  2.44e-16   (~8.1 sigma)
# P_topo (ms)      =  714.475636119799  +/- 0.000155
# P'_topo (s/s)    =  -0                +/- 8.2e-11
# P''_topo (s/s^2) =  0                 +/- 3.62e-14
# P_bary (ms)      =  N/A
# P'_bary (s/s)    =  N/A
# P''_bary (s/s^2) =  N/A
# P_orb (s)        =  N/A
# asin(i)/c (s)    =  N/A
# eccentricity     =  N/A
# w (rad)          =  N/A
# T_peri           =  N/A
######################################################
   0  429.7567
   1  483.4948
   2  625.2894
   3  596.1765
   4  515.0449
   5  439.9344
   6  363.1927
   7  435.9738
   8  516.9598
   9  350.2991
  10  387.7249
  11  470.5756
  12  440.6617
  13  435.1025
  14  421.9845
  15  491.4524
  16  484.8651
  17  512.9808
  18  378.9092
  19  393.3085
  20  462.8824
  21  500.5156
  22  435.3467
  23  456.1807
  24  438.1996
  25  501.9378
  26  579.7138
  27  407.6633
  28  454.6479
  29  628.0401
  30  519.2769
  31  478.3642
  32  499.3763
  33  467.7749
  34  418.8154
  35  369.4789
  36  488.166
  37  502.5714
  38  475.1076
  39  591.6075
  40  525.5428
  41  503.3351
  42  436.0339
  43  555.5263
  44  658.6807
  45  648.5408
  46  504.4264
  47  485.4968
  48  553.5692
  49  392.1129
  50  329.2969
  51  425.8664
  52  610.8354
  53  582.4311
  54  496.3251
  55  484.5955
  56  484.3646
  57  502.4928
  58  564.1408
  59  565.989
  60  482.0487
  61  367.4744
  62  438.0616
  63  486.8577
  64  402.0812
  65  378.3775
  66  426.7454
  67  402.216
  68  405.5065
  69  385.0909
  70  417.8941
  71  494.8753
  72  235.7566
  73  273.1187
  74  480.6722
  75  545.7874
  76  458.4771
  77  504.0503
  78  574.4998
  79  545.2092
  80  430.3937
  81  537.0762
  82  504.5105
  83  467.9366
  84  510.0073
  85  620.8895
  86  614.3552
  87  586.8739
  88  526.3641
  89  459.3709
  90  650.0632
  91  620.6287
  92  603.5172
  93  596.3402
  94  553.4503
  95  509.4726
  96  536.5239
  97  566.0641
  98  466.1797
  99  597.2827
 100  612.0895
 101  585.8574
 102  518.0438
 103  553.1158
 104  438.703
 105  438.213
 106  526.0647
 107  624.7462
 108  581.5255
 109  639.9997
 110  612.9603
 111  455.3005
 112  555.7748
 113  656.3568
 114  556.5029
 115  478.5402
 116  442.253
 117  372.745
 118  363.6353
 119  445.1745
 120  398.2761
 121  446.9162
 122  643.3765
 123  579.3116
 124  421.219
 125  457.6574
 126  513.8864
 127  524.2185
 128  539.8428
 129  469.2185
 130  567.8101
 131  652.0063
 132  486.1447
 133  465.6814
 134  603.3552
 135  555.0925
 136  392.5075
 137  337.3471
 138  428.4743
 139  453.6967
 140  458.1464
 141  519.5415
 142  506.0052
 143  519.0439
 144  571.2217
 145  536.7738
 146  444.7764
 147  423.0899
 148  428.8979
 149  528.9291
 150  573.0093
 151  563.7044
 152  528.4594
 153  490.7304
 154  412.5945
 155  553.9699
 156  526.574
 157  561.8204
 158  674.0855
 159  612.6625
 160  696.8495
 161  697.7865
 162  673.4037
 163  530.427
 164  408.9533
 165  478.7224
 166  441.4992
 167  595.3594
 168  501.2099
 169  496.6251
 170  568.5733
 171  620.0742
 172  655.3453
 173  721.8309
 174  788.2821
 175  786.2148
 176  819.235
 177  1121.007
 178  1322.719
 179  1294.094
 180  1153.001
 181  1029.198
 182  823.4548
 183  684.3011
 184  617.3611
 185  426.5355
 186  459.4329
 187  472.3781
 188  447.3411
 189  465.7729
 190  467.3475
 191  529.6164
 192  579.6545
 193  503.4721
 194  535.7246
 195  694.3021
 196  651.9405
 197  537.2255
 198  549.3443
 199  661.0282
 200  534.3724
 201  629.7222
 202  623.9192
 203  559.6057
 204  561.4545
 205  577.6509
 206  607.3122
 207  612.6367
 208  576.0234
 209  435.2482
 210  626.7579
 211  634.4879
 212  630.6036
 213  760.0217
 214  634.0065
 215  497.185
 216  372.1464
 217  475.7013
 218  546.9755
 219  535.6724
 220  522.4139
 221  498.4422
 222  482.6579
 223  483.2819
 224  462.9023
 225  509.4801
 226  505.7403
 227  527.2694
 228  469.8101
 229  565.1468
 230  486.4589
 231  443.0111
 232  490.0039
 233  475.7372
 234  585.7079
 235  424.5839
 236  421.0149
 237  425.1421
 238  441.0344
 239  377.028
 240  466.8619
 241  496.9819
 242  484.3206
 243  435.7256
 244  572.8732
 245  544.0251
 246  497.9853
 247  476.3791
 248  576.0535
 249  487.1451
 250  516.1911
 251  655.8115
 252  594.2083
 253  597.5189
 254  480.4758
 255  406.6562
 256  467.3101
 257  455.645
 258  486.4248
 259  590.8859
 260  477.5167
 261  487.9793
 262  424.216
 263  564.7214
 264  612.3049
 265  644.7491
 266  567.2572
 267  473.4862
 268  427.7197
 269  350.0678
 270  504.2648
 271  502.3863
 272  485.3052
 273  565.4269
 274  526.9197
 275  652.5419
 276  569.8517
 277  465.3029
 278  528.29
 279  541.6337
 280  489.5443
 281  388.3891
 282  468.6459
 283  507.0891
 284  578.2167
 285  491.2151
 286  472.596
 287  375.565
 288  354.1052
 289  351.5945
 290  477.1986
 291  500.1772
 292  480.8696
 293  552.4359
 294  468.7273
 295  443.5096
 296  531.1329
 297  578.6197
 298  540.6661
 299  563.0831
 300  537.6196
 301  439.2439
 302  428.9571
 303  417.3428
 304  591.0822
 305  589.9983
 306  490.4954
 307  465.8319
 308  510.3869
 309  511.7095
 310  461.754
 311  630.9704
 312  604.5214
 313  609.6122
 314  566.6641
 315  687.4578
 316  613.3577
 317  545.2163
 318  449.5512
 319  459.8988
 320  369.8282
 321  499.464
 322  546.1407
 323  581.5566
 324  491.021
 325  452.0275
 326  328.1717
 327  426.1537
 328  471.5633
 329  587.3113
 330  555.2015
 331  474.1696
 332  399.8576
 333  380.0053
 334  423.7225
 335  463.2116
 336  588.1937
 337  612.2452
 338  706.4932
 339  636.6204
 340  517.6635
 341  578.3655
 342  614.0098
 343  534.1335
 344  464.6503
 345  571.0234
 346  575.7133
 347  503.6527
 348  527.0649
 349  442.1095
 350  462.8083
 351  475.3127
 352  472.2685
 353  462.8123
 354  356.059
 355  428.2741
 356  566.6205
 357  497.6019
 358  427.8409
 359  410.6281
 360  410.3728
 361  347.2564
 362  436.6349
 363  447.3832
 364  527.5163
 365  471.8152
 366  412.5074
 367  424.5333
 368  371.4619
 369  444.7958
 370  627.1017
 371  587.6407
 372  458.7675
 373  478.034
 374  514.5184
 375  609.4549
 376  475.9655
 377  381.463
 378  358.6032
 379  344.7359
 380  494.7231
 381  477.2432
 382  324.1832
 383  395.7269
 384  373.7061
 385  360.9817
 386  469.9511
 387  370.8159
 388  371.143
 389  505.2821
 390  472.4232
 391  492.1836
 392  460.0407
 393  424.7867
 394  542.5136
 395  470.337
 396  408.2288
 397  446.1265
 398  536.6587
 399  575.8409
 400  478.0864
 401  533.7409
 402  541.9822
 403  411.1222
 404  420.2046
 405  484.3845
 406  535.7857
 407  541.2654
 408  563.4467
 409  434.0692
 410  565.5966
 411  516.9855
 412  425.8059
 413  411.1153
 414  456.6793
 415  331.6303
 416  321.8464
 417  541.9523
 418  510.7892
 419  551.9319
 420  546.4547
 421  488.0989
 422  419.1661
 423  320.273
 424  450.0815
 425  502.8518
 426  473.2708
 427  611.772
 428  612.7987
 429  551.6996
 430  356.83
 431  430.4272
 432  520.7186
 433  588.4583
 434  495.1398
 435  480.6558
 436  565.0406
 437  503.6527
 438  483.8959
 439  444.4073
 440  543.054
 441  496.029
 442  410.1515
 443  416.1067
 444  435.3605
 445  439.2852
 446  471.516
 447  441.1093
 448  378.0162
 449  253.9426
 450  474.6527
 451  553.5102
 452  541.1802
 453  417.7031
 454  446.9532
 455  362.1529
 456  355.1795
 457  467.8388
 458  357.8925
 459  292.0072
 460  494.6242
 461  485.0899
 462  373.7055
 463  368.4993
 464  489.9179
 465  566.364
 466  532.5059
 467  451.3713
 468  402.1137
 469  500.2478
 470  454.3458
 471  418.9549
 472  342.6083
 473  486.8003
 474  479.3561
 475  380.024
 476  346.8128
 477  435.5427
 478  444.498
 479  440.5452
 480  562.2541
 481  547.736
 482  546.8756
 483  488.059
 484  562.8619
 485  506.6086
 486  472.8712
 487  512.1297
 488  577.8628
 489  574.6786
 490  458.9133
 491  450.2854
 492  560.2211
 493  483.6877
 494  424.6227
 495  421.3473
 496  411.0369
 497  441.3227
 498  446.5899
 499  505.3366
 500  598.4214
 501  611.9027
 502  553.0821
 503  540.4363
 504  563.4169
 505  509.4873
 506  562.4205
 507  556.5095
 508  482.5482
 509  538.4727
 510  463.1223
 511  508.0689
