# Input file       =  1184660059.09953_cleaned.dat
# Candidate        =  PSR_0332+5434
# Telescope        =  AR
# Epoch_topo       =  57955.343068281596
# Epoch_bary       =  N/A
# T_sample         =  0.002
# Data Folded      =  7340032
# Data Avg         =  0.0430908420283416
# Data StdDev      =  1.00042450757584 
# Profile Bins     =  512
# Profile Avg      =  617.753397415902 
# Profile StdDev   =  119.783863957786 
# Reduced chi-sqr  =  1.349
# Prob(Noise)      <  2.21e-07   (~5.1 sigma)
# P_topo (ms)      =  714.475271600497  +/- 0.000462
# P'_topo (s/s)    =  -0                +/- 2.44e-10
# P''_topo (s/s^2) =  0                 +/- 1.08e-13
# P_bary (ms)      =  N/A
# P'_bary (s/s)    =  N/A
# P''_bary (s/s^2) =  N/A
# P_orb (s)        =  N/A
# asin(i)/c (s)    =  N/A
# eccentricity     =  N/A
# w (rad)          =  N/A
# T_peri           =  N/A
######################################################
   0  1075.324
   1  1090.512
   2  1025.407
   3  807.1416
   4  674.2516
   5  578.8119
   6  557.8696
   7  518.6526
   8  517.125
   9  553.6763
  10  643.6526
  11  674.3695
  12  706.2849
  13  592.7597
  14  568.4112
  15  623.8779
  16  669.3297
  17  665.5668
  18  647.0336
  19  590.992
  20  538.3169
  21  489.8815
  22  624.5007
  23  639.8756
  24  558.4649
  25  562.5414
  26  628.738
  27  707.2909
  28  595.5656
  29  562.2676
  30  482.266
  31  594.495
  32  658.735
  33  594.5139
  34  579.7438
  35  632.8274
  36  671.9054
  37  795.4506
  38  723.5745
  39  700.4398
  40  685.2133
  41  764.703
  42  745.7004
  43  691.0775
  44  643.6575
  45  602.5415
  46  670.431
  47  633.4277
  48  515.8423
  49  507.6606
  50  542.3765
  51  598.4814
  52  681.7579
  53  753.1364
  54  567.9778
  55  487.2089
  56  550.0187
  57  588.9264
  58  560.1489
  59  534.298
  60  625.84
  61  673.5919
  62  727.6016
  63  690.4963
  64  711.6675
  65  681.6709
  66  594.3177
  67  586.378
  68  686.4651
  69  624.6508
  70  654.0532
  71  702.9302
  72  777.8686
  73  698.2401
  74  629.6334
  75  649.4758
  76  714.4401
  77  726.4701
  78  779.8894
  79  750.22
  80  682.4716
  81  731.2414
  82  757.6746
  83  733.3465
  84  719.4581
  85  878.5465
  86  781.1194
  87  663.4418
  88  671.1671
  89  694.0256
  90  661.8303
  91  688.274
  92  563.0001
  93  558.2612
  94  653.3432
  95  622.3493
  96  627.7936
  97  626.8666
  98  632.4932
  99  662.9054
 100  653.1181
 101  574.8579
 102  566.4147
 103  709.7653
 104  644.0471
 105  637.2688
 106  787.776
 107  815.2333
 108  709.6305
 109  677.6318
 110  654.9965
 111  638.4076
 112  710.348
 113  744.6007
 114  620.9647
 115  657.0882
 116  678.1876
 117  628.8575
 118  613.6761
 119  641.4511
 120  659.9431
 121  649.549
 122  622.0176
 123  587.1414
 124  658.7395
 125  655.418
 126  770.5025
 127  777.2569
 128  700.4633
 129  666.684
 130  762.4675
 131  839.775
 132  685.4744
 133  701.5919
 134  864.4006
 135  783.1309
 136  619.4185
 137  643.8121
 138  700.7188
 139  771.0316
 140  658.3027
 141  602.7674
 142  671.5989
 143  632.8311
 144  750.1821
 145  689.5712
 146  791.8804
 147  748.4977
 148  674.1956
 149  604.2803
 150  622.4928
 151  706.9811
 152  772.1044
 153  724.5546
 154  648.5123
 155  670.1387
 156  736.8868
 157  627.0689
 158  592.3234
 159  732.3651
 160  786.147
 161  740.1372
 162  742.853
 163  681.962
 164  688.0137
 165  766.5996
 166  625.3983
 167  675.4738
 168  741.7177
 169  670.0688
 170  618.6629
 171  664.8311
 172  620.6702
 173  583.381
 174  667.666
 175  691.6068
 176  686.0286
 177  685.6746
 178  688.2945
 179  564.6416
 180  704.4182
 181  788.4893
 182  719.86
 183  757.8707
 184  734.2655
 185  635.8718
 186  622.5731
 187  738.2479
 188  726.584
 189  668.3677
 190  706.0605
 191  695.1526
 192  576.3489
 193  549.0568
 194  685.3107
 195  646.9485
 196  643.4147
 197  651.8342
 198  674.2475
 199  559.4015
 200  565.7621
 201  586.6851
 202  646.3586
 203  675.4922
 204  598.6978
 205  632.1537
 206  760.5627
 207  771.9877
 208  796.5765
 209  674.0931
 210  598.6235
 211  570.4831
 212  578.988
 213  539.2307
 214  639.1824
 215  611.2598
 216  586.0403
 217  667.095
 218  581.2375
 219  621.8915
 220  596.7089
 221  592.4197
 222  743.5724
 223  659.9977
 224  696.4058
 225  643.703
 226  610.4512
 227  605.1718
 228  635.5986
 229  559.3886
 230  601.2227
 231  643.8964
 232  664.1876
 233  576.2805
 234  546.7363
 235  441.7325
 236  522.097
 237  609.4558
 238  605.9855
 239  529.7547
 240  619.5288
 241  541.9049
 242  644.8243
 243  684.5336
 244  672.0842
 245  595.8605
 246  577.1308
 247  672.2816
 248  675.5001
 249  625.5705
 250  569.4635
 251  560.6603
 252  483.2143
 253  594.513
 254  737.625
 255  759.681
 256  747.9404
 257  787.0842
 258  799.4271
 259  655.934
 260  642.6946
 261  613.4903
 262  570.9503
 263  601.1627
 264  640.4642
 265  564.9281
 266  550.4907
 267  647.3051
 268  566.2841
 269  617.9199
 270  580.3757
 271  480.2463
 272  450.4897
 273  526.7882
 274  614.7185
 275  508.4676
 276  531.1658
 277  631.6235
 278  553.4653
 279  477.241
 280  453.1859
 281  616.0743
 282  596.5065
 283  681.4502
 284  530.8575
 285  509.879
 286  492.3772
 287  521.9723
 288  614.9101
 289  662.8481
 290  637.8054
 291  615.7697
 292  679.9089
 293  580.1854
 294  626.8002
 295  593.8193
 296  650.4301
 297  549.3414
 298  556.1074
 299  695.5471
 300  567.4882
 301  594.0136
 302  598.4075
 303  506.5531
 304  481.2192
 305  469.8708
 306  463.1218
 307  571.1412
 308  572.8431
 309  522.3112
 310  530.7123
 311  530.2727
 312  704.2154
 313  575.1129
 314  576.0856
 315  567.4568
 316  532.0018
 317  636.8026
 318  645.8087
 319  601.9738
 320  626.6908
 321  542.4379
 322  556.9453
 323  548.1286
 324  567.658
 325  623.9772
 326  462.7255
 327  585.0829
 328  528.4958
 329  520.1785
 330  573.0626
 331  550.9969
 332  683.6841
 333  623.3721
 334  507.6494
 335  428.1682
 336  457.9427
 337  471.7556
 338  545.2896
 339  544.6915
 340  559.2519
 341  449.6538
 342  467.3536
 343  411.1613
 344  442.1684
 345  548.8027
 346  639.4153
 347  623.8525
 348  540.5708
 349  545.4034
 350  527.0914
 351  537.0256
 352  660.4609
 353  554.0286
 354  550.0425
 355  433.6476
 356  510.6915
 357  502.8278
 358  547.5674
 359  420.2831
 360  389.4615
 361  409.5688
 362  373.7156
 363  459.1147
 364  458.5418
 365  460.0054
 366  453.7069
 367  542.0471
 368  382.6979
 369  474.5194
 370  433.0594
 371  452.7077
 372  428.6707
 373  412.9936
 374  452.8886
 375  490.9613
 376  553.4301
 377  586.6124
 378  528.7681
 379  472.7618
 380  604.437
 381  612.2683
 382  641.6316
 383  448.2631
 384  498.9397
 385  500.211
 386  522.8033
 387  519.691
 388  544.8961
 389  432.8926
 390  493.8091
 391  548.3165
 392  465.9292
 393  452.4606
 394  436.3979
 395  493.5115
 396  602.0449
 397  598.6016
 398  519.2438
 399  421.3158
 400  457.7623
 401  480.8746
 402  422.4362
 403  435.7714
 404  383.5061
 405  466.7558
 406  478.1022
 407  421.003
 408  423.0278
 409  420.5509
 410  447.844
 411  459.9576
 412  454.6057
 413  478.7153
 414  540.9931
 415  496.3261
 416  476.7833
 417  489.5312
 418  493.2985
 419  598.6459
 420  622.7716
 421  559.877
 422  498.4424
 423  511.2545
 424  619.5984
 425  634.5894
 426  695.5069
 427  694.4047
 428  648.2928
 429  554.5461
 430  521.5982
 431  622.3801
 432  695.5354
 433  609.8455
 434  565.0806
 435  625.0237
 436  701.3592
 437  750.6515
 438  697.0691
 439  668.364
 440  602.0587
 441  593.2705
 442  648.3242
 443  578.0722
 444  610.2557
 445  557.4655
 446  619.6303
 447  598.228
 448  625.0428
 449  719.7419
 450  713.069
 451  647.3459
 452  619.64
 453  623.3026
 454  640.0098
 455  708.9663
 456  697.3962
 457  692.5865
 458  614.0042
 459  608.1375
 460  586.1951
 461  615.819
 462  676.7152
 463  667.4043
 464  639.9878
 465  633.9384
 466  693.051
 467  613.7776
 468  680.0331
 469  517.7526
 470  545.1356
 471  609.3477
 472  549.8191
 473  590.1885
 474  710.4296
 475  737.696
 476  655.233
 477  559.9152
 478  518.9877
 479  560.2537
 480  623.4034
 481  678.5621
 482  583.7057
 483  537.5175
 484  644.6885
 485  709.9965
 486  719.0129
 487  712.4199
 488  629.2877
 489  707.3857
 490  691.975
 491  618.4009
 492  622.0401
 493  726.915
 494  703.748
 495  656.6142
 496  613.6816
 497  630.6184
 498  580.7797
 499  631.6204
 500  741.3458
 501  694.5797
 502  628.3323
 503  689.9833
 504  729.9828
 505  783.602
 506  699.5768
 507  701.0306
 508  754.9101
 509  824.6239
 510  911.2759
 511  979.6068
