# Input file       =  1184315356.111366_cleaned.dat
# Candidate        =  PSR_0332+5434
# Telescope        =  AR
# Epoch_topo       =  57951.353450363036
# Epoch_bary       =  N/A
# T_sample         =  0.002
# Data Folded      =  7340032
# Data Avg         =  0.0420712559375956
# Data StdDev      =  1.00020093256636 
# Profile Bins     =  512
# Profile Avg      =  603.067124469601 
# Profile StdDev   =  119.757094643044 
# Reduced chi-sqr  =  1.259
# Prob(Noise)      <  5.87e-05   (~3.9 sigma)
# P_topo (ms)      =  714.477722843846  +/- 0.000305
# P'_topo (s/s)    =  -0                +/- 1.61e-10
# P''_topo (s/s^2) =  0                 +/- 7.11e-14
# P_bary (ms)      =  N/A
# P'_bary (s/s)    =  N/A
# P''_bary (s/s^2) =  N/A
# P_orb (s)        =  N/A
# asin(i)/c (s)    =  N/A
# eccentricity     =  N/A
# w (rad)          =  N/A
# T_peri           =  N/A
######################################################
   0  529.2957
   1  502.6497
   2  627.1284
   3  548.2591
   4  591.6219
   5  616.025
   6  529.7386
   7  533.8829
   8  554.7511
   9  619.8475
  10  541.4313
  11  520.0609
  12  650.8672
  13  552.9906
  14  492.7404
  15  569.897
  16  600.4305
  17  588.6553
  18  508.6744
  19  550.5221
  20  522.377
  21  535.1199
  22  570.4919
  23  581.0756
  24  665.1909
  25  663.7776
  26  678.2792
  27  654.1115
  28  575.2338
  29  619.8432
  30  761.055
  31  688.02
  32  629.2787
  33  667.3815
  34  635.2078
  35  624.2655
  36  635.1308
  37  676.3931
  38  678.9537
  39  754.655
  40  732.1638
  41  655.4996
  42  608.5427
  43  572.0585
  44  460.9582
  45  550.7929
  46  589.2115
  47  624.0687
  48  526.7451
  49  559.4318
  50  429.2439
  51  433.3815
  52  495.4796
  53  522.6035
  54  504.651
  55  527.4007
  56  573.7345
  57  749.7448
  58  639.0151
  59  473.2498
  60  536.0222
  61  483.5354
  62  507.1222
  63  586.3669
  64  714.7704
  65  680.5198
  66  509.5016
  67  599.412
  68  720.013
  69  554.3133
  70  563.0612
  71  550.1978
  72  507.6483
  73  597.6197
  74  586.5216
  75  551.0724
  76  698.36
  77  568.5175
  78  442.4617
  79  515.7386
  80  466.6539
  81  369.8084
  82  336.1844
  83  550.8449
  84  537.9894
  85  575.959
  86  620.9318
  87  533.2369
  88  557.3845
  89  627.1045
  90  620.8223
  91  572.1943
  92  689.3133
  93  779.539
  94  643.9284
  95  653.0405
  96  673.9265
  97  661.1169
  98  722.9094
  99  719.4135
 100  523.3798
 101  513.9266
 102  486.8409
 103  614.8423
 104  649.1998
 105  607.574
 106  602.3979
 107  640.8726
 108  648.0101
 109  601.9977
 110  565.3937
 111  548.0105
 112  595.0322
 113  657.0814
 114  549.6643
 115  485.773
 116  666.5734
 117  642.9725
 118  639.2107
 119  707.5166
 120  584.6767
 121  561.739
 122  544.0318
 123  522.444
 124  637.9587
 125  701.4832
 126  635.2401
 127  616.9494
 128  603.1332
 129  589.5364
 130  627.9127
 131  579.1053
 132  581.3326
 133  633.0885
 134  595.8163
 135  626.3605
 136  475.9941
 137  516.6377
 138  572.076
 139  527.6098
 140  569.8677
 141  614.0091
 142  510.1028
 143  507.8665
 144  567.8406
 145  587.2214
 146  505.1742
 147  478.7112
 148  602.3456
 149  495.5373
 150  468.6983
 151  631.7653
 152  721.1407
 153  627.9426
 154  624.3505
 155  575.9504
 156  503.4013
 157  564.4214
 158  640.4055
 159  648.9052
 160  531.2081
 161  544.4677
 162  637.9886
 163  680.8279
 164  594.38
 165  568.2747
 166  771.5609
 167  747.0944
 168  725.4179
 169  775.2979
 170  840.671
 171  1033.134
 172  1196.43
 173  1286.078
 174  1245.741
 175  1043.134
 176  933.5037
 177  757.7421
 178  707.0842
 179  587.6676
 180  657.728
 181  701.5643
 182  668.6622
 183  622.029
 184  558.7292
 185  608.8706
 186  684.7424
 187  657.9371
 188  662.4643
 189  751.3898
 190  817.4882
 191  650.4079
 192  657.4337
 193  705.5267
 194  719.7102
 195  647.881
 196  616.656
 197  809.933
 198  681.9883
 199  596.2603
 200  525.1964
 201  601.5179
 202  627.1041
 203  582.9119
 204  674.0524
 205  739.0405
 206  600.2541
 207  556.1038
 208  501.8543
 209  590.3058
 210  490.5529
 211  576.0001
 212  577.1833
 213  488.2394
 214  633.6829
 215  592.5145
 216  568.2482
 217  671.7797
 218  701.8934
 219  538.2947
 220  467.1499
 221  507.7672
 222  512.6896
 223  580.8306
 224  650.6574
 225  667.5167
 226  648.7849
 227  488.2495
 228  559.7393
 229  628.1945
 230  577.2104
 231  550.5345
 232  470.6418
 233  533.4661
 234  615.6799
 235  620.9788
 236  545.9342
 237  608.725
 238  702.5822
 239  661.392
 240  595.2094
 241  683.3934
 242  677.1501
 243  648.5645
 244  632.9113
 245  544.416
 246  489.2835
 247  509.1396
 248  624.6819
 249  544.0324
 250  515.7073
 251  628.4868
 252  590.0709
 253  587.8062
 254  577.392
 255  555.7936
 256  554.1896
 257  541.5828
 258  500.6387
 259  498.69
 260  666.177
 261  608.027
 262  501.332
 263  520.6049
 264  667.9373
 265  693.5344
 266  750.3047
 267  736.1697
 268  732.862
 269  648.8903
 270  691.2382
 271  660.8219
 272  651.5444
 273  590.6061
 274  637.7101
 275  725.4268
 276  657.381
 277  717.4222
 278  673.6228
 279  701.9597
 280  768.2105
 281  721.9252
 282  627.5259
 283  681.2915
 284  648.4253
 285  589.0278
 286  698.5357
 287  656.0123
 288  749.2684
 289  665.0638
 290  642.4517
 291  673.7057
 292  625.2526
 293  651.0381
 294  725.7773
 295  773.8242
 296  640.6936
 297  653.1033
 298  707.8856
 299  701.9203
 300  592.1701
 301  517.1039
 302  631.1873
 303  580.6716
 304  576.3145
 305  592.9398
 306  608.4874
 307  532.2177
 308  532.0739
 309  636.2924
 310  561.4673
 311  536.0173
 312  641.8382
 313  629.8013
 314  621.4156
 315  658.5166
 316  645.1445
 317  666.9916
 318  624.9026
 319  619.2324
 320  559.4181
 321  699.0533
 322  674.8998
 323  629.7649
 324  653.2021
 325  628.7277
 326  577.6421
 327  624.5492
 328  582.4426
 329  578.2714
 330  625.8552
 331  653.4545
 332  623.6632
 333  657.5116
 334  712.3361
 335  749.0751
 336  527.605
 337  470.9792
 338  533.2729
 339  601.0847
 340  624.3736
 341  599.0028
 342  703.9512
 343  631.398
 344  583.3717
 345  561.3336
 346  517.4833
 347  485.2061
 348  500.7517
 349  529.813
 350  480.3925
 351  556.8813
 352  606.4901
 353  655.7932
 354  630.5451
 355  568.6176
 356  505.4236
 357  471.0185
 358  392.5337
 359  486.7932
 360  590.0368
 361  525.6606
 362  565.9429
 363  716.5901
 364  674.689
 365  588.7366
 366  580.3471
 367  585.0897
 368  589.2883
 369  724.5092
 370  697.788
 371  657.8978
 372  653.0645
 373  713.0875
 374  692.3734
 375  681.4636
 376  700.2248
 377  676.707
 378  631.6962
 379  633.1092
 380  517.7449
 381  584.6164
 382  632.0262
 383  569.8036
 384  626.1013
 385  666.2146
 386  733.9312
 387  683.5348
 388  632.1375
 389  656.6364
 390  609.8453
 391  538.2596
 392  571.2143
 393  549.1165
 394  605.1367
 395  633.3035
 396  538.1151
 397  630.0662
 398  519.9584
 399  509.7527
 400  537.8478
 401  642.7375
 402  588.6914
 403  561.0642
 404  509.4336
 405  441.7118
 406  377.6739
 407  443.3506
 408  508.4448
 409  576.7822
 410  708.0028
 411  647.8544
 412  576.0353
 413  647.1222
 414  509.3036
 415  537.3109
 416  508.0125
 417  584.7461
 418  610.9573
 419  562.8945
 420  671.9117
 421  606.8759
 422  500.9741
 423  433.5792
 424  464.5054
 425  445.892
 426  381.5329
 427  410.5185
 428  486.4815
 429  569.7102
 430  587.0754
 431  505.1224
 432  533.6025
 433  503.0012
 434  512.2868
 435  479.8773
 436  561.3217
 437  636.0648
 438  670.5538
 439  601.6594
 440  497.4898
 441  544.292
 442  522.1538
 443  477.515
 444  511.874
 445  536.8917
 446  541.1242
 447  502.5331
 448  538.4197
 449  479.8586
 450  527.7843
 451  539.6785
 452  484.5038
 453  600.3663
 454  571.4255
 455  582.7459
 456  688.1788
 457  681.1613
 458  487.4612
 459  486.5503
 460  532.2319
 461  529.9441
 462  638.6158
 463  722.8873
 464  544.0154
 465  493.6759
 466  586.074
 467  694.6443
 468  665.1041
 469  617.3596
 470  667.7054
 471  633.3264
 472  552.8742
 473  597.2615
 474  648.5339
 475  751.0681
 476  668.6268
 477  657.8
 478  635.0745
 479  640.0162
 480  614.1077
 481  589.8304
 482  594.6431
 483  587.0164
 484  528.2316
 485  493.1949
 486  558.033
 487  587.3114
 488  542.3427
 489  599.7238
 490  684.9619
 491  566.4073
 492  527.0452
 493  582.0233
 494  590.9933
 495  523.9672
 496  594.4845
 497  665.258
 498  536.493
 499  514.5837
 500  616.3762
 501  485.3381
 502  539.908
 503  593.3156
 504  580.928
 505  646.7758
 506  634.828
 507  599.5518
 508  468.4178
 509  567.5532
 510  542.0977
 511  511.0354
