# Input file       =  1184918446.155724_cleaned.dat
# Candidate        =  PSR_0332+5434
# Telescope        =  AR
# Epoch_topo       =  57958.333659209769
# Epoch_bary       =  N/A
# T_sample         =  0.002
# Data Folded      =  7340032
# Data Avg         =  0.0373432847553231
# Data StdDev      =  1.00017784685791 
# Profile Bins     =  512
# Profile Avg      =  535.521583858097 
# Profile StdDev   =  119.754330521074 
# Reduced chi-sqr  =  1.555
# Prob(Noise)      <  1.08e-14   (~7.6 sigma)
# P_topo (ms)      =  714.473570861357  +/- 0.000273
# P'_topo (s/s)    =  -0                +/- 1.44e-10
# P''_topo (s/s^2) =  0                 +/- 6.37e-14
# P_bary (ms)      =  N/A
# P'_bary (s/s)    =  N/A
# P''_bary (s/s^2) =  N/A
# P_orb (s)        =  N/A
# asin(i)/c (s)    =  N/A
# eccentricity     =  N/A
# w (rad)          =  N/A
# T_peri           =  N/A
######################################################
   0  1219.737
   1  1119.953
   2  987.3997
   3  756.9721
   4  515.8115
   5  428.4494
   6  515.2004
   7  432.7887
   8  364.0991
   9  390.2398
  10  343.8759
  11  356.4466
  12  350.6438
  13  368.2607
  14  543.5687
  15  495.6533
  16  446.1572
  17  408.2956
  18  471.943
  19  376.6575
  20  263.7455
  21  268.4904
  22  452.7863
  23  526.1923
  24  509.3001
  25  484.2104
  26  548.3084
  27  556.1741
  28  463.2481
  29  461.8377
  30  446.9545
  31  442.8222
  32  333.2023
  33  349.8199
  34  478.9101
  35  398.8112
  36  360.9642
  37  410.6741
  38  383.6199
  39  384.2395
  40  448.1188
  41  305.9167
  42  336.6319
  43  346.2321
  44  415.6187
  45  513.1497
  46  396.8622
  47  355.8345
  48  377.5936
  49  318.2115
  50  349.4141
  51  310.3049
  52  330.2246
  53  333.0064
  54  416.3583
  55  320.4576
  56  362.0727
  57  444.4826
  58  445.4138
  59  402.5119
  60  490.9616
  61  474.7558
  62  462.9269
  63  524.3683
  64  504.0503
  65  506.7116
  66  593.6948
  67  555.3065
  68  481.9639
  69  485.41
  70  408.2939
  71  285.5968
  72  388.1964
  73  511.1843
  74  374.8165
  75  421.8208
  76  372.3616
  77  297.1924
  78  491.2074
  79  497.1478
  80  530.6067
  81  576.2015
  82  489.711
  83  437.4124
  84  542.2053
  85  516.0691
  86  375.233
  87  502.3884
  88  440.1498
  89  574.4475
  90  596.6354
  91  487.7252
  92  497.5674
  93  405.8901
  94  519.1719
  95  499.3417
  96  552.524
  97  484.548
  98  386.3279
  99  449.1885
 100  496.6649
 101  490.5876
 102  459.0005
 103  525.8909
 104  404.8607
 105  374.1937
 106  345.9971
 107  332.9214
 108  322.6835
 109  311.27
 110  528.4377
 111  564.4879
 112  532.9467
 113  502.8035
 114  530.0705
 115  471.4828
 116  535.425
 117  569.7883
 118  555.2222
 119  681.1484
 120  669.6497
 121  538.3569
 122  590.6534
 123  511.3351
 124  505.3966
 125  444.0422
 126  484.6557
 127  435.752
 128  508.6023
 129  470.1992
 130  515.6563
 131  419.3756
 132  506.2235
 133  515.9014
 134  434.5582
 135  446.6966
 136  477.6942
 137  530.0593
 138  606.0371
 139  495.2009
 140  394.3751
 141  426.0683
 142  482.8275
 143  504.6703
 144  463.08
 145  446.2173
 146  381.4984
 147  350.2934
 148  402.7552
 149  495.0731
 150  530.6877
 151  525.8644
 152  479.168
 153  457.9669
 154  540.8283
 155  471.3755
 156  513.0924
 157  489.2542
 158  473.8409
 159  605.161
 160  552.4202
 161  531.9636
 162  540.9142
 163  652.9072
 164  671.8961
 165  659.6843
 166  670.9234
 167  569.7944
 168  514.0906
 169  632.2822
 170  601.1192
 171  647.9955
 172  622.5126
 173  653.6436
 174  702.0684
 175  593.1343
 176  502.9541
 177  703.177
 178  680.4739
 179  569.1124
 180  573.1805
 181  659.939
 182  593.4006
 183  562.094
 184  577.6519
 185  515.0697
 186  478.0902
 187  589.6462
 188  604.8608
 189  581.4012
 190  593.6276
 191  498.1615
 192  527.0482
 193  590.6608
 194  691.6004
 195  692.1287
 196  687.5323
 197  651.9532
 198  718.2163
 199  756.6556
 200  778.6518
 201  631.9024
 202  558.0378
 203  580.9631
 204  580.9212
 205  677.5182
 206  609.8261
 207  704.4227
 208  668.2827
 209  589.9435
 210  630.254
 211  616.0913
 212  582.279
 213  540.0531
 214  569.1312
 215  610.9483
 216  570.9342
 217  613.3452
 218  621.61
 219  611.7806
 220  613.409
 221  621.0704
 222  585.119
 223  599.4725
 224  591.7487
 225  559.4585
 226  521.6439
 227  385.1515
 228  425.579
 229  622.6913
 230  618.7433
 231  599.0458
 232  557.1392
 233  557.204
 234  415.9547
 235  327.9875
 236  468.8531
 237  507.2361
 238  445.4725
 239  540.0103
 240  616.2668
 241  702.3491
 242  649.4022
 243  695.3876
 244  545.2586
 245  617.8997
 246  592.5598
 247  597.6171
 248  693.3142
 249  622.6589
 250  539.0673
 251  627.5333
 252  598.9711
 253  466.3705
 254  438.4059
 255  584.4464
 256  634.8179
 257  545.8721
 258  666.0032
 259  693.0457
 260  495.6909
 261  473.7797
 262  485.2433
 263  600.3282
 264  603.2501
 265  546.3964
 266  490.4701
 267  528.1154
 268  553.8082
 269  542.2316
 270  518.1339
 271  488.0862
 272  473.6972
 273  466.0616
 274  475.4114
 275  612.267
 276  519.5004
 277  556.942
 278  538.3043
 279  569.4094
 280  628.2191
 281  567.2733
 282  540.8922
 283  512.9748
 284  429.5029
 285  555.4063
 286  540.5535
 287  560.7081
 288  647.5598
 289  578.8124
 290  521.3929
 291  548.7068
 292  572.9103
 293  616.8088
 294  527.2778
 295  474.5139
 296  511.3639
 297  521.2386
 298  572.8019
 299  601.5067
 300  574.4418
 301  588.9072
 302  560.8913
 303  547.2529
 304  525.7775
 305  432.884
 306  388.3309
 307  485.2257
 308  565.5952
 309  597.9039
 310  667.091
 311  622.7401
 312  529.2182
 313  528.6106
 314  554.2145
 315  607.8109
 316  501.9343
 317  577.7321
 318  564.8099
 319  422.2924
 320  496.0946
 321  581.0845
 322  535.4248
 323  511.102
 324  506.8902
 325  464.6547
 326  461.998
 327  584.3588
 328  656.3154
 329  626.6274
 330  487.0741
 331  431.1533
 332  430.6393
 333  462.8091
 334  556.5823
 335  592.2407
 336  426.287
 337  512.6859
 338  598.3849
 339  562.5298
 340  466.8856
 341  491.3221
 342  496.3277
 343  562.7269
 344  566.8177
 345  412.6989
 346  435.0897
 347  566.5308
 348  520.8621
 349  457.165
 350  461.2811
 351  542.0179
 352  529.3614
 353  479.0394
 354  432.7934
 355  455.9476
 356  395.0296
 357  529.8749
 358  554.4262
 359  536.2017
 360  625.5329
 361  578.6578
 362  446.7629
 363  445.424
 364  567.6633
 365  538.2991
 366  468.9787
 367  558.0561
 368  530.2249
 369  527.5109
 370  542.6557
 371  538.4144
 372  582.783
 373  707.7437
 374  700.392
 375  611.1821
 376  542.6426
 377  432.89
 378  596.0562
 379  644.6373
 380  642.7778
 381  574.0403
 382  578.9054
 383  496.7179
 384  458.3187
 385  517.7516
 386  560.7278
 387  578.2027
 388  530.6979
 389  589.7725
 390  656.326
 391  515.3205
 392  451.7812
 393  449.1182
 394  491.5819
 395  606.1712
 396  629.093
 397  566.2551
 398  653.8475
 399  594.2831
 400  524.3768
 401  544.1808
 402  545.9632
 403  666.386
 404  691.5133
 405  810.6786
 406  631.6746
 407  496.4358
 408  502.0811
 409  541.9768
 410  510.1563
 411  530.954
 412  558.294
 413  512.1351
 414  560.3779
 415  535.3091
 416  621.5257
 417  592.4781
 418  617.8528
 419  721.4166
 420  639.1111
 421  629.8432
 422  623.6236
 423  584.3105
 424  460.9306
 425  422.3765
 426  487.0974
 427  513.2764
 428  418.8026
 429  501.3872
 430  592.2396
 431  564.1358
 432  641.922
 433  563.9427
 434  591.7077
 435  668.3735
 436  640.3373
 437  653.2599
 438  543.0036
 439  498.2406
 440  536.555
 441  638.759
 442  646.9667
 443  562.6725
 444  503.5634
 445  515.7079
 446  658.6941
 447  626.5435
 448  609.1664
 449  647.079
 450  691.7555
 451  666.6635
 452  708.5722
 453  717.3786
 454  571.0716
 455  561.2322
 456  670.3403
 457  638.535
 458  535.8484
 459  494.4686
 460  472.4969
 461  459.7883
 462  629.1697
 463  661.2852
 464  628.8065
 465  553.0042
 466  577.6983
 467  641.1329
 468  648.6956
 469  575.2101
 470  566.2378
 471  556.8335
 472  500.202
 473  483.0612
 474  417.4302
 475  372.0586
 476  376.7064
 477  481.2228
 478  473.8421
 479  479.9998
 480  439.4975
 481  455.1414
 482  495.3915
 483  508.2668
 484  566.963
 485  667.0978
 486  616.4731
 487  658.8708
 488  707.5129
 489  504.144
 490  528.6349
 491  436.4118
 492  533.4203
 493  537.7999
 494  687.0171
 495  714.8065
 496  586.3131
 497  467.1292
 498  537.8994
 499  544.7305
 500  573.8558
 501  537.5742
 502  445.9326
 503  468.1209
 504  519.1516
 505  584.2668
 506  634.5673
 507  606.1182
 508  549.7493
 509  754.7488
 510  887.3835
 511  1139.824
