# Input file       =  1184918446.155724_cleaned.dat
# Candidate        =  PSR_0332+5434
# Telescope        =  AR
# Epoch_topo       =  57958.333659209769
# Epoch_bary       =  N/A
# T_sample         =  0.002
# Data Folded      =  7340032
# Data Avg         =  0.0373432847553231
# Data StdDev      =  1.00017784685791 
# Profile Bins     =  512
# Profile Avg      =  535.521583846094 
# Profile StdDev   =  119.754330521074 
# Reduced chi-sqr  =  1.553
# Prob(Noise)      <  1.4e-14   (~7.6 sigma)
# P_topo (ms)      =  714.47357083113   +/- 0.000274
# P'_topo (s/s)    =  -0                +/- 1.45e-10
# P''_topo (s/s^2) =  0                 +/- 6.39e-14
# P_bary (ms)      =  N/A
# P'_bary (s/s)    =  N/A
# P''_bary (s/s^2) =  N/A
# P_orb (s)        =  N/A
# asin(i)/c (s)    =  N/A
# eccentricity     =  N/A
# w (rad)          =  N/A
# T_peri           =  N/A
######################################################
   0  1157.659
   1  1064.969
   2  854.9751
   3  627.5624
   4  430.1738
   5  492.1107
   6  474.9488
   7  379.8005
   8  383.074
   9  379.5177
  10  331.9265
  11  375.4713
  12  317.4733
  13  486.6604
  14  522.7305
  15  476.5722
  16  403.8744
  17  468.7045
  18  415.4951
  19  318.0897
  20  230.0855
  21  375.3391
  22  515.8768
  23  524.6584
  24  485.6061
  25  506.8217
  26  573.3903
  27  491.1162
  28  462.479
  29  457.6068
  30  458.3741
  31  383.8
  32  313.019
  33  431.4572
  34  459.9481
  35  357.0705
  36  396.8808
  37  403.8995
  38  353.3071
  39  443.0538
  40  370.0195
  41  309.7125
  42  356.1422
  43  355.8057
  44  490.0083
  45  460.1367
  46  361.7374
  47  368.343
  48  329.721
  49  338.943
  50  329.7032
  51  326.528
  52  325.8275
  53  384.7946
  54  377.899
  55  316.3712
  56  429.5781
  57  454.5281
  58  409.0272
  59  431.7325
  60  503.499
  61  456.0101
  62  504.8917
  63  514.9038
  64  499.0974
  65  544.5549
  66  597.0356
  67  500.3613
  68  495.425
  69  464.4311
  70  318.751
  71  310.043
  72  496.3441
  73  439.1218
  74  372.5124
  75  439.6281
  76  283.9965
  77  400.8683
  78  521.16
  79  489.1286
  80  576.8537
  81  534.1534
  82  444.7012
  83  476.6176
  84  581.1591
  85  395.3523
  86  454.7083
  87  470.4185
  88  476.8077
  89  647.0432
  90  509.7196
  91  501.0614
  92  435.3977
  93  463.7099
  94  527.3916
  95  520.6482
  96  539.6713
  97  409.2249
  98  420.1225
  99  469.9604
 100  507.4268
 101  454.5555
 102  508.7379
 103  477.9369
 104  358.3799
 105  369.223
 106  325.5014
 107  346.1731
 108  285.0247
 109  435.6403
 110  569.6356
 111  553.0214
 112  499.8737
 113  535.5998
 114  493.1581
 115  490.9127
 116  570.1329
 117  549.8846
 118  621.7486
 119  711.5784
 120  564.7393
 121  575.2587
 122  544.6886
 123  512.1609
 124  471.353
 125  460.912
 126  455.7437
 127  485.7863
 128  498.028
 129  488.2787
 130  468.8309
 131  431.2183
 132  547.5396
 133  461.719
 134  428.107
 135  469.2707
 136  492.912
 137  584.8331
 138  568.4184
 139  422.3919
 140  399.5056
 141  453.3202
 142  512.9089
 143  481.7435
 144  455.4736
 145  413.4287
 146  351.6464
 147  382.0005
 148  441.526
 149  531.4049
 150  530.0013
 151  510.814
 152  453.6674
 153  507.2682
 154  498.8006
 155  490.242
 156  504.9821
 157  464.6586
 158  539.6589
 159  596.4708
 160  528.7338
 161  536.3417
 162  594.5142
 163  673.9526
 164  655.6913
 165  687.947
 166  619.4736
 167  530.9872
 168  551.2237
 169  638.3325
 170  608.6927
 171  655.6042
 172  628.9922
 173  688.8359
 174  665.7784
 175  500.8594
 176  616.6651
 177  721.8645
 178  617.1251
 179  532.5001
 180  642.5792
 181  635.5417
 182  565.9297
 183  587.2597
 184  527.1801
 185  500.2282
 186  509.0297
 187  647.9142
 188  554.4637
 189  629.1364
 190  508.6631
 191  517.7462
 192  547.5235
 193  650.6259
 194  704.1799
 195  697.8761
 196  668.8021
 197  687.8928
 198  720.184
 199  787.1812
 200  705.4473
 201  573.6182
 202  572.1944
 203  571.2927
 204  645.0195
 205  637.8834
 206  647.3682
 207  716.7336
 208  601.1736
 209  620.1652
 210  620.5728
 211  607.4895
 212  546.2352
 213  556.1862
 214  588.6808
 215  594.4713
 216  586.0417
 217  634.9664
 218  613.6736
 219  609.9662
 220  628.9349
 221  582.4157
 222  598.1685
 223  590.4865
 224  582.3145
 225  544.3965
 226  454.8604
 227  354.6056
 228  562.4592
 229  629.9178
 230  623.2643
 231  556.3426
 232  568.5594
 233  490.9618
 234  339.3299
 235  406.265
 236  501.5182
 237  474.9649
 238  482.9814
 239  590.5178
 240  669.1345
 241  669.2056
 242  686.0749
 243  602.3658
 244  573.6506
 245  619.6814
 246  588.2034
 247  654.7598
 248  675.701
 249  549.9728
 250  583.1926
 251  631.7982
 252  532.1744
 253  417.951
 254  519.2866
 255  636.5317
 256  578.8912
 257  585.7876
 258  726.3206
 259  569.411
 260  477.6414
 261  456.6311
 262  555.8367
 263  608.8677
 264  590.3192
 265  490.4951
 266  527.0734
 267  532.3053
 268  558.0784
 269  531.6623
 270  503.1784
 271  482.2529
 272  463.7974
 273  458.8171
 274  551.0914
 275  592.1141
 276  505.0389
 277  572.6874
 278  523.6339
 279  615.2501
 280  609.912
 281  525.0603
 282  552.7567
 283  430.9644
 284  508.9385
 285  567.037
 286  530.202
 287  617.0896
 288  633.8232
 289  536.2758
 290  534.5965
 291  557.0107
 292  598.3013
 293  577.3175
 294  483.8256
 295  489.6573
 296  534.8543
 297  523.3025
 298  622.8066
 299  564.9374
 300  594.2964
 301  572.2173
 302  549.3767
 303  551.9478
 304  472.2952
 305  386.1173
 306  433.8679
 307  534.022
 308  589.9968
 309  636.1071
 310  657.2786
 311  554.0328
 312  530.0194
 313  533.3469
 314  607.7894
 315  549.489
 316  518.4454
 317  613.1235
 318  462.0541
 319  442.1453
 320  548.0633
 321  577.5473
 322  503.4212
 323  525.5208
 324  476.769
 325  454.325
 326  513.5979
 327  641.563
 328  655.9273
 329  554.583
 330  438.7145
 331  433.1172
 332  443.6977
 333  503.1743
 334  614.0489
 335  482.2118
 336  453.752
 337  568.205
 338  604.5021
 339  490.4799
 340  483.3087
 341  489.651
 342  527.7256
 343  586.9324
 344  486.4689
 345  385.8782
 346  526.8168
 347  560.0986
 348  477.474
 349  445.3266
 350  498.3796
 351  551.8603
 352  511.9616
 353  440.8956
 354  442.4487
 355  415.5291
 356  444.8679
 357  606.2939
 358  499.1036
 359  616.1826
 360  587.1924
 361  535.1984
 362  386.8151
 363  544.7933
 364  558.1371
 365  492.3934
 366  510.1966
 367  558.1447
 368  526.1835
 369  525.1511
 370  552.1497
 371  525.0941
 372  672.0833
 373  727.4262
 374  646.2619
 375  578.3621
 376  460.9832
 377  504.8159
 378  651.7397
 379  646.7165
 380  601.2935
 381  586.0533
 382  539.9094
 383  452.7913
 384  486.2408
 385  546.4351
 386  585.3822
 387  544.5252
 388  556.1932
 389  635.3794
 390  595.0794
 391  456.8838
 392  451.3204
 393  468.9532
 394  557.0833
 395  632.794
 396  581.0015
 397  601.9952
 398  653.5209
 399  537.4099
 400  540.1953
 401  526.4963
 402  621.8073
 403  662.0065
 404  775.238
 405  748.5797
 406  517.1033
 407  508.198
 408  512.0663
 409  544.8226
 410  503.4022
 411  561.5994
 412  525.8466
 413  534.7101
 414  541.7617
 415  585.5015
 416  624.8362
 417  576.6298
 418  686.1754
 419  690.8354
 420  609.3535
 421  643.4407
 422  600.7203
 423  531.0722
 424  409.6851
 425  460.4493
 426  525.4585
 427  454.8547
 428  444.3892
 429  561.9591
 430  578.1711
 431  603.4569
 432  610.8868
 433  558.8284
 434  644.8499
 435  675.2814
 436  631.8864
 437  614.6794
 438  475.3189
 439  521.321
 440  589.0743
 441  680.3837
 442  586.8369
 443  539.2872
 444  472.7052
 445  622.4034
 446  650.1908
 447  604.9225
 448  633.4817
 449  658.4067
 450  697.8099
 451  652.2192
 452  755.5623
 453  629.3899
 454  543.2986
 455  631.9416
 456  673.8632
 457  576.275
 458  497.3541
 459  480.231
 460  463.7181
 461  541.9723
 462  682.4119
 463  633.5311
 464  593.8004
 465  548.0184
 466  611.2759
 467  658.0878
 468  603.3528
 469  561.8585
 470  579.8013
 471  518.7473
 472  509.293
 473  428.5979
 474  399.5635
 475  347.8999
 476  434.4411
 477  493.7963
 478  478.5019
 479  466.3638
 480  433.9232
 481  479.2996
 482  498.5703
 483  524.9818
 484  639.1912
 485  652.3358
 486  621.7759
 487  723.463
 488  580.4975
 489  508.4006
 490  478.6762
 491  483.797
 492  526.4739
 493  605.0984
 494  720.5479
 495  681.5266
 496  490.7676
 497  509.2971
 498  533.7909
 499  569.3245
 500  555.4678
 501  483.4467
 502  444.2606
 503  500.8148
 504  544.3858
 505  624.2039
 506  625.7886
 507  571.7621
 508  637.7736
 509  837.695
 510  1007.645
 511  1232.531
