# Input file       =  1185765225.132344_cleaned.dat
# Candidate        =  PSR_0332+5434
# Telescope        =  AR
# Epoch_topo       =  57968.134341809535
# Epoch_bary       =  N/A
# T_sample         =  0.002
# Data Folded      =  7340032
# Data Avg         =  0.00870734506344275
# Data StdDev      =  1.00009465432445 
# Profile Bins     =  512
# Profile Avg      =  124.874798093255 
# Profile StdDev   =  119.744369626439 
# Reduced chi-sqr  =  1.906
# Prob(Noise)      <  2.95e-31   (~11.6 sigma)
# P_topo (ms)      =  714.468603261991  +/- 0.000172
# P'_topo (s/s)    =  -0                +/- 9.09e-11
# P''_topo (s/s^2) =  0                 +/- 4.01e-14
# P_bary (ms)      =  N/A
# P'_bary (s/s)    =  N/A
# P''_bary (s/s^2) =  N/A
# P_orb (s)        =  N/A
# asin(i)/c (s)    =  N/A
# eccentricity     =  N/A
# w (rad)          =  N/A
# T_peri           =  N/A
######################################################
   0  942.2563
   1  966.7916
   2  940.1699
   3  695.7971
   4  498.8387
   5  314.2442
   6  245.7968
   7  51.92158
   8  72.23513
   9  29.4573
  10  202.9738
  11  114.8344
  12  200.1904
  13  117.0935
  14  155.0394
  15  303.7512
  16  296.6468
  17  229.3352
  18  367.1255
  19  257.5087
  20  226.6183
  21  230.4144
  22  182.4423
  23  237.6024
  24  199.953
  25  93.29893
  26  87.66894
  27  117.9788
  28  275.7011
  29  187.6135
  30  151.5952
  31  139.2656
  32  140.2035
  33  104.3229
  34  139.5668
  35  311.6693
  36  157.8526
  37  132.9333
  38  234.8516
  39  171.4712
  40  208.5433
  41  124.3635
  42  112.1044
  43  53.2421
  44  107.0203
  45  100.9938
  46  62.07416
  47  103.0414
  48  43.51641
  49  41.93438
  50  139.6924
  51  339.2946
  52  376.6364
  53  199.5075
  54  150.6558
  55  27.06236
  56  128.8013
  57  117.3799
  58  106.5257
  59  143.6128
  60  196.3172
  61  66.25704
  62  146.8172
  63  137.3558
  64  268.0307
  65  207.295
  66  141.6052
  67  132.5902
  68  94.1191
  69  93.21317
  70  59.16745
  71  87.88067
  72  77.70524
  73  52.81751
  74  101.8087
  75  66.24261
  76  46.25142
  77  88.34288
  78  60.65805
  79  73.36684
  80  64.04335
  81  112.6186
  82  145.1293
  83  133.3464
  84  23.80033
  85  50.83207
  86  132.416
  87  210.1587
  88  225.8424
  89  164.5356
  90  101.2505
  91  2.258842
  92  33.40597
  93  182.3416
  94  73.4619
  95  -66.51095
  96  19.25759
  97  5.054358
  98  153.8038
  99  96.25552
 100  28.84394
 101  217.4117
 102  148.3346
 103  153.9384
 104  197.5482
 105  237.6045
 106  85.11707
 107  119.6592
 108  87.79726
 109  56.4648
 110  106.7402
 111  67.59287
 112  14.51791
 113  115.3525
 114  225.7581
 115  145.1354
 116  35.32415
 117  -111.5595
 118  128.083
 119  27.16954
 120  -4.653937
 121  120.2794
 122  -26.43283
 123  50.01574
 124  211.5817
 125  174.3385
 126  -12.92197
 127  -17.3133
 128  36.91026
 129  -88.91766
 130  0.7083605
 131  53.51704
 132  13.71237
 133  119.2175
 134  218.9988
 135  287.9453
 136  197.6071
 137  203.8049
 138  210.6779
 139  67.5144
 140  159.3305
 141  159.9898
 142  -0.6767305
 143  49.86649
 144  201.9571
 145  293.2541
 146  133.0179
 147  92.53078
 148  168.507
 149  84.16242
 150  133.543
 151  40.29041
 152  -54.49839
 153  41.11052
 154  93.79596
 155  141.3527
 156  28.61766
 157  -15.49422
 158  84.74165
 159  118.6965
 160  198.1315
 161  181.4691
 162  66.55578
 163  106.0348
 164  29.60415
 165  31.57
 166  146.029
 167  181.3463
 168  211.7193
 169  221.6245
 170  134.9994
 171  38.09071
 172  62.96368
 173  210.7773
 174  -38.91285
 175  76.44358
 176  89.63398
 177  108.5579
 178  76.00882
 179  69.245
 180  256.5604
 181  275.7054
 182  236.2727
 183  101.0274
 184  42.09423
 185  17.30727
 186  -17.64002
 187  189.0255
 188  232.479
 189  228.0368
 190  229.7973
 191  109.1416
 192  139.1843
 193  216.8086
 194  229.6775
 195  244.1021
 196  170.4012
 197  97.54679
 198  164.3142
 199  165.863
 200  120.9831
 201  62.72431
 202  63.09806
 203  60.9284
 204  150.7426
 205  163.8358
 206  210.2033
 207  155.2287
 208  193.8426
 209  91.85596
 210  1.509389
 211  8.039871
 212  42.12006
 213  -7.150341
 214  122.6077
 215  242.0257
 216  184.8177
 217  145.3813
 218  155.096
 219  217.8
 220  263.5447
 221  230.0985
 222  105.6523
 223  117.6951
 224  201.2055
 225  393.5568
 226  303.6571
 227  188.5688
 228  78.96467
 229  69.74344
 230  237.563
 231  74.60926
 232  260.6871
 233  284.17
 234  -49.42997
 235  -58.93979
 236  -7.886517
 237  35.07804
 238  42.70547
 239  62.96347
 240  76.92431
 241  -73.47421
 242  11.30364
 243  131.9213
 244  166.8113
 245  195.9563
 246  -1.927942
 247  -103.8083
 248  75.40206
 249  255.2312
 250  106.8618
 251  62.36343
 252  108.1823
 253  43.18216
 254  -17.99558
 255  -44.33286
 256  -28.874
 257  95.40251
 258  -30.65758
 259  28.69823
 260  20.16104
 261  94.4618
 262  73.8179
 263  204.6179
 264  231.6465
 265  175.0238
 266  70.24111
 267  35.77059
 268  -27.24143
 269  -37.0895
 270  -23.00278
 271  -79.42822
 272  17.41341
 273  7.533004
 274  -16.35143
 275  -30.87938
 276  93.38337
 277  133.4753
 278  129.3943
 279  -80.76909
 280  -7.693888
 281  31.31791
 282  84.02715
 283  157.518
 284  -3.041111
 285  -2.856402
 286  122.9894
 287  95.87434
 288  -42.17542
 289  5.679017
 290  3.635167
 291  199.3079
 292  104.6157
 293  108.2159
 294  158.086
 295  20.04689
 296  140.1449
 297  227.3482
 298  173.5738
 299  81.68977
 300  187.5796
 301  242.0925
 302  131.1577
 303  39.25779
 304  64.02694
 305  32.13868
 306  162.9922
 307  115.3468
 308  64.4796
 309  42.48753
 310  29.94728
 311  94.8438
 312  68.49011
 313  118.1747
 314  192.8687
 315  138.7297
 316  -22.51463
 317  -70.89187
 318  -58.84308
 319  110.1037
 320  144.8687
 321  69.38117
 322  49.10941
 323  69.30396
 324  110.2136
 325  209.8012
 326  72.15273
 327  81.68543
 328  162.8169
 329  186.9878
 330  48.6006
 331  48.54185
 332  113.8952
 333  130.4819
 334  139.1557
 335  6.580196
 336  27.93491
 337  14.07664
 338  -38.89248
 339  243.0838
 340  266.1811
 341  85.66763
 342  -56.60635
 343  29.63659
 344  74.36922
 345  41.9068
 346  136.7529
 347  136.2994
 348  86.95754
 349  50.43574
 350  87.36827
 351  146.9401
 352  121.6855
 353  168.8331
 354  275.4846
 355  145.0123
 356  213.2621
 357  186.3011
 358  168.349
 359  183.9703
 360  123.0724
 361  167.1293
 362  -14.98087
 363  49.82068
 364  189.8392
 365  243.5499
 366  288.1205
 367  137.8347
 368  184.811
 369  35.18755
 370  -4.799302
 371  113.6335
 372  306.4581
 373  178.5695
 374  89.81567
 375  16.12454
 376  26.3008
 377  -130.2892
 378  61.239
 379  110.3826
 380  130.6121
 381  77.46497
 382  50.76003
 383  152.6528
 384  204.5092
 385  57.85564
 386  41.69363
 387  141.3018
 388  100.8211
 389  193.026
 390  218.7316
 391  221.5505
 392  283.2925
 393  124.1014
 394  173.1494
 395  140.5831
 396  96.2285
 397  141.0354
 398  99.36922
 399  57.98411
 400  47.34337
 401  5.673154
 402  -16.59922
 403  19.81433
 404  51.33184
 405  167.7127
 406  161.5422
 407  187.123
 408  136.9376
 409  29.18432
 410  31.19164
 411  39.84327
 412  92.08175
 413  181.8796
 414  130.8776
 415  57.56806
 416  120.0976
 417  88.51978
 418  67.60581
 419  111.9193
 420  130.8172
 421  88.0768
 422  138.9478
 423  118.7672
 424  166.4478
 425  128.8773
 426  -0.7508215
 427  -64.30064
 428  -37.19753
 429  105.1803
 430  190.1849
 431  230.1302
 432  197.2262
 433  262.3085
 434  130.9197
 435  227.2389
 436  251.7446
 437  124.29
 438  0.8144743
 439  111.9163
 440  166.3687
 441  236.0607
 442  108.8504
 443  142.8175
 444  -18.2334
 445  71.26386
 446  167.0421
 447  180.1692
 448  172.0905
 449  126.176
 450  43.91082
 451  -3.100791
 452  68.88992
 453  72.69865
 454  -24.57696
 455  47.65122
 456  104.3819
 457  -58.08001
 458  31.6123
 459  302.8068
 460  274.2415
 461  216.5552
 462  124.3941
 463  170.6892
 464  125.7622
 465  207.9547
 466  217.1926
 467  27.71679
 468  -55.01565
 469  3.477567
 470  47.62339
 471  163.5878
 472  132.6009
 473  81.03765
 474  103.7507
 475  255.6542
 476  285.2424
 477  295.6183
 478  101.8198
 479  45.2427
 480  34.14533
 481  30.21956
 482  81.11417
 483  74.49678
 484  12.87995
 485  62.99612
 486  117.4716
 487  120.2328
 488  168.5611
 489  122.8216
 490  155.9839
 491  226.3626
 492  207.4291
 493  234.8647
 494  256.6317
 495  212.6055
 496  224.0782
 497  86.66581
 498  90.86014
 499  81.32153
 500  51.14586
 501  130.1423
 502  121.8988
 503  271.7536
 504  197.2566
 505  262.5974
 506  378.0981
 507  345.329
 508  358.7787
 509  433.1983
 510  473.5022
 511  746.7813
