# Input file       =  1185836768.110852_cleaned.dat
# Candidate        =  PSR_0332+5434
# Telescope        =  AR
# Epoch_topo       =  57968.962385542269
# Epoch_bary       =  N/A
# T_sample         =  0.002
# Data Folded      =  7208960
# Data Avg         =  0.0131445138954937
# Data StdDev      =  0.999984520745855
# Profile Bins     =  512
# Profile Avg      =  185.093375561533 
# Profile StdDev   =  118.657339037992 
# Reduced chi-sqr  =  1.437
# Prob(Noise)      <  3.05e-10   (~6.2 sigma)
# P_topo (ms)      =  714.468265911205  +/- 0.000127
# P'_topo (s/s)    =  -0                +/- 6.81e-11
# P''_topo (s/s^2) =  0                 +/- 3.06e-14
# P_bary (ms)      =  N/A
# P'_bary (s/s)    =  N/A
# P''_bary (s/s^2) =  N/A
# P_orb (s)        =  N/A
# asin(i)/c (s)    =  N/A
# eccentricity     =  N/A
# w (rad)          =  N/A
# T_peri           =  N/A
######################################################
   0  264.9505
   1  194.6939
   2  28.94707
   3  66.31121
   4  98.9336
   5  145.8985
   6  279.8751
   7  240.2997
   8  185.3626
   9  -22.27556
  10  13.34473
  11  230.9654
  12  249.0418
  13  110.2061
  14  175.476
  15  231.5525
  16  266.0818
  17  161.3573
  18  18.59148
  19  114.1033
  20  258.1933
  21  301.9558
  22  234.0201
  23  77.93315
  24  114.9121
  25  129.8148
  26  216.8272
  27  308.3573
  28  217.6111
  29  251.1726
  30  213.8687
  31  270.8256
  32  154.1856
  33  239.7839
  34  262.2361
  35  134.86
  36  224.2861
  37  319.2923
  38  405.0279
  39  332.9525
  40  154.841
  41  53.49394
  42  112.403
  43  109.8468
  44  114.7814
  45  119.4582
  46  214.576
  47  213.0251
  48  148.6178
  49  235.6734
  50  148.0066
  51  136.9327
  52  134.5691
  53  223.3703
  54  147.0226
  55  144.4269
  56  213.9823
  57  210.8507
  58  161.9336
  59  193.4107
  60  204.1406
  61  229.4126
  62  77.10157
  63  47.03992
  64  191.933
  65  200.5681
  66  52.39819
  67  48.83801
  68  130.4016
  69  151.3007
  70  160.9884
  71  303.811
  72  277.4241
  73  355.5217
  74  383.0154
  75  304.9217
  76  197.5367
  77  209.2758
  78  217.544
  79  150.6137
  80  60.96022
  81  237.5261
  82  228.5478
  83  288.8062
  84  279.4672
  85  388.1403
  86  374.3417
  87  520.8782
  88  493.1248
  89  603.0825
  90  821.2195
  91  865.0447
  92  672.8334
  93  494.8224
  94  287.376
  95  145.1917
  96  241.6768
  97  336.01
  98  369.3969
  99  332.636
 100  197.6072
 101  288.8803
 102  271.3343
 103  193.5606
 104  162.6968
 105  99.94955
 106  418.4451
 107  356.2679
 108  138.3389
 109  120.904
 110  347.6725
 111  258.2032
 112  116.1767
 113  85.38
 114  216.9646
 115  258.037
 116  123.6297
 117  204.6394
 118  215.3472
 119  226.5716
 120  257.7131
 121  165.3497
 122  104.1417
 123  175.5011
 124  188.1103
 125  239.7456
 126  126.7106
 127  122.7828
 128  150.2017
 129  141.665
 130  183.5944
 131  118.8527
 132  308.2176
 133  268.4041
 134  95.55397
 135  100.5602
 136  223.7643
 137  230.4996
 138  151.9733
 139  80.40227
 140  112.0297
 141  162.4811
 142  282.8217
 143  211.5643
 144  82.56381
 145  169.0142
 146  213.9573
 147  114.338
 148  133.3194
 149  189.3634
 150  126.3045
 151  159.8987
 152  66.23172
 153  204.3278
 154  308.3518
 155  238.692
 156  140.9442
 157  193.9119
 158  265.6453
 159  126.8498
 160  157.483
 161  249.6263
 162  325.2853
 163  171.7599
 164  128.9456
 165  102.6556
 166  137.8482
 167  70.96033
 168  28.32961
 169  157.3135
 170  202.3144
 171  137.8925
 172  151.9985
 173  250.0242
 174  165.2446
 175  176.4688
 176  216.1159
 177  235.5288
 178  245.4335
 179  253.5065
 180  237.6079
 181  175.5518
 182  169.5981
 183  173.8061
 184  167.4631
 185  187.694
 186  -6.302547
 187  -35.31062
 188  -46.62001
 189  -26.91792
 190  187.0481
 191  165.7198
 192  167.6827
 193  223.9303
 194  227.6384
 195  194.4723
 196  215.2757
 197  208.6358
 198  156.3992
 199  41.54807
 200  26.47816
 201  152.8358
 202  228.5882
 203  219.6531
 204  271.6176
 205  195.5535
 206  18.92526
 207  55.72054
 208  35.44123
 209  151.2887
 210  107.6944
 211  68.57324
 212  126.6573
 213  92.436
 214  83.98219
 215  129.7504
 216  -63.11866
 217  22.28884
 218  88.32816
 219  67.29951
 220  80.39386
 221  123.9292
 222  125.4774
 223  128.4195
 224  82.82616
 225  106.9203
 226  168.4621
 227  111.1114
 228  240.3982
 229  206.5149
 230  208.3448
 231  221.3952
 232  260.1599
 233  175.4121
 234  151.5557
 235  171.7563
 236  295.5869
 237  303.9875
 238  92.30822
 239  150.2545
 240  237.0222
 241  285.985
 242  229.756
 243  160.6914
 244  84.24197
 245  184.9616
 246  295.0639
 247  152.8665
 248  21.08902
 249  74.56541
 250  225.8426
 251  199.8528
 252  178.9165
 253  235.0088
 254  235.76
 255  191.8958
 256  123.2988
 257  331.5271
 258  265.1145
 259  174.3166
 260  118.8539
 261  208.955
 262  301.3972
 263  133.8061
 264  55.27292
 265  221.5303
 266  314.845
 267  325.3381
 268  263.0487
 269  173.0035
 270  116.0086
 271  42.92462
 272  89.07045
 273  180.2672
 274  91.66132
 275  131.1549
 276  75.09007
 277  219.7955
 278  158.8916
 279  168.524
 280  160.3053
 281  246.8406
 282  228.5128
 283  171.6717
 284  -50.68293
 285  21.976
 286  114.4996
 287  142.7311
 288  52.76971
 289  132.444
 290  101.695
 291  173.171
 292  201.0539
 293  211.1615
 294  102.0836
 295  129.6771
 296  90.88698
 297  145.0151
 298  193.6436
 299  167.4699
 300  209.7835
 301  230.5671
 302  225.0132
 303  261.8407
 304  310.2554
 305  288.6381
 306  170.0697
 307  148.676
 308  119.0957
 309  114.6191
 310  182.4483
 311  218.4782
 312  162.1199
 313  79.56943
 314  182.1944
 315  170.8849
 316  128.3977
 317  220.1527
 318  225.4796
 319  -15.29021
 320  118.5235
 321  196.5132
 322  133.964
 323  34.85034
 324  -9.024556
 325  -27.88867
 326  137.4922
 327  191.3954
 328  86.16476
 329  120.7285
 330  279.7208
 331  216.8521
 332  123.0681
 333  97.49821
 334  117.7531
 335  111.6981
 336  158.306
 337  219.8021
 338  310.0107
 339  251.7997
 340  182.8557
 341  215.214
 342  292.8395
 343  294.8333
 344  286.7735
 345  105.8091
 346  -43.60658
 347  32.22103
 348  48.05952
 349  44.83319
 350  32.87981
 351  100.7173
 352  79.64319
 353  201.162
 354  118.8526
 355  141.1797
 356  65.19666
 357  16.93061
 358  105.5728
 359  106.4513
 360  154.4473
 361  322.5179
 362  123.9876
 363  139.2095
 364  177.5879
 365  165.9371
 366  185.2873
 367  178.5941
 368  369.0147
 369  233.1617
 370  49.25131
 371  35.17356
 372  97.16844
 373  213.2919
 374  250.4369
 375  225.0968
 376  138.4795
 377  149.4177
 378  104.8226
 379  190.9897
 380  208.4639
 381  -7.634393
 382  180.6425
 383  235.0685
 384  215.9467
 385  175.7318
 386  122.251
 387  189.3744
 388  201.3762
 389  302.7842
 390  214.3348
 391  243.031
 392  222.6822
 393  108.5384
 394  144.6182
 395  253.8129
 396  259.074
 397  115.6529
 398  -2.87595
 399  163.9878
 400  235.5208
 401  247.1705
 402  186.7044
 403  251.8135
 404  279.7249
 405  224.8542
 406  161.1762
 407  90.549
 408  178.1567
 409  185.6406
 410  338.7122
 411  95.86874
 412  169.6659
 413  301.4152
 414  308.9917
 415  158.2961
 416  236.9242
 417  291.977
 418  295.8596
 419  198.2008
 420  92.14191
 421  129.8956
 422  202.8048
 423  104.9026
 424  93.14106
 425  203.2556
 426  198.5278
 427  115.863
 428  215.7915
 429  192.0183
 430  41.85214
 431  106.8252
 432  145.8121
 433  65.96475
 434  59.36876
 435  102.4806
 436  124.3928
 437  108.787
 438  98.01847
 439  22.13694
 440  31.49706
 441  239.4075
 442  339.0986
 443  419.5976
 444  320.8776
 445  212.9773
 446  133.1596
 447  160.4474
 448  155.8641
 449  196.3022
 450  211.4165
 451  137.8402
 452  42.56107
 453  85.36417
 454  163.5102
 455  274.0449
 456  254.4995
 457  93.00392
 458  160.0306
 459  311.7654
 460  288.6591
 461  200.6272
 462  78.14156
 463  151.3844
 464  249.0444
 465  245.1133
 466  361.4502
 467  516.2267
 468  310.814
 469  171.9678
 470  303.2777
 471  210.0881
 472  142.1485
 473  187.6572
 474  98.38835
 475  250.2661
 476  222.6358
 477  288.4791
 478  266.4654
 479  220.0243
 480  309.4166
 481  216.3911
 482  -18.6005
 483  173.8178
 484  305.4896
 485  280.258
 486  263.1928
 487  201.2235
 488  148.3531
 489  196.5737
 490  247.9701
 491  324.5936
 492  218.292
 493  239.0927
 494  211.0782
 495  247.3095
 496  226.4669
 497  220.4121
 498  238.6206
 499  258.4066
 500  249.2815
 501  186.0945
 502  205.8078
 503  225.4632
 504  199.6172
 505  201.8732
 506  156.5877
 507  236.5411
 508  299.4489
 509  336.9616
 510  234.5718
 511  244.6106
