# Input file       =  1185263182.108499_cleaned.dat
# Candidate        =  PSR_0332+5434
# Telescope        =  AR
# Epoch_topo       =  57962.323658663183
# Epoch_bary       =  N/A
# T_sample         =  0.002
# Data Folded      =  7340032
# Data Avg         =  0.048218880301189
# Data StdDev      =  1.00032034451391 
# Profile Bins     =  512
# Profile Avg      =  690.896518681259 
# Profile StdDev   =  119.771392198103 
# Reduced chi-sqr  =  1.060
# Prob(Noise)      <  0.168   (~1.0 sigma)
# P_topo (ms)      =  714.471514596958  +/- 0.000517
# P'_topo (s/s)    =  -0                +/- 2.73e-10
# P''_topo (s/s^2) =  0                 +/- 1.2e-13
# P_bary (ms)      =  N/A
# P'_bary (s/s)    =  N/A
# P''_bary (s/s^2) =  N/A
# P_orb (s)        =  N/A
# asin(i)/c (s)    =  N/A
# eccentricity     =  N/A
# w (rad)          =  N/A
# T_peri           =  N/A
######################################################
   0  678.704
   1  542.627
   2  514.4138
   3  467.9106
   4  559.6472
   5  502.2703
   6  456.063
   7  579.4064
   8  672.2744
   9  770.6131
  10  807.4529
  11  727.3769
  12  670.4025
  13  650.0012
  14  648.3625
  15  708.5048
  16  632.0463
  17  671.6635
  18  774.8588
  19  706.9343
  20  641.6775
  21  641.0259
  22  660.2894
  23  632.9805
  24  679.1869
  25  680.816
  26  546.2952
  27  556.071
  28  699.459
  29  806.3832
  30  686.492
  31  594.6235
  32  627.1652
  33  599.9433
  34  682.7313
  35  738.3759
  36  706.5363
  37  643.7139
  38  569.3514
  39  714.6391
  40  715.3524
  41  775.4703
  42  640.2394
  43  718.6176
  44  739.2445
  45  661.247
  46  683.0615
  47  642.8666
  48  732.9709
  49  753.0645
  50  711.673
  51  774.4735
  52  774.9406
  53  722.9698
  54  652.1896
  55  711.5212
  56  655.9863
  57  631.3724
  58  817.5229
  59  743.5363
  60  712.2923
  61  863.4483
  62  744.29
  63  723.778
  64  700.2834
  65  600.5232
  66  675.0649
  67  765.7592
  68  800.6649
  69  720.7668
  70  796.2548
  71  820.0041
  72  748.8778
  73  703.2327
  74  611.722
  75  697.9987
  76  739.5767
  77  777.1234
  78  782.1121
  79  764.0455
  80  855.1181
  81  838.8976
  82  743.4803
  83  733.0457
  84  642.6387
  85  805.2637
  86  861.0182
  87  783.5085
  88  747.9008
  89  591.6017
  90  613.6068
  91  754.1348
  92  694.4968
  93  699.3428
  94  624.4146
  95  757.8721
  96  782.5922
  97  827.1174
  98  694.5872
  99  754.7501
 100  789.7631
 101  858.4632
 102  874.6862
 103  842.0462
 104  775.656
 105  789.673
 106  741.8976
 107  747.5497
 108  738.4421
 109  765.4064
 110  818.1948
 111  844.2336
 112  834.0388
 113  781.0134
 114  798.8224
 115  830.1062
 116  712.2065
 117  683.0394
 118  725.3603
 119  684.9746
 120  754.6179
 121  740.5343
 122  722.9777
 123  724.3065
 124  768.7266
 125  711.6719
 126  739.7247
 127  746.1082
 128  702.3711
 129  699.1085
 130  638.7064
 131  647.1478
 132  703.4719
 133  778.6057
 134  706.0463
 135  649.6152
 136  791.9848
 137  770.072
 138  675.8849
 139  660.194
 140  710.1081
 141  708.3301
 142  659.8528
 143  726.6526
 144  682.9798
 145  684.6434
 146  657.9507
 147  669.8148
 148  553.0201
 149  593.3151
 150  774.2439
 151  646.6908
 152  635.8165
 153  648.8204
 154  788.4917
 155  760.7954
 156  799.7321
 157  700.789
 158  674.1907
 159  765.7024
 160  702.0731
 161  658.5739
 162  626.1812
 163  772.1014
 164  697.7233
 165  466.9497
 166  659.3728
 167  629.9018
 168  524.1388
 169  531.1901
 170  563.6265
 171  590.5125
 172  690.1563
 173  762.3333
 174  786.6431
 175  695.6985
 176  648.1022
 177  700.1892
 178  717.2319
 179  718.8935
 180  698.6018
 181  732.554
 182  684.3655
 183  705.2792
 184  649.5555
 185  664.5146
 186  681.736
 187  606.5054
 188  588.3386
 189  545.2734
 190  628.3361
 191  633.5473
 192  581.0938
 193  551.2177
 194  608.8571
 195  621.3329
 196  558.8527
 197  570.8822
 198  649.882
 199  536.0624
 200  420.7599
 201  565.3928
 202  631.2502
 203  634.558
 204  579.7462
 205  555.0034
 206  487.6812
 207  528.6201
 208  612.7921
 209  648.8535
 210  580.1928
 211  601.2542
 212  591.1438
 213  598.7702
 214  528.4146
 215  592.1631
 216  696.8123
 217  673.306
 218  649.0882
 219  610.087
 220  704.2654
 221  675.1895
 222  741.3496
 223  731.809
 224  690.001
 225  561.0157
 226  516.3348
 227  535.3606
 228  578.164
 229  545.6925
 230  612.212
 231  654.4266
 232  593.075
 233  696.5682
 234  751.1802
 235  839.9089
 236  937.1672
 237  1012.729
 238  1073.129
 239  1160.189
 240  1174.588
 241  833.174
 242  751.5676
 243  764.0206
 244  688.0056
 245  742.4144
 246  775.298
 247  725.4592
 248  725.4684
 249  722.4995
 250  696.1626
 251  705.9355
 252  717.1968
 253  810.7559
 254  766.8723
 255  678.4279
 256  675.1222
 257  613.9167
 258  560.2626
 259  626.3321
 260  713.5963
 261  659.3472
 262  590.9612
 263  597.9583
 264  525.8823
 265  558.7491
 266  605.3704
 267  589.6957
 268  623.06
 269  623.8419
 270  565.3328
 271  600.8511
 272  598.8058
 273  549.4608
 274  492.2655
 275  577.8214
 276  719.6045
 277  657.7813
 278  554.8133
 279  571.6185
 280  471.8674
 281  607.0101
 282  605.7049
 283  633.4592
 284  631.2991
 285  630.4382
 286  618.3565
 287  762.7067
 288  772.3782
 289  649.0771
 290  630.3846
 291  572.6752
 292  655.2289
 293  645.3872
 294  678.1558
 295  648.5013
 296  624.9238
 297  718.6305
 298  702.5858
 299  648.5209
 300  682.9973
 301  720.0013
 302  622.0092
 303  603.3804
 304  657.8065
 305  562.1902
 306  668.4916
 307  739.7983
 308  737.4439
 309  776.5348
 310  742.4546
 311  616.2542
 312  563.1329
 313  589.1233
 314  706.1422
 315  675.0321
 316  704.2571
 317  688.4666
 318  787.2389
 319  694.746
 320  693.1162
 321  701.1011
 322  785.8774
 323  766.6588
 324  711.6339
 325  623.3132
 326  581.2292
 327  643.0875
 328  657.4407
 329  715.5226
 330  612.98
 331  700.9182
 332  648.5863
 333  760.4495
 334  744.6795
 335  707.3923
 336  782.0576
 337  613.284
 338  573.8253
 339  609.0471
 340  717.0031
 341  834.6296
 342  702.1743
 343  704.6719
 344  765.4375
 345  834.2772
 346  776.8974
 347  732.2308
 348  720.6574
 349  847.9603
 350  792.8457
 351  703.9854
 352  725.8674
 353  722.9322
 354  728.4182
 355  767.6965
 356  786.0707
 357  794.4188
 358  736.8091
 359  775.4862
 360  746.1027
 361  673.889
 362  629.6205
 363  626.1169
 364  602.9379
 365  627.5125
 366  580.3894
 367  606.7007
 368  667.7422
 369  692.7845
 370  766.0506
 371  650.0648
 372  738.5618
 373  648.8616
 374  619.8242
 375  585.2537
 376  677.6791
 377  757.1307
 378  700.7857
 379  684.3074
 380  667.0116
 381  633.2043
 382  617.7084
 383  652.4129
 384  618.5644
 385  650.328
 386  733.5327
 387  775.9822
 388  702.7654
 389  765.1744
 390  728.7447
 391  764.7607
 392  767.1915
 393  738.8268
 394  820.5565
 395  709.8096
 396  749.7712
 397  858.9016
 398  810.9633
 399  853.892
 400  751.1119
 401  798.9733
 402  818.1049
 403  764.0276
 404  843.2898
 405  806.9526
 406  797.41
 407  818.9164
 408  800.6203
 409  837.2892
 410  811.3287
 411  771.6573
 412  728.7675
 413  688.621
 414  707.5056
 415  746.5936
 416  798.0425
 417  679.7391
 418  664.6979
 419  595.6129
 420  665.3532
 421  709.8797
 422  629.9615
 423  660.2189
 424  736.2248
 425  743.3708
 426  650.4498
 427  639.4262
 428  680.4686
 429  791.6843
 430  740.2855
 431  617.2005
 432  586.0349
 433  644.8241
 434  728.3478
 435  640.2379
 436  654.0808
 437  638.4724
 438  603.0284
 439  676.1945
 440  713.6229
 441  753.653
 442  719.8767
 443  612.3821
 444  687.0173
 445  671.0086
 446  803.3123
 447  771.4459
 448  733.5065
 449  715.1502
 450  564.8458
 451  571.0239
 452  662.077
 453  759.7903
 454  786.7336
 455  780.4199
 456  744.7919
 457  826.3619
 458  779.9781
 459  745.9022
 460  719.0807
 461  739.3601
 462  669.1034
 463  650.7647
 464  636.3047
 465  730.1648
 466  753.0768
 467  655.437
 468  777.5485
 469  698.3798
 470  653.6771
 471  685.3248
 472  706.9418
 473  726.3694
 474  755.332
 475  713.4485
 476  731.6334
 477  789.5436
 478  658.8125
 479  643.855
 480  768.5378
 481  843.508
 482  686.4576
 483  721.8792
 484  806.1306
 485  619.7086
 486  615.803
 487  711.0286
 488  617.5964
 489  532.5255
 490  670.5158
 491  672.3483
 492  724.1918
 493  654.0884
 494  656.4929
 495  664.0574
 496  633.1393
 497  673.0128
 498  712.1978
 499  651.6039
 500  639.4369
 501  640.7266
 502  583.3142
 503  729.2447
 504  572.767
 505  608.2546
 506  661.4344
 507  629.165
 508  599.3503
 509  649.7682
 510  605.2327
 511  639.0108
