# Input file       =  1185405938.11192_cleaned.dat
# Candidate        =  PSR_0332+5434
# Telescope        =  AR
# Epoch_topo       =  57963.975927221298
# Epoch_bary       =  N/A
# T_sample         =  0.002
# Data Folded      =  7208960
# Data Avg         =  0.0332345584180342
# Data StdDev      =  1.00021552339627 
# Profile Bins     =  512
# Profile Avg      =  467.778160095453 
# Profile StdDev   =  118.684749622097 
# Reduced chi-sqr  =  1.056
# Prob(Noise)      <  0.182   (~0.9 sigma)
# P_topo (ms)      =  714.470385270186  +/- 0.000301
# P'_topo (s/s)    =  -0                +/- 1.62e-10
# P''_topo (s/s^2) =  0                 +/- 7.28e-14
# P_bary (ms)      =  N/A
# P'_bary (s/s)    =  N/A
# P''_bary (s/s^2) =  N/A
# P_orb (s)        =  N/A
# asin(i)/c (s)    =  N/A
# eccentricity     =  N/A
# w (rad)          =  N/A
# T_peri           =  N/A
######################################################
   0  396.3239
   1  543.02
   2  457.7166
   3  506.9791
   4  521.8253
   5  446.1272
   6  509.3332
   7  367.583
   8  337.2533
   9  409.7215
  10  457.6426
  11  457.8813
  12  412.203
  13  408.8515
  14  342.885
  15  483.7676
  16  395.5604
  17  279.829
  18  330.0214
  19  424.1039
  20  345.0226
  21  469.6026
  22  403.0944
  23  432.672
  24  360.5933
  25  434.8832
  26  486.8776
  27  386.572
  28  389.3098
  29  495.0671
  30  479.6624
  31  500.5059
  32  409.6282
  33  442.1454
  34  500.9476
  35  465.4279
  36  506.7382
  37  476.8835
  38  291.7
  39  201.1216
  40  400.9537
  41  383.0168
  42  477.9425
  43  494.2567
  44  495.0787
  45  480.4489
  46  373.6895
  47  433.2244
  48  397.8698
  49  417.1845
  50  459.9142
  51  372.6123
  52  347.2824
  53  431.2769
  54  468.1006
  55  416.3167
  56  486.4763
  57  403.0334
  58  350.7694
  59  469.6308
  60  546.1358
  61  518.1956
  62  490.8514
  63  428.6748
  64  442.2804
  65  401.7205
  66  593.9492
  67  587.4092
  68  530.0476
  69  510.7617
  70  394.4289
  71  363.8607
  72  525.7343
  73  497.4349
  74  293.2546
  75  418.5493
  76  494.1198
  77  444.9633
  78  444.6706
  79  338.084
  80  471.0058
  81  444.2068
  82  272.2611
  83  371.5149
  84  414.898
  85  456.1885
  86  476.6516
  87  511.9828
  88  381.5199
  89  377.3619
  90  406.6001
  91  333.123
  92  321.354
  93  386.4315
  94  416.9689
  95  420.0607
  96  365.4853
  97  404.8499
  98  409.7007
  99  443.8146
 100  518.0665
 101  537.9561
 102  506.3209
 103  438.0242
 104  452.9964
 105  581.03
 106  464.2027
 107  460.3512
 108  541.6532
 109  502.8683
 110  526.9261
 111  488.4234
 112  475.1359
 113  382.4359
 114  437.6366
 115  483.6073
 116  426.6888
 117  441.4958
 118  439.3645
 119  460.9721
 120  421.7648
 121  549.0259
 122  457.5391
 123  427.0964
 124  358.0142
 125  436.1126
 126  426.1363
 127  500.5272
 128  461.7774
 129  495.161
 130  463.9743
 131  402.7587
 132  340.8864
 133  436.3752
 134  404.4148
 135  300.7687
 136  251.9603
 137  379.6973
 138  527.2837
 139  555.2783
 140  440.6699
 141  387.1925
 142  408.6519
 143  528.7727
 144  537.9905
 145  547.4459
 146  426.2544
 147  437.9187
 148  550.2968
 149  489.4189
 150  515.5035
 151  546.4759
 152  497.6817
 153  430.6792
 154  342.9819
 155  458.3617
 156  538.1218
 157  376.1337
 158  439.665
 159  386.6809
 160  256.4713
 161  326.9662
 162  478.8285
 163  392.1116
 164  424.3469
 165  500.2318
 166  458.3606
 167  520.4158
 168  441.4273
 169  490.7544
 170  457.1232
 171  458.9335
 172  433.3323
 173  395.7363
 174  480.3819
 175  447.4396
 176  291.665
 177  358.6868
 178  415.3291
 179  316.2836
 180  405.5965
 181  530.6703
 182  538.2442
 183  599.2571
 184  488.5778
 185  380.4097
 186  371.024
 187  458.5397
 188  452.3051
 189  471.946
 190  449.5952
 191  554.363
 192  546.4255
 193  419.9174
 194  465.0342
 195  424.5537
 196  331.8268
 197  248.9586
 198  333.4579
 199  403.1351
 200  477.6191
 201  514.3624
 202  474.0082
 203  397.3449
 204  428.229
 205  539.3492
 206  412.1646
 207  464.0749
 208  528.3494
 209  478.2833
 210  587.1098
 211  488.7198
 212  492.8975
 213  471.854
 214  499.0076
 215  454.0925
 216  481.1025
 217  539.6647
 218  452.5468
 219  555.2418
 220  563.1165
 221  657.8815
 222  483.7445
 223  567.0551
 224  547.2834
 225  598.0025
 226  695.6807
 227  642.6254
 228  488.4733
 229  520.077
 230  598.9602
 231  481.8383
 232  423.9959
 233  505.8234
 234  458.3115
 235  444.8534
 236  457.7713
 237  486.947
 238  418.8209
 239  526.3015
 240  547.7921
 241  480.2535
 242  512.4869
 243  574.1604
 244  516.2045
 245  443.0579
 246  329.636
 247  341.7898
 248  466.9689
 249  446.7031
 250  469.7763
 251  444.238
 252  327.667
 253  377.9274
 254  495.0248
 255  525.0178
 256  463.8069
 257  480.143
 258  607.9231
 259  532.7465
 260  440.1008
 261  397.4403
 262  493.5459
 263  599.5924
 264  522.2053
 265  491.8429
 266  562.7758
 267  576.9211
 268  507.7287
 269  542.1469
 270  586.0302
 271  457.7275
 272  529.806
 273  493.3581
 274  475.424
 275  384.8926
 276  560.5942
 277  568.7538
 278  458.8482
 279  396.7367
 280  433.3134
 281  490.4338
 282  420.4711
 283  381.3987
 284  523.7518
 285  510.1743
 286  551.5261
 287  554.1057
 288  529.9198
 289  512.3725
 290  383.595
 291  429.9265
 292  472.5212
 293  520.9348
 294  621.2031
 295  598.6296
 296  592.1102
 297  493.035
 298  501.9349
 299  511.5724
 300  555.6584
 301  594.442
 302  596.1396
 303  506.7301
 304  453.6227
 305  430.1477
 306  420.8948
 307  460.6829
 308  645.5508
 309  573.9355
 310  570.8525
 311  498.7169
 312  456.1156
 313  499.5754
 314  591.6524
 315  568.1813
 316  315.8413
 317  406.1103
 318  475.668
 319  543.7516
 320  439.4783
 321  414.5005
 322  535.1743
 323  411.5641
 324  447.0108
 325  442.7948
 326  452.8683
 327  386.1047
 328  459.5266
 329  485.6504
 330  529.411
 331  395.2444
 332  458.8294
 333  462.2029
 334  473.3535
 335  507.3002
 336  368.4305
 337  428.5773
 338  512.762
 339  476.9026
 340  400.08
 341  409.577
 342  431.0665
 343  422.9215
 344  413.501
 345  509.7212
 346  509.9967
 347  407.4644
 348  313.9515
 349  500.9959
 350  498.9736
 351  451.4228
 352  495.5237
 353  529.4212
 354  583.363
 355  578.0756
 356  508.4618
 357  488.1337
 358  599.0785
 359  454.4358
 360  387.9124
 361  462.4622
 362  455.0166
 363  503.3894
 364  488.1692
 365  526.6307
 366  514.2993
 367  520.6937
 368  424.2431
 369  424.872
 370  509.821
 371  465.6432
 372  395.9779
 373  392.1873
 374  429.5356
 375  455.5919
 376  542.7803
 377  629.7366
 378  606.9508
 379  509.2821
 380  475.3801
 381  488.1848
 382  524.5919
 383  455.7591
 384  517.8159
 385  470.243
 386  443.606
 387  394.7562
 388  381.0529
 389  532.3342
 390  444.3478
 391  393.1988
 392  385.898
 393  424.0974
 394  350.3992
 395  400.0793
 396  443.3666
 397  420.5364
 398  455.8637
 399  496.5063
 400  466.0462
 401  538.2599
 402  463.997
 403  460.8002
 404  561.5721
 405  561.1159
 406  473.1147
 407  476.5102
 408  527.9613
 409  482.72
 410  394.6841
 411  322.307
 412  359.9047
 413  495.4294
 414  570.8336
 415  489.127
 416  502.0986
 417  577.3501
 418  585.6989
 419  523.756
 420  629.3196
 421  538.3748
 422  436.9515
 423  391.5976
 424  481.0619
 425  526.0344
 426  396.3933
 427  393.9258
 428  458.4783
 429  432.8723
 430  395.7908
 431  295.9518
 432  293.314
 433  378.0199
 434  487.1255
 435  492.3597
 436  463.1178
 437  463.514
 438  434.2014
 439  438.5226
 440  384.3187
 441  401.963
 442  335.6508
 443  461.7818
 444  430.4473
 445  266.2159
 446  400.571
 447  446.3684
 448  439.7497
 449  406.3083
 450  515.451
 451  464.4766
 452  334.0555
 453  306.5441
 454  384.3127
 455  407.1342
 456  510.0584
 457  580.0672
 458  612.9058
 459  538.3303
 460  456.1104
 461  407.1968
 462  407.0076
 463  400.9777
 464  412.0616
 465  405.8741
 466  400.2446
 467  502.4407
 468  526.7855
 469  455.2444
 470  509.5819
 471  521.6582
 472  526.7892
 473  656.36
 474  851.604
 475  933.4241
 476  1029.881
 477  992.1039
 478  816.3251
 479  563.3376
 480  442.2041
 481  486.739
 482  498.6505
 483  450.7685
 484  453.5389
 485  502.3368
 486  432.8014
 487  485.4588
 488  546.9834
 489  642.5364
 490  655.1941
 491  601.0158
 492  670.7487
 493  596.9531
 494  415.3746
 495  422.4151
 496  475.2194
 497  580.5201
 498  584.5377
 499  464.6868
 500  446.2901
 501  518.0511
 502  534.7983
 503  578.3282
 504  418.7226
 505  434.7673
 506  387.6382
 507  420.1098
 508  442.171
 509  486.8798
 510  370.8726
 511  379.9892
