# Input file       =  1185162103.119705_cleaned.dat
# Candidate        =  PSR_0332+5434
# Telescope        =  AR
# Epoch_topo       =  57961.153762959548
# Epoch_bary       =  N/A
# T_sample         =  0.002
# Data Folded      =  7340032
# Data Avg         =  0.0353324736619398
# Data StdDev      =  1.00004071978747 
# Profile Bins     =  512
# Profile Avg      =  505.719004945308 
# Profile StdDev   =  119.737911880561 
# Reduced chi-sqr  =  1.365
# Prob(Noise)      <  6.99e-08   (~5.3 sigma)
# P_topo (ms)      =  714.471758328918  +/- 0.000279
# P'_topo (s/s)    =  -0                +/- 1.47e-10
# P''_topo (s/s^2) =  0                 +/- 6.5e-14
# P_bary (ms)      =  N/A
# P'_bary (s/s)    =  N/A
# P''_bary (s/s^2) =  N/A
# P_orb (s)        =  N/A
# asin(i)/c (s)    =  N/A
# eccentricity     =  N/A
# w (rad)          =  N/A
# T_peri           =  N/A
######################################################
   0  1071.38
   1  1139.944
   2  995.882
   3  705.9047
   4  539.6068
   5  432.8082
   6  414.3669
   7  378.476
   8  406.0043
   9  333.7477
  10  467.8585
  11  644.4173
  12  682.5006
  13  508.0862
  14  445.9484
  15  503.2039
  16  544.4133
  17  578.9704
  18  527.9941
  19  402.8472
  20  447.1978
  21  473.5443
  22  431.0515
  23  594.9971
  24  497.0684
  25  497.7159
  26  448.5288
  27  389.8644
  28  402.6894
  29  509.3241
  30  459.9317
  31  506.83
  32  419.7496
  33  405.6696
  34  562.8447
  35  452.134
  36  382.6304
  37  399.759
  38  478.5197
  39  490.2409
  40  458.9543
  41  414.384
  42  473.4997
  43  570.0279
  44  726.5737
  45  610.0176
  46  495.8577
  47  495.7428
  48  641.7416
  49  606.0848
  50  639.8709
  51  663.584
  52  615.1693
  53  587.1656
  54  513.9296
  55  535.7064
  56  619.3658
  57  442.0105
  58  365.8528
  59  383.3071
  60  435.1944
  61  534.5597
  62  644.5355
  63  657.6297
  64  603.311
  65  538.761
  66  572.7072
  67  569.6304
  68  417.9402
  69  406.8133
  70  452.9731
  71  522.5363
  72  564.0089
  73  606.6027
  74  696.8669
  75  461.053
  76  512.8827
  77  579.4711
  78  599.9559
  79  603.2823
  80  556.3329
  81  537.8699
  82  573.2868
  83  601.2906
  84  678.645
  85  624.8312
  86  586.4778
  87  565.4022
  88  463.4066
  89  425.4465
  90  479.3692
  91  557.498
  92  617.1874
  93  525.9593
  94  553.4619
  95  514.7798
  96  507.7567
  97  478.5116
  98  468.0442
  99  491.9762
 100  491.7829
 101  595.3497
 102  673.8445
 103  694.2481
 104  614.2329
 105  536.1305
 106  583.6031
 107  563.3668
 108  552.6912
 109  575.8615
 110  529.2418
 111  548.9174
 112  587.9987
 113  610.4425
 114  635.2845
 115  542.1416
 116  503.8788
 117  467.2962
 118  478.342
 119  563.1372
 120  617.4842
 121  610.785
 122  486.749
 123  392.815
 124  492.3329
 125  512.0792
 126  482.757
 127  477.3913
 128  570.1102
 129  682.5071
 130  580.2451
 131  525.2516
 132  525.1459
 133  616.2251
 134  624.5333
 135  604.0599
 136  622.9054
 137  692.3381
 138  749.5577
 139  720.6918
 140  607.2019
 141  611.5995
 142  612.3762
 143  611.938
 144  638.0689
 145  605.0667
 146  643.6161
 147  496.9709
 148  511.7942
 149  556.8721
 150  528.0408
 151  567.9632
 152  529.5162
 153  587.7744
 154  589.0988
 155  493.9903
 156  524.7588
 157  512.4802
 158  546.8182
 159  564.735
 160  505.6081
 161  522.2889
 162  428.4518
 163  471.4641
 164  641.0547
 165  579.6614
 166  532.7549
 167  652.2212
 168  684.8989
 169  606.0121
 170  521.4899
 171  519.0029
 172  570.3248
 173  694.8043
 174  709.0635
 175  625.9666
 176  581.4533
 177  525.6866
 178  551.1679
 179  500.7784
 180  506.7117
 181  533.941
 182  588.9213
 183  586.4189
 184  515.8458
 185  504.4499
 186  436.218
 187  440.5462
 188  535.8422
 189  461.8429
 190  575.6659
 191  612.554
 192  571.6662
 193  551.9229
 194  431.0351
 195  452.7555
 196  538.0149
 197  520.4485
 198  433.7834
 199  540.0608
 200  553.5078
 201  594.362
 202  617.4241
 203  551.158
 204  602.882
 205  655.6288
 206  552.6515
 207  499.2745
 208  538.8257
 209  712.1925
 210  679.0454
 211  566.8107
 212  535.4384
 213  504.1635
 214  459.429
 215  610.6109
 216  556.3915
 217  577.1725
 218  547.1248
 219  477.0432
 220  561.765
 221  518.244
 222  462.4224
 223  519.274
 224  622.6215
 225  572.6245
 226  622.3572
 227  662.081
 228  635.1127
 229  501.4257
 230  528.7419
 231  397.9861
 232  370.7592
 233  432.1949
 234  519.5141
 235  531.4753
 236  633.4939
 237  631.6136
 238  510.9581
 239  514.7256
 240  378.5348
 241  480.076
 242  540.7626
 243  548.6747
 244  507.0387
 245  555.1755
 246  527.6164
 247  458.0086
 248  520.0079
 249  487.8441
 250  488.6263
 251  480.7537
 252  488.7235
 253  550.1838
 254  450.0763
 255  468.5553
 256  379.3322
 257  396.9686
 258  516.5926
 259  513.765
 260  485.3776
 261  493.2399
 262  482.5721
 263  464.9185
 264  467.5617
 265  539.1382
 266  420.4984
 267  463.7619
 268  450.9235
 269  449.4121
 270  476.6756
 271  499.9695
 272  496.9856
 273  536.5895
 274  506.3908
 275  555.7853
 276  509.0599
 277  556.5664
 278  528.3412
 279  484.1802
 280  545.8245
 281  429.2547
 282  377.1264
 283  427.1188
 284  531.692
 285  633.7556
 286  536.236
 287  469.2776
 288  531.765
 289  527.0167
 290  392.1845
 291  333.6856
 292  493.3852
 293  525.6047
 294  476.2863
 295  454.9508
 296  366.0256
 297  391.9328
 298  478.7395
 299  527.0224
 300  498.7641
 301  503.6109
 302  507.772
 303  526.2355
 304  414.6963
 305  410.1292
 306  472.7252
 307  368.2093
 308  414.476
 309  519.3209
 310  437.1607
 311  417.5651
 312  442.3477
 313  437.3443
 314  407.969
 315  347.7113
 316  364.0275
 317  423.0973
 318  431.3803
 319  450.2265
 320  455.0543
 321  523.3543
 322  551.0312
 323  455.7144
 324  368.4482
 325  382.4866
 326  406.454
 327  415.1492
 328  343.5057
 329  377.6904
 330  399.726
 331  328.0698
 332  429.9271
 333  437.3156
 334  464.5706
 335  559.3083
 336  448.9144
 337  345.9069
 338  412.1786
 339  497.5509
 340  481.1996
 341  462.6837
 342  468.796
 343  437.097
 344  404.8604
 345  443.6149
 346  377.0518
 347  464.3087
 348  523.133
 349  397.3945
 350  443.1967
 351  451.2227
 352  416.1865
 353  373.9744
 354  486.2834
 355  467.1594
 356  378.3882
 357  294.4084
 358  359.3434
 359  486.861
 360  470.0628
 361  448.8801
 362  484.3579
 363  450.2144
 364  420.8302
 365  440.9352
 366  479.6873
 367  461.7778
 368  464.0377
 369  478.7409
 370  364.8273
 371  312.8369
 372  346.9557
 373  388.3791
 374  506.5587
 375  533.4182
 376  456.2332
 377  396.0921
 378  449.1346
 379  517.5056
 380  410.3345
 381  374.8293
 382  467.0981
 383  428.7916
 384  508.1406
 385  496.1931
 386  493.0792
 387  487.0499
 388  341.1597
 389  400.6984
 390  429.6559
 391  415.4874
 392  438.5725
 393  506.8598
 394  412.1337
 395  380.0243
 396  373.0939
 397  294.8545
 398  389.2832
 399  470.4185
 400  387.2719
 401  462.8578
 402  469.451
 403  429.6042
 404  293.974
 405  353.0886
 406  488.8525
 407  407.0576
 408  338.5682
 409  395.1721
 410  413.1843
 411  364.2532
 412  523.9664
 413  488.6059
 414  389.4078
 415  421.762
 416  297.1045
 417  382.4758
 418  415.1079
 419  519.2322
 420  588.3447
 421  525.3964
 422  579.157
 423  538.6313
 424  450.3745
 425  515.2514
 426  498.483
 427  479.2068
 428  379.2169
 429  352.3009
 430  371.5221
 431  387.2483
 432  432.1048
 433  467.0908
 434  452.6561
 435  344.2281
 436  386.07
 437  452.6486
 438  492.8766
 439  507.317
 440  332.2909
 441  365.7413
 442  433.4733
 443  462.5235
 444  495.6947
 445  411.5475
 446  359.2286
 447  405.4133
 448  384.0227
 449  362.7611
 450  380.6813
 451  487.7368
 452  543.8357
 453  542.3696
 454  618.3697
 455  470.4626
 456  462.3252
 457  538.3174
 458  472.7904
 459  488.0925
 460  526.0656
 461  639.3771
 462  616.6055
 463  433.6473
 464  456.9984
 465  492.8833
 466  535.9094
 467  498.4496
 468  445.4125
 469  507.9482
 470  499.4558
 471  383.4789
 472  354.9886
 473  460.1603
 474  404.8223
 475  464.7867
 476  534.4554
 477  479.6147
 478  483.4083
 479  434.7487
 480  403.8608
 481  512.4135
 482  572.6791
 483  578.421
 484  563.9525
 485  562.7065
 486  580.9986
 487  587.973
 488  668.601
 489  594.3076
 490  485.0886
 491  475.1883
 492  469.5385
 493  518.376
 494  612.4005
 495  588.5371
 496  461.4948
 497  459.3527
 498  493.248
 499  488.3215
 500  527.2123
 501  556.6193
 502  564.0798
 503  526.6248
 504  528.4217
 505  514.211
 506  475.4607
 507  597.9446
 508  819.3042
 509  885.1957
 510  890.3588
 511  996.046
