# Input file       =  1185263182.108499_cleaned.dat
# Candidate        =  PSR_0332+5434
# Telescope        =  AR
# Epoch_topo       =  57962.323658663183
# Epoch_bary       =  N/A
# T_sample         =  0.002
# Data Folded      =  7340032
# Data Avg         =  0.048218880301189
# Data StdDev      =  1.00032034451391 
# Profile Bins     =  512
# Profile Avg      =  690.896547237204 
# Profile StdDev   =  119.771392198103 
# Reduced chi-sqr  =  1.044
# Prob(Noise)      <  0.236   (~0.7 sigma)
# P_topo (ms)      =  714.471513517007  +/- 0.000521
# P'_topo (s/s)    =  -0                +/- 2.75e-10
# P''_topo (s/s^2) =  0                 +/- 1.21e-13
# P_bary (ms)      =  N/A
# P'_bary (s/s)    =  N/A
# P''_bary (s/s^2) =  N/A
# P_orb (s)        =  N/A
# asin(i)/c (s)    =  N/A
# eccentricity     =  N/A
# w (rad)          =  N/A
# T_peri           =  N/A
######################################################
   0  1113.916
   1  1192.792
   2  1064.597
   3  742.4362
   4  782.8284
   5  725.3201
   6  697.3311
   7  772.0706
   8  756.2482
   9  706.3554
  10  747.0185
  11  692.8074
  12  713.231
  13  688.2128
  14  764.9122
  15  802.2767
  16  726.2513
  17  667.3552
  18  669.3531
  19  569.6732
  20  584.2697
  21  675.9896
  22  707.6124
  23  611.7635
  24  595.0621
  25  574.0409
  26  535.1505
  27  590.0674
  28  593.3171
  29  599.7257
  30  618.5146
  31  608.1425
  32  558.9406
  33  634.0844
  34  564.4161
  35  521.2928
  36  499.4124
  37  666.6968
  38  708.9855
  39  595.8801
  40  559.6996
  41  527.1226
  42  509.7469
  43  640.5978
  44  601.0721
  45  652.2452
  46  619.6384
  47  613.722
  48  671.073
  49  787.7204
  50  720.5756
  51  627.9061
  52  621.4406
  53  598.851
  54  657.0079
  55  642.2159
  56  679.4792
  57  636.8574
  58  656.8656
  59  726.645
  60  681.4589
  61  643.3043
  62  715.3518
  63  684.0605
  64  587.3324
  65  647.0624
  66  615.3289
  67  577.8362
  68  730.7938
  69  719.847
  70  760.0229
  71  778.0298
  72  692.1764
  73  587.3168
  74  542.4013
  75  657.8256
  76  699.7052
  77  703.6978
  78  682.7736
  79  736.7331
  80  758.8625
  81  671.1555
  82  698.3324
  83  722.3896
  84  799.7461
  85  741.029
  86  675.6531
  87  593.3052
  88  617.8452
  89  638.9937
  90  702.4266
  91  648.2656
  92  660.7789
  93  679.0195
  94  679.554
  95  787.0668
  96  704.9811
  97  753.5631
  98  731.4374
  99  550.581
 100  613.821
 101  633.2858
 102  788.1345
 103  775.8912
 104  686.7018
 105  725.1039
 106  817.1209
 107  822.1055
 108  751.9354
 109  710.2175
 110  775.5316
 111  856.3619
 112  740.2015
 113  705.223
 114  717.8921
 115  725.3865
 116  754.0128
 117  762.2858
 118  813.2045
 119  759.5648
 120  747.9367
 121  769.2487
 122  703.0553
 123  668.9448
 124  620.1469
 125  625.8077
 126  601.7278
 127  618.8577
 128  573.9764
 129  628.2853
 130  690.1354
 131  730.9728
 132  722.7222
 133  669.3962
 134  715.7617
 135  630.1522
 136  590.012
 137  620.7893
 138  734.4616
 139  736.0773
 140  689.5562
 141  671.7402
 142  669.7667
 143  600.1763
 144  646.7605
 145  625.2614
 146  641.1556
 147  671.1863
 148  769.6508
 149  741.8192
 150  725.6121
 151  760.9073
 152  720.2264
 153  797.688
 154  730.6199
 155  776.5575
 156  783.123
 157  692.6444
 158  830.1503
 159  844.6476
 160  822.8498
 161  822.2255
 162  743.1903
 163  822.4036
 164  804.6551
 165  789.8729
 166  846.6094
 167  777.4435
 168  813.316
 169  803.4056
 170  823.3853
 171  812.9681
 172  802.5975
 173  760.9232
 174  705.4487
 175  697.7408
 176  699.5656
 177  802.3052
 178  735.4111
 179  684.5846
 180  609.5141
 181  629.3226
 182  688.2305
 183  701.219
 184  604.2505
 185  713.9698
 186  737.6628
 187  709.5028
 188  636.2212
 189  646.2245
 190  742.1899
 191  778.2142
 192  682.1294
 193  592.7228
 194  602.2698
 195  706.2801
 196  682.2584
 197  649.7552
 198  649.627
 199  623.709
 200  617.2827
 201  703.5378
 202  724.5255
 203  755.2966
 204  680.0764
 205  621.4337
 206  698.2244
 207  702.4479
 208  824.9783
 209  743.2094
 210  736.1315
 211  647.5464
 212  553.2999
 213  605.5458
 214  703.1111
 215  777.8434
 216  801.1038
 217  755.3466
 218  766.8907
 219  822.9216
 220  745.7979
 221  746.8514
 222  720.4432
 223  713.4839
 224  652.7102
 225  646.6775
 226  655.7339
 227  774.3334
 228  683.3209
 229  715.152
 230  765.8111
 231  659.7747
 232  667.5216
 233  700.808
 234  707.6689
 235  754.2657
 236  727.4344
 237  725.7034
 238  749.1753
 239  755.0046
 240  625.2969
 241  686.8851
 242  831.1472
 243  791.7806
 244  653.3073
 245  800.4882
 246  721.1415
 247  604.4238
 248  656.9378
 249  718.7892
 250  522.759
 251  599.1489
 252  667.4542
 253  708.3467
 254  695.24
 255  654.7281
 256  660.5256
 257  652.6342
 258  634.7316
 259  697.8389
 260  700.3413
 261  625.5936
 262  655.1905
 263  594.8587
 264  648.9365
 265  693.8362
 266  547.5385
 267  652.3563
 268  649.272
 269  593.4961
 270  633.7479
 271  640.0414
 272  594.9142
 273  685.7102
 274  614.534
 275  532.7863
 276  484.5477
 277  498.5482
 278  554.9953
 279  467.6539
 280  506.5035
 281  627.4066
 282  702.2851
 283  798.402
 284  776.199
 285  700.8663
 286  652.8383
 287  652.2891
 288  661.1453
 289  713.5823
 290  596.8643
 291  770.0307
 292  726.0305
 293  684.3761
 294  614.8077
 295  668.5519
 296  645.7253
 297  649.9356
 298  698.6715
 299  625.7171
 300  529.5302
 301  598.8033
 302  777.6614
 303  762.4265
 304  642.0442
 305  593.6177
 306  624.118
 307  615.3351
 308  717.8345
 309  728.1784
 310  688.4907
 311  597.4476
 312  623.4742
 313  728.8375
 314  748.2347
 315  729.3766
 316  633.5043
 317  758.8801
 318  695.2878
 319  668.7402
 320  671.71
 321  659.4984
 322  779.7327
 323  710.429
 324  727.423
 325  791.6696
 326  759.9022
 327  678.6475
 328  667.3031
 329  719.6975
 330  615.2819
 331  719.7196
 332  807.1599
 333  693.2605
 334  791.0502
 335  833.4562
 336  708.8118
 337  737.4865
 338  645.727
 339  618.9784
 340  716.6857
 341  806.4056
 342  758.076
 343  742.1944
 344  820.9318
 345  796.8593
 346  724.0721
 347  650.1497
 348  632.1714
 349  749.5521
 350  737.8395
 351  806.1367
 352  745.8301
 353  808.841
 354  863.6576
 355  781.2378
 356  747.187
 357  688.2344
 358  687.7565
 359  870.7171
 360  817.9511
 361  783.3016
 362  676.5674
 363  563.9399
 364  682.4656
 365  750.6713
 366  690.3671
 367  650.7003
 368  675.3719
 369  770.4696
 370  832.81
 371  758.0466
 372  711.1352
 373  778.9879
 374  811.5516
 375  870.9817
 376  868.7479
 377  803.2962
 378  783.4609
 379  757.7695
 380  753.3116
 381  734.027
 382  753.042
 383  778.3845
 384  839.1742
 385  837.2125
 386  816.7758
 387  766.2323
 388  848.8688
 389  785.4427
 390  675.2849
 391  712.5315
 392  692.0792
 393  728.8873
 394  749.3509
 395  736.5592
 396  706.7657
 397  757.6846
 398  740.1725
 399  718.7858
 400  746.801
 401  725.1936
 402  717.5331
 403  661.9771
 404  646.9879
 405  656.5449
 406  735.5953
 407  769.7088
 408  655.0752
 409  716.1397
 410  804.7663
 411  729.8829
 412  651.1099
 413  686.437
 414  710.0444
 415  683.6557
 416  679.6671
 417  718.334
 418  685.6257
 419  676.3214
 420  664.8014
 421  633.0396
 422  520.8307
 423  706.2848
 424  727.4034
 425  623.0192
 426  625.1653
 427  733.515
 428  771.2771
 429  784.1134
 430  773.5942
 431  659.3041
 432  730.6204
 433  732.3693
 434  690.5552
 435  632.9814
 436  677.0519
 437  788.3784
 438  561.2283
 439  533.3858
 440  690.3572
 441  580.5281
 442  505.5041
 443  561.9469
 444  557.9188
 445  619.3143
 446  726.9565
 447  786.1078
 448  756.9601
 449  655.7679
 450  671.2225
 451  714.0219
 452  730.0685
 453  679.2282
 454  738.569
 455  702.9
 456  715.2438
 457  670.5606
 458  638.8049
 459  689.7017
 460  644.767
 461  607.1343
 462  565.848
 463  566.3328
 464  643.4776
 465  610.3622
 466  561.5452
 467  568.374
 468  631.0193
 469  585.9967
 470  548.9809
 471  616.8353
 472  619.3022
 473  458.6262
 474  468.0209
 475  612.7519
 476  644.4456
 477  611.142
 478  575.7952
 479  510.8484
 480  498.8014
 481  566.5991
 482  641.9525
 483  625.3633
 484  560.9335
 485  617.2545
 486  593.6869
 487  573.8981
 488  523.5053
 489  658.9406
 490  694.5907
 491  674.2179
 492  600.0094
 493  676.9369
 494  674.3837
 495  714.3407
 496  729.8401
 497  734.1587
 498  634.1495
 499  529.8049
 500  511.2311
 501  564.6287
 502  565.8375
 503  553.581
 504  642.62
 505  628.6423
 506  623.1558
 507  737.9772
 508  784.1521
 509  867.2377
 510  986.2053
 511  1020.407
