# Input file       =  1185075916.114914_cleaned.dat
# Candidate        =  PSR_0332+5434
# Telescope        =  AR
# Epoch_topo       =  57960.156228181877
# Epoch_bary       =  N/A
# T_sample         =  0.002
# Data Folded      =  7340032
# Data Avg         =  0.0339440343343723
# Data StdDev      =  1.00005058994746 
# Profile Bins     =  512
# Profile Avg      =  486.616782822247 
# Profile StdDev   =  119.739093664786 
# Reduced chi-sqr  =  1.822
# Prob(Noise)      <  6.94e-27   (~10.7 sigma)
# P_topo (ms)      =  714.472267870519  +/- 0.000339
# P'_topo (s/s)    =  -0                +/- 1.79e-10
# P''_topo (s/s^2) =  0                 +/- 7.9e-14
# P_bary (ms)      =  N/A
# P'_bary (s/s)    =  N/A
# P''_bary (s/s^2) =  N/A
# P_orb (s)        =  N/A
# asin(i)/c (s)    =  N/A
# eccentricity     =  N/A
# w (rad)          =  N/A
# T_peri           =  N/A
######################################################
   0  1284.646
   1  1219.682
   2  947.8033
   3  746.3412
   4  713.1879
   5  640.098
   6  679.9698
   7  577.1783
   8  614.8267
   9  579.6053
  10  626.6237
  11  648.9298
  12  660.388
  13  791.5864
  14  638.1271
  15  560.9819
  16  572.1599
  17  542.6816
  18  575.2898
  19  555.8279
  20  504.4055
  21  417.8412
  22  416.1699
  23  507.2835
  24  627.6517
  25  608.2904
  26  479.1884
  27  464.6054
  28  483.9591
  29  509.574
  30  424.1783
  31  492.6075
  32  500.6112
  33  447.7572
  34  396.1417
  35  356.8995
  36  389.5917
  37  470.034
  38  563.0062
  39  562.6047
  40  440.6939
  41  443.7551
  42  461.616
  43  397.9106
  44  471.7151
  45  584.7214
  46  578.0497
  47  571.241
  48  522.8807
  49  495.2782
  50  446.291
  51  456.8976
  52  491.027
  53  508.1224
  54  603.3434
  55  538.6873
  56  406.8425
  57  334.7039
  58  477.7393
  59  495.6839
  60  461.8962
  61  455.0596
  62  519.1761
  63  458.924
  64  532.5674
  65  572.0155
  66  472.6815
  67  437.376
  68  443.1286
  69  465.7033
  70  433.1986
  71  488.1202
  72  398.9164
  73  397.7451
  74  328.4974
  75  429.0306
  76  393.3172
  77  334.9384
  78  295.9702
  79  252.5943
  80  248.9673
  81  256.264
  82  338.501
  83  354.8249
  84  259.7903
  85  247.3713
  86  283.5844
  87  436.1545
  88  465.3572
  89  385.1307
  90  340.2802
  91  354.6505
  92  362.298
  93  197.3457
  94  313.9028
  95  393.4053
  96  503.2255
  97  499.3427
  98  377.6282
  99  429.7623
 100  483.2163
 101  366.4695
 102  340.9367
 103  469.8672
 104  408.4225
 105  365.3398
 106  395.0208
 107  497.2736
 108  532.335
 109  483.021
 110  417.5248
 111  451.8124
 112  415.1054
 113  449.4973
 114  429.9237
 115  384.8574
 116  381.033
 117  438.4593
 118  439.3139
 119  437.4167
 120  325.3179
 121  369.7452
 122  463.8877
 123  422.6822
 124  436.5603
 125  368.9793
 126  377.6996
 127  404.5997
 128  359.6902
 129  386.5951
 130  360.9556
 131  379.184
 132  390.5585
 133  406.1043
 134  365.2578
 135  459.5324
 136  499.0043
 137  320.5407
 138  363.3991
 139  450.4691
 140  475.0946
 141  448.737
 142  544.752
 143  496.8711
 144  313.7344
 145  394.8204
 146  427.2685
 147  348.9787
 148  243.7129
 149  353.9012
 150  505.8649
 151  483.2598
 152  393.2665
 153  441.2256
 154  411.8643
 155  376.0411
 156  377.1547
 157  364.6
 158  414.1476
 159  505.7007
 160  382.7746
 161  374.3672
 162  514.3221
 163  494.9878
 164  430.3581
 165  453.2557
 166  537.7941
 167  494.7796
 168  615.197
 169  571.8365
 170  421.5487
 171  600.3344
 172  541.1484
 173  603.7336
 174  520.5777
 175  497.5389
 176  486.0922
 177  453.4139
 178  493.2994
 179  468.5645
 180  535.7187
 181  511.7783
 182  411.7123
 183  419.0821
 184  410.5689
 185  392.4534
 186  328.146
 187  350.7558
 188  326.4786
 189  254.2187
 190  325.9738
 191  323.8
 192  353.0693
 193  409.9114
 194  447.3724
 195  434.907
 196  391.9033
 197  369.6039
 198  409.5982
 199  389.5283
 200  381.7923
 201  290.7636
 202  298.6392
 203  381.8703
 204  379.1014
 205  440.0973
 206  502.2956
 207  531.8798
 208  468.5216
 209  459.8384
 210  428.8198
 211  476.3842
 212  500.6387
 213  541.4271
 214  451.4217
 215  403.4012
 216  469.6281
 217  428.1165
 218  355.8077
 219  395.788
 220  428.823
 221  497.9055
 222  491.8543
 223  514.7636
 224  465.9011
 225  469.3934
 226  628.1614
 227  587.3083
 228  600.1744
 229  610.9721
 230  530.582
 231  499.0332
 232  548.2223
 233  538.5328
 234  486.1329
 235  488.9161
 236  504.5587
 237  565.8791
 238  544.1322
 239  458.1237
 240  422.427
 241  483.2001
 242  437.8553
 243  449.8011
 244  465.7318
 245  472.6027
 246  534.0184
 247  469.4133
 248  470.5712
 249  405.7686
 250  407.6994
 251  373.9272
 252  343.8241
 253  338.0715
 254  366.1893
 255  487.2005
 256  535.8827
 257  573.7753
 258  580.1636
 259  510.5452
 260  408.7536
 261  451.6693
 262  487.4136
 263  440.4126
 264  364.2344
 265  325.8526
 266  546.835
 267  493.5317
 268  549.3607
 269  600.4363
 270  637.8989
 271  738.9821
 272  695.994
 273  386.186
 274  529.9449
 275  647.5583
 276  662.895
 277  609.324
 278  575.6113
 279  581.8488
 280  632.3234
 281  612.722
 282  494.9534
 283  424.4488
 284  554.4361
 285  440.0335
 286  509.1422
 287  652.1005
 288  604.7267
 289  546.8729
 290  483.5551
 291  476.8173
 292  426.6725
 293  533.5776
 294  586.8807
 295  509.9102
 296  451.5933
 297  417.0428
 298  482.4518
 299  501.5095
 300  576.23
 301  494.0708
 302  533.9539
 303  561.2543
 304  531.6729
 305  530.4089
 306  466.9789
 307  416.1601
 308  580.3644
 309  633.0737
 310  460.6544
 311  424.1228
 312  463.4589
 313  425.9685
 314  426.1242
 315  499.2435
 316  529.263
 317  457.4459
 318  426.223
 319  534.6473
 320  458.3029
 321  445.3004
 322  477.3514
 323  485.4613
 324  497.0201
 325  475.9753
 326  572.1825
 327  552.8097
 328  499.9034
 329  543.0236
 330  572.9695
 331  575.9489
 332  513.0947
 333  416.5253
 334  495.3997
 335  564.0338
 336  475.8171
 337  541.2815
 338  485.0683
 339  500.4753
 340  464.8032
 341  383.1032
 342  450.0815
 343  520.2977
 344  577.5406
 345  576.4034
 346  572.7909
 347  513.9885
 348  437.0563
 349  459.8915
 350  454.2871
 351  570.8787
 352  560.2804
 353  489.8521
 354  510.822
 355  455.0491
 356  423.6285
 357  362.6187
 358  348.6174
 359  443.9404
 360  497.4773
 361  560.5558
 362  478.0883
 363  536.1991
 364  467.098
 365  385.7908
 366  455.022
 367  478.8354
 368  563.9943
 369  479.4907
 370  359.6725
 371  481.6291
 372  478.3585
 373  477.466
 374  490.7655
 375  481.3365
 376  547.3118
 377  423.0356
 378  401.0209
 379  491.6625
 380  407.9618
 381  426.7987
 382  501.5728
 383  430.6383
 384  455.405
 385  511.9868
 386  508.4666
 387  610.6743
 388  567.793
 389  545.8612
 390  501.3834
 391  603.8873
 392  547.8676
 393  496.5472
 394  518.2211
 395  488.2994
 396  431.2375
 397  276.0586
 398  297.7785
 399  476.5656
 400  486.4913
 401  503.8018
 402  495.6052
 403  522.2622
 404  587.6251
 405  332.3836
 406  283.8961
 407  333.3616
 408  446.7891
 409  574.2916
 410  567.7791
 411  476.0433
 412  464.1587
 413  516.9566
 414  468.2449
 415  511.4076
 416  507.7462
 417  367.9313
 418  422.2892
 419  540.921
 420  450.5431
 421  485.283
 422  498.8531
 423  469.7823
 424  346.1643
 425  348.8898
 426  450.1058
 427  475.7114
 428  556.9857
 429  532.1106
 430  523.2098
 431  546.7544
 432  504.2141
 433  548.4625
 434  564.4124
 435  586.4523
 436  516.975
 437  517.8333
 438  550.1999
 439  541.206
 440  580.5717
 441  460.1089
 442  413.4514
 443  374.3455
 444  481.65
 445  625.9185
 446  520.8369
 447  324.2567
 448  442.9909
 449  542.0839
 450  654.0703
 451  584.952
 452  485.3873
 453  596.8428
 454  609.5656
 455  643.7529
 456  619.1452
 457  519.0541
 458  510.0566
 459  546.5296
 460  638.0652
 461  656.9635
 462  530.5562
 463  526.4205
 464  474.7131
 465  342.9986
 466  462.7693
 467  538.62
 468  545.0833
 469  612.6154
 470  485.0457
 471  397.9928
 472  384.2705
 473  507.7481
 474  462.7648
 475  425.8919
 476  457.2191
 477  418.5681
 478  468.1715
 479  515.4903
 480  467.1118
 481  555.3572
 482  592.6236
 483  628.0787
 484  591.8681
 485  492.3833
 486  480.5419
 487  443.2473
 488  420.4865
 489  452.6344
 490  419.753
 491  488.6967
 492  564.3913
 493  458.4071
 494  556.694
 495  546.098
 496  509.1324
 497  573.897
 498  536.6147
 499  438.3401
 500  540.3436
 501  609.678
 502  572.8886
 503  615.5732
 504  606.4589
 505  665.661
 506  738.5466
 507  810.2228
 508  805.9446
 509  843.3641
 510  1176.637
 511  1333.359
