# Input file       =  1185334429.098027_cleaned.dat
# Candidate        =  PSR_0332+5434
# Telescope        =  AR
# Epoch_topo       =  57963.148276597538
# Epoch_bary       =  N/A
# T_sample         =  0.002
# Data Folded      =  7340032
# Data Avg         =  0.0375288931062036
# Data StdDev      =  1.00001036982262 
# Profile Bins     =  512
# Profile Avg      =  537.846440170861 
# Profile StdDev   =  119.734277987116 
# Reduced chi-sqr  =  1.464
# Prob(Noise)      <  3.28e-11   (~6.5 sigma)
# P_topo (ms)      =  714.470783395915  +/- 0.000312
# P'_topo (s/s)    =  -0                +/- 1.64e-10
# P''_topo (s/s^2) =  0                 +/- 7.26e-14
# P_bary (ms)      =  N/A
# P'_bary (s/s)    =  N/A
# P''_bary (s/s^2) =  N/A
# P_orb (s)        =  N/A
# asin(i)/c (s)    =  N/A
# eccentricity     =  N/A
# w (rad)          =  N/A
# T_peri           =  N/A
######################################################
   0  1116.631
   1  1066.541
   2  960.3985
   3  639.2432
   4  532.003
   5  369.6815
   6  378.0187
   7  502.7924
   8  551.7362
   9  584.5681
  10  477.5853
  11  452.343
  12  522.0939
  13  471.3671
  14  505.7484
  15  576.2958
  16  648.3743
  17  571.5844
  18  436.1308
  19  466.6638
  20  490.5575
  21  421.448
  22  387.5416
  23  325.9608
  24  460.1435
  25  498.0084
  26  417.7416
  27  478.2708
  28  576.0282
  29  491.4052
  30  393.8166
  31  385.489
  32  466.7832
  33  517.955
  34  513.124
  35  394.5703
  36  520.981
  37  606.3394
  38  414.1466
  39  358.5922
  40  416.9017
  41  423.3244
  42  442.7297
  43  527.7134
  44  429.772
  45  500.0801
  46  486.7268
  47  490.674
  48  544.1079
  49  517.8288
  50  528.0431
  51  449.8557
  52  546.0305
  53  534.9405
  54  446.3397
  55  403.7671
  56  390.9935
  57  421.1203
  58  365.389
  59  349.7646
  60  310.7055
  61  268.7522
  62  461.8722
  63  423.1136
  64  380.3354
  65  461.7569
  66  490.7579
  67  414.6351
  68  263.1416
  69  389.1693
  70  366.018
  71  431.4698
  72  485.7489
  73  422.9646
  74  404.3883
  75  465.0019
  76  379.3357
  77  434.9574
  78  455.7423
  79  472.9024
  80  373.7253
  81  445.3837
  82  432.7574
  83  368.8052
  84  384.5973
  85  456.2091
  86  370.3302
  87  472.5388
  88  474.3528
  89  301.9778
  90  388.513
  91  494.4044
  92  523.835
  93  439.9721
  94  399.5146
  95  434.2685
  96  442.7071
  97  532.489
  98  502.1251
  99  430.5125
 100  499.2755
 101  466.3535
 102  476.1371
 103  500.5155
 104  457.9806
 105  445.1608
 106  461.0259
 107  439.5474
 108  396.2793
 109  456.1499
 110  469.6909
 111  434.0209
 112  542.7098
 113  580.6769
 114  437.2124
 115  579.9631
 116  445.8626
 117  509.6543
 118  543.7717
 119  462.8265
 120  453.4182
 121  393.5842
 122  406.056
 123  421.2848
 124  410.4721
 125  394.3682
 126  407.3108
 127  260.6158
 128  286.2332
 129  394.6429
 130  479.2876
 131  487.0356
 132  419.5568
 133  524.0787
 134  590.4545
 135  494.7252
 136  460.1665
 137  376.7948
 138  397.3996
 139  502.4772
 140  492.3913
 141  506.5145
 142  475.7286
 143  447.7919
 144  475.1019
 145  472.5033
 146  496.6712
 147  430.5944
 148  403.2764
 149  498.2103
 150  547.229
 151  512.6099
 152  432.787
 153  464.4258
 154  445.1125
 155  486.136
 156  642.4056
 157  657.8981
 158  505.1387
 159  560.3948
 160  554.7245
 161  559.0771
 162  559.7862
 163  661.6064
 164  740.2597
 165  642.7555
 166  529.2467
 167  502.0716
 168  616.9753
 169  599.3057
 170  549.0652
 171  682.6322
 172  669.9352
 173  736.2502
 174  617.2886
 175  554.1754
 176  508.7938
 177  571.3984
 178  640.9072
 179  613.7294
 180  538.7006
 181  609.5027
 182  638.4344
 183  570.0431
 184  509.0396
 185  497.7655
 186  549.4558
 187  600.4781
 188  639.5087
 189  447.6299
 190  371.4341
 191  406.0278
 192  471.3423
 193  618.2606
 194  581.8693
 195  441.6991
 196  419.5498
 197  424.4301
 198  404.9615
 199  437.6451
 200  408.6938
 201  424.9364
 202  465.8856
 203  517.2293
 204  502.6425
 205  490.6656
 206  524.3643
 207  511.4352
 208  461.6359
 209  475.8488
 210  611.3762
 211  518.4025
 212  497.8447
 213  547.9895
 214  626.4247
 215  500.4434
 216  571.6403
 217  470.6525
 218  366.3417
 219  402.3218
 220  506.9597
 221  588.2593
 222  530.6552
 223  631.6914
 224  586.7332
 225  620.1677
 226  686.1604
 227  676.0005
 228  528.3838
 229  498.7034
 230  555.1776
 231  479.3818
 232  520.0283
 233  569.2281
 234  568.9243
 235  566.3915
 236  592.0213
 237  580.0278
 238  603.9479
 239  653.1429
 240  666.2051
 241  589.4629
 242  528.6674
 243  448.9626
 244  581.5143
 245  664.7097
 246  687.7883
 247  695.2929
 248  721.7831
 249  628.2907
 250  559.7089
 251  558.2422
 252  599.6295
 253  511.9213
 254  559.2505
 255  746.054
 256  733.7885
 257  665.3231
 258  643.4343
 259  650.0277
 260  589.2521
 261  604.9778
 262  585.6731
 263  658.4229
 264  631.4553
 265  665.0433
 266  645.9572
 267  639.8626
 268  697.2358
 269  678.7429
 270  640.1852
 271  646.9496
 272  578.4433
 273  510.3287
 274  475.9414
 275  523.4147
 276  665.1876
 277  684.6794
 278  726.4348
 279  545.2471
 280  496.1685
 281  656.023
 282  559.1385
 283  465.2262
 284  553.8554
 285  482.3913
 286  464.5429
 287  540.4755
 288  603.8353
 289  669.9264
 290  710.6485
 291  743.8984
 292  551.8318
 293  509.1179
 294  544.7883
 295  627.6303
 296  699.8731
 297  603.8998
 298  708.8052
 299  587.6995
 300  510.9989
 301  581.3528
 302  704.2792
 303  570.4441
 304  557.9366
 305  608.0186
 306  566.832
 307  631.8143
 308  646.1507
 309  683.8929
 310  712.0605
 311  634.175
 312  645.6485
 313  679.5579
 314  589.7352
 315  609.6086
 316  634.6837
 317  719.3195
 318  626.4687
 319  481.7796
 320  585.9212
 321  731.7122
 322  624.1921
 323  645.9689
 324  626.5375
 325  516.5394
 326  531.0587
 327  587.7527
 328  579.4699
 329  551.6276
 330  625.8465
 331  693.8849
 332  574.194
 333  654.4874
 334  539.0882
 335  558.0001
 336  731.1659
 337  696.8835
 338  593.7887
 339  579.302
 340  494.8864
 341  504.2425
 342  456.1165
 343  556.2507
 344  575.8889
 345  625.2292
 346  551.1286
 347  500.9025
 348  477.391
 349  472.8794
 350  496.9407
 351  520.0693
 352  476.2018
 353  605.689
 354  557.1651
 355  489.9956
 356  616.1975
 357  637.6904
 358  564.0908
 359  571.4018
 360  609.3085
 361  555.213
 362  578.574
 363  632.0163
 364  558.9167
 365  643.2495
 366  676.8986
 367  652.9964
 368  511.5291
 369  610.8325
 370  697.0405
 371  647.6237
 372  565.1383
 373  481.1748
 374  569.6874
 375  650.2322
 376  655.5738
 377  654.837
 378  688.4272
 379  609.2527
 380  668.9579
 381  660.3143
 382  637.073
 383  608.7673
 384  585.6427
 385  588.4855
 386  540.9729
 387  677.7957
 388  732.1561
 389  567.3337
 390  443.6956
 391  560.1602
 392  607.9111
 393  595.8822
 394  508.4241
 395  644.5487
 396  706.8251
 397  663.6354
 398  504.9129
 399  495.6467
 400  458.7088
 401  474.9175
 402  460.7644
 403  467.7092
 404  524.4223
 405  559.634
 406  598.6878
 407  565.4025
 408  593.7578
 409  606.2753
 410  553.66
 411  484.4443
 412  447.9539
 413  378.0335
 414  464.1145
 415  514.5591
 416  511.7845
 417  557.9064
 418  660.9663
 419  561.4202
 420  471.9275
 421  419.6277
 422  373.8214
 423  485.8457
 424  483.7611
 425  433.3815
 426  399.823
 427  525.3649
 428  481.4494
 429  557.197
 430  533.8094
 431  458.3176
 432  309.8981
 433  409.0468
 434  511.1944
 435  412.1714
 436  495.4505
 437  611.1198
 438  662.7275
 439  581.1375
 440  511.7549
 441  536.6355
 442  552.093
 443  568.9274
 444  656.9811
 445  702.5276
 446  562.5905
 447  515.7362
 448  609.403
 449  612.2603
 450  564.736
 451  558.8069
 452  539.0594
 453  478.1733
 454  489.2361
 455  524.8085
 456  533.6903
 457  487.531
 458  540.0788
 459  539.1384
 460  473.4865
 461  566.8777
 462  545.1929
 463  578.0265
 464  590.5453
 465  605.5624
 466  559.8411
 467  540.9994
 468  555.2271
 469  578.6757
 470  587.7533
 471  583.715
 472  545.7972
 473  540.1861
 474  603.2535
 475  537.2537
 476  580.2689
 477  499.5948
 478  490.6519
 479  477.7178
 480  481.6466
 481  549.7512
 482  567.7507
 483  426.7314
 484  446.8121
 485  482.2734
 486  472.9247
 487  508.4692
 488  471.667
 489  530.7261
 490  514.1202
 491  462.3059
 492  429.9334
 493  460.707
 494  491.2036
 495  481.3715
 496  460.6426
 497  508.2801
 498  549.7933
 499  596.4695
 500  688.6703
 501  631.2375
 502  524.3937
 503  487.8817
 504  568.3975
 505  665.5352
 506  658.6477
 507  641.5055
 508  634.3131
 509  678.1488
 510  957.6411
 511  1066.153
