# Input file       =  1185521650.102601_cleaned.dat
# Candidate        =  PSR_0332+5434
# Telescope        =  AR
# Epoch_topo       =  57965.315186372696
# Epoch_bary       =  N/A
# T_sample         =  0.002
# Data Folded      =  7340032
# Data Avg         =  0.0490593613576915
# Data StdDev      =  1.00030562542218 
# Profile Bins     =  512
# Profile Avg      =  703.20037667066  
# Profile StdDev   =  119.769629836557 
# Reduced chi-sqr  =  1.305
# Prob(Noise)      <  3.78e-06   (~4.5 sigma)
# P_topo (ms)      =  714.470124628411  +/- 0.00043
# P'_topo (s/s)    =  -0                +/- 2.27e-10
# P''_topo (s/s^2) =  0                 +/- 1e-13
# P_bary (ms)      =  N/A
# P'_bary (s/s)    =  N/A
# P''_bary (s/s^2) =  N/A
# P_orb (s)        =  N/A
# asin(i)/c (s)    =  N/A
# eccentricity     =  N/A
# w (rad)          =  N/A
# T_peri           =  N/A
######################################################
   0  1242.836
   1  1215.452
   2  1240.257
   3  1121.771
   4  818.7355
   5  711.705
   6  799.5392
   7  691.7339
   8  535.5908
   9  610.5558
  10  613.3034
  11  612.9813
  12  647.1903
  13  656.2221
  14  745.4136
  15  735.3721
  16  671.972
  17  635.1761
  18  698.4017
  19  635.1808
  20  560.9833
  21  657.8398
  22  768.9675
  23  743.0918
  24  639.1216
  25  576.8661
  26  606.7456
  27  775.8309
  28  815.8963
  29  730.8142
  30  675.7449
  31  740.4294
  32  787.316
  33  692.3499
  34  789.0768
  35  788.0099
  36  805.3461
  37  831.3528
  38  765.2582
  39  753.3654
  40  739.0997
  41  658.3172
  42  725.7157
  43  702.4186
  44  649.4708
  45  692.8913
  46  741.924
  47  606.3591
  48  609.6011
  49  750.9332
  50  846.3041
  51  823.1468
  52  726.5886
  53  731.6703
  54  918.4741
  55  801.5464
  56  673.5373
  57  629.6574
  58  792.0364
  59  749.4705
  60  668.7233
  61  622.863
  62  646.6127
  63  658.5733
  64  662.8003
  65  798.3515
  66  746.0814
  67  512.0484
  68  559.1696
  69  656.3983
  70  746.23
  71  808.1484
  72  718.1337
  73  641.3353
  74  612.0195
  75  619.3199
  76  732.1611
  77  764.6131
  78  560.8334
  79  590.2883
  80  552.0894
  81  450.9051
  82  627.7706
  83  680.303
  84  673.2
  85  629.3939
  86  634.8059
  87  701.4805
  88  667.0197
  89  742.8508
  90  782.2964
  91  711.6249
  92  588.0519
  93  640.5264
  94  726.7866
  95  742.2164
  96  690.2123
  97  629.675
  98  675.8693
  99  714.6125
 100  676.1785
 101  694.2845
 102  676.8068
 103  654.213
 104  659.0568
 105  787.6324
 106  710.0848
 107  668.8019
 108  703.9266
 109  663.1501
 110  644.1703
 111  583.7061
 112  571.347
 113  531.8799
 114  634.0609
 115  836.0376
 116  779.9596
 117  726.5746
 118  642.8625
 119  693.4508
 120  731.337
 121  574.9579
 122  646.8867
 123  668.277
 124  649.8787
 125  674.6375
 126  750.137
 127  704.727
 128  654.8551
 129  632.0854
 130  689.3535
 131  727.2565
 132  698.4094
 133  777.6996
 134  793.9175
 135  675.0063
 136  636.3452
 137  604.087
 138  630.4888
 139  698.5665
 140  726.198
 141  678.1137
 142  655.3506
 143  686.8253
 144  711.806
 145  627.6013
 146  532.9844
 147  576.755
 148  727.7902
 149  822.2333
 150  782.6371
 151  818.5576
 152  809.6646
 153  734.9083
 154  810.9523
 155  732.9298
 156  690.6719
 157  685.3475
 158  785.8574
 159  792.4904
 160  713.0665
 161  712.511
 162  702.9003
 163  747.4265
 164  729.188
 165  697.8218
 166  806.3804
 167  817.4698
 168  763.5245
 169  793.0303
 170  760.2868
 171  818.0989
 172  841.2476
 173  747.1441
 174  767.8091
 175  852.6409
 176  768.4297
 177  725.664
 178  707.8799
 179  757.2847
 180  764.9025
 181  837.062
 182  739.8792
 183  733.2919
 184  726.6756
 185  838.2488
 186  938.3467
 187  916.8581
 188  786.3058
 189  747.0327
 190  897.2195
 191  829.9567
 192  858.3389
 193  908.7305
 194  950.0414
 195  912.2234
 196  851.6401
 197  826.1171
 198  830.4218
 199  808.3413
 200  780.1248
 201  848.9163
 202  797.9634
 203  712.7266
 204  673.4293
 205  735.2909
 206  831.7811
 207  816.6773
 208  731.4586
 209  697.1091
 210  747.7628
 211  692.4539
 212  681.3532
 213  719.7232
 214  802.8944
 215  707.2894
 216  774.5462
 217  767.5558
 218  764.264
 219  745.2345
 220  727.6326
 221  765.746
 222  771.7618
 223  771.2
 224  720.4834
 225  662.2467
 226  702.7268
 227  720.4395
 228  721.412
 229  763.5001
 230  733.5377
 231  749.4144
 232  829.4642
 233  717.3987
 234  780.9476
 235  762.5612
 236  647.1091
 237  628.8226
 238  699.9819
 239  652.2496
 240  664.7217
 241  623.175
 242  738.7195
 243  744.4752
 244  699.9728
 245  618.7914
 246  579.0895
 247  663.9045
 248  652.0817
 249  672.7007
 250  616.2387
 251  585.0145
 252  711.6136
 253  736.3141
 254  703.4289
 255  703.8472
 256  668.7525
 257  657.2463
 258  627.8615
 259  599.6836
 260  612.4299
 261  657.7368
 262  776.6064
 263  773.2562
 264  735.2605
 265  860.0587
 266  785.4055
 267  701.3925
 268  673.7162
 269  576.3382
 270  654.3764
 271  651.8482
 272  564.8084
 273  600.658
 274  614.4614
 275  609.2432
 276  725.3903
 277  586.831
 278  620.2973
 279  630.9163
 280  572.5547
 281  527.8057
 282  655.1021
 283  677.0369
 284  714.5865
 285  747.3559
 286  680.8473
 287  711.7059
 288  679.1589
 289  683.7988
 290  696.4372
 291  801.6584
 292  788.9249
 293  642.5155
 294  629.6227
 295  706.2645
 296  800.5975
 297  740.9671
 298  677.0668
 299  654.6838
 300  574.2471
 301  681.8901
 302  699.5554
 303  622.8981
 304  554.2523
 305  552.8737
 306  553.8453
 307  532.2634
 308  649.5302
 309  737.8821
 310  756.0153
 311  703.4299
 312  665.6307
 313  535.834
 314  583.9943
 315  627.3071
 316  499.4584
 317  542.6139
 318  646.6893
 319  701.6154
 320  677.2023
 321  664.659
 322  613.0833
 323  601.7499
 324  566.3716
 325  584.537
 326  667.8408
 327  595.1924
 328  622.6772
 329  541.7145
 330  498.2906
 331  635.8029
 332  680.6059
 333  677.3901
 334  561.007
 335  566.803
 336  630.9484
 337  715.4234
 338  594.5981
 339  558.8665
 340  642.6989
 341  660.7248
 342  576.2051
 343  597.5812
 344  657.3832
 345  669.1105
 346  635.5874
 347  728.3568
 348  584.3546
 349  584.0431
 350  660.9377
 351  726.4216
 352  727.367
 353  575.9383
 354  599.711
 355  655.5503
 356  688.9921
 357  628.8444
 358  482.9206
 359  481.1383
 360  629.7764
 361  634.1361
 362  488.7512
 363  481.4333
 364  574.4583
 365  578.6235
 366  612.0128
 367  546.5632
 368  580.0364
 369  638.9736
 370  577.7411
 371  516.4078
 372  589.7994
 373  479.5553
 374  563.4167
 375  560.5811
 376  605.6349
 377  608.6378
 378  729.3033
 379  683.288
 380  639.2655
 381  682.2663
 382  703.8033
 383  715.9653
 384  620.0984
 385  586.4164
 386  696.4107
 387  703.3869
 388  628.3217
 389  617.312
 390  603.9832
 391  644.9534
 392  712.9453
 393  791.7525
 394  762.9479
 395  665.4693
 396  680.2378
 397  763.5179
 398  725.3527
 399  701.6057
 400  667.8663
 401  569.0197
 402  694.5342
 403  860.4509
 404  783.7009
 405  791.0035
 406  804.5653
 407  756.4374
 408  871.4346
 409  741.2303
 410  718.7739
 411  736.4047
 412  638.2941
 413  713.003
 414  680.9983
 415  669.2269
 416  683.8851
 417  651.1166
 418  663.8506
 419  736.028
 420  832.2754
 421  727.1472
 422  646.0035
 423  655.6734
 424  672.3829
 425  805.2747
 426  746.7133
 427  787.7028
 428  781.9515
 429  838.5375
 430  766.6846
 431  685.6598
 432  677.6499
 433  644.067
 434  683.578
 435  712.2026
 436  652.5793
 437  649.0494
 438  641.5954
 439  552.1671
 440  618.4655
 441  666.5831
 442  692.838
 443  660.8751
 444  669.376
 445  556.0828
 446  577.4526
 447  687.1789
 448  827.9086
 449  698.1896
 450  667.4816
 451  691.1566
 452  694.0225
 453  708.8829
 454  636.6575
 455  618.0267
 456  675.1865
 457  789.5426
 458  849.5475
 459  766.0821
 460  774.3885
 461  868.4881
 462  819.6349
 463  781.7849
 464  773.2661
 465  821.1359
 466  925.3515
 467  862.6535
 468  745.9357
 469  701.1661
 470  711.9095
 471  660.3002
 472  700.5278
 473  728.4087
 474  778.9766
 475  735.4457
 476  732.9999
 477  717.8623
 478  673.7755
 479  781.3923
 480  815.4517
 481  701.9359
 482  645.0449
 483  658.6637
 484  828.8318
 485  758.0959
 486  739.0188
 487  710.2904
 488  786.5047
 489  742.3377
 490  671.2862
 491  747.7331
 492  889.2529
 493  849.4219
 494  841.3644
 495  834.6274
 496  839.1013
 497  764.5698
 498  756.1772
 499  709.9567
 500  732.5009
 501  705.3739
 502  737.5801
 503  722.3942
 504  790.2606
 505  823.13
 506  835.0624
 507  778.4562
 508  815.9916
 509  787.2397
 510  874.8417
 511  1140.729
