# Input file       =  1185607824.109255_cleaned.dat
# Candidate        =  PSR_0332+5434
# Telescope        =  AR
# Epoch_topo       =  57966.312570708971
# Epoch_bary       =  N/A
# T_sample         =  0.002
# Data Folded      =  7340032
# Data Avg         =  0.0480669460003335
# Data StdDev      =  1.00035370616311 
# Profile Bins     =  512
# Profile Avg      =  689.087004298879 
# Profile StdDev   =  119.77538668966  
# Reduced chi-sqr  =  1.636
# Prob(Noise)      <  4.32e-18   (~8.6 sigma)
# P_topo (ms)      =  714.4696925602    +/- 0.000551
# P'_topo (s/s)    =  -0                +/- 2.91e-10
# P''_topo (s/s^2) =  0                 +/- 1.28e-13
# P_bary (ms)      =  N/A
# P'_bary (s/s)    =  N/A
# P''_bary (s/s^2) =  N/A
# P_orb (s)        =  N/A
# asin(i)/c (s)    =  N/A
# eccentricity     =  N/A
# w (rad)          =  N/A
# T_peri           =  N/A
######################################################
   0  717.3705
   1  731.9268
   2  714.114
   3  646.2318
   4  667.7115
   5  650.9117
   6  655.2192
   7  692.1077
   8  627.0098
   9  652.8566
  10  678.9287
  11  698.3755
  12  705.9319
  13  676.899
  14  714.8904
  15  568.8911
  16  628.0041
  17  621.6691
  18  639.4849
  19  667.9128
  20  749.584
  21  690.3418
  22  584.8693
  23  612.0969
  24  605.5973
  25  586.1116
  26  614.8032
  27  754.5792
  28  726.8994
  29  716.8318
  30  830.5378
  31  680.8666
  32  622.9161
  33  740.7394
  34  734.9715
  35  632.1042
  36  708.5575
  37  814.2659
  38  977.0331
  39  779.9469
  40  752.5472
  41  738.7598
  42  729.2097
  43  802.6772
  44  770.9102
  45  661.3591
  46  738.7961
  47  743.2901
  48  720.0613
  49  740.701
  50  805.1597
  51  853.1208
  52  774.9664
  53  729.0475
  54  769.3403
  55  714.7653
  56  787.5825
  57  795.6104
  58  691.9648
  59  600.3922
  60  673.4287
  61  629.6751
  62  626.9759
  63  660.7718
  64  648.8723
  65  742.5979
  66  755.0243
  67  692.7369
  68  604.4061
  69  654.0477
  70  698.1079
  71  564.4916
  72  677.3102
  73  664.3639
  74  712.4827
  75  677.3771
  76  556.5522
  77  553.7215
  78  583.2661
  79  706.0441
  80  727.5307
  81  803.5845
  82  777.1553
  83  785.147
  84  773.2914
  85  706.1945
  86  743.5193
  87  795.7713
  88  843.0676
  89  896.642
  90  812.2314
  91  810.1479
  92  893.3921
  93  938.5273
  94  884.5834
  95  736.9765
  96  730.8091
  97  698.1072
  98  831.6141
  99  835.7219
 100  943.3986
 101  919.3112
 102  801.3152
 103  757.537
 104  750.3617
 105  748.8394
 106  751.5404
 107  792.5966
 108  769.6221
 109  800.2021
 110  820.4416
 111  789.8935
 112  815.5038
 113  797.8876
 114  779.6811
 115  813.2676
 116  809.602
 117  747.3906
 118  731.0535
 119  771.7418
 120  640.7887
 121  712.5181
 122  786.9971
 123  809.5246
 124  731.1867
 125  714.1473
 126  753.4893
 127  683.4756
 128  692.0292
 129  884.8112
 130  828.9448
 131  751.9698
 132  734.8777
 133  653.2092
 134  732.0396
 135  741.548
 136  687.3397
 137  759.0337
 138  840.2606
 139  821.8134
 140  757.1644
 141  701.8439
 142  830.1205
 143  809.3531
 144  883.3716
 145  878.3074
 146  947.4265
 147  828.1255
 148  813.0461
 149  818.3953
 150  775.8271
 151  920.2454
 152  902.0402
 153  864.8136
 154  921.3984
 155  935.3612
 156  856.0052
 157  790.4323
 158  858.5087
 159  881.8624
 160  822.8069
 161  992.9108
 162  969.7025
 163  857.7363
 164  742.0567
 165  814.9945
 166  840.4929
 167  774.7675
 168  761.5847
 169  724.0043
 170  746.0056
 171  756.8856
 172  766.8202
 173  680.8552
 174  706.4944
 175  785.9777
 176  810.6442
 177  654.1697
 178  715.0259
 179  776.5261
 180  733.6693
 181  778.6232
 182  773.7553
 183  783.2102
 184  680.5425
 185  658.6083
 186  602.3249
 187  725.5538
 188  772.2656
 189  715.0344
 190  755.3776
 191  724.5303
 192  704.2057
 193  703.5177
 194  641.9168
 195  600.4832
 196  675.1455
 197  700.9361
 198  633.6249
 199  526.4745
 200  642.4495
 201  736.6214
 202  735.9504
 203  681.8009
 204  600.4818
 205  650.7264
 206  629.7848
 207  556.653
 208  504.6939
 209  581.8315
 210  599.8641
 211  625.0425
 212  691.1821
 213  725.9398
 214  668.2825
 215  737.0472
 216  614.9258
 217  703.2629
 218  723.8997
 219  682.4971
 220  622.7549
 221  626.8807
 222  677.2236
 223  683.1002
 224  653.5567
 225  627.9693
 226  573.9308
 227  644.1254
 228  599.9134
 229  554.4044
 230  650.9709
 231  717.342
 232  716.7369
 233  608.488
 234  646.8298
 235  668.4334
 236  734.1445
 237  783.7657
 238  737.5087
 239  618.1334
 240  700.4327
 241  726.6577
 242  698.8781
 243  715.7883
 244  807.2456
 245  1014.332
 246  887.826
 247  821.4453
 248  909.6342
 249  987.9895
 250  1142.598
 251  1137.214
 252  1025.715
 253  996.3621
 254  840.2365
 255  722.5811
 256  694.0663
 257  628.4101
 258  678.1855
 259  734.8342
 260  760.0362
 261  619.9459
 262  674.8143
 263  826.804
 264  807.4331
 265  907.2747
 266  766.1623
 267  649.6741
 268  665.9808
 269  763.9303
 270  657.2775
 271  743.2224
 272  726.0833
 273  474.7859
 274  546.8511
 275  607.8353
 276  613.6801
 277  702.2651
 278  729.528
 279  609.8975
 280  587.3735
 281  616.7893
 282  680.4125
 283  642.7034
 284  513.9837
 285  573.7036
 286  669.4468
 287  720.1407
 288  803.6906
 289  807.4367
 290  731.272
 291  634.0655
 292  684.4134
 293  810.2249
 294  831.15
 295  652.4943
 296  704.8962
 297  691.181
 298  700.2389
 299  706.2614
 300  672.6576
 301  692.3815
 302  700.6104
 303  639.2783
 304  714.9391
 305  741.3283
 306  812.7766
 307  738.7069
 308  723.5297
 309  845.6439
 310  682.3106
 311  681.2335
 312  812.1395
 313  687.6988
 314  729.9678
 315  610.0659
 316  656.7439
 317  587.6882
 318  658.3131
 319  740.2859
 320  752.3717
 321  790.9795
 322  768.6434
 323  780.9551
 324  776.1219
 325  754.3376
 326  795.6064
 327  812.4857
 328  769.0724
 329  740.0322
 330  739.4554
 331  771.2178
 332  777.3065
 333  683.422
 334  735.9879
 335  733.2185
 336  736.8041
 337  743.7495
 338  687.9148
 339  694.8872
 340  728.5378
 341  721.6226
 342  749.0216
 343  628.9658
 344  611.9737
 345  734.8116
 346  735.7619
 347  740.252
 348  672.4064
 349  570.8022
 350  570.6063
 351  609.3012
 352  713.7365
 353  716.32
 354  688.2836
 355  762.3655
 356  730.3757
 357  726.2703
 358  727.0867
 359  776.14
 360  709.8542
 361  707.3859
 362  718.7934
 363  641.2557
 364  686.8739
 365  669.8283
 366  657.0272
 367  695.3958
 368  761.483
 369  695.5085
 370  685.5175
 371  658.272
 372  720.1363
 373  646.4812
 374  603.4691
 375  606.896
 376  609.1165
 377  602.0349
 378  637.6731
 379  712.1236
 380  670.1197
 381  683.6257
 382  711.3304
 383  700.0042
 384  641.8605
 385  665.3138
 386  681.5481
 387  735.7421
 388  766.1495
 389  678.4691
 390  640.9324
 391  602.8071
 392  608.0701
 393  520.5329
 394  690.0154
 395  703.0943
 396  599.8881
 397  577.6589
 398  548.5668
 399  580.4015
 400  549.4256
 401  526.8782
 402  633.0455
 403  579.6895
 404  636.8981
 405  601.5392
 406  632.0298
 407  570.1216
 408  524.3957
 409  569.4521
 410  605.3552
 411  593.9728
 412  600.5981
 413  599.9556
 414  646.3128
 415  484.7409
 416  447.7023
 417  506.3393
 418  515.726
 419  505.737
 420  464.9919
 421  436.2765
 422  599.9646
 423  564.3701
 424  390.3642
 425  302.9532
 426  410.2083
 427  444.3376
 428  449.266
 429  518.5907
 430  529.3995
 431  490.3971
 432  456.1988
 433  389.4097
 434  454.486
 435  536.4127
 436  613.0123
 437  615.735
 438  624.9077
 439  640.3857
 440  571.7977
 441  603.087
 442  539.1801
 443  490.923
 444  543.4259
 445  551.3521
 446  561.1072
 447  614.3101
 448  663.3595
 449  631.5101
 450  561.7383
 451  590.4873
 452  666.5121
 453  678.752
 454  680.0844
 455  609.6758
 456  547.2036
 457  513.7361
 458  508.6613
 459  541.7755
 460  577.6653
 461  495.1635
 462  545.0031
 463  602.0737
 464  552.0858
 465  477.513
 466  557.9246
 467  540.6127
 468  555.1974
 469  546.6755
 470  601.5588
 471  589.9584
 472  515.8707
 473  624.0815
 474  682.9383
 475  587.131
 476  615.6473
 477  601.2585
 478  639.8508
 479  643.5219
 480  634.2039
 481  567.9705
 482  508.7315
 483  550.7012
 484  643.1755
 485  720.5007
 486  608.0124
 487  601.2597
 488  632.2729
 489  677.8853
 490  558.3044
 491  596.2764
 492  626.4832
 493  573.5115
 494  543.2476
 495  492.1237
 496  489.4413
 497  502.1836
 498  555.4705
 499  531.6282
 500  516.2928
 501  568.399
 502  503.2682
 503  660.0477
 504  669.0784
 505  639.6429
 506  646.2174
 507  695.9484
 508  615.0454
 509  689.7286
 510  635.223
 511  652.8337
