# Input file       =  1185075916.114914_cleaned.dat
# Candidate        =  PSR_0332+5434
# Telescope        =  AR
# Epoch_topo       =  57960.156228181877
# Epoch_bary       =  N/A
# T_sample         =  0.002
# Data Folded      =  7340032
# Data Avg         =  0.0339440343343723
# Data StdDev      =  1.00005058994746 
# Profile Bins     =  512
# Profile Avg      =  486.616793088658 
# Profile StdDev   =  119.739093664786 
# Reduced chi-sqr  =  1.823
# Prob(Noise)      <  5.87e-27   (~10.7 sigma)
# P_topo (ms)      =  714.472269068743  +/- 0.00034
# P'_topo (s/s)    =  -0                +/- 1.79e-10
# P''_topo (s/s^2) =  0                 +/- 7.91e-14
# P_bary (ms)      =  N/A
# P'_bary (s/s)    =  N/A
# P''_bary (s/s^2) =  N/A
# P_orb (s)        =  N/A
# asin(i)/c (s)    =  N/A
# eccentricity     =  N/A
# w (rad)          =  N/A
# T_peri           =  N/A
######################################################
   0  594.5486
   1  513
   2  421.405
   3  442.0695
   4  483.9519
   5  450.7793
   6  377.8646
   7  315.8023
   8  520.015
   9  517.1742
  10  523.3196
  11  599.1635
  12  633.5369
  13  721.4204
  14  732.883
  15  408.4373
  16  493.2151
  17  641.371
  18  660.7595
  19  627.1599
  20  575.5817
  21  576.4239
  22  624.8864
  23  627.0356
  24  510.9395
  25  418.4687
  26  540.0366
  27  461.4009
  28  480.4814
  29  651.2955
  30  614.832
  31  552.3984
  32  489.4731
  33  479.4879
  34  429.6778
  35  515.5156
  36  591.4973
  37  515.449
  38  467.1839
  39  401.6226
  40  488.1181
  41  487.7915
  42  572.8094
  43  505.1348
  44  525.0413
  45  559.829
  46  540.1829
  47  528.7014
  48  478.8286
  49  416.0246
  50  545.468
  51  647.9498
  52  484.4434
  53  415.8595
  54  469.1118
  55  426.5178
  56  422.1147
  57  485.6134
  58  534.5784
  59  471.3738
  60  413.1766
  61  536.8823
  62  467.1784
  63  443.8826
  64  466.4355
  65  486.3262
  66  495.1884
  67  477.6482
  68  563.5164
  69  563.2529
  70  500.9138
  71  524.6988
  72  580.2573
  73  573.3044
  74  532.7686
  75  420.2653
  76  468.6101
  77  573.7432
  78  479.6049
  79  542.4811
  80  486.8138
  81  499.7697
  82  474.8644
  83  393.0541
  84  428.7201
  85  517.5536
  86  567.6242
  87  582.9565
  88  571.0565
  89  523.8697
  90  446.3256
  91  454.6955
  92  459.1776
  93  547.3687
  94  573.3563
  95  487.5821
  96  509.8685
  97  466.571
  98  432.6393
  99  370.6695
 100  335.6948
 101  438.1711
 102  479.0294
 103  573.4997
 104  481.0031
 105  526.4163
 106  485.8673
 107  384.3735
 108  448.331
 109  474.6221
 110  550.2763
 111  505.2994
 112  367.808
 113  461.5335
 114  488.2968
 115  464.4749
 116  500.9225
 117  464.5567
 118  557.6648
 119  433.8083
 120  395.5839
 121  484.0863
 122  424.7868
 123  411.449
 124  493.1575
 125  453.3037
 126  436.994
 127  516.4564
 128  498.3193
 129  597.4727
 130  588.5725
 131  541.1263
 132  504.8473
 133  587.4582
 134  568.8805
 135  486.0793
 136  525.7787
 137  487.1125
 138  449.2252
 139  298.4111
 140  277.801
 141  458.4133
 142  485.369
 143  501.2879
 144  505.9249
 145  502.1779
 146  602.9184
 147  364.8679
 148  270.1404
 149  337.8794
 150  416.722
 151  567.6393
 152  573.4775
 153  497.2384
 154  449.3721
 155  527.6022
 156  464.3633
 157  502.5132
 158  514.9937
 159  388.2732
 160  405.5183
 161  530.0149
 162  462.4165
 163  468.7665
 164  511.7288
 165  472.3462
 166  366.8354
 167  330.9759
 168  442.7349
 169  472.5912
 170  542.2215
 171  547.081
 172  514.7241
 173  554.133
 174  502.8874
 175  544.4924
 176  554.6053
 177  594.7754
 178  518.4681
 179  519.7867
 180  553.4756
 181  537.3316
 182  580.2078
 183  479.5228
 184  413.1423
 185  375.2653
 186  456.0244
 187  617.3959
 188  550.8104
 189  332.2909
 190  424.5308
 191  532.2103
 192  645.5536
 193  595.0912
 194  488.2209
 195  581.8359
 196  617.3218
 197  634.5983
 198  627.4861
 199  529.9496
 200  509.5236
 201  534.361
 202  627.1709
 203  665.6574
 204  546.489
 205  518.6229
 206  503.9866
 207  344.2192
 208  438.7537
 209  547.0389
 210  529.5165
 211  617.0833
 212  495.9657
 213  416.0674
 214  366.6701
 215  502.442
 216  468.1037
 217  434.3095
 218  451.7478
 219  431.1935
 220  439.2247
 221  525.4641
 222  462.6573
 223  539.5837
 224  594.1765
 225  624.4512
 226  602.8363
 227  506.5486
 228  468.4505
 229  462.3825
 230  412.2658
 231  456.8152
 232  428.7677
 233  459.096
 234  568.4077
 235  464.1026
 236  544.2164
 237  564.6904
 238  491.9141
 239  581.8447
 240  540.1524
 241  451.7141
 242  514.2483
 243  609.9796
 244  575.999
 245  611.6359
 246  602.0636
 247  652.181
 248  732.412
 249  802.5703
 250  817.9643
 251  807.8928
 252  1129.496
 253  1332.803
 254  1291.945
 255  1237.821
 256  989.0256
 257  757.8005
 258  719.9894
 259  645.4224
 260  680.6151
 261  594.3631
 262  607.9827
 263  585.2005
 264  616.7301
 265  646.7337
 266  651.4741
 267  783.3139
 268  677.1074
 269  555.7534
 270  564.041
 271  552.1865
 272  563.612
 273  570.8963
 274  509.1397
 275  431.9745
 276  404.4
 277  491.469
 278  610.0452
 279  630.8184
 280  490.2868
 281  457.3293
 282  482.4961
 283  516.7663
 284  429.1796
 285  474.2283
 286  510.0613
 287  453.2833
 288  406.2808
 289  360.7806
 290  376.4748
 291  464.7634
 292  544.2563
 293  578.5366
 294  452.1866
 295  436.2506
 296  468.7768
 297  402.1676
 298  452.3744
 299  578.7575
 300  573.0004
 301  583.5127
 302  526.4136
 303  506.5942
 304  448.6935
 305  450.0373
 306  476.2866
 307  512.2448
 308  581.9628
 309  570.718
 310  420.3459
 311  336.6318
 312  448.8681
 313  502.4258
 314  467.8679
 315  443.5071
 316  523.8783
 317  465.4017
 318  520.138
 319  571.7951
 320  490.7763
 321  431.7907
 322  445.4121
 323  467.2607
 324  423.2087
 325  499.1951
 326  391.6204
 327  415.5598
 328  323.8454
 329  423.1198
 330  401.8704
 331  339.8667
 332  310.6995
 333  253.4993
 334  252.5883
 335  248.0662
 336  327.451
 337  353.9509
 338  276.5364
 339  238.5174
 340  280.937
 341  405.4113
 342  476.5457
 343  399.842
 344  340.3891
 345  347.2555
 346  376.952
 347  213.771
 348  287.0501
 349  385.2324
 350  487.2918
 351  515.2821
 352  393.0078
 353  403.902
 354  490.6491
 355  382.4299
 356  335.2544
 357  449.5232
 358  428.4951
 359  368.0937
 360  380.4987
 361  485.7238
 362  529.1995
 363  495.3547
 364  421.8754
 365  450.5127
 366  423.4607
 367  448.2697
 368  429.1036
 369  389.3708
 370  377.8455
 371  430.8453
 372  440.7662
 373  440.545
 374  349.293
 375  335.1633
 376  467.7252
 377  417.8161
 378  447.8652
 379  378.5199
 380  365.1048
 381  413.1045
 382  354.2785
 383  397.1397
 384  359.0701
 385  376.2811
 386  383.5449
 387  409.2384
 388  364.9223
 389  443.1176
 390  517.7458
 391  331.8552
 392  353.9778
 393  431.3837
 394  475.1333
 395  459.9526
 396  517.9102
 397  531.0048
 398  318.4191
 399  388.3757
 400  422.275
 401  371.8137
 402  247.8253
 403  324.916
 404  489.2401
 405  506.3206
 406  390.7616
 407  439.3203
 408  419.5856
 409  373.5644
 410  380.1022
 411  357.0226
 412  407.6371
 413  492.3252
 414  419.1806
 415  350.4851
 416  508.5257
 417  502.9424
 418  436.7285
 419  440.1932
 420  533.6568
 421  491.3484
 422  596.9553
 423  605.2604
 424  415.035
 425  583.543
 426  547.3962
 427  598.3138
 428  535.1557
 429  497.8755
 430  487.6585
 431  460.2397
 432  483.423
 433  466.6108
 434  526.3091
 435  530.6662
 436  416.9664
 437  424.0191
 438  399.7334
 439  416.9256
 440  319.8507
 441  353.523
 442  328.8956
 443  262.5325
 444  308.478
 445  337.9292
 446  341.0251
 447  401.8451
 448  444.9543
 449  431.8664
 450  407.8389
 451  357.0443
 452  414.245
 453  386.4925
 454  395.7562
 455  293.3777
 456  297.8649
 457  369.145
 458  380.8918
 459  423.7353
 460  496.9115
 461  530.7877
 462  483.1276
 463  459.2015
 464  430.6673
 465  469.6223
 466  495.1708
 467  541.7269
 468  470.8129
 469  396.5002
 470  461.4653
 471  447.7325
 472  350.6859
 473  396.0791
 474  423.2261
 475  481.8275
 476  501.4137
 477  503.292
 478  485.4021
 479  453.9342
 480  612.3453
 481  604.4017
 482  581.0949
 483  622.6708
 484  538.0678
 485  500.1224
 486  540.4837
 487  551.0618
 488  490.2415
 489  484.1325
 490  496.7204
 491  560.8279
 492  550.5287
 493  480.2435
 494  412.0383
 495  493.4564
 496  426.9233
 497  451.5834
 498  457.9158
 499  472.9675
 500  530.8575
 501  472.5258
 502  476.2003
 503  406.3584
 504  416.9183
 505  381.9961
 506  348.5384
 507  333.4187
 508  358.765
 509  460.6649
 510  538.2332
 511  563.1187
