# Input file       =  1186439960.113446_cleaned.dat
# Candidate        =  PSR_0332+5434
# Telescope        =  AR
# Epoch_topo       =  57975.943774461179
# Epoch_bary       =  N/A
# T_sample         =  0.002
# Data Folded      =  7208960
# Data Avg         =  0.0128368502354699
# Data StdDev      =  1.00002735744449 
# Profile Bins     =  512
# Profile Avg      =  180.771743261084 
# Profile StdDev   =  118.662422005346 
# Reduced chi-sqr  =  1.524
# Prob(Noise)      <  1.81e-13   (~7.3 sigma)
# P_topo (ms)      =  714.465902886095  +/- 0.000177
# P'_topo (s/s)    =  -0                +/- 9.52e-11
# P''_topo (s/s^2) =  0                 +/- 4.28e-14
# P_bary (ms)      =  N/A
# P'_bary (s/s)    =  N/A
# P''_bary (s/s^2) =  N/A
# P_orb (s)        =  N/A
# asin(i)/c (s)    =  N/A
# eccentricity     =  N/A
# w (rad)          =  N/A
# T_peri           =  N/A
######################################################
   0  964.6521
   1  978.3669
   2  696.0555
   3  498.7089
   4  198.8293
   5  214.1937
   6  184.2495
   7  175.5641
   8  170.7513
   9  111.499
  10  173.0134
  11  155.3668
  12  113.4716
  13  89.2887
  14  129.1422
  15  173.6871
  16  169.4901
  17  237.2193
  18  184.922
  19  21.6087
  20  216.0153
  21  342.6546
  22  252.6243
  23  242.8749
  24  159.913
  25  105.4602
  26  71.80383
  27  290.1399
  28  274.8502
  29  263.4228
  30  363.1555
  31  282.6545
  32  202.6702
  33  187.877
  34  58.48777
  35  84.41114
  36  185.5815
  37  231.9326
  38  255.7062
  39  259.7694
  40  209.3988
  41  169.0152
  42  286.1146
  43  266.8643
  44  191.2507
  45  88.95364
  46  35.81305
  47  64.91923
  48  232.3004
  49  359.4894
  50  241.6442
  51  200.5939
  52  87.43193
  53  179.205
  54  202.2085
  55  250.3139
  56  248.8546
  57  222.106
  58  339.682
  59  137.9075
  60  119.1897
  61  229.5744
  62  272.1645
  63  212.8358
  64  139.0489
  65  222.5575
  66  227.1142
  67  220.2878
  68  307.2594
  69  340.4092
  70  267.7524
  71  103.5035
  72  167.1961
  73  31.94641
  74  119.336
  75  78.70175
  76  174.2802
  77  272.6233
  78  192.3626
  79  205.9937
  80  92.03815
  81  14.15666
  82  204.7187
  83  279.546
  84  165.5678
  85  121.5713
  86  186.0336
  87  181.1354
  88  46.12164
  89  224.1975
  90  232.5175
  91  223.9184
  92  208.7398
  93  175.2796
  94  93.20963
  95  166.5276
  96  265.8625
  97  251.4844
  98  263.5159
  99  250.4758
 100  287.4734
 101  289.9504
 102  289.4652
 103  314.6223
 104  261.6706
 105  198.5733
 106  177.9802
 107  144.825
 108  206.5477
 109  77.86117
 110  159.7236
 111  155.059
 112  47.71267
 113  170.2426
 114  221.4453
 115  244.4904
 116  251.0969
 117  229.952
 118  225.9346
 119  134.3702
 120  127.5593
 121  200.3826
 122  140.6167
 123  57.34879
 124  173.7396
 125  114.5932
 126  187.8573
 127  205.2195
 128  101.7924
 129  140.7699
 130  86.348
 131  240.9322
 132  219.2066
 133  144.7364
 134  195.1246
 135  92.92513
 136  35.61788
 137  -75.63916
 138  -55.13224
 139  182.2036
 140  140.8145
 141  153.0704
 142  321.472
 143  253.7498
 144  279.9788
 145  280.2809
 146  139.7597
 147  38.4203
 148  150.3057
 149  194.3219
 150  108.2698
 151  80.56906
 152  132.2036
 153  316.0187
 154  84.50374
 155  9.968703
 156  110.3363
 157  308.2002
 158  225.9977
 159  205.0605
 160  257.402
 161  70.24919
 162  26.5972
 163  35.18607
 164  183.8589
 165  376.6336
 166  347.2371
 167  210.7876
 168  180.3381
 169  193.401
 170  132.4799
 171  13.65706
 172  118.1508
 173  134.3855
 174  47.3624
 175  109.5465
 176  252.7564
 177  158.6473
 178  127.5587
 179  156.6469
 180  96.95597
 181  184.6174
 182  227.0383
 183  197.8601
 184  159.3682
 185  204.4562
 186  62.02233
 187  44.75852
 188  174.1505
 189  179.3357
 190  235.4981
 191  240.7194
 192  222.3743
 193  160.6075
 194  120.0987
 195  50.07764
 196  208.8925
 197  177.9479
 198  129.7183
 199  -4.918517
 200  115.2076
 201  122.9485
 202  53.92198
 203  -8.678492
 204  -43.58831
 205  30.54024
 206  136.7528
 207  138.3399
 208  131.7246
 209  218.6013
 210  145.6311
 211  137.1098
 212  -11.42729
 213  81.2204
 214  50.65691
 215  183.3742
 216  188.4204
 217  165.8926
 218  273.9524
 219  195.8209
 220  82.29874
 221  40.70728
 222  64.64902
 223  208.295
 224  201.6213
 225  211.5145
 226  242.9499
 227  231.5555
 228  262.7846
 229  189.8294
 230  65.35588
 231  215.8693
 232  201.9041
 233  216.6237
 234  -25.85726
 235  -12.79021
 236  138.0726
 237  141.8458
 238  201.1252
 239  208.2769
 240  270.0216
 241  212.8131
 242  269.6047
 243  294.8943
 244  166.7098
 245  199.2046
 246  249.7472
 247  282.7039
 248  211.0595
 249  257.0278
 250  202.4531
 251  206.7881
 252  243.3295
 253  206.0431
 254  228.921
 255  149.3365
 256  307.9551
 257  283.4489
 258  242.4142
 259  167.3096
 260  111.0822
 261  157.2682
 262  88.70679
 263  89.75977
 264  191.4207
 265  140.9581
 266  36.4175
 267  34.09457
 268  113.7312
 269  115.1116
 270  151.3063
 271  170.4656
 272  203.7947
 273  215.5548
 274  137.0312
 275  104.5946
 276  -67.77055
 277  127.8384
 278  194.1149
 279  255.7889
 280  169.8438
 281  94.67632
 282  40.43127
 283  10.57682
 284  142.7446
 285  265.1384
 286  223.1657
 287  77.28635
 288  -40.77987
 289  74.65335
 290  123.5591
 291  100.7819
 292  79.32815
 293  230.2815
 294  271.4327
 295  250.1452
 296  271.8283
 297  244.4241
 298  188.4996
 299  130.5766
 300  126.845
 301  241.3388
 302  377.0634
 303  160.1745
 304  202.2328
 305  386.4774
 306  309.1271
 307  336.0434
 308  397.2762
 309  319.8472
 310  229.1865
 311  156.5465
 312  140.1179
 313  168.0044
 314  185.8354
 315  199.6677
 316  140.5914
 317  224.8913
 318  141.3977
 319  191.868
 320  176.1816
 321  106.1384
 322  247.6185
 323  181.124
 324  -67.68266
 325  35.388
 326  48.8259
 327  96.7776
 328  63.25148
 329  68.06549
 330  52.53431
 331  135.6551
 332  158.8366
 333  121.3544
 334  235.8174
 335  174.7917
 336  318.4225
 337  320.7201
 338  163.6968
 339  165.89
 340  145.9054
 341  240.5673
 342  186.5135
 343  238.2986
 344  322.0026
 345  175.2316
 346  128.3374
 347  243.7874
 348  193.7081
 349  208.4336
 350  280.6086
 351  249.824
 352  181.3121
 353  161.177
 354  132.2236
 355  59.32441
 356  165.2958
 357  53.47852
 358  177.0047
 359  346.3317
 360  299.5308
 361  132.1085
 362  123.5397
 363  110.2307
 364  200.0913
 365  275.6164
 366  130.7536
 367  170.8263
 368  211.3868
 369  136.5718
 370  48.01898
 371  177.4093
 372  227.5302
 373  128.9592
 374  263.9853
 375  242.6947
 376  188.766
 377  182.8297
 378  223.6964
 379  189.7778
 380  168.4223
 381  180.8119
 382  295.8297
 383  198.9598
 384  75.2611
 385  188.1042
 386  179.7044
 387  39.10287
 388  24.53483
 389  109.2992
 390  197.0414
 391  187.9069
 392  224.5592
 393  220.0015
 394  166.6261
 395  84.36773
 396  51.869
 397  239.775
 398  286.2513
 399  207.166
 400  242.6122
 401  240.6903
 402  141.1163
 403  90.2877
 404  44.95692
 405  66.22621
 406  155.9355
 407  186.0381
 408  148.2209
 409  130.3232
 410  256.1975
 411  231.3776
 412  215.9155
 413  202.5407
 414  232.1953
 415  331.7638
 416  150.667
 417  126.6969
 418  194.583
 419  219.7749
 420  133.8141
 421  224.7286
 422  243.2189
 423  198.1088
 424  171.4114
 425  282.6677
 426  214.3433
 427  177.8354
 428  171.5222
 429  54.97037
 430  28.65304
 431  71.03026
 432  154.3863
 433  182.3233
 434  175.3783
 435  120.8513
 436  128.9638
 437  220.084
 438  225.6468
 439  224.2173
 440  221.0909
 441  250.2995
 442  182.5247
 443  309.1989
 444  166.9291
 445  116.4732
 446  324.2684
 447  246.5448
 448  166.3578
 449  129.4892
 450  193.7027
 451  199.5397
 452  70.71994
 453  259.3315
 454  219.1344
 455  195.5193
 456  110.2787
 457  222.8112
 458  191.0607
 459  139.6684
 460  138.1081
 461  97.83765
 462  116.5662
 463  274.4979
 464  154.6812
 465  103.24
 466  161.2431
 467  67.16336
 468  124.8567
 469  203.8131
 470  167.0002
 471  236.0806
 472  245.1501
 473  66.85889
 474  99.79372
 475  116.4108
 476  194.064
 477  156.4339
 478  159.4955
 479  156.6477
 480  239.1123
 481  220.3519
 482  144.0643
 483  35.31236
 484  95.89265
 485  112.2004
 486  27.3674
 487  1.230868
 488  12.3861
 489  129.7158
 490  136.3358
 491  110.1382
 492  96.27058
 493  254.2811
 494  419.6175
 495  214.3887
 496  242.3296
 497  206.44
 498  108.8705
 499  69.5088
 500  139.7294
 501  113.4338
 502  63.44606
 503  170.3008
 504  308.1245
 505  301.7928
 506  311.4023
 507  349.5944
 508  368.8039
 509  497.7644
 510  539.0632
 511  786.9077
