# Input file       =  1186023785.110087_cleaned.dat
# Candidate        =  PSR_0332+5434
# Telescope        =  AR
# Epoch_topo       =  57971.126934144522
# Epoch_bary       =  N/A
# T_sample         =  0.002
# Data Folded      =  7340032
# Data Avg         =  0.0102549861345939
# Data StdDev      =  1.00005720629119 
# Profile Bins     =  512
# Profile Avg      =  146.960999517037 
# Profile StdDev   =  119.73988585971  
# Reduced chi-sqr  =  1.580
# Prob(Noise)      <  1.06e-15   (~7.9 sigma)
# P_topo (ms)      =  714.4674703998    +/- 0.000103
# P'_topo (s/s)    =  -0                +/- 5.41e-11
# P''_topo (s/s^2) =  0                 +/- 2.39e-14
# P_bary (ms)      =  N/A
# P'_bary (s/s)    =  N/A
# P''_bary (s/s^2) =  N/A
# P_orb (s)        =  N/A
# asin(i)/c (s)    =  N/A
# eccentricity     =  N/A
# w (rad)          =  N/A
# T_peri           =  N/A
######################################################
   0  836.8636
   1  803.3351
   2  752.887
   3  574.1808
   4  191.9327
   5  177.6533
   6  144.9521
   7  157.9777
   8  146.057
   9  273.3155
  10  206.6732
  11  220.2789
  12  114.1602
  13  74.43826
  14  45.53036
  15  -61.46075
  16  177.006
  17  280.2352
  18  118.2742
  19  -21.01712
  20  165.1139
  21  158.1637
  22  206.1516
  23  119.9856
  24  96.03748
  25  58.63184
  26  8.512492
  27  256.1791
  28  223.8558
  29  126.6042
  30  118.6359
  31  167.8799
  32  27.39666
  33  56.66913
  34  152.918
  35  284.4666
  36  277.5031
  37  268.3445
  38  192.1889
  39  43.41562
  40  83.27768
  41  96.48846
  42  93.25621
  43  136.1489
  44  161.8813
  45  93.11095
  46  166.6744
  47  204.8172
  48  -12.58304
  49  101.195
  50  157.519
  51  196.9746
  52  122.7836
  53  209.0567
  54  199.2809
  55  169.5237
  56  115.5343
  57  33.42204
  58  66.58964
  59  22.1883
  60  187.3208
  61  184.4157
  62  44.1009
  63  133.6321
  64  78.24575
  65  -2.406137
  66  81.09222
  67  118.3463
  68  13.91426
  69  12.05061
  70  79.97546
  71  55.79313
  72  309.0329
  73  259.8794
  74  128.303
  75  141.97
  76  248.7456
  77  248.6473
  78  235.0253
  79  170.641
  80  187.983
  81  129.5123
  82  212.3988
  83  178.5
  84  153.0535
  85  257.4692
  86  117.1374
  87  91.9414
  88  219.775
  89  158.3869
  90  12.02032
  91  18.87573
  92  53.74955
  93  104.5686
  94  125.8526
  95  171.7575
  96  166.7027
  97  261.9617
  98  294.7451
  99  399.3062
 100  373.7476
 101  242.1637
 102  109.7545
 103  144.744
 104  101.222
 105  -85.43706
 106  -50.61617
 107  124.0479
 108  181.8241
 109  99.06395
 110  303.1113
 111  219.3943
 112  190.0617
 113  349.1718
 114  229.0529
 115  127.9313
 116  210.1021
 117  173.8165
 118  113.0772
 119  151.4354
 120  200.5424
 121  236.9473
 122  193.9431
 123  118.1265
 124  210.2179
 125  168.6733
 126  152.6451
 127  100.146
 128  157.2579
 129  180.9796
 130  76.95213
 131  122.0671
 132  89.50031
 133  98.89638
 134  24.66788
 135  53.8264
 136  247.392
 137  170.2879
 138  136.9987
 139  315.0331
 140  316.7332
 141  138.0305
 142  76.5178
 143  224.651
 144  224.0642
 145  66.85451
 146  -6.531657
 147  -8.64429
 148  133.8306
 149  168.1689
 150  108.6227
 151  67.06914
 152  180.0396
 153  156.5407
 154  -104.8137
 155  -66.47874
 156  117.3472
 157  264.7301
 158  217.8723
 159  223.8138
 160  118.1491
 161  51.26291
 162  149.5602
 163  88.1733
 164  39.43575
 165  131.369
 166  163.0164
 167  89.25276
 168  216.9273
 169  187.1597
 170  251.7108
 171  158.5576
 172  176.9496
 173  184.8604
 174  88.92661
 175  -84.89587
 176  -131.8586
 177  10.09779
 178  132.4646
 179  153.4478
 180  206.1945
 181  258.2334
 182  206.7793
 183  279.2422
 184  253.6436
 185  6.486384
 186  191.2325
 187  263.8259
 188  179.1873
 189  191.0353
 190  163.7049
 191  212.9674
 192  206.5759
 193  108.4281
 194  201.6336
 195  168.9763
 196  121.7793
 197  38.38203
 198  45.40292
 199  186.4605
 200  217.1757
 201  145.3274
 202  96.38349
 203  47.91216
 204  178.2177
 205  159.6077
 206  9.454472
 207  50.51741
 208  82.3147
 209  69.54245
 210  123.9656
 211  117.9562
 212  122.4537
 213  140.7268
 214  133.0053
 215  126.8592
 216  138.0848
 217  121.8945
 218  77.51882
 219  35.76004
 220  78.955
 221  116.947
 222  15.99329
 223  75.87093
 224  76.45189
 225  68.44995
 226  91.07058
 227  79.55093
 228  147.9497
 229  152.8038
 230  243.3258
 231  176.1232
 232  26.91199
 233  126.6633
 234  132.954
 235  123.5366
 236  197.3086
 237  111.4931
 238  184.1408
 239  223.5248
 240  177.568
 241  199.3059
 242  117.7174
 243  100.3137
 244  154.7484
 245  211.9523
 246  114.8586
 247  -87.36226
 248  -112.1186
 249  80.34618
 250  107.413
 251  19.39767
 252  127.6536
 253  103.6098
 254  85.80921
 255  171.7766
 256  190.0445
 257  119.914
 258  94.95814
 259  102.9981
 260  -34.83624
 261  -110.3613
 262  -45.27469
 263  138.4519
 264  169.5541
 265  89.46524
 266  83.03779
 267  105.8224
 268  20.83398
 269  -0.4748204
 270  25.74506
 271  264.344
 272  285.3217
 273  186.1009
 274  269.9638
 275  164.4906
 276  -14.35854
 277  20.37246
 278  167.7336
 279  171.4819
 280  287.7637
 281  271.8553
 282  125.4967
 283  110.6154
 284  278.37
 285  296.6591
 286  223.8374
 287  213.6369
 288  208.92
 289  246.6792
 290  228.4891
 291  49.54133
 292  45.13897
 293  57.26254
 294  196.8966
 295  353.8599
 296  340.8408
 297  250.0748
 298  242.2897
 299  197.3558
 300  109.9634
 301  -13.03781
 302  -67.70152
 303  -10.6541
 304  92.72688
 305  226.0808
 306  187.4666
 307  228.7142
 308  109.6662
 309  42.85358
 310  159.8603
 311  0.8297312
 312  -67.77615
 313  90.04278
 314  75.90673
 315  45.72534
 316  215.8761
 317  44.73281
 318  77.29689
 319  18.29823
 320  181.622
 321  339.8642
 322  252.0865
 323  156.8075
 324  99.77138
 325  209.9446
 326  211.1522
 327  276.0017
 328  146.4793
 329  37.71435
 330  272.191
 331  297.6073
 332  204.9517
 333  154.5516
 334  127.0506
 335  138.2113
 336  169.9257
 337  115.1847
 338  16.28789
 339  196.4829
 340  255.0568
 341  285.6258
 342  257.1061
 343  92.81866
 344  11.43048
 345  89.94051
 346  193.8262
 347  129.1065
 348  204.157
 349  236.3871
 350  242.8502
 351  76.10034
 352  57.13256
 353  137.7359
 354  -95.89682
 355  34.74434
 356  254.136
 357  443.5224
 358  231.9957
 359  2.047525
 360  140.205
 361  203.3719
 362  58.27517
 363  150.1948
 364  173.9009
 365  137.2968
 366  121.5283
 367  124.7696
 368  144.5882
 369  86.66938
 370  146.252
 371  171.3581
 372  134.1276
 373  93.9795
 374  -19.18636
 375  75.10719
 376  26.23308
 377  91.99425
 378  80.24011
 379  154.3272
 380  85.19276
 381  161.8347
 382  301.6494
 383  230.9516
 384  121.2594
 385  -11.64872
 386  137.5866
 387  132.1104
 388  135.1128
 389  195.4254
 390  214.4685
 391  102.0772
 392  136.2195
 393  73.50775
 394  92.76604
 395  142.7769
 396  -1.075775
 397  28.29274
 398  122.5308
 399  52.246
 400  90.71822
 401  118.5949
 402  91.5706
 403  39.18647
 404  24.94273
 405  180.6786
 406  168.0631
 407  154.4119
 408  241.487
 409  144.9247
 410  171.5627
 411  188.3612
 412  258.2855
 413  120.0032
 414  99.15335
 415  -31.04548
 416  101.0063
 417  192.4915
 418  177.1881
 419  126.5897
 420  208.2924
 421  197.6432
 422  134.2788
 423  119.0048
 424  106.478
 425  94.5435
 426  157.8318
 427  142.7491
 428  151.5192
 429  166.2546
 430  127.5918
 431  132.1532
 432  143.494
 433  45.47259
 434  113.5151
 435  259.5833
 436  160.773
 437  86.62212
 438  272.2737
 439  346.2162
 440  200.1055
 441  124.1106
 442  129.2061
 443  69.05978
 444  76.48972
 445  188.7024
 446  191.2801
 447  346.289
 448  138.7795
 449  28.41333
 450  38.7162
 451  18.47093
 452  -28.89323
 453  -18.15466
 454  60.28956
 455  183.874
 456  200.2437
 457  145.0513
 458  80.80833
 459  103.5989
 460  84.22153
 461  121.6839
 462  121.4701
 463  154.9437
 464  209.6728
 465  120.3443
 466  147.9285
 467  223.6846
 468  177.062
 469  172.2332
 470  88.43507
 471  119.6547
 472  277.2384
 473  227.7264
 474  60.50465
 475  95.04369
 476  70.00217
 477  201.4272
 478  176.7514
 479  164.0171
 480  146.6629
 481  -55.83663
 482  129.1314
 483  39.59229
 484  96.82033
 485  155.2058
 486  39.44157
 487  48.69873
 488  136.5264
 489  295.2348
 490  305.6245
 491  161.0607
 492  233.5756
 493  247.7049
 494  204.2301
 495  275.9901
 496  220.6522
 497  178.8188
 498  280.6823
 499  170.0852
 500  45.98988
 501  157.7568
 502  246.0064
 503  211.3686
 504  245.8012
 505  187.0515
 506  299.6506
 507  239.5506
 508  287.3935
 509  410.5067
 510  596.4296
 511  714.5524
