# Input file       =  1186870859.113977_cleaned.dat
# Candidate        =  PSR_0332+5434
# Telescope        =  AR
# Epoch_topo       =  57980.931031411768
# Epoch_bary       =  N/A
# T_sample         =  0.002
# Data Folded      =  7143424
# Data Avg         =  0.0130647910388053
# Data StdDev      =  1.00010935983373 
# Profile Bins     =  512
# Profile Avg      =  182.156971016469 
# Profile StdDev   =  118.131501910627 
# Reduced chi-sqr  =  1.372
# Prob(Noise)      <  4.24e-08   (~5.4 sigma)
# P_topo (ms)      =  714.46464966227   +/- 0.000135
# P'_topo (s/s)    =  -0                +/- 7.29e-11
# P''_topo (s/s^2) =  0                 +/- 3.31e-14
# P_bary (ms)      =  N/A
# P'_bary (s/s)    =  N/A
# P''_bary (s/s^2) =  N/A
# P_orb (s)        =  N/A
# asin(i)/c (s)    =  N/A
# eccentricity     =  N/A
# w (rad)          =  N/A
# T_peri           =  N/A
######################################################
   0  886.1215
   1  731.4488
   2  555.3135
   3  322.8383
   4  125.1292
   5  147.5443
   6  47.8292
   7  198.6507
   8  379.8933
   9  253.8176
  10  222.7881
  11  267.3464
  12  190.0885
  13  115.5106
  14  171.3593
  15  134.5069
  16  69.86395
  17  57.22762
  18  168.6955
  19  196.5925
  20  232.6179
  21  233.6262
  22  312.72
  23  129.0164
  24  122.4422
  25  183.4822
  26  109.9633
  27  21.61372
  28  185.6727
  29  210.9697
  30  243.5591
  31  103.7803
  32  102.4438
  33  234.4716
  34  108.0603
  35  126.9908
  36  281.5392
  37  477.4036
  38  259.7648
  39  177.611
  40  95.93694
  41  202.8284
  42  208.328
  43  118.458
  44  230.1619
  45  384.3163
  46  296.8401
  47  202.664
  48  234.5378
  49  107.469
  50  139.7542
  51  264.0126
  52  196.3259
  53  318.8002
  54  249.5279
  55  70.72955
  56  138.6993
  57  183.9255
  58  251.0497
  59  268.2726
  60  267.4126
  61  217.2372
  62  197.7724
  63  208.2791
  64  250.9459
  65  319.6712
  66  141.3226
  67  69.20338
  68  46.46528
  69  279.5356
  70  299.8404
  71  217.6478
  72  185.0927
  73  120.8201
  74  146.571
  75  72.25053
  76  63.53245
  77  126.0978
  78  263.9614
  79  148.9831
  80  133.5398
  81  266.3633
  82  231.6907
  83  222.0927
  84  171.0566
  85  192.0416
  86  149.8963
  87  104.2815
  88  121.3062
  89  242.629
  90  316.5922
  91  131.1541
  92  69.03568
  93  81.37598
  94  198.1415
  95  243.0596
  96  118.3501
  97  151.0589
  98  146.4957
  99  159.379
 100  119.293
 101  136.5305
 102  168.397
 103  264.4249
 104  300.1282
 105  209.1474
 106  167.9022
 107  190.2508
 108  51.48048
 109  147.6049
 110  120.7525
 111  158.9179
 112  244.8436
 113  260.2192
 114  210.424
 115  216.0247
 116  172.4341
 117  268.219
 118  243.3531
 119  262.4657
 120  178.1045
 121  170.5746
 122  309.6395
 123  162.3019
 124  128.0419
 125  197.7292
 126  201.8361
 127  137.785
 128  184.2498
 129  200.2177
 130  168.9908
 131  137.9518
 132  148.744
 133  174.8835
 134  240.7525
 135  282.753
 136  197.2822
 137  145.3137
 138  250.0277
 139  304.5441
 140  244.5136
 141  175.5172
 142  139.8181
 143  286.9166
 144  121.4748
 145  30.00768
 146  204.4792
 147  93.57948
 148  104.6501
 149  208.1623
 150  307.3831
 151  122.4983
 152  98.18057
 153  196.903
 154  235.4539
 155  200.4296
 156  216.5544
 157  121.588
 158  53.96694
 159  161.2176
 160  201.422
 161  186.147
 162  256.064
 163  271.0035
 164  249.212
 165  130.8208
 166  43.53571
 167  100.2194
 168  84.60852
 169  220.4086
 170  225.5464
 171  211.142
 172  243.7772
 173  250.0214
 174  130.75
 175  94.02156
 176  133.3938
 177  229.074
 178  230.1767
 179  174.5869
 180  333.4231
 181  183.4757
 182  147.5966
 183  209.7219
 184  206.3523
 185  185.4352
 186  268.8889
 187  228.3923
 188  211.8548
 189  165.8974
 190  223.6926
 191  290.6161
 192  251.8283
 193  147.179
 194  148.8874
 195  99.65441
 196  191.6751
 197  163.354
 198  112.321
 199  168.2684
 200  90.53701
 201  101.5158
 202  219.4007
 203  169.9048
 204  145.82
 205  115.8838
 206  185.1637
 207  294.3148
 208  171.3006
 209  98.71121
 210  176.9185
 211  183.949
 212  175.7441
 213  204.4881
 214  274.9219
 215  289.2141
 216  160.9474
 217  82.38184
 218  45.12503
 219  186.2728
 220  170.7304
 221  44.31049
 222  235.8489
 223  163.3645
 224  139.0211
 225  289.8123
 226  221.5302
 227  209.0347
 228  85.38676
 229  192.8349
 230  179.3716
 231  173.9084
 232  161.9211
 233  109.6388
 234  113.2131
 235  99.94936
 236  168.1543
 237  163.9957
 238  278.4409
 239  61.50834
 240  97.58312
 241  98.96784
 242  198.5262
 243  306.7229
 244  159.5145
 245  256.8867
 246  360.8771
 247  224.3394
 248  220.8297
 249  247.7757
 250  262.1569
 251  212.8958
 252  255.0559
 253  229.976
 254  211.9985
 255  266.1225
 256  270.4381
 257  153.0284
 258  204.5044
 259  336.6068
 260  225.831
 261  110.5386
 262  123.5923
 263  69.00121
 264  18.60483
 265  134.9411
 266  209.4592
 267  292.9185
 268  136.3822
 269  129.11
 270  144.1838
 271  41.90237
 272  -10.49744
 273  74.99147
 274  142.0378
 275  194.9458
 276  201.8453
 277  133.9854
 278  201.7289
 279  302.3712
 280  201.8512
 281  167.1734
 282  28.25548
 283  -41.39825
 284  74.4799
 285  115.1499
 286  272.8554
 287  270.55
 288  354.4144
 289  272.2671
 290  165.8331
 291  102.5029
 292  208.1348
 293  194.4379
 294  219.6254
 295  234.7738
 296  348.357
 297  191.8849
 298  124.6098
 299  197.76
 300  299.9017
 301  257.2538
 302  260.7407
 303  241.9015
 304  113.8928
 305  243.7647
 306  296.2502
 307  247.2681
 308  233.8169
 309  193.6361
 310  126.7473
 311  177.6743
 312  198.2259
 313  128.4507
 314  69.28871
 315  211.1424
 316  177.8133
 317  127.3291
 318  109.523
 319  79.43877
 320  -1.993719
 321  35.94553
 322  174.3558
 323  131.0606
 324  56.20125
 325  102.6612
 326  79.3894
 327  172.9401
 328  99.832
 329  104.3818
 330  128.7344
 331  84.13887
 332  155.1598
 333  254.0101
 334  354.1945
 335  205.4325
 336  98.5377
 337  43.36713
 338  118.2809
 339  89.58546
 340  81.81846
 341  254.9751
 342  279.825
 343  323.5768
 344  251.1848
 345  156.4097
 346  160.9995
 347  254.6642
 348  162.8228
 349  214.3668
 350  279.1295
 351  206.3555
 352  106.3068
 353  -29.15027
 354  111.8237
 355  167.0323
 356  -36.9971
 357  7.511319
 358  35.6433
 359  140.4684
 360  98.49805
 361  91.70689
 362  193.8169
 363  259.8762
 364  336.4397
 365  224.0217
 366  66.09679
 367  121.0643
 368  235.8946
 369  34.76817
 370  124.3579
 371  266.4938
 372  192.1424
 373  178.8388
 374  194.1397
 375  113.9769
 376  145.4903
 377  91.37154
 378  -50.15936
 379  151.4927
 380  190.148
 381  246.3672
 382  192.1773
 383  126.8579
 384  252.5624
 385  223.2197
 386  227.3393
 387  257.3578
 388  163.8513
 389  201.1736
 390  270.7978
 391  283.093
 392  220.5516
 393  127.7673
 394  149.7194
 395  177.3337
 396  138.9099
 397  363.7216
 398  288.618
 399  144.1387
 400  120.7691
 401  139.4983
 402  192.1861
 403  184.772
 404  172.8668
 405  179.7332
 406  138.7715
 407  67.7935
 408  130.3784
 409  156.1413
 410  11.28803
 411  71.40728
 412  202.0246
 413  243.6573
 414  181.6472
 415  265.6167
 416  134.1819
 417  26.89925
 418  174.9013
 419  271.6831
 420  127.1706
 421  111.4665
 422  154.121
 423  112.4003
 424  251.7894
 425  169.1469
 426  151.6199
 427  212.4622
 428  175.1242
 429  38.31138
 430  77.35664
 431  77.98495
 432  62.10834
 433  85.06183
 434  71.0849
 435  175.6537
 436  262.8162
 437  314.854
 438  193.7517
 439  150.0849
 440  233.8788
 441  194.2303
 442  -1.250773
 443  1.566914
 444  69.18371
 445  106.66
 446  120.5875
 447  151.6088
 448  307.0557
 449  248.3217
 450  218.8985
 451  194.2998
 452  281.8258
 453  -30.91479
 454  49.69923
 455  99.19715
 456  176.8033
 457  132.4382
 458  65.43134
 459  72.00051
 460  74.50073
 461  117.4098
 462  234.5949
 463  232.1911
 464  192.0639
 465  156.9597
 466  119.8216
 467  145.6176
 468  318.3297
 469  285.9725
 470  201.8525
 471  139.1406
 472  136.1494
 473  267.8693
 474  116.2966
 475  145.287
 476  150.1997
 477  200.7987
 478  172.3536
 479  177.599
 480  54.6961
 481  25.21489
 482  103.4325
 483  144.9307
 484  181.4565
 485  241.5715
 486  98.63277
 487  -15.72769
 488  37.75599
 489  214.9422
 490  250.6692
 491  204.8937
 492  158.545
 493  196.8105
 494  176.2821
 495  259.1693
 496  250.2344
 497  214.9962
 498  149.5428
 499  233.37
 500  178.4038
 501  288.7812
 502  393.0921
 503  286.1885
 504  132.6018
 505  75.46661
 506  186.6376
 507  249.1954
 508  267.1034
 509  360.9077
 510  725.7161
 511  988.5625
