# Input file       =  1187244965.110599_cleaned.dat
# Candidate        =  PSR_0332+5434
# Telescope        =  AR
# Epoch_topo       =  57985.260961928230
# Epoch_bary       =  N/A
# T_sample         =  0.002
# Data Folded      =  7340032
# Data Avg         =  0.0111991258613325
# Data StdDev      =  1.00000016533274 
# Profile Bins     =  512
# Profile Avg      =  160.534806459561 
# Profile StdDev   =  119.733056172557 
# Reduced chi-sqr  =  1.452
# Prob(Noise)      <  9.44e-11   (~6.4 sigma)
# P_topo (ms)      =  714.464231440986  +/- 0.00013
# P'_topo (s/s)    =  -0                +/- 6.86e-11
# P''_topo (s/s^2) =  0                 +/- 3.03e-14
# P_bary (ms)      =  N/A
# P'_bary (s/s)    =  N/A
# P''_bary (s/s^2) =  N/A
# P_orb (s)        =  N/A
# asin(i)/c (s)    =  N/A
# eccentricity     =  N/A
# w (rad)          =  N/A
# T_peri           =  N/A
######################################################
   0  951.8042
   1  836.3063
   2  693.5914
   3  477.22
   4  311.4534
   5  165.0724
   6  202.2821
   7  251.1407
   8  121.7041
   9  167.6589
  10  109.6794
  11  146.4252
  12  107.3896
  13  132.4757
  14  227.7666
  15  284.7379
  16  180.5312
  17  101.8963
  18  137.6673
  19  174.0999
  20  170.1873
  21  51.28243
  22  91.0103
  23  33.85881
  24  265.0138
  25  220.2542
  26  65.26661
  27  113.9222
  28  188.954
  29  303.9239
  30  246.8022
  31  248.8319
  32  183.126
  33  35.67939
  34  170.7868
  35  280.2601
  36  343.9919
  37  248.2381
  38  184.3499
  39  169.909
  40  185.908
  41  166.885
  42  225.3715
  43  210.8697
  44  185.1291
  45  223.7708
  46  237.9737
  47  213.7876
  48  105.3158
  49  264.8004
  50  184.7615
  51  99.96001
  52  124.6104
  53  271.4805
  54  152.1038
  55  -6.507557
  56  124.7588
  57  159.5187
  58  111.0777
  59  112.4928
  60  198.2516
  61  242.2053
  62  214.8794
  63  224.7588
  64  64.91772
  65  70.64994
  66  74.25975
  67  166.1211
  68  111.3492
  69  22.30442
  70  19.19212
  71  280.2298
  72  270.1279
  73  86.26933
  74  33.17931
  75  279.6945
  76  207.89
  77  -21.58671
  78  178.1647
  79  158.3471
  80  239.3348
  81  255.4388
  82  135.9475
  83  143.8396
  84  -0.2989016
  85  133.2414
  86  184.9295
  87  96.55051
  88  90.96945
  89  206.1579
  90  273.9392
  91  210.7747
  92  131.3822
  93  326.9197
  94  191.4314
  95  147.2373
  96  35.51303
  97  228.3965
  98  145.3636
  99  35.5488
 100  145.9552
 101  148.4139
 102  14.33727
 103  88.96019
 104  148.8085
 105  72.2865
 106  52.13947
 107  139.4912
 108  257.3239
 109  170.1453
 110  183.4259
 111  213.132
 112  195.7992
 113  213.9879
 114  161.8614
 115  214.1694
 116  140.1037
 117  131.4848
 118  206.755
 119  209.7248
 120  125.6567
 121  162.6651
 122  102.0154
 123  50.32736
 124  91.14223
 125  194.3991
 126  149.2923
 127  123.4597
 128  230.0704
 129  205.4783
 130  234.1329
 131  262.3566
 132  234.0585
 133  72.47828
 134  137.4689
 135  142.6855
 136  172.4428
 137  302.3743
 138  200.1674
 139  74.11117
 140  49.74377
 141  120.1057
 142  302.4387
 143  220.066
 144  242.7964
 145  231.4518
 146  166.338
 147  192.1461
 148  133.8362
 149  56.81899
 150  146.3926
 151  215.2388
 152  173.0091
 153  80.50275
 154  185.495
 155  124.4602
 156  80.9433
 157  186.6181
 158  138.9958
 159  192.7918
 160  167.6799
 161  114.5495
 162  -6.773324
 163  130.6529
 164  110.7625
 165  128.7996
 166  191.2174
 167  168.127
 168  310.754
 169  150.1827
 170  94.26765
 171  125.7905
 172  97.03691
 173  188.139
 174  251.4998
 175  215.3911
 176  182.5968
 177  97.36605
 178  228.4653
 179  271.1609
 180  220.6586
 181  176.1953
 182  242.4111
 183  146.8992
 184  -32.06459
 185  -124.3336
 186  125.255
 187  264.0078
 188  215.2284
 189  132.8056
 190  184.5901
 191  248.7321
 192  273.951
 193  244.062
 194  120.7739
 195  223.2661
 196  200.6471
 197  158.9881
 198  195.7816
 199  56.90383
 200  118.4809
 201  151.8475
 202  91.91039
 203  245.1698
 204  175.7015
 205  137.7304
 206  43.51365
 207  159.7668
 208  189.2378
 209  182.0284
 210  191.9095
 211  201.9547
 212  133.2034
 213  26.20054
 214  159.9805
 215  42.11133
 216  136.3006
 217  221.2053
 218  91.29151
 219  -41.81627
 220  20.79921
 221  191.3924
 222  130.4831
 223  58.39008
 224  187.7511
 225  147.0905
 226  140.0232
 227  138.1673
 228  184.5205
 229  124.6821
 230  31.70836
 231  146.0257
 232  182.3461
 233  43.08343
 234  122.2883
 235  63.8102
 236  130.5643
 237  93.65403
 238  77.74568
 239  152.6912
 240  156.1972
 241  201.4167
 242  163.0301
 243  187.6474
 244  115.7412
 245  65.06381
 246  10.56107
 247  191.8165
 248  298.0137
 249  220.9706
 250  199.255
 251  34.04568
 252  -26.65417
 253  -6.927153
 254  94.03443
 255  154.9813
 256  186.7523
 257  77.71004
 258  101.6368
 259  157.679
 260  169.9801
 261  211.4462
 262  143.3239
 263  76.2989
 264  0.7765574
 265  148.4737
 266  141.2421
 267  205.6451
 268  273.507
 269  267.3277
 270  229.2723
 271  173.5681
 272  193.1782
 273  149.4102
 274  247.1826
 275  241.8347
 276  159.2013
 277  244.5781
 278  309.2157
 279  163.3755
 280  151.9501
 281  286.5791
 282  281.2626
 283  228.9217
 284  200.8328
 285  143.4435
 286  100.5617
 287  219.7963
 288  176.7153
 289  201.721
 290  234.9391
 291  142.4055
 292  85.72598
 293  215.3254
 294  145.2752
 295  248.4796
 296  117.3348
 297  150.0767
 298  9.394019
 299  53.23249
 300  192.2763
 301  112.38
 302  16.34276
 303  74.38295
 304  125.2712
 305  93.02103
 306  169.668
 307  210.1888
 308  167.9514
 309  82.32367
 310  178.4097
 311  205.2858
 312  215.7052
 313  180.5736
 314  229.7122
 315  249.77
 316  291.9281
 317  185.0434
 318  240.8791
 319  78.33407
 320  -34.37545
 321  79.367
 322  211.8182
 323  54.39189
 324  89.72966
 325  193.6821
 326  413.0022
 327  255.0026
 328  96.55482
 329  341.4728
 330  293.7863
 331  248.2954
 332  248.0614
 333  182.1005
 334  27.9956
 335  148.0881
 336  150.6784
 337  177.9345
 338  50.07132
 339  159.1141
 340  190.7247
 341  119.696
 342  224.6659
 343  179.6826
 344  68.87775
 345  68.95546
 346  149.929
 347  127.6572
 348  215.085
 349  259.0757
 350  216.9039
 351  298.8316
 352  294.3951
 353  249.4964
 354  151.7906
 355  50.59241
 356  85.6565
 357  168.0708
 358  172.1942
 359  95.15626
 360  89.93672
 361  187.254
 362  169.5181
 363  207.7931
 364  149.672
 365  65.93686
 366  178.6302
 367  112.1789
 368  116.8327
 369  107.5982
 370  73.24289
 371  141.1086
 372  126.7614
 373  56.50859
 374  116.7033
 375  158.1709
 376  134.5283
 377  66.13431
 378  -0.5254483
 379  63.09779
 380  17.33831
 381  16.37114
 382  112.9021
 383  135.7698
 384  105.0383
 385  225.2527
 386  133.5961
 387  143.7404
 388  96.88048
 389  123.7919
 390  105.9133
 391  196.0267
 392  288.164
 393  247.875
 394  114.6784
 395  52.66545
 396  -3.47003
 397  55.20324
 398  226.5919
 399  223.0355
 400  -19.54653
 401  54.85974
 402  171.1575
 403  242.948
 404  148.1503
 405  43.6577
 406  -35.77787
 407  51.62996
 408  73.98965
 409  69.67205
 410  101.6323
 411  334.9357
 412  187.6431
 413  61.77382
 414  159.5248
 415  93.23816
 416  92.85107
 417  252.7281
 418  247.1219
 419  142.7366
 420  215.5877
 421  186.5656
 422  -35.46189
 423  -9.066252
 424  82.59177
 425  111.5648
 426  192.2477
 427  133.5495
 428  39.2275
 429  181.3753
 430  200.9844
 431  122.898
 432  19.21467
 433  197.2178
 434  113.8588
 435  148.9558
 436  193.3191
 437  69.4407
 438  -12.15654
 439  -99.31812
 440  18.86836
 441  213.5464
 442  234.5601
 443  183.7301
 444  60.75825
 445  95.97021
 446  107.6784
 447  109.7868
 448  105.3735
 449  199.1593
 450  183.2882
 451  296.661
 452  148.4193
 453  109.6238
 454  105.0682
 455  99.42457
 456  -10.56933
 457  0.15457
 458  297.1324
 459  302.8174
 460  222.1067
 461  163.313
 462  184.1659
 463  30.11514
 464  170.2469
 465  179.0276
 466  161.0634
 467  117.9001
 468  25.39754
 469  123.22
 470  176.8694
 471  189.2209
 472  199.8631
 473  151.6888
 474  175.8952
 475  141.4328
 476  113.4949
 477  126.5591
 478  83.48073
 479  63.3352
 480  228.493
 481  174.0752
 482  139.8048
 483  121.3436
 484  128.8221
 485  203.851
 486  257.9033
 487  104.8451
 488  13.71986
 489  212.2804
 490  208.7136
 491  280.2696
 492  191.2406
 493  201.389
 494  148.9506
 495  169.4364
 496  181.3412
 497  189.8998
 498  179.4438
 499  38.86195
 500  60.49748
 501  125.4231
 502  198.5202
 503  126.1716
 504  170.4817
 505  318.1483
 506  338.5326
 507  332.9275
 508  289.1339
 509  402.6266
 510  604.3752
 511  949.953
