# Input file       =  1187746985.105509_cleaned.dat
# Candidate        =  PSR_0332+5434
# Telescope        =  AR
# Epoch_topo       =  57991.071378535984
# Epoch_bary       =  N/A
# T_sample         =  0.002
# Data Folded      =  7340032
# Data Avg         =  0.0118960256844747
# Data StdDev      =  1.00001569146874 
# Profile Bins     =  512
# Profile Avg      =  170.553709341023 
# Profile StdDev   =  119.734915163963 
# Reduced chi-sqr  =  1.571
# Prob(Noise)      <  2.46e-15   (~7.8 sigma)
# P_topo (ms)      =  714.463383509336  +/- 0.000252
# P'_topo (s/s)    =  -0                +/- 1.33e-10
# P''_topo (s/s^2) =  0                 +/- 5.87e-14
# P_bary (ms)      =  N/A
# P'_bary (s/s)    =  N/A
# P''_bary (s/s^2) =  N/A
# P_orb (s)        =  N/A
# asin(i)/c (s)    =  N/A
# eccentricity     =  N/A
# w (rad)          =  N/A
# T_peri           =  N/A
######################################################
   0  827.3646
   1  829.6361
   2  701.1787
   3  618.8212
   4  324.5365
   5  171.8563
   6  232.1264
   7  340.0085
   8  272.2556
   9  204.1681
  10  219.4769
  11  333.016
  12  256.4178
  13  161.3108
  14  141.9314
  15  192.4498
  16  294.2754
  17  289.4896
  18  244.9894
  19  126.3731
  20  76.98096
  21  327.6891
  22  320.9111
  23  298.0183
  24  244.6651
  25  133.9924
  26  166.9877
  27  173.2898
  28  125.6931
  29  44.91111
  30  183.5711
  31  278.046
  32  171.4362
  33  80.61872
  34  59.89865
  35  76.4158
  36  143.9859
  37  258.82
  38  278.1257
  39  182.1889
  40  99.68262
  41  158.6561
  42  270.9058
  43  238.3777
  44  238.1153
  45  122.7423
  46  168.7652
  47  175.5936
  48  152.1571
  49  -34.61123
  50  11.1524
  51  66.92199
  52  -88.43507
  53  129.3051
  54  175.4595
  55  158.1461
  56  247.8153
  57  281.1155
  58  85.34309
  59  48.985
  60  123.3668
  61  224.2265
  62  227.0182
  63  201.6524
  64  203.4241
  65  116.7161
  66  187.8058
  67  126.6404
  68  164.6322
  69  126.2377
  70  170.9122
  71  248.0499
  72  180.9993
  73  174.4688
  74  220.8211
  75  198.7364
  76  91.14493
  77  107.7094
  78  147.6056
  79  175.1338
  80  99.40586
  81  130.0715
  82  147.6645
  83  174.0956
  84  154.2804
  85  77.93597
  86  163.6713
  87  243.6593
  88  219.3438
  89  171.5763
  90  230.168
  91  80.03607
  92  228.6721
  93  214.426
  94  163.6747
  95  197.2111
  96  166.6888
  97  323.4917
  98  357.8618
  99  307.8788
 100  196.4419
 101  190.8103
 102  173.2214
 103  264.1393
 104  269.7002
 105  249.2831
 106  319.2265
 107  191.9318
 108  28.17132
 109  41.91739
 110  94.94269
 111  132.761
 112  149.9848
 113  117.8905
 114  242.4495
 115  299.3879
 116  175.2551
 117  124.9464
 118  135.653
 119  283.0121
 120  268.9516
 121  165.3546
 122  139.6262
 123  236.509
 124  215.81
 125  195.7489
 126  122.7358
 127  -30.81239
 128  -28.93617
 129  31.82617
 130  -34.41162
 131  31.26631
 132  32.19286
 133  178.4599
 134  89.34037
 135  73.77438
 136  152.6932
 137  227.8712
 138  178.7614
 139  155.0143
 140  160.547
 141  210.7219
 142  230.9448
 143  122.7599
 144  159.1812
 145  117.7236
 146  113.1232
 147  220.9268
 148  292.1924
 149  309.8259
 150  218.6917
 151  92.91745
 152  107.9554
 153  239.242
 154  298.0593
 155  174.3376
 156  17.21895
 157  35.96043
 158  106.2085
 159  300.0804
 160  284.8927
 161  121.3339
 162  207.3776
 163  251.2409
 164  274.4016
 165  237.1966
 166  289.471
 167  226.833
 168  152.1088
 169  69.01815
 170  99.03632
 171  212.8471
 172  273.7773
 173  205.4966
 174  143.9928
 175  78.68636
 176  205.9591
 177  294.3802
 178  110.3833
 179  109.6646
 180  177.9691
 181  128.8352
 182  219.5911
 183  136.9616
 184  97.59019
 185  104.1564
 186  195.039
 187  126.8476
 188  186.8385
 189  175.7531
 190  84.32625
 191  148.9516
 192  233.6816
 193  217.3149
 194  97.87527
 195  116.7663
 196  213.6459
 197  158.4804
 198  110.8484
 199  37.63951
 200  182.4493
 201  195.2635
 202  214.1529
 203  220.8964
 204  43.07798
 205  55.04338
 206  -79.09618
 207  48.78215
 208  41.87506
 209  62.16442
 210  191.583
 211  283.1487
 212  129.2114
 213  111.6053
 214  121.8319
 215  190.9936
 216  213.1186
 217  229.6319
 218  282.713
 219  243.893
 220  141.7272
 221  133.59
 222  216.7636
 223  210.3485
 224  159.8141
 225  123.5306
 226  10.20524
 227  149.7624
 228  201.5374
 229  198.0357
 230  36.93662
 231  26.10582
 232  162.1212
 233  202.3184
 234  94.93423
 235  79.69491
 236  214.2898
 237  200.183
 238  184.7458
 239  156.0132
 240  209.9241
 241  218.6429
 242  137.9258
 243  103.5022
 244  211.5439
 245  106.066
 246  57.14951
 247  148.0774
 248  144.3577
 249  142.7989
 250  207.5836
 251  239.4559
 252  236.5923
 253  215.7924
 254  219.2639
 255  113.8456
 256  95.79933
 257  114.551
 258  116.933
 259  59.53376
 260  137.11
 261  141.6669
 262  64.62096
 263  125.4462
 264  50.15548
 265  90.55812
 266  95.90796
 267  37.12171
 268  136.787
 269  123.6688
 270  208.309
 271  135.117
 272  18.25161
 273  80.31519
 274  4.656085
 275  91.65631
 276  45.79245
 277  81.4618
 278  88.4876
 279  43.50336
 280  -10.12961
 281  63.19602
 282  -25.36205
 283  -9.495028
 284  88.46167
 285  203.336
 286  212.9381
 287  202.0153
 288  88.84002
 289  141.5412
 290  193.4917
 291  62.93525
 292  45.16164
 293  188.2831
 294  231.8824
 295  135.9045
 296  145.4157
 297  103.3389
 298  105.1054
 299  31.93562
 300  98.98107
 301  237.5
 302  313.3046
 303  219.6667
 304  265.869
 305  125.0384
 306  87.88326
 307  126.4882
 308  79.32667
 309  50.78317
 310  132.2552
 311  73.82236
 312  82.85956
 313  64.84979
 314  79.82913
 315  217.0802
 316  182.9946
 317  143.852
 318  145.4906
 319  37.23564
 320  89.20679
 321  235.7173
 322  256.3085
 323  213.6144
 324  45.70007
 325  188.9364
 326  376.5172
 327  125.8621
 328  78.4912
 329  133.403
 330  65.25246
 331  101.2394
 332  -4.246331
 333  80.60046
 334  303.5539
 335  298.2433
 336  163.0275
 337  182.924
 338  144.8363
 339  24.24024
 340  79.34532
 341  250.4081
 342  226.8242
 343  181.4467
 344  165.9637
 345  128.883
 346  28.28344
 347  98.96096
 348  186.8631
 349  162.8892
 350  63.05824
 351  48.67075
 352  70.0148
 353  85.89159
 354  130.5018
 355  186.5263
 356  152.4297
 357  -4.137522
 358  26.25686
 359  140.3667
 360  137.8658
 361  52.77546
 362  64.21339
 363  158.0951
 364  31.34594
 365  23.72589
 366  73.80008
 367  211.7109
 368  278.1342
 369  119.1723
 370  81.42599
 371  148.9561
 372  127.9837
 373  113.4501
 374  131.8273
 375  79.506
 376  111.0514
 377  203.0804
 378  246.4127
 379  221.0188
 380  221.7884
 381  125.1607
 382  172.5695
 383  257.4735
 384  216.0575
 385  229.9215
 386  290.6664
 387  274.4839
 388  192.5862
 389  205.9698
 390  102.0147
 391  78.74659
 392  195.3324
 393  310.1479
 394  376.1714
 395  346.3515
 396  50.52631
 397  -51.2996
 398  136.5919
 399  174.0194
 400  173.9356
 401  47.38859
 402  7.237851
 403  63.30527
 404  68.31232
 405  152.7751
 406  177.1007
 407  206.4995
 408  237.856
 409  161.9134
 410  43.06735
 411  218.4864
 412  247.7554
 413  211.6056
 414  283.8388
 415  236.8653
 416  103.4473
 417  190.4581
 418  128.9984
 419  223.9628
 420  368.4942
 421  317.0168
 422  270.3879
 423  179.6723
 424  135.8524
 425  51.55811
 426  104.3776
 427  92.98654
 428  241.7126
 429  271.0818
 430  138.7257
 431  187.394
 432  181.772
 433  245.3432
 434  156.1811
 435  109.2198
 436  251.8741
 437  200.2353
 438  165.8398
 439  165.0336
 440  66.13041
 441  173.8986
 442  363.6687
 443  264.2239
 444  243.9727
 445  196.4164
 446  88.31305
 447  173.4986
 448  203.3605
 449  250.2744
 450  300.2334
 451  161.3471
 452  65.93169
 453  49.22989
 454  60.25816
 455  155.6547
 456  185.2835
 457  205.3651
 458  109.9861
 459  120.1047
 460  196.9459
 461  216.4756
 462  106.1457
 463  190.7219
 464  193.2321
 465  152.1751
 466  59.63542
 467  137.3176
 468  169.87
 469  138.423
 470  276.9768
 471  225.6139
 472  198.2082
 473  207.755
 474  211.2407
 475  312.426
 476  348.5789
 477  387.5979
 478  336.3555
 479  305.506
 480  195.0194
 481  151.805
 482  84.83881
 483  87.22012
 484  161.7661
 485  143.6426
 486  245.7186
 487  294.6326
 488  265.8932
 489  192.1464
 490  186.8181
 491  137.3544
 492  234.2339
 493  336.4374
 494  352.4178
 495  335.8432
 496  275.2145
 497  111.6743
 498  128.2869
 499  14.73779
 500  171.6972
 501  224.8485
 502  135.8173
 503  17.53415
 504  214.6214
 505  215.9314
 506  204.7152
 507  197.3262
 508  384.9668
 509  529.3939
 510  747.9513
 511  920.5637
