# Input file       =  1187402369.104908_cleaned.dat
# Candidate        =  PSR_0332+5434
# Telescope        =  AR
# Epoch_topo       =  57987.082767417916
# Epoch_bary       =  N/A
# T_sample         =  0.002
# Data Folded      =  7340032
# Data Avg         =  0.0105548691835965
# Data StdDev      =  1.0002549286715  
# Profile Bins     =  512
# Profile Avg      =  151.314603275569 
# Profile StdDev   =  119.763559760664 
# Reduced chi-sqr  =  1.274
# Prob(Noise)      <  2.47e-05   (~4.1 sigma)
# P_topo (ms)      =  714.463671665443  +/- 0.000177
# P'_topo (s/s)    =  -0                +/- 9.35e-11
# P''_topo (s/s^2) =  0                 +/- 4.13e-14
# P_bary (ms)      =  N/A
# P'_bary (s/s)    =  N/A
# P''_bary (s/s^2) =  N/A
# P_orb (s)        =  N/A
# asin(i)/c (s)    =  N/A
# eccentricity     =  N/A
# w (rad)          =  N/A
# T_peri           =  N/A
######################################################
   0  767.6445
   1  697.2358
   2  546.8251
   3  203.1765
   4  171.1948
   5  197.7417
   6  235.7006
   7  306.0852
   8  251.055
   9  191.3506
  10  255.2178
  11  121.6068
  12  155.879
  13  232.617
  14  171.1259
  15  207.4909
  16  203.9221
  17  132.3115
  18  84.91972
  19  112.2301
  20  -29.79886
  21  78.26047
  22  197.4233
  23  217.1334
  24  198.026
  25  92.19712
  26  161.4891
  27  225.0368
  28  220.5964
  29  147.3888
  30  21.80239
  31  182.4654
  32  187.1931
  33  217.9235
  34  135.4718
  35  51.08372
  36  85.12131
  37  167.8652
  38  3.950569
  39  39.05706
  40  149.5867
  41  126.4197
  42  169.5163
  43  258.5234
  44  158.7859
  45  150.9913
  46  207.0416
  47  176.8508
  48  253.6679
  49  168.0153
  50  13.07192
  51  -91.56063
  52  -86.93017
  53  56.84925
  54  289.3328
  55  194.2258
  56  107.391
  57  48.18431
  58  -14.71029
  59  55.47391
  60  173.8522
  61  192.5561
  62  199.6059
  63  96.45868
  64  155.3035
  65  184.3762
  66  133.3428
  67  194.0594
  68  199.196
  69  154.523
  70  217.7846
  71  293.8243
  72  270.3865
  73  129.0762
  74  137.8799
  75  141.8424
  76  48.48164
  77  27.63513
  78  89.77375
  79  52.48726
  80  -33.35083
  81  106.3218
  82  83.37221
  83  149.3759
  84  112.3558
  85  -50.34485
  86  72.1142
  87  26.39775
  88  -54.35453
  89  80.05029
  90  108.5892
  91  285.6111
  92  268.8128
  93  17.51677
  94  -43.14871
  95  110.9825
  96  87.41833
  97  63.18427
  98  169.8696
  99  291.5612
 100  254.9712
 101  199.0845
 102  173.9473
 103  46.24922
 104  87.58312
 105  134.7481
 106  239.0279
 107  180.5214
 108  136.4836
 109  184.7329
 110  159.7358
 111  288.5241
 112  174.8761
 113  106.7702
 114  175.7365
 115  279.7725
 116  168.5964
 117  200.4766
 118  87.43484
 119  125.0704
 120  173.7415
 121  123.5808
 122  179.9025
 123  214.2879
 124  100.078
 125  253.2453
 126  245.9527
 127  262.2297
 128  255.1191
 129  188.896
 130  224.4393
 131  240.5079
 132  236.8749
 133  146.1915
 134  78.90166
 135  246.4677
 136  268.1455
 137  186.3903
 138  67.69909
 139  95.14053
 140  229.3402
 141  328.6443
 142  353.145
 143  213.8788
 144  153.2688
 145  77.47859
 146  -0.7708297
 147  134.9647
 148  188.0398
 149  299.6942
 150  265.6121
 151  197.251
 152  18.17809
 153  143.3004
 154  203.3131
 155  157.0777
 156  65.27847
 157  31.33675
 158  144.4243
 159  204.0867
 160  56.62584
 161  -30.21144
 162  88.89317
 163  118.315
 164  168.5629
 165  71.48917
 166  101.0951
 167  218.0258
 168  103.8665
 169  193.7851
 170  199.1866
 171  96.07857
 172  262.0545
 173  224.0014
 174  170.2615
 175  117.7418
 176  167.7451
 177  177.8684
 178  116.146
 179  24.05403
 180  -21.72876
 181  36.39826
 182  185.2538
 183  183.0024
 184  150.8153
 185  313.8141
 186  191.118
 187  119.964
 188  87.43585
 189  114.6106
 190  176.2648
 191  71.53776
 192  53.97503
 193  95.63795
 194  151.7973
 195  218.7861
 196  100.697
 197  209.9392
 198  283.0786
 199  172.5114
 200  192.7404
 201  222.0501
 202  147.7087
 203  95.68739
 204  109.1087
 205  101.447
 206  133.3415
 207  175.1742
 208  167.9876
 209  133.8933
 210  227.1005
 211  163.7231
 212  176.7059
 213  172.6378
 214  173.1693
 215  141.5325
 216  62.10422
 217  279.7202
 218  169.2858
 219  118.0973
 220  53.25656
 221  120.6624
 222  132.873
 223  160.9277
 224  160.1513
 225  81.04447
 226  149.1497
 227  89.11424
 228  72.50901
 229  12.09121
 230  214.0387
 231  344.0673
 232  164.0793
 233  84.62165
 234  140.9823
 235  192.9504
 236  187.8963
 237  263.585
 238  295.5318
 239  121.2687
 240  231.2387
 241  200.4728
 242  179.1042
 243  89.59994
 244  18.315
 245  27.4307
 246  6.146812
 247  -25.67167
 248  64.59124
 249  94.46732
 250  146.7727
 251  114.6016
 252  51.23547
 253  26.56676
 254  165.7796
 255  204.1806
 256  165.1273
 257  200.1268
 258  110.4856
 259  -9.963963
 260  75.33183
 261  -36.99747
 262  143.9148
 263  197.1384
 264  217.0257
 265  208.5606
 266  196.9473
 267  331.9602
 268  175.8582
 269  135.506
 270  41.54335
 271  99.3401
 272  135.5103
 273  124.5756
 274  185.1523
 275  235.3538
 276  187.7224
 277  151.4324
 278  111.3595
 279  -30.34977
 280  126.3797
 281  57.88051
 282  201.2287
 283  210.7659
 284  159.4308
 285  240.5708
 286  140.3063
 287  42.1036
 288  17.21316
 289  -41.14305
 290  110.4736
 291  246.3297
 292  224.7665
 293  120.8356
 294  113.9324
 295  193.1406
 296  136.9883
 297  99.04073
 298  229.4955
 299  182.0222
 300  142.6809
 301  149.6351
 302  122.9548
 303  142.3894
 304  322.8806
 305  141.3723
 306  33.00111
 307  68.45246
 308  130.1098
 309  49.13857
 310  43.4877
 311  96.36364
 312  112.6844
 313  190.2581
 314  133.8277
 315  164.6307
 316  244.8288
 317  324.6236
 318  133.8604
 319  39.01633
 320  80.71268
 321  91.96535
 322  167.0853
 323  77.66101
 324  87.97774
 325  224.7697
 326  133.7553
 327  25.50624
 328  -96.34016
 329  -30.44848
 330  24.1581
 331  155.5596
 332  118.1281
 333  102.7794
 334  154.5145
 335  183.6875
 336  50.1337
 337  -14.53738
 338  63.44374
 339  199.5068
 340  51.4014
 341  170.3884
 342  107.0596
 343  227.1568
 344  253.3041
 345  184.6617
 346  264.3076
 347  172.4682
 348  132.6764
 349  260.1571
 350  293.7633
 351  169.9881
 352  184.2946
 353  95.70353
 354  130.3595
 355  162.1449
 356  93.59257
 357  127.2065
 358  66.54808
 359  16.03906
 360  81.64187
 361  244.6221
 362  64.38721
 363  -55.69868
 364  39.26246
 365  239.3666
 366  137.3685
 367  159.2042
 368  198.2774
 369  135.7864
 370  47.27342
 371  135.6804
 372  175.8604
 373  120.3062
 374  195.9013
 375  192.0102
 376  235.9921
 377  249.7348
 378  194.0242
 379  238.5598
 380  124.4753
 381  254.0184
 382  356.2357
 383  242.0683
 384  153.479
 385  113.8849
 386  154.2774
 387  96.98101
 388  77.92261
 389  67.31747
 390  217.5367
 391  233.4681
 392  189.7496
 393  157.8115
 394  61.28762
 395  -17.00673
 396  101.2265
 397  162.0171
 398  136.348
 399  -20.28731
 400  214.9812
 401  301.1217
 402  216.8615
 403  159.994
 404  -8.278481
 405  109.5644
 406  185.8338
 407  100.1233
 408  27.31857
 409  44.17573
 410  102.4785
 411  118.5257
 412  158.2831
 413  317.7936
 414  332.6012
 415  213.0689
 416  360.1465
 417  210.4066
 418  194.5781
 419  154.4303
 420  226.1296
 421  172.4565
 422  218.1093
 423  121.8978
 424  33.57304
 425  129.7128
 426  43.8394
 427  122.3032
 428  64.48293
 429  2.611334
 430  158.8535
 431  66.09379
 432  75.98106
 433  191.794
 434  155.4602
 435  35.42952
 436  123.2908
 437  118.7188
 438  172.099
 439  188.4039
 440  95.11592
 441  132.5754
 442  70.45969
 443  31.36499
 444  100.3514
 445  154.3902
 446  283.4491
 447  341.3704
 448  136.8597
 449  201.9976
 450  79.08871
 451  94.02106
 452  71.76357
 453  49.19593
 454  22.92548
 455  57.31134
 456  123.1186
 457  108.773
 458  83.4246
 459  30.74698
 460  97.64606
 461  110.0202
 462  199.8085
 463  305.1022
 464  327.2872
 465  316.6662
 466  115.8692
 467  86.70532
 468  128.6565
 469  282.7842
 470  258.3067
 471  42.46828
 472  147.8668
 473  237.1222
 474  220.7131
 475  179.0777
 476  249.1291
 477  170.9817
 478  38.52202
 479  160.5007
 480  229.5503
 481  139.3211
 482  233.227
 483  130.6752
 484  200.4963
 485  155.306
 486  68.31784
 487  122.7702
 488  119.6124
 489  190.5899
 490  223.8206
 491  63.91689
 492  8.818231
 493  152.4373
 494  315.1469
 495  272.7345
 496  165.3964
 497  54.9471
 498  167.0336
 499  189.3828
 500  137.9871
 501  61.72682
 502  111.0375
 503  344.996
 504  341.1371
 505  235.152
 506  224.0135
 507  250.4988
 508  160.4393
 509  376.1647
 510  559.5064
 511  662.3563
