# Input file       =  1188623559.105416_cleaned.dat
# Candidate        =  PSR_0332+5434
# Telescope        =  AR
# Epoch_topo       =  58001.216910942312
# Epoch_bary       =  N/A
# T_sample         =  0.002
# Data Folded      =  7340032
# Data Avg         =  0.0130054099602073
# Data StdDev      =  0.999967398173998
# Profile Bins     =  512
# Profile Avg      =  186.438237871176 
# Profile StdDev   =  119.729132861147 
# Reduced chi-sqr  =  1.352
# Prob(Noise)      <  1.69e-07   (~5.1 sigma)
# P_topo (ms)      =  714.464196358937  +/- 0.000293
# P'_topo (s/s)    =  -0                +/- 1.55e-10
# P''_topo (s/s^2) =  0                 +/- 6.83e-14
# P_bary (ms)      =  N/A
# P'_bary (s/s)    =  N/A
# P''_bary (s/s^2) =  N/A
# P_orb (s)        =  N/A
# asin(i)/c (s)    =  N/A
# eccentricity     =  N/A
# w (rad)          =  N/A
# T_peri           =  N/A
######################################################
   0  815.8171
   1  799.7545
   2  668.5683
   3  357.5648
   4  189.2798
   5  289.9983
   6  46.79658
   7  190.488
   8  206.6803
   9  107.2337
  10  104.9922
  11  127.152
  12  225.5597
  13  200.3732
  14  171.9083
  15  141.2643
  16  167.8743
  17  193.4206
  18  220.7798
  19  337.3542
  20  134.4761
  21  35.73662
  22  110.0044
  23  207.6335
  24  240.6929
  25  211.6988
  26  152.1924
  27  250.4539
  28  212.0529
  29  165.4632
  30  46.27071
  31  242.9079
  32  302.0497
  33  198.3632
  34  154.2649
  35  234.3478
  36  287.1273
  37  274.9622
  38  194.5065
  39  207.6751
  40  233.5961
  41  97.26907
  42  221.8329
  43  238.052
  44  259.0564
  45  198.0361
  46  33.06083
  47  135.6373
  48  106.8494
  49  131.2756
  50  116.0812
  51  85.16193
  52  240.8213
  53  277.5163
  54  113.7861
  55  39.33868
  56  87.68745
  57  273.6467
  58  245.811
  59  295.9384
  60  307.8107
  61  155.6807
  62  161.1454
  63  172.3333
  64  162.0487
  65  222.4568
  66  239.7929
  67  198.5205
  68  168.5924
  69  226.0749
  70  334.4734
  71  199.5413
  72  132.2619
  73  174.157
  74  150.1834
  75  107.5024
  76  96.67687
  77  56.21849
  78  245.8821
  79  183.7138
  80  82.60329
  81  147.2786
  82  160.1901
  83  279.6061
  84  167.9038
  85  299.4431
  86  194.9457
  87  136.237
  88  155.6453
  89  125.9175
  90  -1.576697
  91  75.01889
  92  88.67039
  93  107.4698
  94  171.6744
  95  168.0123
  96  108.9646
  97  164.6104
  98  244.5731
  99  246.7978
 100  201.7305
 101  174.2067
 102  218.1118
 103  174.1
 104  272.0439
 105  266.272
 106  224.596
 107  67.01643
 108  34.47766
 109  123.3158
 110  284.6511
 111  224.3862
 112  246.66
 113  201.0075
 114  112.0657
 115  116.0617
 116  282.9784
 117  260.5693
 118  63.78894
 119  167.4444
 120  163.7254
 121  50.86662
 122  263.328
 123  290.3084
 124  314.3933
 125  313.7462
 126  270.1993
 127  288.4453
 128  136.5265
 129  77.16793
 130  188.9356
 131  187.9317
 132  208.6963
 133  352.7358
 134  207.496
 135  223.7165
 136  276.0849
 137  111.5358
 138  71.54822
 139  14.46196
 140  -6.234001
 141  150.6431
 142  239.9734
 143  198.9079
 144  280.0045
 145  248.8827
 146  224.9655
 147  193.4802
 148  182.3815
 149  174.7253
 150  176.6845
 151  263.8074
 152  125.1645
 153  93.79546
 154  121.2457
 155  27.37381
 156  188.4564
 157  275.5928
 158  274.0469
 159  130.0706
 160  188.1621
 161  172.3387
 162  211.3364
 163  121.0257
 164  69.31216
 165  123.69
 166  218.5137
 167  175.8462
 168  241.5479
 169  123.2031
 170  156.2994
 171  233.0784
 172  166.0948
 173  209.2503
 174  276.5662
 175  328.1733
 176  176.422
 177  255.073
 178  179.7784
 179  255.5926
 180  457.3269
 181  354.2747
 182  273.4621
 183  302.0504
 184  198.9807
 185  194.7234
 186  204.0232
 187  107.3266
 188  166.0535
 189  130.8045
 190  179.4807
 191  27.15712
 192  76.4807
 193  218.5983
 194  231.7414
 195  207.7972
 196  234.4797
 197  173.3285
 198  203.8523
 199  329.8831
 200  288.8313
 201  270.4437
 202  261.4352
 203  201.1527
 204  140.3148
 205  97.28496
 206  39.20113
 207  183.2114
 208  284.5233
 209  242.9176
 210  149.5692
 211  248.7318
 212  259.2836
 213  136.5918
 214  225.4273
 215  212.2571
 216  113.8986
 217  73.77128
 218  104.7219
 219  160.6702
 220  112.8198
 221  9.074676
 222  113.7395
 223  174.0184
 224  102.9003
 225  96.81479
 226  227.4174
 227  219.6581
 228  167.2126
 229  121.0909
 230  165.402
 231  59.14496
 232  67.18727
 233  151.0272
 234  142.1234
 235  226.1088
 236  75.69278
 237  100.1346
 238  273.8498
 239  276.997
 240  69.41119
 241  61.32037
 242  99.95844
 243  98.30859
 244  62.8541
 245  62.51969
 246  94.08612
 247  72.80746
 248  235.434
 249  109.1752
 250  12.06395
 251  -36.44754
 252  65.56872
 253  90.74673
 254  85.40503
 255  90.24988
 256  20.51555
 257  100.2092
 258  251.4216
 259  42.65895
 260  72.00137
 261  50.27888
 262  22.35697
 263  75.14851
 264  37.85431
 265  81.54567
 266  146.9993
 267  116.7305
 268  166.8507
 269  69.45693
 270  34.31506
 271  -0.8180898
 272  46.97084
 273  132.632
 274  248.7549
 275  237.8456
 276  61.27721
 277  198.1833
 278  221.4148
 279  183.0104
 280  136.1512
 281  119.3682
 282  155.4214
 283  228.3183
 284  242.1487
 285  274.9526
 286  235.8389
 287  311.3387
 288  340.5072
 289  339.1449
 290  278.6073
 291  176.3156
 292  218.3379
 293  152.1755
 294  221.446
 295  227.9737
 296  29.8222
 297  30.14289
 298  134.1292
 299  195.1692
 300  234.3526
 301  172.4641
 302  100.9076
 303  100.7855
 304  172.6358
 305  172.0504
 306  80.46068
 307  110.0601
 308  114.4883
 309  219.4962
 310  107.457
 311  12.38553
 312  57.54579
 313  149.8809
 314  96.20311
 315  163.4932
 316  110.4873
 317  77.15545
 318  117.9513
 319  150.0601
 320  162.2878
 321  223.8051
 322  67.54587
 323  231.0846
 324  112.8898
 325  121.757
 326  202.4353
 327  226.0932
 328  335.3057
 329  216.794
 330  222.5024
 331  100.0852
 332  143.3154
 333  268.7753
 334  203.0246
 335  184.7883
 336  256.0581
 337  170.3404
 338  196.6228
 339  201.9899
 340  46.66467
 341  148.4402
 342  187.871
 343  281.0916
 344  293.2363
 345  356.0983
 346  325.0591
 347  282.2917
 348  349.0019
 349  305.6312
 350  160.694
 351  163.9099
 352  42.70676
 353  38.34212
 354  248.3384
 355  193.9642
 356  107.5178
 357  171.9204
 358  133.7385
 359  67.72591
 360  85.75645
 361  144.4141
 362  176.6448
 363  137.2722
 364  91.61051
 365  158.0747
 366  18.94172
 367  87.50502
 368  179.6492
 369  142.9283
 370  226.9032
 371  310.0579
 372  251.7501
 373  229.1078
 374  197.7945
 375  217.8243
 376  263.936
 377  106.5487
 378  112.9078
 379  137.5205
 380  229.417
 381  188.5095
 382  14.27295
 383  54.42227
 384  76.57461
 385  84.7399
 386  225.6481
 387  52.60146
 388  -41.31491
 389  120.7997
 390  191.0445
 391  134.8137
 392  133.2706
 393  198.4423
 394  237.1707
 395  243.1519
 396  277.1167
 397  144.7819
 398  173.2322
 399  278.6628
 400  336.7549
 401  215.4176
 402  207.9328
 403  274.0929
 404  253.0831
 405  126.983
 406  192.4697
 407  170.8903
 408  165.8457
 409  90.33339
 410  210.7871
 411  154.5964
 412  333.1226
 413  316.2531
 414  143.9301
 415  272.232
 416  270.017
 417  359.6448
 418  260.6864
 419  227.3078
 420  236.3396
 421  201.4775
 422  172.2949
 423  176.9402
 424  268.6336
 425  307.9324
 426  338.8192
 427  74.80183
 428  127.7095
 429  249.5867
 430  269.9438
 431  452.2861
 432  326.0904
 433  68.13261
 434  142.6408
 435  41.96286
 436  110.6228
 437  271.3569
 438  235.2229
 439  105.2228
 440  166.7871
 441  214.6884
 442  223.1117
 443  209.337
 444  151.9322
 445  241.7596
 446  240.0923
 447  250.7815
 448  244.9218
 449  156.0028
 450  135.1813
 451  209.8902
 452  197.1232
 453  230.467
 454  188.2714
 455  161.4967
 456  242.0197
 457  150.5224
 458  192.3669
 459  258.9128
 460  188.5038
 461  196.0836
 462  201.8677
 463  227.1657
 464  273.2985
 465  289.1411
 466  259.6323
 467  175.2779
 468  62.20068
 469  203.0805
 470  290.4982
 471  201.708
 472  148.369
 473  139.9483
 474  105.5856
 475  174.9759
 476  215.64
 477  178.4013
 478  122.3317
 479  108.4346
 480  175.9094
 481  332.3589
 482  232.1236
 483  234.9072
 484  178.767
 485  373.8269
 486  425.3565
 487  297.5767
 488  105.728
 489  130.4259
 490  212.749
 491  216.0593
 492  302.232
 493  205.2364
 494  62.84642
 495  222.5512
 496  199.2205
 497  138.3512
 498  165.2222
 499  265.5582
 500  215.002
 501  267.9503
 502  152.6539
 503  191.2917
 504  216.3546
 505  208.9184
 506  217.7515
 507  332.043
 508  491.4038
 509  515.6221
 510  655.0143
 511  725.8685
