# Input file       =  1188350229.11174_cleaned.dat
# Candidate        =  PSR_0332+5434
# Telescope        =  AR
# Epoch_topo       =  57998.053369348847
# Epoch_bary       =  N/A
# T_sample         =  0.002
# Data Folded      =  7340032
# Data Avg         =  0.00739831742203156
# Data StdDev      =  1.00001305292361 
# Profile Bins     =  512
# Profile Avg      =  106.074621353273 
# Profile StdDev   =  119.734599242944 
# Reduced chi-sqr  =  1.365
# Prob(Noise)      <  6.78e-08   (~5.3 sigma)
# P_topo (ms)      =  714.463534385319  +/- 0.000174
# P'_topo (s/s)    =  -0                +/- 9.18e-11
# P''_topo (s/s^2) =  0                 +/- 4.05e-14
# P_bary (ms)      =  N/A
# P'_bary (s/s)    =  N/A
# P''_bary (s/s^2) =  N/A
# P_orb (s)        =  N/A
# asin(i)/c (s)    =  N/A
# eccentricity     =  N/A
# w (rad)          =  N/A
# T_peri           =  N/A
######################################################
   0  656.7438
   1  724.0799
   2  676.9487
   3  322.0115
   4  149.4985
   5  137.9014
   6  72.01709
   7  80.80502
   8  135.7927
   9  76.74429
  10  114.1705
  11  115.8024
  12  117.1951
  13  104.495
  14  183.1738
  15  192.2566
  16  129.5784
  17  45.01043
  18  22.34121
  19  79.95695
  20  -11.87918
  21  1.048638
  22  125.7526
  23  170.8651
  24  18.41918
  25  22.68139
  26  62.98555
  27  -54.81937
  28  -106.8084
  29  2.158235
  30  242.3318
  31  162.033
  32  48.88509
  33  14.53703
  34  -114.3531
  35  -12.29377
  36  56.68655
  37  110.7267
  38  93.56937
  39  93.50143
  40  79.60506
  41  167.0101
  42  139.6905
  43  180.461
  44  134.3174
  45  25.65808
  46  -20.80623
  47  102.1698
  48  77.4539
  49  107.7527
  50  202.664
  51  210.516
  52  122.8767
  53  96.92388
  54  -0.3355434
  55  -68.25368
  56  92.92931
  57  129.4156
  58  4.036858
  59  -75.65681
  60  -78.35736
  61  73.06631
  62  120.9134
  63  104.1599
  64  74.38302
  65  10.14758
  66  201.5668
  67  174.1627
  68  116.2555
  69  -16.63293
  70  15.84888
  71  35.60936
  72  -70.49377
  73  -146.5691
  74  78.24271
  75  220.6056
  76  83.44823
  77  66.24323
  78  51.88918
  79  154.5373
  80  100.6777
  81  218.8979
  82  178.9103
  83  -12.17137
  84  -160.1933
  85  -139.0505
  86  91.45556
  87  181.3508
  88  -11.29068
  89  99.1548
  90  202.9287
  91  120.5606
  92  104.937
  93  -31.61212
  94  -95.96788
  95  -112.2805
  96  3.081992
  97  214.87
  98  91.64616
  99  106.3039
 100  35.38944
 101  62.38174
 102  -25.94774
 103  -74.60846
 104  25.52214
 105  144.8541
 106  145.0551
 107  39.28342
 108  157.7384
 109  259.2895
 110  204.5326
 111  113.7378
 112  102.4172
 113  106.7104
 114  139.4677
 115  11.2466
 116  20.41246
 117  131.8612
 118  91.96481
 119  64.55466
 120  78.162
 121  170.469
 122  76.04048
 123  27.72162
 124  101.5102
 125  215.502
 126  150.8103
 127  20.61513
 128  51.5806
 129  115.4155
 130  161.9531
 131  266.9777
 132  275.119
 133  296.8602
 134  314.1669
 135  230.4897
 136  150.8461
 137  70.80935
 138  146.1364
 139  109.8891
 140  178.5355
 141  274.4174
 142  84.30345
 143  -22.99847
 144  171.0827
 145  181.7369
 146  205.2806
 147  274.8549
 148  233.3158
 149  166.655
 150  168.5694
 151  220.6548
 152  132.5037
 153  78.45187
 154  19.69038
 155  52.70444
 156  26.02933
 157  149.4738
 158  255.8505
 159  183.5388
 160  305.2433
 161  77.425
 162  -44.80029
 163  123.3053
 164  193.6712
 165  266.1766
 166  226.8403
 167  86.33313
 168  76.74769
 169  176.5067
 170  171.0594
 171  203.9476
 172  93.44142
 173  141.9325
 174  149.6544
 175  151.2815
 176  152.344
 177  251.4031
 178  226.4774
 179  63.16405
 180  160.3884
 181  48.86797
 182  21.10792
 183  109.6309
 184  45.40304
 185  89.328
 186  45.96492
 187  -32.48959
 188  15.60242
 189  235.6113
 190  169.88
 191  78.20598
 192  -5.326802
 193  61.83453
 194  166.3084
 195  163.6963
 196  40.53725
 197  66.36714
 198  99.76285
 199  172.925
 200  101.3213
 201  -115.4931
 202  140.7782
 203  173.0192
 204  194.3831
 205  167.1794
 206  17.78429
 207  47.52838
 208  142.1857
 209  36.50726
 210  106.7841
 211  -11.55302
 212  141.4644
 213  -2.774239
 214  -46.31601
 215  77.12057
 216  97.74534
 217  193.817
 218  48.25533
 219  46.69564
 220  94.24854
 221  -1.695103
 222  174.9602
 223  150.7039
 224  156.3076
 225  72.46006
 226  133.5233
 227  23.35641
 228  98.92963
 229  93.69117
 230  95.378
 231  70.08372
 232  -86.34243
 233  -36.53804
 234  25.32375
 235  -22.99844
 236  75.94468
 237  205.1991
 238  226.5531
 239  52.80257
 240  3.124757
 241  151.1877
 242  138.286
 243  133.0265
 244  11.83021
 245  44.50377
 246  11.36519
 247  13.69251
 248  86.39414
 249  85.1605
 250  95.90691
 251  145.4652
 252  103.5007
 253  41.36308
 254  140.5323
 255  118.9955
 256  61.00235
 257  4.207159
 258  54.00747
 259  1.661417
 260  -14.99569
 261  -1.599346
 262  -140.4954
 263  49.78743
 264  153.4171
 265  59.71647
 266  -12.24635
 267  66.10996
 268  110.1654
 269  76.14378
 270  98.55724
 271  -5.346843
 272  -182.3358
 273  -17.00217
 274  23.66986
 275  16.62451
 276  51.5048
 277  91.01805
 278  -86.75519
 279  44.31845
 280  109.5425
 281  75.58932
 282  88.77922
 283  18.35895
 284  27.39266
 285  108.6399
 286  124.9051
 287  158.3637
 288  210.4833
 289  181.7375
 290  219.3586
 291  74.1353
 292  -52.24487
 293  -160.692
 294  -16.80573
 295  148.0871
 296  72.4506
 297  176.8921
 298  99.48723
 299  36.87498
 300  77.46701
 301  101.3417
 302  167.3143
 303  60.26147
 304  127.0915
 305  103.0582
 306  105.021
 307  32.82125
 308  -23.47812
 309  11.28468
 310  109.1748
 311  153.4396
 312  136.4369
 313  259.6916
 314  159.3914
 315  6.239377
 316  61.74585
 317  227.9669
 318  328.3414
 319  174.6446
 320  114.849
 321  140.9379
 322  194.1785
 323  154.4431
 324  179.9759
 325  217.2799
 326  211.8994
 327  159.4215
 328  149.551
 329  180.9574
 330  106.3315
 331  91.64782
 332  -40.74528
 333  37.05541
 334  111.3794
 335  148.2203
 336  95.2155
 337  87.51553
 338  107.3487
 339  59.9273
 340  103.7014
 341  131.9739
 342  92.03518
 343  101.847
 344  88.54137
 345  45.11917
 346  240.1931
 347  184.9706
 348  122.9559
 349  175.809
 350  196.1622
 351  217.1439
 352  207.6107
 353  99.86723
 354  62.26792
 355  -7.043426
 356  167.0423
 357  245.3157
 358  222.628
 359  183.8357
 360  149.4599
 361  263.186
 362  244.5786
 363  90.23651
 364  68.58281
 365  173.0201
 366  82.24972
 367  224.0715
 368  167.2249
 369  157.5475
 370  112.3751
 371  -2.571832
 372  44.18398
 373  146.1712
 374  144.8571
 375  191.8423
 376  95.84082
 377  122.2841
 378  117.6548
 379  221.8021
 380  175.4084
 381  87.87634
 382  125.5961
 383  83.01941
 384  85.54216
 385  148.1895
 386  181.3031
 387  107.934
 388  105.0724
 389  174.8434
 390  92.59623
 391  117.0211
 392  257.2419
 393  153.568
 394  50.91751
 395  67.26262
 396  118.5152
 397  135.1997
 398  79.98171
 399  157.1434
 400  218.0622
 401  201.5476
 402  147.2935
 403  103.31
 404  111.2611
 405  178.6219
 406  6.523364
 407  34.74684
 408  0.1854458
 409  124.9947
 410  197.6964
 411  163.6583
 412  232.8609
 413  158.6835
 414  80.51102
 415  57.35875
 416  153.4048
 417  158.8816
 418  39.18882
 419  90.4696
 420  -56.25665
 421  -18.91039
 422  164.9731
 423  149.7777
 424  155.8959
 425  144.8315
 426  183.366
 427  157.6272
 428  172.065
 429  69.73987
 430  113.1015
 431  204.9288
 432  209.1226
 433  174.9638
 434  222.614
 435  163.2338
 436  93.89609
 437  108.3441
 438  19.40563
 439  64.05592
 440  65.08871
 441  133.4872
 442  87.90829
 443  75.99518
 444  -11.47305
 445  85.35966
 446  110.1137
 447  27.9324
 448  133.4427
 449  142.2011
 450  129.1279
 451  26.41389
 452  77.19376
 453  78.70841
 454  -4.579187
 455  128.0611
 456  102.121
 457  88.21162
 458  -11.75131
 459  -79.89856
 460  -36.55933
 461  119.8011
 462  162.9574
 463  303.2554
 464  254.5449
 465  185.5668
 466  104.4538
 467  157.6334
 468  105.1087
 469  40.5536
 470  132.4957
 471  207.4008
 472  189.4636
 473  96.69355
 474  55.66664
 475  13.99412
 476  -152.6368
 477  -57.71918
 478  -7.953577
 479  88.5148
 480  165.1093
 481  218.5786
 482  184.4315
 483  28.10946
 484  117.8356
 485  102.6928
 486  26.98721
 487  77.68259
 488  12.03372
 489  33.78137
 490  27.52213
 491  91.60123
 492  83.91523
 493  154.7572
 494  187.3263
 495  195.912
 496  26.27711
 497  25.1499
 498  51.97586
 499  53.59754
 500  18.45136
 501  46.87943
 502  128.5835
 503  238.8612
 504  151.9881
 505  91.96169
 506  42.17366
 507  205.9463
 508  120.023
 509  264.6926
 510  554.5364
 511  645.751
