# Input file       =  1188077051.109435_cleaned.dat
# Candidate        =  PSR_0332+5434
# Telescope        =  AR
# Epoch_topo       =  57994.891586914760
# Epoch_bary       =  N/A
# T_sample         =  0.002
# Data Folded      =  7208960
# Data Avg         =  0.0135782784152003
# Data StdDev      =  1.00003428995064 
# Profile Bins     =  512
# Profile Avg      =  191.17795248793  
# Profile StdDev   =  118.663244610812 
# Reduced chi-sqr  =  1.192
# Prob(Noise)      <  0.00175   (~2.9 sigma)
# P_topo (ms)      =  714.463353341865  +/- 0.000189
# P'_topo (s/s)    =  -0                +/- 1.02e-10
# P''_topo (s/s^2) =  0                 +/- 4.57e-14
# P_bary (ms)      =  N/A
# P'_bary (s/s)    =  N/A
# P''_bary (s/s^2) =  N/A
# P_orb (s)        =  N/A
# asin(i)/c (s)    =  N/A
# eccentricity     =  N/A
# w (rad)          =  N/A
# T_peri           =  N/A
######################################################
   0  641.285
   1  678.5368
   2  624.0702
   3  552.9105
   4  431.7379
   5  135.7369
   6  83.90536
   7  253.5225
   8  9.201458
   9  154.3883
  10  242.8616
  11  174.6137
  12  221.8162
  13  156.1629
  14  203.8107
  15  323.9235
  16  251.4276
  17  210.6313
  18  231.3666
  19  260.7879
  20  169.815
  21  19.29387
  22  3.767437
  23  66.51292
  24  153.1579
  25  196.3465
  26  222.6483
  27  181.7253
  28  308.5759
  29  361.0338
  30  206.3653
  31  274.4268
  32  188.8637
  33  158.0281
  34  227.9957
  35  201.866
  36  217.821
  37  198.5212
  38  82.23279
  39  93.23684
  40  157.7123
  41  106.3296
  42  130.7759
  43  64.59053
  44  209.3951
  45  314.6705
  46  259.7927
  47  379.0544
  48  213.0626
  49  105.1971
  50  140.4361
  51  266.9205
  52  242.0133
  53  166.1563
  54  129.4645
  55  195.7652
  56  216.9177
  57  58.83192
  58  153.049
  59  101.4754
  60  184.5608
  61  202.3903
  62  221.4156
  63  304.3301
  64  138.7349
  65  160.2454
  66  223.6258
  67  207.1435
  68  222.369
  69  148.1272
  70  135.1347
  71  94.46553
  72  133.4664
  73  364.8269
  74  350.172
  75  312.6628
  76  274.8081
  77  155.6759
  78  162.533
  79  85.84245
  80  113.5566
  81  233.1243
  82  229.5495
  83  183.855
  84  274.5133
  85  191.9132
  86  155.7203
  87  256.71
  88  278.342
  89  169.6189
  90  203.5745
  91  186.1698
  92  141.4961
  93  136.2742
  94  54.99972
  95  129.2019
  96  213.9339
  97  404.3589
  98  364.8601
  99  205.9658
 100  151.5392
 101  258.9254
 102  343.9782
 103  255.8762
 104  180.8779
 105  192.9327
 106  210.6201
 107  125.7053
 108  247.6393
 109  171.022
 110  17.58124
 111  107.03
 112  12.29056
 113  160.1543
 114  189.219
 115  141.7474
 116  187.9002
 117  138.5592
 118  178.7323
 119  131.7605
 120  91.47478
 121  85.72475
 122  113.8307
 123  209.4031
 124  326.994
 125  202.4357
 126  208.9476
 127  93.82123
 128  140.5557
 129  250.8205
 130  144.9194
 131  227.869
 132  286.6633
 133  270.2007
 134  247.7061
 135  185.5137
 136  200.5658
 137  251.4585
 138  255.618
 139  131.7103
 140  144.8724
 141  230.4085
 142  237.394
 143  162.3292
 144  102.3011
 145  49.77208
 146  69.34535
 147  217.1116
 148  314.5428
 149  285.9449
 150  207.646
 151  225.203
 152  207.81
 153  208.8589
 154  240.4529
 155  244.6831
 156  261.1718
 157  148.8973
 158  154.8033
 159  78.92055
 160  157.5007
 161  121.7926
 162  33.25702
 163  152.8219
 164  338.6211
 165  267.5542
 166  293.4519
 167  217.4389
 168  132.0076
 169  221.7069
 170  352.4832
 171  404.3151
 172  176.8958
 173  126.1514
 174  310.8291
 175  209.9187
 176  219.6251
 177  240.8579
 178  88.19686
 179  148.5332
 180  248.3653
 181  346.1612
 182  269.2009
 183  139.9647
 184  121.8931
 185  227.6176
 186  137.1195
 187  164.0875
 188  169.5791
 189  173.2002
 190  217.5961
 191  168.3838
 192  131.5377
 193  196.6773
 194  193.3914
 195  162.4246
 196  287.4808
 197  311.0868
 198  288.5467
 199  316.2433
 200  279.4835
 201  262.569
 202  172.0457
 203  146.4062
 204  200.6685
 205  285.8934
 206  290.9269
 207  183.6558
 208  307.0406
 209  307.2113
 210  293.4124
 211  253.6706
 212  169.1243
 213  169.1044
 214  125.558
 215  134.1017
 216  261.0308
 217  285.1562
 218  270.4146
 219  230.6497
 220  232.2238
 221  206.1312
 222  220.5343
 223  150.9917
 224  146.7085
 225  277.1566
 226  233.2853
 227  208.2779
 228  182.2231
 229  273.7872
 230  136.7858
 231  200.7268
 232  202.7225
 233  111.7217
 234  136.4935
 235  155.6269
 236  127.3267
 237  183.9375
 238  204.2359
 239  277.7331
 240  328.0914
 241  193.1359
 242  221.046
 243  216.4358
 244  177.3345
 245  179.3021
 246  35.40347
 247  264.3399
 248  232.6397
 249  136.1352
 250  182.9018
 251  80.7617
 252  138.9385
 253  192.6816
 254  168.4891
 255  197.5027
 256  136.3639
 257  141.929
 258  286.1823
 259  114.0334
 260  126.4154
 261  211.8264
 262  325.5143
 263  253.4569
 264  252.6031
 265  276.314
 266  167.148
 267  212.9675
 268  364.2148
 269  325.6061
 270  257.9481
 271  147.2501
 272  255.6563
 273  315.928
 274  418.3464
 275  325.0493
 276  310.3491
 277  312.8694
 278  335.4732
 279  217.6332
 280  128.1871
 281  102.0227
 282  159.3004
 283  203.5185
 284  178.1086
 285  237.63
 286  246.9306
 287  338.4165
 288  268.335
 289  185.4788
 290  213.7687
 291  133.4582
 292  132.5083
 293  199.6595
 294  234.8796
 295  94.5564
 296  191.4137
 297  110.1574
 298  241.3756
 299  137.3706
 300  165.943
 301  174.3132
 302  145.847
 303  229.9864
 304  155.7711
 305  157.2018
 306  83.13519
 307  183.9422
 308  335.9797
 309  306.7413
 310  284.7937
 311  331.8859
 312  335.3946
 313  91.21253
 314  82.06339
 315  175.2397
 316  209.1271
 317  261.6385
 318  380.6747
 319  250.7135
 320  130.4014
 321  102.7073
 322  164.3697
 323  245.8224
 324  294.8856
 325  190.1295
 326  151.3092
 327  165.9415
 328  270.1293
 329  273.3827
 330  180.9034
 331  178.25
 332  206.128
 333  212.8836
 334  252.272
 335  78.3622
 336  82.9304
 337  273.7286
 338  69.63444
 339  88.64465
 340  208.0505
 341  187.336
 342  234.8395
 343  246.8488
 344  231.3046
 345  182.2342
 346  90.3609
 347  95.22214
 348  174.6645
 349  178.4432
 350  94.37514
 351  5.387069
 352  122.0224
 353  170.0784
 354  256.2639
 355  159.6572
 356  0.4917824
 357  114.9649
 358  155.3714
 359  46.541
 360  -62.87027
 361  42.17088
 362  168.9043
 363  142.5359
 364  99.51549
 365  280.2792
 366  310.1269
 367  293.0765
 368  244.2647
 369  232.021
 370  158.7664
 371  114.9537
 372  147.9026
 373  338.9821
 374  230.6815
 375  294.2293
 376  340.1161
 377  255.4364
 378  137.4768
 379  2.005979
 380  128.7584
 381  83.39529
 382  172.1388
 383  140.632
 384  189.4581
 385  156.4619
 386  105.2146
 387  113.0312
 388  145.3133
 389  81.93761
 390  46.06828
 391  210.3159
 392  234.0809
 393  164.2067
 394  53.46483
 395  -104.6274
 396  126.24
 397  108.9219
 398  158.223
 399  186.2178
 400  203.4829
 401  193.7109
 402  29.63679
 403  -1.192003
 404  39.43049
 405  196.1468
 406  227.2299
 407  239.122
 408  139.2303
 409  98.27451
 410  52.67763
 411  120.6895
 412  257.2939
 413  51.8777
 414  15.76146
 415  149.2761
 416  171.3401
 417  66.64249
 418  41.06429
 419  227.8012
 420  200.3188
 421  221.506
 422  82.22812
 423  42.10896
 424  189.3432
 425  285.5815
 426  151.2962
 427  142.5529
 428  114.7795
 429  174.5413
 430  214.1785
 431  39.51046
 432  126.7853
 433  106.5208
 434  237.3686
 435  199.9915
 436  192.6902
 437  216.6213
 438  165.2218
 439  186.8997
 440  203.7142
 441  218.8614
 442  270.0915
 443  147.0816
 444  176.0689
 445  141.7636
 446  136.2684
 447  169.767
 448  178.969
 449  216.1654
 450  259.1078
 451  214.7985
 452  149.4006
 453  117.551
 454  242.029
 455  48.01353
 456  58.21325
 457  151.8337
 458  135.7041
 459  36.45361
 460  185.9703
 461  142.725
 462  24.28493
 463  237.5054
 464  355.6893
 465  233.8095
 466  78.08411
 467  51.2322
 468  37.29935
 469  168.6491
 470  211.2602
 471  113.0407
 472  38.16824
 473  23.71187
 474  49.55672
 475  132.7521
 476  147.9041
 477  101.2507
 478  70.83013
 479  110.0336
 480  207.282
 481  233.2736
 482  228.9746
 483  200.3173
 484  166.6027
 485  118.4098
 486  229.2518
 487  239.5337
 488  118.5831
 489  214.0237
 490  261.6604
 491  239.9081
 492  -17.16825
 493  96.39333
 494  204.5785
 495  166.1363
 496  213.2812
 497  208.7184
 498  210.0106
 499  97.70277
 500  142.0586
 501  307.8499
 502  133.1921
 503  83.18778
 504  167.0565
 505  200.6637
 506  192.5426
 507  321.6037
 508  402.0293
 509  394.7722
 510  497.7522
 511  554.7009
