# Input file       =  1189298030.121802_cleaned.dat
# Candidate        =  PSR_0332+5434
# Telescope        =  AR
# Epoch_topo       =  58009.023288446784
# Epoch_bary       =  N/A
# T_sample         =  0.002
# Data Folded      =  7340032
# Data Avg         =  0.0121568037306003
# Data StdDev      =  1.00003606832829 
# Profile Bins     =  512
# Profile Avg      =  174.062766404328 
# Profile StdDev   =  119.737354947229 
# Reduced chi-sqr  =  1.696
# Prob(Noise)      <  8.38e-21   (~9.3 sigma)
# P_topo (ms)      =  714.465345159285  +/- 0.000186
# P'_topo (s/s)    =  -0                +/- 9.84e-11
# P''_topo (s/s^2) =  0                 +/- 4.34e-14
# P_bary (ms)      =  N/A
# P'_bary (s/s)    =  N/A
# P''_bary (s/s^2) =  N/A
# P_orb (s)        =  N/A
# asin(i)/c (s)    =  N/A
# eccentricity     =  N/A
# w (rad)          =  N/A
# T_peri           =  N/A
######################################################
   0  864.2885
   1  1025.762
   2  1026.486
   3  693.5699
   4  477.0379
   5  240.9384
   6  90.85738
   7  29.63055
   8  107.1063
   9  248.9926
  10  330.441
  11  249.0357
  12  275.61
  13  179.9671
  14  164.7373
  15  63.47179
  16  158.0071
  17  400.1182
  18  293.8607
  19  200.0525
  20  164.6318
  21  229.4671
  22  111.6628
  23  57.67691
  24  173.4007
  25  274.1388
  26  112.3642
  27  122.9261
  28  87.60383
  29  123.0797
  30  161.8362
  31  190.2695
  32  175.2891
  33  109.0174
  34  219.5516
  35  83.91415
  36  274.7451
  37  225.5177
  38  122.8579
  39  34.7887
  40  271.0853
  41  343.1828
  42  299.7136
  43  334.7122
  44  274.6779
  45  317.3436
  46  289.2979
  47  159.0032
  48  31.59364
  49  109.3698
  50  184.648
  51  416.5928
  52  407.5262
  53  270.8502
  54  288.3775
  55  240.0345
  56  168.3366
  57  228.0737
  58  237.8578
  59  272.9732
  60  220.324
  61  153.6624
  62  219.0348
  63  190.5908
  64  185.8291
  65  219.6855
  66  223.2305
  67  301.8972
  68  395.5391
  69  100.1484
  70  158.8869
  71  279.7536
  72  221.5346
  73  171.7819
  74  252.6787
  75  175.1929
  76  174.7041
  77  193.046
  78  181.79
  79  107.4933
  80  91.99052
  81  155.1072
  82  52.23743
  83  167.6791
  84  124.1716
  85  80.60699
  86  42.00906
  87  6.524079
  88  139.3105
  89  291.1681
  90  310.4313
  91  174.8692
  92  260.9996
  93  224.725
  94  215.2827
  95  241.8171
  96  274.2556
  97  270.6919
  98  129.9193
  99  -25.49364
 100  82.0014
 101  176.5624
 102  133.2836
 103  91.36255
 104  92.89393
 105  132.5238
 106  128.1175
 107  88.68759
 108  28.10882
 109  69.34023
 110  226.6412
 111  236.4589
 112  119.0727
 113  85.758
 114  49.96478
 115  21.39275
 116  77.13982
 117  199.9435
 118  234.2448
 119  163.962
 120  53.55441
 121  37.82215
 122  12.04262
 123  127.4319
 124  101.2598
 125  67.23993
 126  147.5106
 127  75.84892
 128  154.5116
 129  192.1271
 130  227.1237
 131  139.558
 132  145.9636
 133  82.94818
 134  103.3427
 135  243.9972
 136  230.4656
 137  234.4932
 138  326.0383
 139  129.3399
 140  119.2104
 141  197.328
 142  200.9135
 143  162.241
 144  206.4706
 145  220.5689
 146  189.2257
 147  228.4715
 148  195.6348
 149  173.9789
 150  75.08861
 151  248.0008
 152  225.6059
 153  221.3481
 154  232.6845
 155  78.43472
 156  90.45556
 157  160.2101
 158  174.7975
 159  177.6445
 160  311.6917
 161  247.3263
 162  59.26279
 163  248.3999
 164  207.5357
 165  128.7864
 166  -22.31065
 167  11.94486
 168  -2.031315
 169  196.3604
 170  200.9287
 171  186.2013
 172  226.6986
 173  38.97898
 174  243.6236
 175  233.7111
 176  270.8975
 177  178.4625
 178  144.2623
 179  340.5945
 180  266.8329
 181  294.6349
 182  392.3208
 183  234.1984
 184  189.2449
 185  127.7642
 186  80.492
 187  90.50147
 188  141.2922
 189  58.18743
 190  133.9034
 191  120.8674
 192  62.70776
 193  133.9779
 194  118.1985
 195  171.7002
 196  96.29839
 197  161.2298
 198  155.6116
 199  26.2416
 200  25.90933
 201  190.0261
 202  233.3992
 203  211.5849
 204  172.9194
 205  208.5122
 206  131.4738
 207  64.58039
 208  140.0739
 209  182.3311
 210  83.98173
 211  153.5517
 212  181.2295
 213  146.6303
 214  45.92786
 215  59.81192
 216  67.08614
 217  187.9986
 218  71.74113
 219  61.15
 220  123.3633
 221  116.6646
 222  117.1496
 223  103.9857
 224  33.95472
 225  59.53606
 226  66.08199
 227  168.5513
 228  168.1814
 229  191.1767
 230  107.4467
 231  86.93498
 232  100.9442
 233  44.14685
 234  8.988701
 235  193.6882
 236  222.7304
 237  191.4837
 238  203.3561
 239  237.7971
 240  267.2546
 241  87.52094
 242  109.6427
 243  192.1453
 244  216.8362
 245  225.1549
 246  76.66394
 247  147.6703
 248  248.5107
 249  60.13136
 250  109.6914
 251  200.9752
 252  211.3621
 253  81.11017
 254  101.3097
 255  196.616
 256  143.4064
 257  78.768
 258  82.95518
 259  203.3574
 260  296.8065
 261  145.4979
 262  187.1601
 263  212.1412
 264  148.569
 265  162.7842
 266  147.0292
 267  240.316
 268  121.525
 269  119.8294
 270  215.0216
 271  225.5314
 272  160.2056
 273  122.1885
 274  91.17354
 275  362.2648
 276  325.7805
 277  225.3851
 278  120.6251
 279  154.4714
 280  32.91574
 281  106.9204
 282  341.8953
 283  392.3853
 284  309.1517
 285  265.1833
 286  243.5866
 287  130.5899
 288  121.6668
 289  242.614
 290  190.5708
 291  167.0324
 292  253.459
 293  296.3574
 294  332.1279
 295  312.4434
 296  183.0687
 297  213.3106
 298  250.2072
 299  282.1297
 300  256.1137
 301  29.5303
 302  125.2254
 303  126.2881
 304  61.69981
 305  58.07161
 306  150.7288
 307  142.2028
 308  79.63427
 309  137.8475
 310  124.8393
 311  80.84678
 312  85.70006
 313  180.2945
 314  157.9519
 315  125.7523
 316  44.43233
 317  179.0383
 318  158.2442
 319  120.265
 320  173.0333
 321  185.9132
 322  203.0087
 323  128.2028
 324  178.5761
 325  148.2693
 326  151.5181
 327  141.2312
 328  12.15837
 329  84.83224
 330  292.6132
 331  155.1123
 332  212.9848
 333  158.8898
 334  237.2021
 335  277.4468
 336  185.0022
 337  136.9438
 338  121.066
 339  164.6375
 340  211.2029
 341  256.3862
 342  227.2285
 343  214.0849
 344  105.0173
 345  26.19802
 346  20.07955
 347  241.1699
 348  155.3601
 349  67.08194
 350  51.89221
 351  60.07159
 352  44.05035
 353  43.4621
 354  121.5066
 355  111.4891
 356  316.4214
 357  255.8903
 358  260.2438
 359  199.046
 360  276.933
 361  152.1471
 362  43.15216
 363  190.3073
 364  116.065
 365  108.1926
 366  133.7504
 367  33.16968
 368  124.3573
 369  246.3999
 370  146.1682
 371  151.3447
 372  134.2331
 373  143.7297
 374  161.0147
 375  225.2973
 376  169.6763
 377  211.6612
 378  200.2242
 379  230.0395
 380  154.9139
 381  182.1025
 382  118.0516
 383  273.4421
 384  259.8107
 385  217.5036
 386  194.1718
 387  143.5611
 388  234.0278
 389  133.528
 390  210.6599
 391  134.6674
 392  81.69109
 393  226.394
 394  245.8625
 395  -10.47955
 396  -4.530357
 397  -72.81022
 398  51.11349
 399  101.3787
 400  128.2748
 401  109.9788
 402  186.171
 403  167.8138
 404  208.9035
 405  67.60211
 406  134.4262
 407  83.9977
 408  48.43736
 409  65.89733
 410  182.6863
 411  156.0971
 412  148.669
 413  234.4963
 414  168.0101
 415  170.0804
 416  -1.800175
 417  -0.1825028
 418  38.59314
 419  -17.90426
 420  77.75828
 421  167.1179
 422  156.2014
 423  213.4888
 424  220.6724
 425  140.5335
 426  301.1302
 427  271.5692
 428  103.3772
 429  177.5643
 430  176.8627
 431  234.485
 432  187.0412
 433  92.10431
 434  185.7702
 435  94.27538
 436  126.421
 437  144.0571
 438  119.219
 439  37.42599
 440  3.679289
 441  208.1041
 442  232.755
 443  142.2009
 444  117.2294
 445  129.7242
 446  121.4096
 447  195.6211
 448  130.0393
 449  277.0718
 450  288.6629
 451  235.0027
 452  218.4788
 453  328.6498
 454  195.3829
 455  116.2485
 456  209.1576
 457  328.9182
 458  310.7387
 459  223.1251
 460  89.13982
 461  71.8565
 462  194.7238
 463  246.4612
 464  93.41399
 465  86.49708
 466  213.2396
 467  131.5475
 468  119.662
 469  132.4459
 470  157.2726
 471  239.816
 472  264.2937
 473  277.6481
 474  205.1969
 475  153.5002
 476  262.4501
 477  230.6055
 478  203.1711
 479  194.6439
 480  136.8989
 481  114.5801
 482  66.57127
 483  33.75964
 484  121.0025
 485  128.9655
 486  70.65762
 487  33.24638
 488  207.2339
 489  185.6587
 490  85.0602
 491  130.8677
 492  172.1181
 493  219.9631
 494  211.9913
 495  189.1289
 496  192.142
 497  152.4545
 498  240.3518
 499  224.1502
 500  57.19205
 501  -36.18055
 502  70.37377
 503  148.4366
 504  211.1978
 505  247.9825
 506  297.8431
 507  368.2813
 508  376.8973
 509  398.1367
 510  640.9907
 511  810.8422
