# Input file       =  1190597543.081682_cleaned.dat
# Candidate        =  PSR_0332+5434
# Telescope        =  AR
# Epoch_topo       =  58024.063947704650
# Epoch_bary       =  N/A
# T_sample         =  0.002
# Data Folded      =  7340032
# Data Avg         =  0.0138530518428798
# Data StdDev      =  1.00005242082475 
# Profile Bins     =  512
# Profile Avg      =  198.583930621346 
# Profile StdDev   =  119.739312881283 
# Reduced chi-sqr  =  1.418
# Prob(Noise)      <  1.34e-09   (~6.0 sigma)
# P_topo (ms)      =  714.471205177254  +/- 0.000176
# P'_topo (s/s)    =  -0                +/- 9.3e-11
# P''_topo (s/s^2) =  0                 +/- 4.11e-14
# P_bary (ms)      =  N/A
# P'_bary (s/s)    =  N/A
# P''_bary (s/s^2) =  N/A
# P_orb (s)        =  N/A
# asin(i)/c (s)    =  N/A
# eccentricity     =  N/A
# w (rad)          =  N/A
# T_peri           =  N/A
######################################################
   0  991.3076
   1  943.4769
   2  585.81
   3  300.4069
   4  279.1179
   5  238.2633
   6  207.1842
   7  282.8305
   8  276.8614
   9  276.8882
  10  235.7504
  11  241.4574
  12  161.4006
  13  219.0593
  14  368.8802
  15  419.7981
  16  196.1023
  17  133.4146
  18  193.4772
  19  310.7209
  20  307.5528
  21  156.5267
  22  96.39511
  23  229.4286
  24  252.2419
  25  229.2568
  26  191.3409
  27  273.2918
  28  206.9235
  29  150.129
  30  61.47433
  31  255.7256
  32  292.3482
  33  189.5925
  34  121.3364
  35  202.9612
  36  165.709
  37  119.8503
  38  176.1709
  39  202.1317
  40  177.84
  41  219.8096
  42  205.3818
  43  134.0778
  44  -13.37737
  45  103.5765
  46  170.8971
  47  276.397
  48  198.8014
  49  221.1594
  50  254.5889
  51  82.93488
  52  76.91616
  53  211.0319
  54  288.4104
  55  216.7045
  56  154.1671
  57  195.3419
  58  125.8889
  59  171.0234
  60  156.0221
  61  202.6538
  62  128.427
  63  232.2893
  64  205.7084
  65  227.2977
  66  320.9202
  67  241.9515
  68  258.8407
  69  235.1631
  70  228.8468
  71  67.87939
  72  145.8851
  73  168.5062
  74  174.057
  75  119.4984
  76  164.6639
  77  104.0701
  78  128.646
  79  136.797
  80  208.9282
  81  132.6601
  82  192.2755
  83  218.6937
  84  251.1395
  85  315.3038
  86  273.3318
  87  47.79353
  88  54.6039
  89  48.84541
  90  104.5867
  91  82.49981
  92  95.80228
  93  110.2353
  94  143.0258
  95  279.5815
  96  351.3879
  97  269.8402
  98  171.5445
  99  71.91253
 100  194.8106
 101  164.2959
 102  83.96164
 103  167.5558
 104  128.9198
 105  236.4513
 106  238.2241
 107  124.7264
 108  140.8089
 109  293.51
 110  349.6915
 111  149.0688
 112  56.83418
 113  145.9618
 114  238.9066
 115  393.8871
 116  265.1108
 117  114.9962
 118  3.866054
 119  60.747
 120  69.35728
 121  107.7848
 122  244.0103
 123  291.6411
 124  321.3956
 125  381.6563
 126  271.5968
 127  74.86499
 128  279.6974
 129  276.8966
 130  242.322
 131  189.5149
 132  132.8049
 133  197.0482
 134  239.9182
 135  260.8684
 136  122.0462
 137  181.8055
 138  155.6193
 139  165.3509
 140  167.1061
 141  191.5158
 142  150.9512
 143  230.8948
 144  271.0501
 145  91.27512
 146  115.0841
 147  229.8367
 148  295.8513
 149  257.2028
 150  348.6895
 151  103.5058
 152  139.806
 153  216.1422
 154  236.2293
 155  297.9637
 156  302.3764
 157  264.7019
 158  206.7986
 159  194.0131
 160  228.967
 161  204.6677
 162  197.0711
 163  241.7605
 164  281.1871
 165  291.8861
 166  274.6021
 167  225.3859
 168  330.8309
 169  303.4133
 170  270.6549
 171  148.9757
 172  203.5343
 173  372.6501
 174  266.8623
 175  256.3547
 176  260.3641
 177  257.342
 178  172.8355
 179  115.3921
 180  104.122
 181  127.8558
 182  135.1235
 183  288.2104
 184  222.3139
 185  225.0806
 186  327.3904
 187  262.8471
 188  273.5912
 189  372.5939
 190  296.4778
 191  225.5178
 192  145.8653
 193  221.7679
 194  193.0818
 195  164.2905
 196  241.9871
 197  253.2915
 198  205.202
 199  235.6291
 200  178.0002
 201  223.0142
 202  201.879
 203  163.7489
 204  226.9118
 205  182.6006
 206  164.9606
 207  169.0175
 208  142.7415
 209  73.46491
 210  109.3877
 211  100.5368
 212  94.89532
 213  0.4650878
 214  136.9014
 215  157.2195
 216  236.5252
 217  194.3474
 218  151.7999
 219  212.4194
 220  190.0194
 221  217.3819
 222  100.4232
 223  144.3257
 224  236.9197
 225  238.6261
 226  405.8954
 227  384.8968
 228  129.4806
 229  87.65446
 230  192.9475
 231  301.9217
 232  221.7731
 233  166.5763
 234  189.7251
 235  128.6519
 236  30.33445
 237  203.9149
 238  233.4938
 239  163.3605
 240  127.795
 241  218.1663
 242  211.1382
 243  104.1965
 244  59.4849
 245  225.765
 246  170.4271
 247  230.4891
 248  288.6319
 249  161.2499
 250  128.6772
 251  33.96597
 252  85.69466
 253  78.36909
 254  91.21967
 255  335.5199
 256  317.0868
 257  203.8825
 258  141.735
 259  155.6495
 260  54.18829
 261  99.36436
 262  158.4405
 263  170.1537
 264  166.4108
 265  229.1376
 266  173.5276
 267  212.2919
 268  207.0669
 269  232.7624
 270  145.0331
 271  187.0413
 272  225.1003
 273  210.1725
 274  189.2552
 275  168.494
 276  112.9324
 277  287.4253
 278  204.8065
 279  230.5346
 280  266.1232
 281  264.456
 282  37.80782
 283  3.495763
 284  104.3741
 285  109.3201
 286  134.5354
 287  130.1688
 288  197.5589
 289  120.1204
 290  -11.53653
 291  8.092433
 292  181.9331
 293  192.7802
 294  161.4881
 295  170.3522
 296  142.173
 297  139.8548
 298  77.18502
 299  127.7999
 300  183.2595
 301  87.55903
 302  170.1779
 303  254.6001
 304  239.4608
 305  210.4572
 306  272.1524
 307  286.7419
 308  166.7499
 309  237.1149
 310  169.718
 311  63.16058
 312  108.6557
 313  122.6888
 314  182.3806
 315  181.9557
 316  87.97758
 317  79.58149
 318  -18.58572
 319  175.7814
 320  252.9605
 321  179.982
 322  211.0158
 323  254.0108
 324  87.80526
 325  80.38941
 326  145.2411
 327  247.3538
 328  244.3056
 329  12.45368
 330  85.92061
 331  229.998
 332  175.4733
 333  228.381
 334  185.6576
 335  49.04567
 336  179.9917
 337  126.4684
 338  123.3908
 339  78.28364
 340  43.46616
 341  180.1665
 342  215.1134
 343  231.2223
 344  80.63387
 345  158.2881
 346  162.8912
 347  95.10312
 348  114.5845
 349  38.96759
 350  41.19376
 351  244.6897
 352  186.0842
 353  147.657
 354  155.8865
 355  229.9371
 356  185.9582
 357  179.1413
 358  196.9466
 359  235.9313
 360  80.10252
 361  47.88646
 362  176.2139
 363  294.7596
 364  279.8484
 365  234.0007
 366  99.77258
 367  147.8883
 368  216.8983
 369  151.163
 370  210.2154
 371  237.5904
 372  210.0235
 373  177.4665
 374  162.4268
 375  158.872
 376  113.1136
 377  170.8931
 378  183.3484
 379  199.8171
 380  178.6139
 381  243.2723
 382  378.1451
 383  354.6977
 384  159.9958
 385  113.7172
 386  215.842
 387  208.596
 388  35.02804
 389  64.33029
 390  249.3623
 391  314.5351
 392  321.4976
 393  135.4074
 394  172.9292
 395  181.0928
 396  145.4524
 397  247.8084
 398  229.578
 399  165.3941
 400  145.0636
 401  139.2077
 402  176.8128
 403  156.371
 404  206.3833
 405  212.3868
 406  228.9958
 407  171.9032
 408  120.943
 409  242.5968
 410  240.4434
 411  245.231
 412  226.8287
 413  166.7912
 414  227.1469
 415  236.5124
 416  323.0822
 417  156.497
 418  102.3827
 419  123.0512
 420  166.9161
 421  259.1661
 422  274.5481
 423  238.2061
 424  275.101
 425  231.5528
 426  265.2564
 427  164.322
 428  337.0493
 429  231.9764
 430  236.3289
 431  268.3109
 432  203.125
 433  98.52708
 434  177.9844
 435  298.2398
 436  103.3629
 437  220.945
 438  102.3932
 439  124.6708
 440  137.0921
 441  220.464
 442  307.3918
 443  259.5357
 444  173.5719
 445  108.9463
 446  204.4205
 447  249.7677
 448  260.1999
 449  115.1598
 450  228.0472
 451  181.4602
 452  241.3779
 453  224.8398
 454  165.7148
 455  202.7891
 456  277.1499
 457  163.8583
 458  280.5401
 459  277.0979
 460  172.6308
 461  236.6417
 462  196.6162
 463  267.1227
 464  219.4948
 465  312.666
 466  241.0114
 467  176.1601
 468  135.5959
 469  293.3979
 470  205.1909
 471  77.50287
 472  33.2533
 473  -2.028202
 474  19.56457
 475  51.5384
 476  155.8369
 477  142.1632
 478  108.0594
 479  275.6999
 480  262.3432
 481  212.8086
 482  164.4708
 483  92.23891
 484  153.2703
 485  198.7292
 486  266.1106
 487  157.3067
 488  132.065
 489  144.2564
 490  173.0787
 491  225.6002
 492  287.286
 493  348.8545
 494  102.0862
 495  154.6948
 496  282.3457
 497  251.8254
 498  277.6096
 499  281.7806
 500  214.2641
 501  191.6682
 502  304.0088
 503  275.2914
 504  240.4279
 505  358.0415
 506  363.0305
 507  456.1343
 508  557.6084
 509  586.1142
 510  679.3192
 511  861.6572
