# Input file       =  1191538293.107866_cleaned.dat
# Candidate        =  PSR_0332+5434
# Telescope        =  AR
# Epoch_topo       =  58034.952258192898
# Epoch_bary       =  N/A
# T_sample         =  0.002
# Data Folded      =  7340032
# Data Avg         =  0.0145498295406901
# Data StdDev      =  0.999996864722535
# Profile Bins     =  512
# Profile Avg      =  208.603073691109 
# Profile StdDev   =  119.732660980475 
# Reduced chi-sqr  =  1.737
# Prob(Noise)      <  1.08e-22   (~9.7 sigma)
# P_topo (ms)      =  714.477360272393  +/- 0.000251
# P'_topo (s/s)    =  -0                +/- 1.32e-10
# P''_topo (s/s^2) =  0                 +/- 5.84e-14
# P_bary (ms)      =  N/A
# P'_bary (s/s)    =  N/A
# P''_bary (s/s^2) =  N/A
# P_orb (s)        =  N/A
# asin(i)/c (s)    =  N/A
# eccentricity     =  N/A
# w (rad)          =  N/A
# T_peri           =  N/A
######################################################
   0  1064.651
   1  1063.465
   2  831.7165
   3  531.7646
   4  487.527
   5  320.5325
   6  225.9277
   7  144.5062
   8  141.2416
   9  178.7666
  10  171.756
  11  166.8558
  12  236.0144
  13  142.2955
  14  118.6265
  15  99.88952
  16  147.2143
  17  249.1846
  18  288.3068
  19  167.2061
  20  158.4517
  21  224.1326
  22  95.51845
  23  158.8329
  24  96.13574
  25  139.8345
  26  173.1
  27  173.1902
  28  167.7277
  29  228.7852
  30  167.4018
  31  264.6033
  32  258.3492
  33  174.3486
  34  99.659
  35  188.3008
  36  224.4749
  37  43.80231
  38  76.1144
  39  174.8599
  40  115.9785
  41  53.72568
  42  111.7287
  43  170.4202
  44  31.58586
  45  51.74062
  46  178.7622
  47  195.288
  48  92.99396
  49  43.57819
  50  266.7592
  51  245.3055
  52  86.82439
  53  122.8416
  54  201.4602
  55  129.8404
  56  151.0526
  57  114.0755
  58  159.8895
  59  38.18364
  60  88.6612
  61  165.8885
  62  150.7553
  63  214.4474
  64  264.74
  65  238.1443
  66  197.6722
  67  257.9198
  68  231.1219
  69  235.7181
  70  260.2518
  71  160.7649
  72  180.6729
  73  228.7006
  74  202.0874
  75  89.97934
  76  140.1605
  77  167.2572
  78  167.9043
  79  119.3161
  80  80.69621
  81  113.8617
  82  259.0118
  83  314.4024
  84  344.4787
  85  204.0077
  86  80.20264
  87  150.9521
  88  272.9315
  89  210.7217
  90  281.2144
  91  298.423
  92  128.2548
  93  37.91541
  94  152.4634
  95  189.8977
  96  113.981
  97  115.9692
  98  9.924048
  99  97.74585
 100  172.3926
 101  119.7039
 102  226.0214
 103  312.7366
 104  204.3765
 105  66.18609
 106  6.618992
 107  23.87748
 108  114.5766
 109  115.9315
 110  64.36321
 111  222.4114
 112  292.5571
 113  291.7738
 114  262.7527
 115  207.0403
 116  180.3603
 117  206.6258
 118  276.4032
 119  201.8897
 120  95.61861
 121  124.2306
 122  135.0489
 123  -5.826994
 124  74.20116
 125  168.673
 126  254.7728
 127  309.9323
 128  88.66783
 129  43.52448
 130  12.47579
 131  26.2469
 132  172.8803
 133  232.8786
 134  226.078
 135  281.9172
 136  286.0707
 137  265.3253
 138  327.3298
 139  242.0308
 140  203.2655
 141  300.6156
 142  249.5695
 143  296.5995
 144  304.4742
 145  263.4153
 146  215.3911
 147  295.2011
 148  386.9932
 149  241.3956
 150  111.4896
 151  124.3819
 152  131.2452
 153  160.6466
 154  176.7899
 155  129.0731
 156  82.90616
 157  147.325
 158  281.9208
 159  255.4662
 160  201.8017
 161  139.9821
 162  143.7263
 163  273.6117
 164  337.3905
 165  206.179
 166  185.7419
 167  94.70427
 168  142.8187
 169  145.8061
 170  238.4417
 171  224.8088
 172  259.8896
 173  239.9361
 174  154.049
 175  191.7123
 176  268.2269
 177  106.3429
 178  173.6411
 179  274.9263
 180  356.0414
 181  335.2846
 182  236.0403
 183  302.8907
 184  242.8992
 185  328.2483
 186  234.7811
 187  157.3059
 188  180.4717
 189  195.2581
 190  227.5897
 191  325.4802
 192  260.625
 193  220.2586
 194  266.1195
 195  274.3506
 196  229.4595
 197  302.6561
 198  311.4108
 199  183.2266
 200  251.7671
 201  297.7651
 202  246.6179
 203  186.1227
 204  126.8541
 205  168.8733
 206  305.7176
 207  208.7458
 208  262.5472
 209  139.5927
 210  133.9082
 211  74.36217
 212  205.0418
 213  288.5406
 214  307.5319
 215  330.6351
 216  224.6461
 217  247.351
 218  276.8279
 219  309.4693
 220  307.8028
 221  136.7827
 222  165.8296
 223  164.8199
 224  246.9314
 225  308.804
 226  300.1986
 227  320.5274
 228  258.601
 229  266.5432
 230  257.4885
 231  96.70161
 232  -13.90469
 233  184.1852
 234  275.4173
 235  235.5349
 236  364.5977
 237  246.7424
 238  154.9094
 239  149.6602
 240  111.7351
 241  182.8542
 242  293.1309
 243  200.4548
 244  176.818
 245  159.1816
 246  88.38998
 247  253.1362
 248  245.519
 249  190.86
 250  196.0621
 251  198.8009
 252  225.2762
 253  133.3804
 254  178.9276
 255  130.8167
 256  57.1945
 257  34.93074
 258  186.2383
 259  232.7612
 260  317.2182
 261  300.0201
 262  273.6051
 263  255.926
 264  224.7799
 265  235.833
 266  161.0676
 267  160.3635
 268  257.2729
 269  110.3107
 270  86.85976
 271  178.2707
 272  184.6059
 273  138.2819
 274  168.2684
 275  215.9897
 276  270.3572
 277  224.4859
 278  411.7531
 279  207.9782
 280  144.0017
 281  215.7147
 282  226.7178
 283  145.432
 284  242.6936
 285  213.4958
 286  249.4826
 287  348.505
 288  316.4469
 289  185.9378
 290  239.1701
 291  276.6423
 292  131.6118
 293  227.6046
 294  192.8026
 295  115.4893
 296  27.65815
 297  116.5321
 298  150.7305
 299  283.2492
 300  224.7234
 301  224.701
 302  191.754
 303  129.037
 304  114.7908
 305  317.0298
 306  384.9723
 307  356.0779
 308  445.0377
 309  217.8072
 310  74.29102
 311  139.644
 312  100.6694
 313  146.1953
 314  222.9532
 315  243.159
 316  172.3951
 317  190.3048
 318  366.5932
 319  285.366
 320  146.2471
 321  138.7023
 322  149.0865
 323  282.4789
 324  404.1047
 325  329.6075
 326  211.935
 327  283.6232
 328  209.5134
 329  128.9038
 330  305.9872
 331  222.8919
 332  188.5071
 333  145.8611
 334  204.3433
 335  166.0924
 336  140.6865
 337  177.4321
 338  296.7491
 339  230.3269
 340  219.2501
 341  238.2688
 342  289.1557
 343  261.4151
 344  248.4508
 345  135.7487
 346  54.52245
 347  160.4097
 348  140.2313
 349  195.5274
 350  129.3069
 351  164.5218
 352  276.2379
 353  258.0246
 354  117.7557
 355  69.34403
 356  284.8055
 357  334.7321
 358  202.5811
 359  53.96636
 360  126.7036
 361  150.4521
 362  230.1478
 363  257.8294
 364  187.138
 365  232.5598
 366  254.4558
 367  206.4343
 368  202.8837
 369  232.1022
 370  129.4713
 371  124.3747
 372  132.7452
 373  157.1922
 374  218.1983
 375  229.754
 376  148.1391
 377  219.7544
 378  184.1216
 379  135.3124
 380  153.813
 381  227.3569
 382  286.4918
 383  277.0334
 384  156.143
 385  108.2208
 386  172.2814
 387  125.8771
 388  191.4788
 389  95.86633
 390  121.9421
 391  334.3872
 392  246.7359
 393  273.7502
 394  214.7024
 395  202.3594
 396  232.5716
 397  298.777
 398  404.8438
 399  165.0208
 400  192.9608
 401  271.2365
 402  314.0694
 403  346.5123
 404  233.9685
 405  309.5916
 406  293.087
 407  318.9873
 408  149.1778
 409  307.5391
 410  352.4277
 411  162.1303
 412  129.2188
 413  242.3622
 414  108.2881
 415  243.8009
 416  168.9591
 417  210.042
 418  249.8266
 419  300.8497
 420  254.6617
 421  206.8684
 422  203.3187
 423  115.7334
 424  94.8014
 425  287.9847
 426  220.3779
 427  54.3111
 428  215.6975
 429  301.7402
 430  255.7249
 431  189.677
 432  94.71247
 433  110.5022
 434  152.1409
 435  211.2865
 436  199.5926
 437  138.7539
 438  269.6013
 439  370.1316
 440  225.99
 441  140.248
 442  57.07037
 443  244.6927
 444  370.1935
 445  294.0668
 446  160.8697
 447  206.5027
 448  335.8281
 449  237.7467
 450  195.5869
 451  194.8461
 452  198.0522
 453  260.4451
 454  359.1004
 455  296.6663
 456  113.7393
 457  147.2761
 458  130.4426
 459  200.2126
 460  172.8138
 461  131.2229
 462  227.2715
 463  190.738
 464  92.14282
 465  50.006
 466  118.3962
 467  176.6698
 468  131.4557
 469  208.7548
 470  167.7406
 471  266.1171
 472  308.7095
 473  122.1295
 474  80.02467
 475  193.8076
 476  88.97853
 477  19.42792
 478  109.3546
 479  155.0786
 480  67.27859
 481  2.224225
 482  229.703
 483  264.3347
 484  140.6957
 485  254.2212
 486  372.1106
 487  165.8988
 488  7.893305
 489  66.64067
 490  196.4156
 491  144.8561
 492  193.0203
 493  304.9049
 494  342.0518
 495  305.1989
 496  211.1086
 497  181.7094
 498  177.3965
 499  319.7642
 500  326.2258
 501  232.353
 502  112.9568
 503  137.687
 504  110.1064
 505  169.5752
 506  352.7671
 507  423.8664
 508  384.0565
 509  462.4047
 510  792.9095
 511  1085.081
