# Input file       =  1192228095.134478_cleaned.dat
# Candidate        =  PSR_0332+5434
# Telescope        =  AR
# Epoch_topo       =  58042.936077945349
# Epoch_bary       =  N/A
# T_sample         =  0.002
# Data Folded      =  7340032
# Data Avg         =  0.0119878372232335
# Data StdDev      =  1.00000972426565 
# Profile Bins     =  512
# Profile Avg      =  171.916580208342 
# Profile StdDev   =  119.734200692619 
# Reduced chi-sqr  =  1.627
# Prob(Noise)      <  1.1e-17   (~8.5 sigma)
# P_topo (ms)      =  714.482997165694  +/- 0.000231
# P'_topo (s/s)    =  -0                +/- 1.22e-10
# P''_topo (s/s^2) =  0                 +/- 5.39e-14
# P_bary (ms)      =  N/A
# P'_bary (s/s)    =  N/A
# P''_bary (s/s^2) =  N/A
# P_orb (s)        =  N/A
# asin(i)/c (s)    =  N/A
# eccentricity     =  N/A
# w (rad)          =  N/A
# T_peri           =  N/A
######################################################
   0  843.985
   1  850.2567
   2  744.0155
   3  545.9589
   4  430.5602
   5  339.73
   6  347.6901
   7  350.0287
   8  337.9112
   9  215.4541
  10  72.35038
  11  15.9116
  12  156.7039
  13  258.165
  14  176.931
  15  176.1553
  16  159.0228
  17  172.864
  18  239.5038
  19  309.2171
  20  327.835
  21  255.1623
  22  162.1228
  23  -3.863214
  24  31.50101
  25  73.52595
  26  114.0394
  27  158.5744
  28  337.659
  29  255.6263
  30  164.4515
  31  226.5948
  32  214.2774
  33  178.8403
  34  189.1121
  35  156.7826
  36  163.6015
  37  203.741
  38  265.539
  39  149.4634
  40  133.4602
  41  185.9712
  42  250.6512
  43  212.2828
  44  297.0355
  45  187.84
  46  303.205
  47  254.2146
  48  241.2712
  49  136.8623
  50  90.94379
  51  179.3862
  52  153.3199
  53  145.6453
  54  229.2798
  55  206.212
  56  141.94
  57  154.0628
  58  218.9659
  59  153.0695
  60  103.4467
  61  -13.61513
  62  74.14819
  63  96.73312
  64  148.5348
  65  139.9077
  66  225.1116
  67  185.6129
  68  268.7557
  69  181.2695
  70  171.8264
  71  89.13013
  72  107.3455
  73  46.32132
  74  117.1888
  75  141.2917
  76  262.4017
  77  224.4201
  78  191.4412
  79  208.5623
  80  236.3622
  81  100.3738
  82  139.743
  83  159.3279
  84  101.9579
  85  163.1722
  86  130.4726
  87  168.5243
  88  142.002
  89  195.8492
  90  334.8273
  91  294.6354
  92  314.1581
  93  268.6902
  94  206.2579
  95  189.6
  96  128.9616
  97  78.17287
  98  164.6574
  99  70.98405
 100  161.6054
 101  206.6775
 102  67.54979
 103  159.4675
 104  125.3639
 105  183.5806
 106  219.0758
 107  107.7071
 108  143.0795
 109  201.6143
 110  162.6463
 111  175.4964
 112  105.7698
 113  135.9988
 114  282.0493
 115  99.84866
 116  199.2841
 117  269.2336
 118  61.42539
 119  271.6853
 120  200.6452
 121  267.6119
 122  138.0719
 123  196.8959
 124  314.1452
 125  249.4157
 126  267.1222
 127  281.8242
 128  223.6259
 129  169.4361
 130  156.4821
 131  298.9424
 132  379.7574
 133  275.4435
 134  233.5941
 135  133.8398
 136  90.41084
 137  274.7798
 138  208.1852
 139  293.9715
 140  256.194
 141  355.8634
 142  349.1796
 143  230.613
 144  188.8651
 145  319.2869
 146  287.9626
 147  269.8186
 148  301.8065
 149  251.318
 150  227.8145
 151  24.45098
 152  220.7958
 153  273.6881
 154  263.2501
 155  214.5251
 156  197.8965
 157  160.4821
 158  250.2903
 159  304.5796
 160  212.3558
 161  162.6051
 162  166.8212
 163  259.0999
 164  200.157
 165  127.3543
 166  77.50593
 167  171.2393
 168  145.9761
 169  102.4233
 170  64.5125
 171  14.72496
 172  77.05711
 173  225.0515
 174  294.4517
 175  263.616
 176  5.740254
 177  -38.05211
 178  61.84203
 179  116.6307
 180  209.4312
 181  94.28053
 182  64.48186
 183  88.35645
 184  55.91722
 185  93.3695
 186  51.61283
 187  80.66219
 188  125.4883
 189  244.9162
 190  170.9989
 191  220.7617
 192  203.3693
 193  228.7258
 194  286.3532
 195  284.0798
 196  295.4037
 197  272.1553
 198  187.4109
 199  210.2976
 200  335.6453
 201  225.9372
 202  185.6986
 203  213.3591
 204  202.5253
 205  129.7712
 206  249.4204
 207  189.8119
 208  87.20016
 209  177.8926
 210  225.9306
 211  173.4894
 212  63.68531
 213  29.14036
 214  36.60784
 215  -24.0342
 216  -72.66856
 217  -26.8292
 218  -4.556161
 219  128.1421
 220  119.1662
 221  102.0929
 222  53.75273
 223  13.95414
 224  160.2977
 225  111.453
 226  83.79298
 227  138.7302
 228  127.5518
 229  77.7374
 230  94.22215
 231  87.10117
 232  132.056
 233  54.32184
 234  118.7115
 235  131.0993
 236  155.0102
 237  189.93
 238  88.90076
 239  25.48226
 240  192.9691
 241  114.7932
 242  172.6727
 243  32.17232
 244  -75.81397
 245  72.52524
 246  131.0699
 247  60.14816
 248  178.4687
 249  221.0084
 250  23.92669
 251  -20.12292
 252  197.8222
 253  155.7251
 254  195.9181
 255  192.5288
 256  138.2751
 257  36.30693
 258  142.4433
 259  98.2905
 260  143.785
 261  116.7946
 262  233.4939
 263  225.6264
 264  194.7523
 265  109.0283
 266  72.50413
 267  99.95496
 268  154.9536
 269  164.513
 270  273.2884
 271  205.4006
 272  197.0944
 273  102.6617
 274  24.02844
 275  78.79259
 276  107.3077
 277  134.082
 278  -12.5437
 279  105.4413
 280  114.2358
 281  161.8489
 282  33.7842
 283  71.16058
 284  145.5376
 285  166.2673
 286  124.7405
 287  110.5304
 288  135.2363
 289  75.4549
 290  -31.37605
 291  85.16428
 292  182.7807
 293  245.8474
 294  341.3785
 295  280.7616
 296  253.3648
 297  198.128
 298  267.8258
 299  166.0838
 300  82.60792
 301  97.19557
 302  169.3159
 303  47.63131
 304  11.90381
 305  147.8467
 306  221.0053
 307  212.7038
 308  129.6593
 309  116.1322
 310  189.4045
 311  152.6396
 312  156.8975
 313  127.5795
 314  175.7054
 315  145.3323
 316  200.8411
 317  297.3264
 318  263.794
 319  102.4637
 320  199.1774
 321  202.9099
 322  120.3792
 323  268.3441
 324  255.495
 325  110.5347
 326  188.1248
 327  185.9122
 328  232.8962
 329  167.1526
 330  201.097
 331  228.8698
 332  239.0444
 333  150.8851
 334  193.5802
 335  148.2514
 336  132.2515
 337  124.7183
 338  184.5361
 339  204.8962
 340  53.9019
 341  -16.23842
 342  106.5778
 343  284.2163
 344  255.463
 345  102.7447
 346  92.15349
 347  36.52794
 348  147.1698
 349  147.5057
 350  130.9968
 351  150.9471
 352  199.8476
 353  352.4151
 354  386.7578
 355  215.8407
 356  131.7666
 357  302.1272
 358  218.0629
 359  160.0736
 360  257.4594
 361  339.5137
 362  291.1034
 363  169.6203
 364  193.2656
 365  327.2964
 366  265.3549
 367  151.5561
 368  188.4078
 369  119.794
 370  174.1284
 371  176.6756
 372  114.2361
 373  256.8014
 374  290.1774
 375  169.5497
 376  150.3005
 377  141.0065
 378  35.44254
 379  -11.90145
 380  320.8994
 381  253.3683
 382  192.3321
 383  82.67168
 384  121.8852
 385  241.368
 386  214.6021
 387  115.2642
 388  117.8532
 389  131.8008
 390  206.864
 391  35.51956
 392  135.3142
 393  14.34803
 394  54.51821
 395  134.0285
 396  122.8767
 397  113.82
 398  245.0717
 399  247.3077
 400  212.7908
 401  195.2397
 402  207.3787
 403  190.6348
 404  279.1941
 405  200.2675
 406  98.41619
 407  100.7164
 408  210.2238
 409  221.9463
 410  223.8757
 411  230.7327
 412  85.87189
 413  73.53115
 414  42.56589
 415  135.2776
 416  178.1034
 417  141.9884
 418  128.7531
 419  96.56773
 420  205.3309
 421  180.6309
 422  157.879
 423  235.499
 424  96.18085
 425  -19.89241
 426  -18.57167
 427  -6.593376
 428  29.31871
 429  166.5642
 430  114.192
 431  161.0154
 432  70.0043
 433  28.12768
 434  103.2484
 435  70.69513
 436  152.7574
 437  211.2885
 438  154.1955
 439  1.277806
 440  55.75396
 441  101.0848
 442  91.73088
 443  93.57204
 444  98.42138
 445  103.6689
 446  12.86757
 447  174.9578
 448  249.1626
 449  160.1732
 450  65.26881
 451  48.25949
 452  86.57372
 453  26.55376
 454  116.8352
 455  142.4797
 456  108.8228
 457  149.1538
 458  62.11148
 459  170.95
 460  142.0696
 461  131.7555
 462  72.54759
 463  150.7041
 464  218.2562
 465  95.4263
 466  98.4218
 467  149.8063
 468  163.3951
 469  37.7066
 470  63.13005
 471  67.90999
 472  54.72496
 473  230.9922
 474  269.9152
 475  149.7135
 476  121.8441
 477  56.73646
 478  29.08691
 479  134.869
 480  181.9828
 481  133.1726
 482  133.4061
 483  169.787
 484  123.9055
 485  275.8504
 486  187.5238
 487  231.3719
 488  133.7436
 489  53.80977
 490  167.6142
 491  185.0056
 492  320.5158
 493  304.0209
 494  265.239
 495  269.8099
 496  255.0077
 497  122.3637
 498  61.47086
 499  258.7837
 500  269.3568
 501  361.5451
 502  210.2261
 503  201.2091
 504  156.9472
 505  130.8811
 506  274.732
 507  256.1363
 508  368.9393
 509  504.9239
 510  816.909
 511  948.2726
