# Input file       =  1192055239.118371_cleaned.dat
# Candidate        =  PSR_0332+5434
# Telescope        =  AR
# Epoch_topo       =  58040.935429610778
# Epoch_bary       =  N/A
# T_sample         =  0.002
# Data Folded      =  7340032
# Data Avg         =  0.010774073737336
# Data StdDev      =  1.00014227307672 
# Profile Bins     =  512
# Profile Avg      =  154.44799879212  
# Profile StdDev   =  119.750071164236 
# Reduced chi-sqr  =  1.646
# Prob(Noise)      <  1.51e-18   (~8.7 sigma)
# P_topo (ms)      =  714.48149580269   +/- 0.000185
# P'_topo (s/s)    =  -0                +/- 9.77e-11
# P''_topo (s/s^2) =  0                 +/- 4.32e-14
# P_bary (ms)      =  N/A
# P'_bary (s/s)    =  N/A
# P''_bary (s/s^2) =  N/A
# P_orb (s)        =  N/A
# asin(i)/c (s)    =  N/A
# eccentricity     =  N/A
# w (rad)          =  N/A
# T_peri           =  N/A
######################################################
   0  1049.008
   1  1025.433
   2  854.449
   3  449.3829
   4  269.2393
   5  283.5559
   6  228.3197
   7  187.2276
   8  179.0524
   9  124.3428
  10  178.8062
  11  119.2195
  12  66.8778
  13  10.77264
  14  118.1417
  15  299.2267
  16  245.485
  17  58.4579
  18  135.5835
  19  46.70129
  20  113.7856
  21  136.4871
  22  0.2424781
  23  81.23122
  24  178.7873
  25  73.05093
  26  81.9194
  27  105.668
  28  55.83752
  29  131.232
  30  134.2376
  31  29.531
  32  149.5636
  33  158.5838
  34  123.4991
  35  128.528
  36  184.6706
  37  27.35648
  38  71.41042
  39  210.8929
  40  200.7978
  41  138.826
  42  52.07532
  43  136.8662
  44  140.9769
  45  151.7978
  46  258.6883
  47  253.5364
  48  128.3434
  49  166.4875
  50  173.7927
  51  97.46677
  52  94.64513
  53  198.2642
  54  198.4377
  55  238.7222
  56  304.49
  57  169.5335
  58  138.9066
  59  143.9467
  60  147.7621
  61  82.22218
  62  114.8246
  63  45.63639
  64  124.3581
  65  160.8332
  66  150.5896
  67  208.2203
  68  146.0482
  69  155.7073
  70  157.1877
  71  287.5639
  72  291.3283
  73  102.0343
  74  238.8293
  75  269.7669
  76  135.8065
  77  41.19558
  78  189.6732
  79  202.3763
  80  88.09538
  81  134.7823
  82  78.40371
  83  120.6838
  84  176.673
  85  176.559
  86  138.6028
  87  74.02468
  88  96.88348
  89  127.6198
  90  102.5617
  91  194.3988
  92  286.5355
  93  116.8267
  94  56.56365
  95  98.2868
  96  174.6178
  97  62.75924
  98  1.115242
  99  108.9677
 100  175.2125
 101  274.1488
 102  129.97
 103  160.7505
 104  206.3858
 105  129.639
 106  98.38972
 107  107.525
 108  119.7241
 109  -7.495377
 110  213.7735
 111  198.6791
 112  199.9742
 113  194.1591
 114  181.4333
 115  219.2743
 116  186.685
 117  144.3582
 118  91.22474
 119  57.82619
 120  135.1286
 121  172.2119
 122  235.668
 123  222.0723
 124  173.1985
 125  186.4258
 126  123.4013
 127  118.2719
 128  175.8563
 129  234.9983
 130  152.3113
 131  147.5433
 132  171.876
 133  242.1786
 134  271.8354
 135  101.7949
 136  61.06698
 137  41.82577
 138  45.70801
 139  108.303
 140  236.0889
 141  158.5701
 142  246.0798
 143  257.1375
 144  265.1416
 145  108.6371
 146  49.39368
 147  114.6183
 148  235.5657
 149  206.7003
 150  148.5188
 151  124.2763
 152  71.74802
 153  21.92597
 154  68.24135
 155  157.2713
 156  245.0242
 157  170.754
 158  221.7539
 159  100.8602
 160  -33.68997
 161  123.8869
 162  251.8578
 163  171.4458
 164  152.3612
 165  218.5143
 166  271.1306
 167  255.187
 168  139.4038
 169  89.58985
 170  202.6703
 171  235.206
 172  13.29641
 173  28.0952
 174  138.2123
 175  221.9723
 176  155.176
 177  155.7167
 178  95.31806
 179  159.3018
 180  164.7935
 181  221.0983
 182  256.0093
 183  282.1276
 184  194.2312
 185  47.5808
 186  235.6943
 187  108.1874
 188  -52.8027
 189  73.3549
 190  193.6645
 191  289.6618
 192  124.8396
 193  138.7276
 194  111.3961
 195  132.2719
 196  174.0734
 197  121.8986
 198  72.59078
 199  54.36471
 200  264.6908
 201  146.8521
 202  266.3036
 203  277.9482
 204  257.2494
 205  117.1353
 206  168.6426
 207  218.7027
 208  145.3536
 209  145.3454
 210  139.3652
 211  177.7175
 212  205.8064
 213  146.5197
 214  252.3706
 215  143.1891
 216  188.8176
 217  228.7671
 218  186.2342
 219  114.2538
 220  197.5575
 221  203.3963
 222  70.8074
 223  63.37144
 224  94.43573
 225  66.68619
 226  112.2159
 227  164.5491
 228  128.6923
 229  138.1348
 230  135.5782
 231  185.0099
 232  189.7549
 233  117.4
 234  135.8836
 235  115.9158
 236  116.4343
 237  137.4199
 238  155.1897
 239  267.8604
 240  261.7955
 241  23.99418
 242  52.96515
 243  81.36951
 244  110.5248
 245  143.8779
 246  167.2439
 247  172.3519
 248  149.3465
 249  219.1053
 250  -8.994705
 251  -66.11546
 252  -82.08662
 253  131.0544
 254  123.0289
 255  134.0081
 256  184.5136
 257  211.008
 258  118.3805
 259  64.8301
 260  192.3736
 261  227.6091
 262  151.7795
 263  140.2069
 264  224.0351
 265  199.5636
 266  139.7312
 267  284.2362
 268  219.0019
 269  163.6763
 270  167.1268
 271  99.70852
 272  97.19498
 273  61.2793
 274  135.2213
 275  217.881
 276  255.5483
 277  275.1631
 278  269.7401
 279  228.5965
 280  239.4495
 281  326.7867
 282  201.8421
 283  28.70201
 284  125.306
 285  77.25664
 286  133.4296
 287  234.8429
 288  257.4605
 289  147.007
 290  121.3679
 291  172.6778
 292  170.6182
 293  249.4033
 294  204.5547
 295  175.5658
 296  263.6903
 297  103.2005
 298  49.18061
 299  113.601
 300  104.6021
 301  62.94312
 302  235.4746
 303  310.4734
 304  224.3703
 305  82.66994
 306  196.5071
 307  186.3608
 308  146.361
 309  151.4787
 310  18.79573
 311  -101.9589
 312  227.1241
 313  152.3786
 314  96.04042
 315  98.83975
 316  64.09927
 317  102.0993
 318  128.4499
 319  40.08754
 320  9.463071
 321  97.73762
 322  283.8123
 323  -33.13487
 324  85.69325
 325  181.1268
 326  42.18982
 327  13.44972
 328  68.04456
 329  41.26742
 330  -56.97097
 331  5.110176
 332  90.823
 333  214.9117
 334  88.26208
 335  124.7155
 336  149.206
 337  202.0841
 338  170.274
 339  176.4666
 340  188.3785
 341  141.7231
 342  247.2122
 343  255.5355
 344  189.1689
 345  218.8389
 346  116.8743
 347  4.392548
 348  155.1366
 349  199.7178
 350  279.6564
 351  136.208
 352  125.9755
 353  259.6378
 354  109.4174
 355  79.60347
 356  127.986
 357  279.4948
 358  275.7713
 359  143.5006
 360  8.992996
 361  118.9119
 362  70.75885
 363  74.90894
 364  103.0559
 365  226.451
 366  158.4314
 367  154.3468
 368  25.37395
 369  -26.75822
 370  60.83631
 371  135.9937
 372  225.48
 373  156.9279
 374  181.9376
 375  175.8303
 376  15.7955
 377  -36.50785
 378  144.2565
 379  250.5
 380  205.3047
 381  175.3779
 382  161.0564
 383  133.8991
 384  35.94632
 385  103.798
 386  160.7603
 387  189.8528
 388  154.5233
 389  71.72777
 390  122.5802
 391  189.592
 392  169.3528
 393  203.1577
 394  133.1735
 395  186.5807
 396  105.4268
 397  98.16534
 398  79.55657
 399  -11.56231
 400  63.84921
 401  151.1765
 402  97.00047
 403  154.1679
 404  45.13047
 405  -7.454494
 406  170.7159
 407  86.75259
 408  122.5991
 409  284.9834
 410  301.6221
 411  269.9381
 412  175.1667
 413  113.3931
 414  -23.42343
 415  60.53797
 416  9.747378
 417  169.5059
 418  76.99671
 419  121.3318
 420  -1.094416
 421  -14.4925
 422  44.46124
 423  120.4339
 424  38.40607
 425  80.16148
 426  63.70885
 427  209.7847
 428  239.8222
 429  85.15895
 430  106.9791
 431  37.62167
 432  57.95865
 433  -94.70053
 434  69.01777
 435  200.0368
 436  115.4584
 437  193.8027
 438  254.4265
 439  186.196
 440  42.60033
 441  84.93428
 442  41.91766
 443  -2.064815
 444  150.693
 445  201.494
 446  96.0155
 447  112.8675
 448  205.5342
 449  154.1587
 450  57.71356
 451  70.59494
 452  51.19138
 453  148.8918
 454  101.729
 455  247.3335
 456  223.3369
 457  255.7706
 458  213.0027
 459  142.7542
 460  180.5786
 461  158.4495
 462  36.3446
 463  88.61877
 464  241.4177
 465  192.2683
 466  83.20274
 467  168.9458
 468  175.6295
 469  176.3898
 470  219.1608
 471  223.4622
 472  172.1549
 473  154.7481
 474  122.9971
 475  224.4081
 476  84.20793
 477  85.63869
 478  223.9638
 479  314.0404
 480  229.3709
 481  95.35559
 482  82.71594
 483  38.03404
 484  108.557
 485  210.4433
 486  232.601
 487  128.6212
 488  113.8835
 489  154.057
 490  253.7704
 491  252.5013
 492  149.7006
 493  85.00716
 494  174.7681
 495  233.8149
 496  190.9649
 497  157.2527
 498  197.3768
 499  139.577
 500  104.6712
 501  96.51353
 502  142.4985
 503  266.3833
 504  283.7903
 505  175.1487
 506  188.3927
 507  222.1068
 508  387.5997
 509  509.4895
 510  733.9551
 511  979.9828
