# Input file       =  1192243009.129_cleaned.dat
# Candidate        =  PSR_0332+5434
# Telescope        =  AR
# Epoch_topo       =  58043.108693622686
# Epoch_bary       =  N/A
# T_sample         =  0.002
# Data Folded      =  7340032
# Data Avg         =  0.0132303562789482
# Data StdDev      =  1.00001153783747 
# Profile Bins     =  512
# Profile Avg      =  189.658999624501 
# Profile StdDev   =  119.734417837079 
# Reduced chi-sqr  =  1.142
# Prob(Noise)      <  0.0144   (~2.2 sigma)
# P_topo (ms)      =  714.48346903673   +/- 0.000275
# P'_topo (s/s)    =  -0                +/- 1.45e-10
# P''_topo (s/s^2) =  0                 +/- 6.41e-14
# P_bary (ms)      =  N/A
# P'_bary (s/s)    =  N/A
# P''_bary (s/s^2) =  N/A
# P_orb (s)        =  N/A
# asin(i)/c (s)    =  N/A
# eccentricity     =  N/A
# w (rad)          =  N/A
# T_peri           =  N/A
######################################################
   0  716.9886
   1  671.1505
   2  482.21
   3  243.7325
   4  164.218
   5  85.31477
   6  72.38918
   7  108.7068
   8  149.8628
   9  129.572
  10  234.229
  11  363.8067
  12  252.0897
  13  248.5626
  14  226.5192
  15  270.6577
  16  231.1677
  17  150.6068
  18  163.7462
  19  203.2401
  20  293.2738
  21  228.9527
  22  342.8828
  23  214.733
  24  152.6424
  25  162.6067
  26  258.3585
  27  164.3336
  28  128.2052
  29  228.9995
  30  223.5464
  31  89.21974
  32  97.06969
  33  161.1366
  34  177.3148
  35  166.6708
  36  152.6747
  37  115.4752
  38  97.19233
  39  49.26484
  40  199.5865
  41  211.8995
  42  115.6911
  43  150.7415
  44  132.6561
  45  144.601
  46  162.1093
  47  272.3028
  48  250.816
  49  158.7796
  50  128.8739
  51  153.1095
  52  103.2695
  53  125.6403
  54  150.7849
  55  197.4359
  56  65.707
  57  119.1832
  58  58.04105
  59  51.6003
  60  105.1798
  61  65.92516
  62  101.1029
  63  106.6718
  64  248.7051
  65  196.5104
  66  242.7679
  67  187.1213
  68  182.6974
  69  158.8588
  70  150.5104
  71  152.0782
  72  150.0622
  73  169.2444
  74  138.4047
  75  85.75532
  76  114.0315
  77  80.15134
  78  -5.329021
  79  150.4372
  80  297.4802
  81  311.2975
  82  255.9005
  83  231.6001
  84  222.1484
  85  170.7145
  86  198.1267
  87  118.9688
  88  174.9547
  89  208.9877
  90  244.9236
  91  193.3841
  92  190.6111
  93  131.5199
  94  212.6848
  95  186.0833
  96  126.2244
  97  231.196
  98  148.6136
  99  124.7249
 100  188.3304
 101  206.0612
 102  174.1747
 103  85.24039
 104  73.24908
 105  127.5556
 106  144.6075
 107  150.9716
 108  110.7169
 109  176.7371
 110  199.7275
 111  144.3425
 112  111.5491
 113  60.15068
 114  150.4262
 115  240.7751
 116  149.6814
 117  141.9996
 118  246.0874
 119  175.5691
 120  209.7426
 121  164.6266
 122  282.2595
 123  179.3573
 124  101.1106
 125  110.8416
 126  26.19442
 127  137.6508
 128  88.33607
 129  150.6958
 130  126.7954
 131  42.64591
 132  97.1583
 133  55.15581
 134  71.46688
 135  125.4738
 136  132.2367
 137  208.6184
 138  137.9946
 139  43.54
 140  -73.32108
 141  108.8781
 142  127.0057
 143  189.863
 144  143.615
 145  83.57584
 146  -20.82312
 147  6.357982
 148  3.799767
 149  113.1067
 150  130.0701
 151  211.9744
 152  251.3569
 153  229.5996
 154  210.1947
 155  133.9599
 156  212.9533
 157  300.0798
 158  250.7634
 159  183.4167
 160  131.2588
 161  146.5262
 162  160.1169
 163  289.543
 164  232.7141
 165  147.6756
 166  185.065
 167  283.3903
 168  247.3784
 169  192.3708
 170  196.7831
 171  131.7981
 172  102.635
 173  15.4543
 174  148.6139
 175  293.5581
 176  157.9499
 177  206.0665
 178  177.481
 179  118.6136
 180  167.6913
 181  329.2348
 182  193.3501
 183  127.4287
 184  239.8609
 185  214.2879
 186  211.8033
 187  335.6967
 188  262.8082
 189  273.7939
 190  293.3339
 191  247.3744
 192  233.4884
 193  240.5797
 194  227.5851
 195  152.2704
 196  64.31443
 197  174.41
 198  201.7406
 199  154.5279
 200  147.8878
 201  182.3567
 202  110.1627
 203  76.14676
 204  74.71282
 205  167.272
 206  114.3664
 207  120.0194
 208  134.0884
 209  150.187
 210  111.8287
 211  103.8399
 212  156.7028
 213  144.892
 214  119.7622
 215  74.96792
 216  120.2287
 217  194.0254
 218  134.482
 219  195.6503
 220  130.5471
 221  178.8736
 222  142.0981
 223  188.3617
 224  271.9381
 225  146.3036
 226  91.02191
 227  143.6618
 228  159.4147
 229  200.2326
 230  230.2243
 231  286.2654
 232  203.3571
 233  227.466
 234  261.1138
 235  221.1612
 236  286.8675
 237  332.2889
 238  310.4816
 239  317.7518
 240  339.7367
 241  263.4279
 242  167.407
 243  193.9551
 244  298.84
 245  302.963
 246  208.426
 247  228.6273
 248  276.689
 249  203.933
 250  306.2792
 251  311.4778
 252  178.2319
 253  178.6282
 254  182.9031
 255  198.8979
 256  253.2199
 257  142.661
 258  93.44074
 259  186.056
 260  310.2988
 261  246.8975
 262  282.6697
 263  253.8296
 264  219.4177
 265  225.4247
 266  344.6424
 267  388.1451
 268  261.5795
 269  244.9505
 270  277.0759
 271  207.5783
 272  236.1867
 273  236.2216
 274  260.3147
 275  198.6098
 276  256.5586
 277  263.4384
 278  248.9074
 279  157.3858
 280  204.7167
 281  217.7258
 282  289.7467
 283  181.739
 284  159.7265
 285  223.6131
 286  307.9494
 287  274.5696
 288  311.7621
 289  315.9771
 290  271.5896
 291  235.4069
 292  194.6516
 293  237.6845
 294  230.6886
 295  253.2372
 296  234.1054
 297  151.4941
 298  193.7187
 299  224.5786
 300  307.9849
 301  281.3838
 302  268.3243
 303  213.893
 304  277.3234
 305  350.1583
 306  303.7903
 307  167.3415
 308  127.837
 309  133.0188
 310  134.5625
 311  63.24554
 312  143.0094
 313  139.6631
 314  235.7287
 315  354.1124
 316  187.8744
 317  261.1312
 318  299.7436
 319  205.4756
 320  152.6452
 321  228.0863
 322  314.851
 323  278.6884
 324  244.2072
 325  291.0527
 326  283.9894
 327  274.7956
 328  329.5209
 329  262.3925
 330  168.8512
 331  230.284
 332  131.1964
 333  218.9415
 334  243.7529
 335  177.3197
 336  203.8266
 337  233.153
 338  177.8843
 339  161.5919
 340  171.7769
 341  119.0743
 342  160.1919
 343  293.4489
 344  349.5929
 345  265.2606
 346  95.83917
 347  73.43371
 348  158.0221
 349  296.1603
 350  181.4467
 351  201.5287
 352  252.9746
 353  328.503
 354  192.5525
 355  142.015
 356  121.8772
 357  184.6435
 358  261.1019
 359  239.9855
 360  304.6106
 361  228.3957
 362  202.162
 363  167.9138
 364  198.2301
 365  115.6883
 366  255.9657
 367  156.3352
 368  103.3699
 369  137.3302
 370  156.8973
 371  172.7708
 372  165.7736
 373  258.7432
 374  466.2405
 375  358.0042
 376  288.5653
 377  129.1356
 378  105.7436
 379  160.5828
 380  168.4305
 381  135.8531
 382  190.657
 383  94.71289
 384  134.9644
 385  168.1667
 386  214.2606
 387  229.0473
 388  284.2072
 389  318.7751
 390  271.7777
 391  287.3251
 392  255.8022
 393  238.2521
 394  337.4501
 395  298.8445
 396  217.8092
 397  281.1981
 398  286.8698
 399  150.8856
 400  71.60156
 401  179.832
 402  214.3893
 403  171.1554
 404  157.4195
 405  142.43
 406  166.6961
 407  233.337
 408  170.5486
 409  259.517
 410  211.0397
 411  80.93629
 412  62.60101
 413  124.0458
 414  143.7186
 415  202.0062
 416  242.9885
 417  240.7318
 418  106.0848
 419  85.90346
 420  67.62578
 421  193.6288
 422  361.578
 423  322.0327
 424  201.9271
 425  77.84919
 426  195.5205
 427  177.9703
 428  164.8531
 429  139.3821
 430  109.8828
 431  156.052
 432  147.3232
 433  113.9133
 434  36.17482
 435  64.73612
 436  169.3376
 437  159.3436
 438  131.2431
 439  20.77287
 440  147.4176
 441  90.74185
 442  83.38741
 443  130.2484
 444  68.08502
 445  114.6332
 446  47.44696
 447  90.37636
 448  26.51671
 449  110.2982
 450  190.7647
 451  196.1456
 452  115.2169
 453  140.5948
 454  176.8384
 455  146.8373
 456  116.8433
 457  42.66085
 458  180.5178
 459  334.6152
 460  171.0698
 461  134.3402
 462  171.3227
 463  145.0781
 464  51.53479
 465  69.06127
 466  54.06958
 467  136.6648
 468  149.7871
 469  153.0662
 470  59.16002
 471  116.0434
 472  180.5255
 473  214.2619
 474  127.4641
 475  136.7504
 476  69.57276
 477  45.35495
 478  26.82645
 479  63.29575
 480  115.7486
 481  242.3169
 482  84.14192
 483  56.80783
 484  81.39632
 485  183.2934
 486  253.6961
 487  158.3363
 488  255.0496
 489  228.3317
 490  127.8343
 491  208.7213
 492  236.3608
 493  298.0878
 494  381.5691
 495  329.8948
 496  136.3921
 497  105.4149
 498  212.1714
 499  129.9556
 500  102.0463
 501  248.1336
 502  297.1594
 503  308.1211
 504  354.3217
 505  293.3767
 506  237.8132
 507  237.1518
 508  381.0285
 509  444.4029
 510  691.9705
 511  773.3223
