# Input file       =  1192070158.12806_cleaned.dat
# Candidate        =  PSR_0332+5434
# Telescope        =  AR
# Epoch_topo       =  58041.108103334031
# Epoch_bary       =  N/A
# T_sample         =  0.002
# Data Folded      =  7340032
# Data Avg         =  0.0150967541804679
# Data StdDev      =  1.00063567515078 
# Profile Bins     =  512
# Profile Avg      =  216.427020835774 
# Profile StdDev   =  119.809147692718 
# Reduced chi-sqr  =  1.429
# Prob(Noise)      <  5.94e-10   (~6.1 sigma)
# P_topo (ms)      =  714.481957191228  +/- 0.000203
# P'_topo (s/s)    =  -0                +/- 1.07e-10
# P''_topo (s/s^2) =  0                 +/- 4.74e-14
# P_bary (ms)      =  N/A
# P'_bary (s/s)    =  N/A
# P''_bary (s/s^2) =  N/A
# P_orb (s)        =  N/A
# asin(i)/c (s)    =  N/A
# eccentricity     =  N/A
# w (rad)          =  N/A
# T_peri           =  N/A
######################################################
   0  962.8784
   1  1027.23
   2  841.2606
   3  474.6749
   4  263.3491
   5  264.006
   6  324.058
   7  200.5513
   8  196.0565
   9  193.2422
  10  205.7548
  11  269.9091
  12  313.0385
  13  291.6894
  14  325.8064
  15  330.8104
  16  328.5441
  17  296.1302
  18  204.2266
  19  264.3721
  20  274.6638
  21  253.7004
  22  222.2114
  23  161.5509
  24  255.5495
  25  309.0023
  26  294.4529
  27  131.1031
  28  98.69586
  29  149.1358
  30  144.9228
  31  185.1279
  32  199.5298
  33  187.1602
  34  229.5424
  35  375.4884
  36  431.9777
  37  386.7559
  38  262.0103
  39  279.7165
  40  303.1965
  41  206.7523
  42  141.5206
  43  144.3583
  44  53.70632
  45  145.2432
  46  153.3486
  47  178.4887
  48  111.1626
  49  41.98046
  50  161.7915
  51  272.1611
  52  118.052
  53  147.7754
  54  15.69511
  55  49.27273
  56  192.6776
  57  254.6341
  58  256.6121
  59  286.1356
  60  216.2811
  61  118.0035
  62  95.23643
  63  188.9235
  64  274.6407
  65  197.0941
  66  183.8332
  67  200.2395
  68  204.5602
  69  291.9145
  70  322.3641
  71  370.783
  72  285.0082
  73  209.6629
  74  145.7167
  75  144.4169
  76  123.8603
  77  162.6542
  78  83.72569
  79  162.3085
  80  185.7966
  81  207.605
  82  239.6208
  83  202.1409
  84  233.683
  85  241.1204
  86  289.1886
  87  169.0379
  88  190.4852
  89  220.9563
  90  236.589
  91  246.135
  92  126.2089
  93  77.6604
  94  163.6021
  95  368.6302
  96  257.4045
  97  102.9082
  98  179.4664
  99  179.8678
 100  171.1045
 101  270.8066
 102  196.8102
 103  90.7756
 104  175.0266
 105  275.5792
 106  104.0256
 107  124.8772
 108  141.3701
 109  118.2499
 110  181.2273
 111  232.2305
 112  301.9042
 113  259.3012
 114  113.8133
 115  137.394
 116  253.3522
 117  225.1519
 118  232.5718
 119  285.5749
 120  347.5832
 121  305.1908
 122  259.299
 123  219.5721
 124  239.6137
 125  158.7304
 126  86.35297
 127  112.8596
 128  92.8088
 129  253.7805
 130  151.6251
 131  123.5818
 132  121.4881
 133  46.21585
 134  113.9427
 135  135.1847
 136  204.9126
 137  193.3063
 138  183.2431
 139  90.32648
 140  202.9985
 141  313.7975
 142  343.0518
 143  364.4979
 144  235.8979
 145  143.3704
 146  181.0466
 147  117.9396
 148  164.9066
 149  145.7699
 150  301.5514
 151  260.5078
 152  202.2779
 153  263.0094
 154  339.4793
 155  218.6129
 156  166.7201
 157  167.1149
 158  101.6087
 159  186.6647
 160  310.8107
 161  383.5164
 162  283.2612
 163  267.0378
 164  180.3677
 165  161.2154
 166  186.0979
 167  196.0393
 168  265.144
 169  288.1895
 170  386.596
 171  303.0282
 172  211.4319
 173  231.6857
 174  262.7469
 175  355.8372
 176  180.927
 177  150.4046
 178  282.237
 179  177.4937
 180  189.6306
 181  220.8372
 182  157.546
 183  285.2388
 184  246.64
 185  321.7719
 186  156.7993
 187  239.3285
 188  264.6512
 189  238.7059
 190  228.4021
 191  81.80835
 192  127.1245
 193  211.3379
 194  122.8824
 195  152.8838
 196  69.99084
 197  187.371
 198  250.7016
 199  375.1548
 200  200.8187
 201  92.35663
 202  176.2794
 203  168.9935
 204  268.5401
 205  198.2993
 206  232.827
 207  312.1013
 208  285.9155
 209  260.4142
 210  136.2592
 211  191.0571
 212  277.6326
 213  309.9205
 214  217.7044
 215  277.8452
 216  266.7709
 217  274.7853
 218  154.7508
 219  296.7594
 220  359.367
 221  240.0853
 222  182.2648
 223  239.1527
 224  159.8562
 225  221.8761
 226  222.5543
 227  94.41942
 228  168.1783
 229  231.7958
 230  271.9602
 231  214.8601
 232  200.011
 233  184.3827
 234  66.0238
 235  272.9324
 236  315.2491
 237  185.3475
 238  138.7843
 239  142.7585
 240  132.3212
 241  176.6019
 242  95.53033
 243  224.0388
 244  323.1271
 245  268.6595
 246  181.4633
 247  204.0695
 248  227.9
 249  214.3288
 250  235.5224
 251  275.4215
 252  275.081
 253  260.9093
 254  331.2334
 255  229.2668
 256  120.8853
 257  122.2532
 258  1.510497
 259  142.6331
 260  178.9412
 261  207.9686
 262  352.5178
 263  373.0093
 264  287.8192
 265  208.9263
 266  264.8387
 267  190.4498
 268  307.1263
 269  250.6235
 270  120.9205
 271  230.7876
 272  380.5074
 273  322.1805
 274  249.7567
 275  181.0608
 276  312.6941
 277  347.7329
 278  288.4924
 279  217.4277
 280  101.5393
 281  189.2711
 282  177.1499
 283  241.1068
 284  313.1667
 285  242.2057
 286  303.3204
 287  235.4465
 288  302.5185
 289  188.3773
 290  99.91673
 291  162.5363
 292  72.20297
 293  94.98234
 294  182.5691
 295  214.9935
 296  200.0324
 297  137.5029
 298  136.0663
 299  188.6457
 300  177.4501
 301  219.3507
 302  145.8207
 303  200.4037
 304  288.9211
 305  200.7088
 306  184.4895
 307  255.7258
 308  132.4731
 309  125.8363
 310  220.0868
 311  239.5954
 312  274.6342
 313  128.7277
 314  52.77723
 315  142.6374
 316  385.8127
 317  221.2726
 318  242.2463
 319  256.0145
 320  281.2697
 321  159.7175
 322  139.2728
 323  173.4111
 324  119.4192
 325  32.39808
 326  126.679
 327  223.1356
 328  355.1571
 329  409.88
 330  192.8205
 331  195.6335
 332  249.7814
 333  257.639
 334  267.4089
 335  148.3431
 336  180.9581
 337  233.0912
 338  235.8551
 339  270.5746
 340  368.1445
 341  233.3253
 342  296.7877
 343  309.3824
 344  252.7665
 345  260.7035
 346  333.0875
 347  270.805
 348  297.866
 349  257.8238
 350  254.0469
 351  170.3199
 352  141.2992
 353  267.7534
 354  272.8883
 355  185.7626
 356  121.7255
 357  169.5065
 358  206.7335
 359  270.5898
 360  273.7703
 361  283.0522
 362  280.5381
 363  229.8601
 364  206.8999
 365  195.4973
 366  219.7709
 367  132.4863
 368  134.0881
 369  347.2617
 370  214.1078
 371  86.52097
 372  217.5708
 373  243.7877
 374  287.7944
 375  277.1413
 376  248.8632
 377  210.1093
 378  244.6152
 379  185.4515
 380  62.55795
 381  44.27387
 382  -14.2771
 383  75.67435
 384  77.14989
 385  34.768
 386  132.6386
 387  301.3082
 388  319.1574
 389  222.6918
 390  218.8473
 391  163.9196
 392  209.2022
 393  185.2147
 394  294.619
 395  284.4905
 396  229.4901
 397  308.228
 398  245.908
 399  123.2698
 400  38.47453
 401  218.2016
 402  235.4476
 403  237.8768
 404  314.637
 405  242.4227
 406  231.126
 407  166.0326
 408  134.6377
 409  178.9503
 410  130.4027
 411  262.345
 412  207.3723
 413  200.7374
 414  101.0381
 415  175.6096
 416  62.61803
 417  29.57431
 418  236.8065
 419  310.9064
 420  147.8543
 421  246.0111
 422  160.5583
 423  166.5454
 424  94.24448
 425  186.7076
 426  151.3549
 427  182.144
 428  236.9237
 429  181.9354
 430  143.9143
 431  168.6553
 432  145.2085
 433  180.9943
 434  125.817
 435  95.47421
 436  183.8044
 437  235.7692
 438  228.4392
 439  165.7506
 440  191.3098
 441  117.8686
 442  12.04845
 443  122.8902
 444  181.3093
 445  109.0335
 446  158.7699
 447  215.3685
 448  226.3331
 449  110.0802
 450  92.09494
 451  133.1778
 452  186.5848
 453  208.4414
 454  189.2927
 455  213.7632
 456  252.6796
 457  253.8597
 458  220.5306
 459  192.487
 460  171.2896
 461  189.6828
 462  317.8768
 463  243.7471
 464  213.9115
 465  133.5251
 466  335.4469
 467  374.9586
 468  311.3531
 469  298.1797
 470  244.6928
 471  203.1467
 472  73.02496
 473  300.1669
 474  276.104
 475  291.5828
 476  322.1884
 477  178.1196
 478  151.5797
 479  143.179
 480  150.5001
 481  182.5457
 482  90.3628
 483  134.9156
 484  57.90758
 485  136.4426
 486  17.28668
 487  -3.052477
 488  233.5893
 489  240.6671
 490  174.5666
 491  242.008
 492  150.032
 493  142.1323
 494  272.4292
 495  231.3365
 496  281.968
 497  211.2456
 498  200.9686
 499  237.3047
 500  307.2682
 501  180.1623
 502  181.2052
 503  172.9457
 504  131.9321
 505  252.4591
 506  346.6652
 507  307.1698
 508  427.2952
 509  468.3781
 510  616.0739
 511  901.6249
