# Input file       =  1192500920.129434_cleaned.dat
# Candidate        =  PSR_0332+5434
# Telescope        =  AR
# Epoch_topo       =  58046.093774646230
# Epoch_bary       =  N/A
# T_sample         =  0.002
# Data Folded      =  7340032
# Data Avg         =  0.0143982859980836
# Data StdDev      =  1.00004904158493 
# Profile Bins     =  512
# Profile Avg      =  206.459065618308 
# Profile StdDev   =  119.738908274638 
# Reduced chi-sqr  =  1.854
# Prob(Noise)      <  1.52e-28   (~11.0 sigma)
# P_topo (ms)      =  714.485786934629  +/- 0.000264
# P'_topo (s/s)    =  -0                +/- 1.39e-10
# P''_topo (s/s^2) =  0                 +/- 6.14e-14
# P_bary (ms)      =  N/A
# P'_bary (s/s)    =  N/A
# P''_bary (s/s^2) =  N/A
# P_orb (s)        =  N/A
# asin(i)/c (s)    =  N/A
# eccentricity     =  N/A
# w (rad)          =  N/A
# T_peri           =  N/A
######################################################
   0  1103.861
   1  1076.568
   2  782.9934
   3  569.1821
   4  429.844
   5  238.0028
   6  177.7712
   7  403.7518
   8  326.1889
   9  388.1862
  10  355.7207
  11  278.3256
  12  315.4865
  13  378.3445
  14  236.2259
  15  217.8801
  16  293.7332
  17  180.6293
  18  238.2639
  19  328.4024
  20  130.7776
  21  110.8597
  22  254.768
  23  388.3748
  24  223.221
  25  202.3071
  26  237.9895
  27  212.2943
  28  169.1304
  29  199.1783
  30  125.0605
  31  165.4605
  32  201.6056
  33  185.222
  34  203.2093
  35  181.6466
  36  274.0034
  37  219.7124
  38  132.1573
  39  153.5183
  40  232.5915
  41  218.7569
  42  143.6251
  43  93.2571
  44  261.1588
  45  294.458
  46  172.6523
  47  278.7058
  48  94.53548
  49  188.5876
  50  146.6569
  51  146.1416
  52  123.918
  53  138.7025
  54  108.9342
  55  288.4379
  56  246.6268
  57  253.6778
  58  98.75596
  59  154.2765
  60  164.3598
  61  234.9418
  62  130.4704
  63  134.1427
  64  92.29564
  65  146.7124
  66  361.5038
  67  254.204
  68  212.728
  69  170.9541
  70  207.8279
  71  141.2012
  72  89.86761
  73  159.2094
  74  354.8205
  75  320.7396
  76  325.6987
  77  276.6407
  78  228.0996
  79  253.0492
  80  159.1738
  81  148.3132
  82  214.3951
  83  308.2246
  84  236.4716
  85  192.0513
  86  273.4909
  87  339.211
  88  157.653
  89  59.85221
  90  232.8288
  91  162.0063
  92  208.7333
  93  240.669
  94  200.1449
  95  143.1568
  96  208.1733
  97  362.7083
  98  267.4781
  99  107.9247
 100  225.3015
 101  207.2235
 102  189.7286
 103  85.9903
 104  113.3632
 105  169.0229
 106  196.3496
 107  341.3334
 108  186.9169
 109  259.9178
 110  264.3285
 111  227.6929
 112  380.0592
 113  340.3684
 114  324.3205
 115  142.0617
 116  196.7987
 117  272.184
 118  229.9931
 119  244.2421
 120  356.7038
 121  330.262
 122  252.9973
 123  174.903
 124  285.1099
 125  269.2327
 126  202.64
 127  285.3932
 128  342.4498
 129  68.8269
 130  80.74477
 131  111.4692
 132  5.535189
 133  43.56978
 134  92.70957
 135  86.8112
 136  37.60751
 137  163.7234
 138  128.1956
 139  122.4038
 140  136.5349
 141  215.5091
 142  202.1746
 143  49.82324
 144  26.30834
 145  63.62675
 146  135.1169
 147  153.4434
 148  173.0729
 149  258.3823
 150  227.0657
 151  215.5788
 152  247.9528
 153  228.2966
 154  184.4804
 155  120.6745
 156  112.5595
 157  68.01432
 158  120.6928
 159  124.7655
 160  52.47735
 161  160.7065
 162  198.2623
 163  184.8982
 164  168.3371
 165  136.3627
 166  207.5425
 167  230.6527
 168  280.0731
 169  311.9005
 170  267.6927
 171  212.6058
 172  147.7698
 173  217.5133
 174  181.2566
 175  101.9525
 176  159.3649
 177  118.0742
 178  199.6845
 179  283.7313
 180  240.0841
 181  208.6842
 182  140.1064
 183  192.4465
 184  245.1478
 185  91.93417
 186  163.933
 187  316.4068
 188  232.0151
 189  252.0151
 190  166.5625
 191  87.08616
 192  141.946
 193  249.8046
 194  230.202
 195  285.8452
 196  270.3886
 197  69.93835
 198  116.4961
 199  195.0006
 200  143.0343
 201  95.56516
 202  -21.13571
 203  52.39211
 204  93.20128
 205  230.7749
 206  411.4954
 207  381.3541
 208  190.7208
 209  181.6541
 210  239.6678
 211  140.0704
 212  154.7117
 213  106.9823
 214  329.2059
 215  203.0809
 216  72.8412
 217  140.0203
 218  58.64814
 219  48.97061
 220  40.87935
 221  211.3808
 222  176.3213
 223  63.0306
 224  33.97357
 225  32.36916
 226  195.7433
 227  215.2517
 228  117.639
 229  230.8258
 230  183.1915
 231  71.01842
 232  5.415878
 233  22.01311
 234  67.6347
 235  111.0727
 236  153.0793
 237  173.7586
 238  265.7179
 239  244.4198
 240  150.5845
 241  169.3938
 242  193.7652
 243  201.7867
 244  260.548
 245  181.3136
 246  206.893
 247  304.6933
 248  213.989
 249  62.14867
 250  88.09054
 251  133.8184
 252  41.68866
 253  193.6865
 254  200.2151
 255  67.21294
 256  171.503
 257  276.1534
 258  90.46935
 259  95.39336
 260  73.3433
 261  126.3486
 262  202.2988
 263  144.2687
 264  70.00115
 265  121.1942
 266  193.6466
 267  233.4233
 268  188.9887
 269  179.8287
 270  242.5938
 271  223.3598
 272  360.9143
 273  197.1371
 274  202.2958
 275  309.5725
 276  191.4268
 277  220.0039
 278  279.0541
 279  347.0045
 280  244.9967
 281  263.6437
 282  272.7945
 283  41.58141
 284  149.5492
 285  247.5099
 286  316.9358
 287  299.4124
 288  374.5416
 289  267.5544
 290  219.8643
 291  268.1154
 292  277.6121
 293  297.7631
 294  225.4131
 295  218.8205
 296  313.0255
 297  151.5811
 298  135.9193
 299  84.87045
 300  -7.4451
 301  32.42518
 302  92.6712
 303  181.9624
 304  254.5885
 305  322.6339
 306  271.9719
 307  185.1138
 308  159.7222
 309  329.8099
 310  296.1636
 311  288.4301
 312  221.2999
 313  286.7281
 314  105.9103
 315  98.7008
 316  196.4848
 317  306.6199
 318  263.6688
 319  287.5605
 320  228.1283
 321  36.02136
 322  72.43146
 323  169.0778
 324  371.2144
 325  280.5749
 326  183.5172
 327  224.0288
 328  157.4637
 329  194.1276
 330  245.2626
 331  151.5887
 332  325.6348
 333  351.943
 334  339.0775
 335  218.7382
 336  231.9976
 337  254.8416
 338  255.8417
 339  186.8474
 340  107.4787
 341  189.4235
 342  204.0558
 343  206.9826
 344  136.5127
 345  113.8019
 346  75.72529
 347  100.3787
 348  135.4186
 349  185.4246
 350  278.091
 351  171.7996
 352  149.9426
 353  257.383
 354  291.7594
 355  252.4464
 356  224.3368
 357  243.0277
 358  265.8874
 359  141.8733
 360  188.9105
 361  310.3927
 362  259.66
 363  179.0501
 364  256.3472
 365  269.4689
 366  259.9576
 367  314.6844
 368  309.872
 369  158.1064
 370  49.0666
 371  254.5551
 372  356.7902
 373  88.04594
 374  57.9478
 375  144.4542
 376  -0.8997903
 377  160.5965
 378  270.4001
 379  235.4304
 380  248.955
 381  103.9808
 382  158.246
 383  95.50851
 384  56.16743
 385  33.96889
 386  137.3025
 387  254.7551
 388  303.1827
 389  299.1662
 390  344.5466
 391  378.3044
 392  368.2785
 393  382.9858
 394  174.3462
 395  153.6741
 396  246.0339
 397  138.0241
 398  131.7227
 399  267.3883
 400  207.6508
 401  95.95247
 402  108.0439
 403  163.4185
 404  278.0251
 405  272.953
 406  302.3564
 407  110.2912
 408  170.7764
 409  217.9615
 410  113.2006
 411  141.5103
 412  119.9435
 413  263.9
 414  197.696
 415  83.98492
 416  203.2357
 417  333.8765
 418  269.0045
 419  176.9829
 420  244.1054
 421  248.178
 422  297.0994
 423  301.951
 424  191.787
 425  100.4451
 426  64.32229
 427  213.81
 428  192.7593
 429  124.1635
 430  120.6922
 431  74.33726
 432  177.8596
 433  233.6936
 434  239.7707
 435  206.0113
 436  227.2814
 437  248.5509
 438  283.0403
 439  248.3113
 440  142.0331
 441  203.9467
 442  220.3115
 443  178.418
 444  28.54842
 445  81.69098
 446  164.4045
 447  216.0038
 448  150.3356
 449  175.868
 450  110.7863
 451  94.43093
 452  159.205
 453  277.5811
 454  140.3576
 455  16.24723
 456  42.98267
 457  27.75101
 458  90.94385
 459  90.62214
 460  284.6566
 461  285.6083
 462  337.2204
 463  254.895
 464  55.42519
 465  57.37366
 466  53.97081
 467  197.0116
 468  202.438
 469  121.5709
 470  94.17913
 471  199.665
 472  246.7321
 473  138.3906
 474  116.0607
 475  111.3054
 476  256.3512
 477  220.6313
 478  158.3606
 479  188.9134
 480  260.6421
 481  264.0534
 482  177.6538
 483  179.7169
 484  73.38322
 485  148.3685
 486  192.4632
 487  3.677634
 488  245.6573
 489  363.6241
 490  200.4948
 491  193.1376
 492  297.6413
 493  308.731
 494  193.812
 495  289.3705
 496  438.716
 497  400.4656
 498  241.9681
 499  200.9495
 500  279.7227
 501  238.5465
 502  151.132
 503  128.2397
 504  339.4271
 505  349.2809
 506  342.2243
 507  343.1986
 508  384.8079
 509  601.9773
 510  800.7048
 511  1001.138
