# Input file       =  1192228095.134478_cleaned.dat
# Candidate        =  PSR_0332+5434
# Telescope        =  AR
# Epoch_topo       =  58042.936077945349
# Epoch_bary       =  N/A
# T_sample         =  0.002
# Data Folded      =  7340032
# Data Avg         =  0.0119878372232335
# Data StdDev      =  1.00000972426565 
# Profile Bins     =  512
# Profile Avg      =  171.916580452209 
# Profile StdDev   =  119.734200692619 
# Reduced chi-sqr  =  1.621
# Prob(Noise)      <  1.96e-17   (~8.4 sigma)
# P_topo (ms)      =  714.482997255086  +/- 0.000229
# P'_topo (s/s)    =  -0                +/- 1.21e-10
# P''_topo (s/s^2) =  0                 +/- 5.33e-14
# P_bary (ms)      =  N/A
# P'_bary (s/s)    =  N/A
# P''_bary (s/s^2) =  N/A
# P_orb (s)        =  N/A
# asin(i)/c (s)    =  N/A
# eccentricity     =  N/A
# w (rad)          =  N/A
# T_peri           =  N/A
######################################################
   0  826.6431
   1  836.871
   2  611.4481
   3  504.5027
   4  339.3179
   5  357.2072
   6  326.1744
   7  371.9564
   8  274.1252
   9  124.3602
  10  14.70655
  11  66.34275
  12  271.3257
  13  199.6846
  14  175.6715
  15  160.0062
  16  165.912
  17  214.2755
  18  283.9049
  19  320.1382
  20  293.5669
  21  202.0263
  22  66.88482
  23  -3.714206
  24  61.96925
  25  114.6262
  26  103.2412
  27  274.468
  28  311.4459
  29  197.3809
  30  192.9675
  31  228.0135
  32  194.6883
  33  169.0757
  34  185.1045
  35  159.7465
  36  171.749
  37  262.1292
  38  191.7988
  39  138.3267
  40  137.4799
  41  261.8226
  42  189.5782
  43  312.7879
  44  186.1903
  45  274.5347
  46  266.9242
  47  274.2045
  48  169.8892
  49  97.99693
  50  140.5557
  51  181.0539
  52  138.632
  53  185.9912
  54  230.6332
  55  172.0836
  56  118.6226
  57  217.2969
  58  181.4408
  59  138.9403
  60  13.2166
  61  8.765877
  62  108.4294
  63  127.6168
  64  149.3292
  65  189.6219
  66  200.5297
  67  243.2891
  68  227.4681
  69  166.5202
  70  113.1703
  71  106.3888
  72  56.98579
  73  102.6764
  74  104.8545
  75  243.3535
  76  226.1776
  77  222.9567
  78  176.6857
  79  264.9121
  80  162.7327
  81  92.6193
  82  168.7531
  83  102.611
  84  142.9437
  85  147.4639
  86  157.4538
  87  147.6118
  88  148.8298
  89  280.6885
  90  332.3833
  91  293.3892
  92  304.4759
  93  229.5286
  94  199.2563
  95  170.4536
  96  67.78854
  97  139.4719
  98  115.6366
  99  100.0207
 100  219.4542
 101  103.5167
 102  119.6629
 103  147.1698
 104  148.1322
 105  212.503
 106  179.9191
 107  76.80576
 108  227.3734
 109  149.7213
 110  195.0623
 111  133.1861
 112  88.37098
 113  244.5276
 114  197.8151
 115  88.73103
 116  314.9115
 117  104.3139
 118  192.0912
 119  240.4619
 120  234.2381
 121  217.0955
 122  116.8405
 123  290.3864
 124  272.1197
 125  251.9181
 126  296.5528
 127  247.0011
 128  193.5586
 129  149.427
 130  226.9453
 131  369.4727
 132  329.7703
 133  232.5428
 134  205.0848
 135  63.6714
 136  201.8869
 137  259.9932
 138  226.8013
 139  316.9645
 140  274.1203
 141  395.5182
 142  262.7112
 143  176.0826
 144  266.3849
 145  333.5395
 146  262.1064
 147  300.0993
 148  257.4673
 149  265.4477
 150  89.35899
 151  110.3334
 152  278.4512
 153  255.44
 154  234.499
 155  204.0316
 156  182.6239
 157  186.6372
 158  329.5085
 159  241.617
 160  189.1162
 161  147.6137
 162  217.3722
 163  254.3259
 164  146.0931
 165  90.65215
 166  119.4499
 167  186.2467
 168  109.3408
 169  89.96983
 170  26.43002
 171  28.54806
 172  170.7478
 173  262.8742
 174  313.2047
 175  113.9547
 176  -47.73042
 177  19.21427
 178  99.05184
 179  172.2756
 180  154.6144
 181  45.04806
 182  112.399
 183  45.66854
 184  104.0115
 185  40.96414
 186  81.34117
 187  88.88317
 188  214.834
 189  212.3622
 190  173.2602
 191  233.7707
 192  167.774
 193  287.9223
 194  264.5522
 195  330.3114
 196  255.2038
 197  263.1669
 198  134.0117
 199  322.5067
 200  275.9414
 201  195.2675
 202  204.3698
 203  216.9013
 204  160.9414
 205  184.976
 206  247.6682
 207  98.43459
 208  132.4
 209  200.997
 210  223.6557
 211  113.782
 212  50.35663
 213  34.77744
 214  4.103796
 215  -77.16178
 216  -36.68616
 217  -46.23518
 218  76.95134
 219  139.6407
 220  111.3138
 221  84.36999
 222  2.951266
 223  97.6778
 224  173.3954
 225  74.59308
 226  114.0715
 227  146.7213
 228  78.38692
 229  99.4446
 230  66.68597
 231  135.0338
 232  90.93462
 233  76.22982
 234  132.3344
 235  145.5881
 236  176.0382
 237  148.108
 238  14.35848
 239  128.8016
 240  173.49
 241  137.6533
 242  118.4508
 243  -62.02005
 244  -29.26317
 245  156.6903
 246  83.15031
 247  116.3285
 248  232.6771
 249  121.924
 250  -40.49427
 251  113.4849
 252  185.2785
 253  159.3721
 254  212.9259
 255  172.9544
 256  63.47523
 257  88.9908
 258  123.2583
 259  135.2563
 260  106.5555
 261  187.0557
 262  235.8635
 263  205.8019
 264  151.469
 265  74.33707
 266  95.1404
 267  131.6176
 268  155.584
 269  208.8237
 270  273.5708
 271  172.0595
 272  187.4751
 273  33.76638
 274  54.48896
 275  94.54029
 276  125.1049
 277  42.06549
 278  43.36514
 279  121.0583
 280  156.9122
 281  100.778
 282  16.09059
 283  122.4298
 284  152.3144
 285  158.6123
 286  99.44284
 287  148.8005
 288  114.3533
 289  6.02604
 290  7.081697
 291  157.6641
 292  198.0862
 293  322.0461
 294  289.0601
 295  287.5197
 296  196.0184
 297  258.9197
 298  219.3176
 299  106.458
 300  70.42236
 301  151.7651
 302  130.7795
 303  -3.078284
 304  81.42577
 305  196.0021
 306  219.4787
 307  168.0945
 308  108.0329
 309  166.1323
 310  188.2422
 311  143.4067
 312  143.4177
 313  129.5957
 314  180.3307
 315  151.2066
 316  271.5599
 317  301.7133
 318  162.6207
 319  114.0759
 320  254.9116
 321  115.7516
 322  211.902
 323  294.7521
 324  165.6183
 325  139.7776
 326  188.2235
 327  220.6343
 328  189.4017
 329  184.2212
 330  198.7542
 331  262.9415
 332  176.4877
 333  174.1768
 334  173.7821
 335  144.5338
 336  116.5556
 337  160.7651
 338  198.7285
 339  144.8275
 340  -28.70385
 341  60.98344
 342  197.0915
 343  318.1016
 344  127.9021
 345  117.3808
 346  39.71874
 347  113.8593
 348  151.2995
 349  149.0813
 350  119.2476
 351  178.383
 352  255.6331
 353  423.7569
 354  291.9164
 355  144.5345
 356  217.6479
 357  278.3081
 358  171.8825
 359  196.8052
 360  327.7495
 361  318.7162
 362  231.198
 363  148.7893
 364  274.0527
 365  325.3183
 366  175.1793
 367  184.6743
 368  131.1076
 369  147.1457
 370  184.9719
 371  145.0842
 372  172.852
 373  312.2961
 374  213.9943
 375  145.9149
 376  138.5164
 377  125.1436
 378  -56.29751
 379  195.1944
 380  325.8712
 381  198.0097
 382  141.7754
 383  60.2514
 384  200.4968
 385  250.0652
 386  145.1305
 387  120.1191
 388  105.0666
 389  200.475
 390  109.9604
 391  75.2302
 392  104.4076
 393  -3.331837
 394  110.9153
 395  146.4008
 396  83.44447
 397  202.7688
 398  243.5979
 399  232.1039
 400  183.3076
 401  224.3052
 402  179.6968
 403  253.4581
 404  255.886
 405  133.6536
 406  85.3694
 407  159.0766
 408  225.5443
 409  214.1034
 410  246.5564
 411  154.3502
 412  71.6042
 413  45.99251
 414  91.28079
 415  162.7206
 416  171.5191
 417  123.3765
 418  115.9341
 419  134.7404
 420  226.8526
 421  131.0387
 422  230.5349
 423  171.8048
 424  5.054586
 425  -26.01857
 426  -7.264067
 427  6.517468
 428  121.384
 429  143.865
 430  133.1606
 431  122.8517
 432  16.66315
 433  75.05628
 434  85.64287
 435  113.3199
 436  192.6806
 437  214.1219
 438  45.16904
 439  14.22455
 440  97.85885
 441  98.67274
 442  91.30164
 443  92.15343
 444  106.0531
 445  49.34958
 446  75.20692
 447  260.0042
 448  194.8692
 449  116.9271
 450  22.96074
 451  97.25663
 452  39.51167
 453  50.86053
 454  165.7473
 455  104.7349
 456  158.0273
 457  89.33118
 458  113.0675
 459  169.5193
 460  127.0771
 461  98.13142
 462  96.66589
 463  208.7954
 464  151.7722
 465  71.0414
 466  112.2182
 467  204.1988
 468  67.30132
 469  70.01948
 470  51.10557
 471  65.56933
 472  132.1033
 473  289.1624
 474  209.469
 475  111.0875
 476  106.5175
 477  22.9966
 478  83.64045
 479  190.6083
 480  141.3171
 481  127.6322
 482  159.3507
 483  134.7661
 484  219.7021
 485  229.8678
 486  197.1389
 487  190.8954
 488  52.34966
 489  125.8685
 490  185.743
 491  262.7577
 492  323.4405
 493  276.5146
 494  251.2242
 495  285.9392
 496  191.5947
 497  47.59953
 498  174.958
 499  266.5221
 500  332.5077
 501  305.1834
 502  174.4385
 503  198.9169
 504  115.1084
 505  223.3795
 506  265.7678
 507  304.3491
 508  420.8634
 509  683.8702
 510  930.1452
 511  891.8825
