# Input file       =  1192156340.126739_cleaned.dat
# Candidate        =  PSR_0332+5434
# Telescope        =  AR
# Epoch_topo       =  58042.105580170588
# Epoch_bary       =  N/A
# T_sample         =  0.002
# Data Folded      =  7340032
# Data Avg         =  0.0130718679169075
# Data StdDev      =  0.999886405736766
# Profile Bins     =  512
# Profile Avg      =  187.415449108031 
# Profile StdDev   =  119.719435390714 
# Reduced chi-sqr  =  1.573
# Prob(Noise)      <  2.09e-15   (~7.8 sigma)
# P_topo (ms)      =  714.482697640585  +/- 0.000164
# P'_topo (s/s)    =  -0                +/- 8.63e-11
# P''_topo (s/s^2) =  0                 +/- 3.81e-14
# P_bary (ms)      =  N/A
# P'_bary (s/s)    =  N/A
# P''_bary (s/s^2) =  N/A
# P_orb (s)        =  N/A
# asin(i)/c (s)    =  N/A
# eccentricity     =  N/A
# w (rad)          =  N/A
# T_peri           =  N/A
######################################################
   0  900.7692
   1  762.7161
   2  429.9126
   3  398.1612
   4  367.4705
   5  290.4786
   6  227.9013
   7  245.1905
   8  112.9635
   9  119.3039
  10  262.1739
  11  161.7947
  12  202.1053
  13  307.6927
  14  308.7623
  15  323.4759
  16  425.1669
  17  265.7883
  18  87.33236
  19  57.96548
  20  273.5337
  21  167.1724
  22  148.6472
  23  135.4923
  24  215.5137
  25  199.8763
  26  291.0915
  27  235.2783
  28  255.0851
  29  232.544
  30  299.7045
  31  280.5464
  32  386.5956
  33  354.0623
  34  235.1833
  35  231.7769
  36  349.7661
  37  245.0578
  38  143.2062
  39  56.66146
  40  186.0473
  41  265.9788
  42  268.9259
  43  212.7706
  44  106.6658
  45  54.16706
  46  129.8899
  47  228.0135
  48  380.272
  49  79.93872
  50  77.70359
  51  149.8047
  52  95.54687
  53  39.28165
  54  28.98313
  55  113.8249
  56  187.7648
  57  162.8167
  58  197.7706
  59  150.7578
  60  338.2676
  61  361.0309
  62  311.3553
  63  294.6171
  64  229.8947
  65  276.6435
  66  227.4379
  67  146.4631
  68  129.7865
  69  228.4513
  70  349.6749
  71  108.7648
  72  127.3059
  73  244.364
  74  192.4007
  75  198.3453
  76  182.8954
  77  223.2936
  78  230.1707
  79  331.5086
  80  217.983
  81  151.1773
  82  108.2615
  83  100.9822
  84  205.0726
  85  194.9756
  86  208.274
  87  227.1619
  88  249.0994
  89  244.4347
  90  136.622
  91  226.8567
  92  259.1155
  93  149.931
  94  268.4859
  95  99.82578
  96  80.18755
  97  203.9286
  98  249.3022
  99  197.9265
 100  143.1876
 101  251.1419
 102  211.4823
 103  83.41158
 104  164.3507
 105  191.2603
 106  149.2223
 107  51.08643
 108  -6.091873
 109  108.6263
 110  233.2561
 111  217.4452
 112  332.5699
 113  257.1056
 114  299.0554
 115  196.3174
 116  200.0029
 117  199.592
 118  245.5549
 119  261.1057
 120  238.2309
 121  189.594
 122  280.4997
 123  468.2548
 124  318.3888
 125  208.8536
 126  251.1297
 127  112.5638
 128  145.6074
 129  -9.288551
 130  117.1801
 131  109.2812
 132  76.71197
 133  69.7229
 134  59.23954
 135  69.06206
 136  138.5385
 137  169.3141
 138  140.4175
 139  267.1178
 140  316.2824
 141  222.9777
 142  207.2688
 143  229.716
 144  117.6525
 145  203.3055
 146  277.8568
 147  213.036
 148  156.9515
 149  203.3695
 150  245.1467
 151  138.5516
 152  183.6728
 153  274.7927
 154  185.2202
 155  5.292945
 156  80.36697
 157  129.8945
 158  203.4825
 159  311.3395
 160  180.9577
 161  104.4297
 162  72.59622
 163  95.39406
 164  15.70282
 165  9.677357
 166  58.76785
 167  62.07252
 168  90.8822
 169  155.7449
 170  207.2845
 171  163.1109
 172  165.9229
 173  187.9367
 174  196.5038
 175  141.2897
 176  100.656
 177  121.3062
 178  37.11434
 179  112.4086
 180  105.632
 181  48.63332
 182  31.66069
 183  -16.18192
 184  65.63992
 185  52.5998
 186  68.0901
 187  88.47507
 188  47.56608
 189  147.318
 190  110.8503
 191  124.1441
 192  222.3029
 193  136.4688
 194  272.3058
 195  367.3133
 196  219.7895
 197  90.79668
 198  126.9916
 199  145.7211
 200  61.06407
 201  159.2303
 202  154.3137
 203  156.349
 204  201.4126
 205  121.2396
 206  110.5014
 207  98.75069
 208  148.9554
 209  51.1353
 210  7.703784
 211  238.6834
 212  254.003
 213  175.4937
 214  219.5445
 215  100.6775
 216  86.77372
 217  153.9351
 218  207.3392
 219  313.5661
 220  221.619
 221  289.7253
 222  171.9659
 223  54.1643
 224  80.24573
 225  181.3953
 226  324.4298
 227  277.2942
 228  185.917
 229  227.7027
 230  129.4923
 231  209.0412
 232  234.7599
 233  170.3217
 234  69.5797
 235  113.4977
 236  262.1417
 237  254.3416
 238  141.9437
 239  225.3255
 240  266.2707
 241  366.7289
 242  403.4974
 243  298.5074
 244  158.5284
 245  229.0732
 246  199.961
 247  252.5632
 248  178.1496
 249  160.7534
 250  348.6919
 251  281.8169
 252  227.8644
 253  100.9558
 254  204.7458
 255  229.8075
 256  313.6963
 257  298.8195
 258  175.9606
 259  92.32886
 260  99.42139
 261  180.7359
 262  139.3532
 263  297.1257
 264  351.0852
 265  223.3907
 266  233.3613
 267  204.7721
 268  202.2163
 269  95.16908
 270  157.3383
 271  185.8551
 272  241.1422
 273  132.9486
 274  49.90293
 275  96.30624
 276  122.4174
 277  170.4328
 278  1.165779
 279  -17.37909
 280  24.69625
 281  172.3198
 282  210.0242
 283  275.7108
 284  220.307
 285  182.3763
 286  248.1408
 287  146.7096
 288  257.5843
 289  175.8896
 290  117.2579
 291  209.9359
 292  218.1027
 293  143.141
 294  199.5975
 295  168.7776
 296  168.5113
 297  135.9252
 298  139.0745
 299  261.7122
 300  288.0496
 301  136.1282
 302  219.8833
 303  269.6932
 304  159.4635
 305  111.0408
 306  49.33988
 307  132.3675
 308  247.4071
 309  141.5014
 310  191.0924
 311  230.2454
 312  301.1191
 313  30.01188
 314  -0.3477428
 315  181.8289
 316  277.8231
 317  386.0616
 318  242.6422
 319  96.61049
 320  100.8508
 321  360.0663
 322  381.2947
 323  197.1675
 324  225.5074
 325  178.2815
 326  66.52385
 327  55.19027
 328  120.3566
 329  60.36493
 330  110.1858
 331  169.1458
 332  233.703
 333  142.4303
 334  69.19802
 335  18.4078
 336  151.9498
 337  230.9527
 338  250.0108
 339  145.9956
 340  69.90356
 341  270.0274
 342  260.0652
 343  106.7857
 344  198.3041
 345  249.2072
 346  240.0742
 347  249.0071
 348  208.5308
 349  152.7016
 350  210.7818
 351  185.9447
 352  266.3806
 353  273.7386
 354  307.1017
 355  218.6399
 356  146.115
 357  224.8714
 358  181.5939
 359  105.9706
 360  202.0069
 361  389.209
 362  336.2585
 363  176.4167
 364  233.9013
 365  164.9067
 366  161.1402
 367  142.7592
 368  110.4674
 369  133.8694
 370  193.7226
 371  330.7213
 372  259.1411
 373  201.7988
 374  167.27
 375  122.9354
 376  147.8594
 377  241.0681
 378  269.2484
 379  196.863
 380  248.0887
 381  243.9992
 382  197.1797
 383  131.2886
 384  201.8383
 385  285.9486
 386  105.8602
 387  64.9287
 388  73.79847
 389  83.44053
 390  30.64094
 391  90.9846
 392  141.8645
 393  145.8481
 394  185.5572
 395  286.8575
 396  226.1799
 397  224.6281
 398  -36.73126
 399  -75.30501
 400  227.4393
 401  183.1589
 402  107.3298
 403  139.1453
 404  156.6845
 405  107.8628
 406  55.33802
 407  55.80076
 408  38.01455
 409  11.1187
 410  132.8872
 411  203.124
 412  165.9967
 413  128.4292
 414  66.36507
 415  -5.739031
 416  80.87046
 417  202.1656
 418  210.5681
 419  208.2833
 420  312.1467
 421  177.564
 422  143.9433
 423  249.1288
 424  280.159
 425  148.8542
 426  215.8094
 427  199.2666
 428  244.0169
 429  185.4471
 430  47.82734
 431  130.4009
 432  85.64517
 433  183.0385
 434  170.8832
 435  123.3899
 436  178.499
 437  46.96745
 438  266.3126
 439  154.1942
 440  19.83047
 441  19.22007
 442  158.1709
 443  258.6556
 444  104.2247
 445  196.4005
 446  257.7025
 447  258.5728
 448  175.1531
 449  234.1572
 450  147.6042
 451  -21.66959
 452  41.23295
 453  70.71558
 454  63.11624
 455  80.22558
 456  237.9056
 457  331.0473
 458  273.8001
 459  157.355
 460  47.27988
 461  -30.03997
 462  79.26026
 463  273.3568
 464  295.2251
 465  163.3837
 466  71.72147
 467  71.06832
 468  170.4873
 469  321.2332
 470  283.1927
 471  198.0407
 472  236.7143
 473  396.1165
 474  319.5634
 475  285.0012
 476  128.3409
 477  82.35067
 478  197.6055
 479  209.6175
 480  206.9239
 481  196.3946
 482  96.27814
 483  -12.66739
 484  44.23135
 485  160.2886
 486  50.41505
 487  137.7673
 488  292.9593
 489  189.3779
 490  106.5275
 491  170.1146
 492  256.1196
 493  237.0257
 494  246.2959
 495  202.107
 496  180.3713
 497  319.2483
 498  139.752
 499  70.12537
 500  79.52362
 501  206.1884
 502  248.8566
 503  280.8543
 504  171.1456
 505  318.7372
 506  342.5783
 507  389.4716
 508  452.4191
 509  618.0089
 510  749.475
 511  852.6406
