# Input file       =  1192572168.134948_cleaned.dat
# Candidate        =  PSR_0332+5434
# Telescope        =  AR
# Epoch_topo       =  58046.918404339674
# Epoch_bary       =  N/A
# T_sample         =  0.002
# Data Folded      =  7340032
# Data Avg         =  0.0144739777297526
# Data StdDev      =  1.00008942907569 
# Profile Bins     =  512
# Profile Avg      =  207.487871228568 
# Profile StdDev   =  119.743743991539 
# Reduced chi-sqr  =  1.870
# Prob(Noise)      <  2.32e-29   (~11.2 sigma)
# P_topo (ms)      =  714.486117149233  +/- 0.000267
# P'_topo (s/s)    =  -0                +/- 1.41e-10
# P''_topo (s/s^2) =  0                 +/- 6.22e-14
# P_bary (ms)      =  N/A
# P'_bary (s/s)    =  N/A
# P''_bary (s/s^2) =  N/A
# P_orb (s)        =  N/A
# asin(i)/c (s)    =  N/A
# eccentricity     =  N/A
# w (rad)          =  N/A
# T_peri           =  N/A
######################################################
   0  1117.612
   1  1117.556
   2  941.7781
   3  689.3414
   4  331.0963
   5  214.0094
   6  240.0271
   7  182.0399
   8  93.28229
   9  282.5575
  10  279.3122
  11  208.0815
  12  193.5173
  13  244.308
  14  214.8292
  15  247.4768
  16  447.8788
  17  320.8273
  18  157.8121
  19  186.5988
  20  270.0539
  21  264.3
  22  261.9464
  23  381.6111
  24  306.7228
  25  246.1095
  26  271.3593
  27  301.7598
  28  317.4456
  29  365.744
  30  182.759
  31  289.3688
  32  227.799
  33  275.1093
  34  181.1046
  35  284.9576
  36  343.7263
  37  252.2536
  38  251.0734
  39  251.8002
  40  198.3125
  41  213.5765
  42  266.9965
  43  272.2082
  44  134.6824
  45  130.7551
  46  59.86332
  47  -52.85909
  48  59.79841
  49  130.3519
  50  253.6137
  51  153.3092
  52  151.2242
  53  230.2359
  54  147.6673
  55  222.0086
  56  234.9407
  57  121.0358
  58  195.2035
  59  308.8778
  60  192.1444
  61  16.48726
  62  119.8085
  63  153.816
  64  -41.16663
  65  220.1382
  66  224.6605
  67  266.5477
  68  332.4889
  69  316.8897
  70  200.9694
  71  170.3648
  72  225.8258
  73  247.3329
  74  204.6527
  75  201.111
  76  201.3008
  77  194.3798
  78  195.0202
  79  136.2554
  80  209.4495
  81  223.7282
  82  190.1894
  83  248.0997
  84  302.18
  85  157.5941
  86  124.8377
  87  110.9447
  88  38.90015
  89  146.2654
  90  179.674
  91  151.3038
  92  58.34995
  93  38.35993
  94  229.2342
  95  206.2019
  96  253.0497
  97  248.8215
  98  215.791
  99  240.5452
 100  227.94
 101  87.10932
 102  99.49323
 103  148.4584
 104  226.8858
 105  335.6095
 106  300.2307
 107  220.3141
 108  124.5259
 109  95.19012
 110  134.8182
 111  202.0829
 112  191.4767
 113  177.465
 114  98.75154
 115  179.7518
 116  281.1922
 117  308.8581
 118  313.2349
 119  255.1701
 120  151.6197
 121  187.9708
 122  142.2129
 123  295.7401
 124  334.1091
 125  250.503
 126  248.1073
 127  249.5299
 128  241.5534
 129  77.92888
 130  80.28848
 131  155.3546
 132  200.2744
 133  212.1858
 134  292.8898
 135  302.9157
 136  208.9528
 137  79.75571
 138  206.5162
 139  250.7591
 140  176.5816
 141  248.5089
 142  80.54766
 143  209.7117
 144  174.4855
 145  120.614
 146  297.3177
 147  174.7983
 148  183.4722
 149  331.8062
 150  446.1972
 151  435.3566
 152  368.6974
 153  211.7312
 154  267.1471
 155  268.0563
 156  195.2021
 157  159.5484
 158  225.5273
 159  211.5069
 160  250.5445
 161  378.5741
 162  275.8875
 163  114.8688
 164  161.4986
 165  200.1966
 166  231.9129
 167  236.2152
 168  238.5799
 169  219.1399
 170  208.7994
 171  51.12721
 172  140.2274
 173  186.9086
 174  228.7337
 175  203.1651
 176  197.6191
 177  194.165
 178  78.78391
 179  227.2081
 180  205.767
 181  98.56561
 182  163.6272
 183  246.766
 184  290.7842
 185  332.3283
 186  217.8798
 187  200.7898
 188  217.4589
 189  155.0308
 190  217.2754
 191  35.71502
 192  147.4828
 193  330.8355
 194  280.7564
 195  271.0099
 196  228.4203
 197  330.0504
 198  125.4585
 199  220.5321
 200  257.9296
 201  304.325
 202  411.3781
 203  308.6474
 204  453.0262
 205  387.3221
 206  178.1823
 207  192.7568
 208  173.609
 209  260.3084
 210  183.4213
 211  122.6582
 212  198.5228
 213  141.1667
 214  112.3673
 215  162.9993
 216  236.3394
 217  106.0151
 218  195.1404
 219  281.7361
 220  285.1757
 221  233.0858
 222  163.2362
 223  292.9299
 224  294.9766
 225  350.2484
 226  340.1986
 227  166.9877
 228  171.5743
 229  276.5494
 230  177.8325
 231  176.2449
 232  256.1472
 233  206.0682
 234  265.7433
 235  70.13663
 236  142.4054
 237  176.3605
 238  232.4292
 239  111.7781
 240  158.6728
 241  261.1057
 242  245.6207
 243  64.67788
 244  85.72612
 245  60.94652
 246  64.07601
 247  116.6781
 248  134.5106
 249  116.654
 250  143.4208
 251  223.0693
 252  184.4366
 253  176.7906
 254  156.8696
 255  184.3963
 256  145.9547
 257  248.6485
 258  193.9675
 259  225.8214
 260  293.224
 261  231.0165
 262  220.0401
 263  99.15527
 264  71.27115
 265  120.4628
 266  254.2687
 267  307.9328
 268  233.8191
 269  187.7005
 270  265.5943
 271  178.8564
 272  131.3491
 273  217.1013
 274  167.7824
 275  92.56799
 276  113.5313
 277  144.2789
 278  321.6098
 279  343.7061
 280  137.6241
 281  213.5458
 282  221.7872
 283  163.8183
 284  149.7699
 285  200.7772
 286  254.0947
 287  257.349
 288  194.3846
 289  269.448
 290  212.6242
 291  250.036
 292  341.7819
 293  276.3277
 294  222.2982
 295  162.96
 296  199.9771
 297  112.0565
 298  84.88012
 299  48.74058
 300  101.6606
 301  68.14239
 302  99.02584
 303  41.28812
 304  202.7798
 305  126.3022
 306  134.0339
 307  298.8853
 308  296.7391
 309  77.41806
 310  82.85274
 311  244.9567
 312  314.7091
 313  292.39
 314  325.998
 315  142.5526
 316  271.2664
 317  385.4189
 318  247.4225
 319  170.8563
 320  115.625
 321  232.0297
 322  202.364
 323  211.5877
 324  354.7759
 325  281.4505
 326  306.2106
 327  324.6867
 328  251.5279
 329  190.3726
 330  125.7203
 331  -4.442893
 332  -39.4856
 333  114.543
 334  171.9554
 335  74.80241
 336  144.4926
 337  52.79073
 338  23.5179
 339  132.7902
 340  80.52317
 341  133.526
 342  65.88471
 343  289.4979
 344  269.3293
 345  200.512
 346  227.6743
 347  283.5047
 348  348.0605
 349  246.5761
 350  160.7175
 351  188.678
 352  141.2263
 353  168.4911
 354  109.3805
 355  63.18274
 356  192.7481
 357  246.0705
 358  153.7797
 359  216.6566
 360  112.7905
 361  48.20305
 362  97.66652
 363  132.3365
 364  138.6493
 365  102.3777
 366  82.11941
 367  149.4723
 368  204.1089
 369  220.4592
 370  181.5974
 371  133.2325
 372  220.8614
 373  260.0283
 374  289.7536
 375  185.2116
 376  62.49142
 377  176.9047
 378  190.6367
 379  175.8646
 380  254.9184
 381  184.584
 382  64.03735
 383  94.35052
 384  125.7302
 385  247.4222
 386  186.7611
 387  155.7464
 388  195.8739
 389  159.2124
 390  198.4808
 391  92.24826
 392  110.3962
 393  274.6154
 394  247.7919
 395  143.0491
 396  18.1124
 397  23.76171
 398  136.6526
 399  227.0244
 400  260.8357
 401  186.538
 402  84.41987
 403  255.5628
 404  209.2664
 405  209.613
 406  291.5771
 407  144.5613
 408  81.61966
 409  113.8512
 410  110.8871
 411  101.9259
 412  98.41538
 413  244.605
 414  264.0355
 415  219.3156
 416  127.9176
 417  98.97205
 418  213.1613
 419  362.3445
 420  329.9986
 421  73.61279
 422  118.361
 423  270.3955
 424  234.0443
 425  153.3742
 426  162.212
 427  207.7199
 428  134.9318
 429  189.1642
 430  199.6807
 431  285.5309
 432  78.02739
 433  159.4308
 434  269.0055
 435  407.1144
 436  273.6232
 437  222.8025
 438  212.0154
 439  282.5969
 440  217.4581
 441  151.0954
 442  97.02577
 443  99.99226
 444  21.28176
 445  134.8048
 446  219.7568
 447  150.7189
 448  62.16871
 449  85.80682
 450  150.6404
 451  182.6586
 452  79.3101
 453  68.35463
 454  202.2278
 455  15.27591
 456  55.83034
 457  244.2583
 458  262.4384
 459  128.6465
 460  72.03976
 461  196.619
 462  91.86448
 463  99.38908
 464  199.9955
 465  274.3652
 466  265.0102
 467  238.3051
 468  134.8401
 469  -10.7117
 470  99.73203
 471  102.0071
 472  158.0096
 473  216.9556
 474  153.1579
 475  155.4953
 476  87.78163
 477  86.39436
 478  70.94794
 479  175.8795
 480  323.9908
 481  294.2842
 482  182.4664
 483  148.7964
 484  218.9469
 485  231.1819
 486  222.2924
 487  240.8957
 488  344.7816
 489  192.6031
 490  143.5856
 491  188.8015
 492  256.3072
 493  285.8665
 494  329.6328
 495  250.7496
 496  162.6993
 497  206.7191
 498  348.1923
 499  283.9878
 500  204.3502
 501  251.4211
 502  197.9634
 503  233.5699
 504  298.8832
 505  328.2811
 506  415.5861
 507  443.1059
 508  502.6165
 509  525.1351
 510  722.2564
 511  983.2976
