# Input file       =  1193160708.139042_cleaned.dat
# Candidate        =  PSR_0332+5434
# Telescope        =  AR
# Epoch_topo       =  58053.730209942616
# Epoch_bary       =  N/A
# T_sample         =  0.002
# Data Folded      =  7143424
# Data Avg         =  0.00994365491375951
# Data StdDev      =  1.00004872046423 
# Profile Bins     =  512
# Profile Avg      =  138.638223875247 
# Profile StdDev   =  118.124339274137 
# Reduced chi-sqr  =  1.868
# Prob(Noise)      <  3.17e-29   (~11.2 sigma)
# P_topo (ms)      =  714.491870962703  +/- 0.000107
# P'_topo (s/s)    =  -0                +/- 5.78e-11
# P''_topo (s/s^2) =  0                 +/- 2.62e-14
# P_bary (ms)      =  N/A
# P'_bary (s/s)    =  N/A
# P''_bary (s/s^2) =  N/A
# P_orb (s)        =  N/A
# asin(i)/c (s)    =  N/A
# eccentricity     =  N/A
# w (rad)          =  N/A
# T_peri           =  N/A
######################################################
   0  1084.647
   1  1143.206
   2  902.0493
   3  583.1201
   4  267.9891
   5  79.24371
   6  100.2407
   7  166.3724
   8  256.431
   9  241.2174
  10  219.2586
  11  108.9402
  12  163.1572
  13  269.632
  14  131.2038
  15  117.7809
  16  219.1204
  17  154.5662
  18  37.63984
  19  76.22046
  20  149.5038
  21  9.660667
  22  47.18864
  23  177.2636
  24  188.2823
  25  191.8656
  26  156.0558
  27  127.2115
  28  232.537
  29  203.524
  30  109.6744
  31  14.49313
  32  15.13156
  33  83.03283
  34  88.90482
  35  308.3604
  36  166.1912
  37  112.031
  38  116.3028
  39  147.0689
  40  106.6231
  41  182.1078
  42  184.6237
  43  63.54222
  44  87.22096
  45  -20.81747
  46  -1.1709
  47  47.23861
  48  121.1357
  49  185.0484
  50  110.0328
  51  58.64628
  52  87.40125
  53  239.0527
  54  195.0824
  55  50.68529
  56  24.11131
  57  -13.73871
  58  -14.1958
  59  16.89141
  60  -16.14622
  61  114.7062
  62  138.869
  63  150.6704
  64  102.7769
  65  222.4263
  66  216.1417
  67  155.2912
  68  165.1357
  69  107.0615
  70  17.9734
  71  117.1883
  72  161.3192
  73  138.3523
  74  224.7771
  75  212.9947
  76  53.86858
  77  133.6558
  78  146.8242
  79  104.6825
  80  136.3694
  81  192.0536
  82  210.7636
  83  92.56353
  84  83.23531
  85  97.8587
  86  61.65445
  87  163.0945
  88  131.6016
  89  166.5109
  90  217.6276
  91  106.0477
  92  67.67419
  93  102.3744
  94  140.827
  95  150.9661
  96  129.7246
  97  72.17747
  98  127.4386
  99  96.99777
 100  140.6502
 101  154.1153
 102  191.3497
 103  100.0545
 104  173.0166
 105  129.9655
 106  96.84546
 107  113.504
 108  75.0482
 109  176.4297
 110  207.6732
 111  256.6131
 112  123.1021
 113  71.47726
 114  40.76352
 115  88.69498
 116  150.475
 117  156.9702
 118  164.5265
 119  176.527
 120  132.157
 121  208.1565
 122  41.78863
 123  151.9824
 124  262.7042
 125  196.1156
 126  130.5439
 127  148.5908
 128  153.4957
 129  113.1892
 130  45.20942
 131  15.13638
 132  142.7108
 133  254.2443
 134  180.1098
 135  265.9412
 136  249.1722
 137  168.4027
 138  139.0696
 139  148.2475
 140  184.5751
 141  172.0942
 142  247.3109
 143  73.36472
 144  -22.12477
 145  58.21683
 146  86.35428
 147  151.7562
 148  274.2941
 149  218.1665
 150  169.4214
 151  193.7052
 152  170.4772
 153  149.5459
 154  187.6624
 155  258.6435
 156  356.2324
 157  341.5116
 158  269.7909
 159  225.3087
 160  142.0258
 161  152.3563
 162  155.1639
 163  119.9764
 164  247.1971
 165  271.1413
 166  157.2977
 167  200.8736
 168  85.5985
 169  80.27182
 170  85.21859
 171  136.9378
 172  283.4455
 173  288.6859
 174  202.1798
 175  176.9733
 176  95.52053
 177  151.5379
 178  89.65553
 179  110.1489
 180  95.48081
 181  137.9251
 182  -17.10571
 183  -77.31665
 184  35.2066
 185  4.148362
 186  115.8187
 187  189.1043
 188  137.9251
 189  95.10303
 190  59.62359
 191  39.20446
 192  102.7278
 193  136.9236
 194  184.5964
 195  103.1409
 196  94.69461
 197  159.242
 198  76.15264
 199  137.8537
 200  224.1169
 201  214.6752
 202  46.09065
 203  29.22094
 204  106.7768
 205  23.66921
 206  99.13416
 207  28.44143
 208  190.5842
 209  271.4991
 210  176.0293
 211  91.37536
 212  60.63505
 213  -17.24589
 214  26.52437
 215  98.66809
 216  122.5561
 217  255.6015
 218  164.2458
 219  170.9464
 220  16.06289
 221  -86.07446
 222  -20.8271
 223  139.5098
 224  115.1321
 225  53.29008
 226  83.98696
 227  87.98009
 228  115.9988
 229  37.20119
 230  72.53327
 231  11.52838
 232  54.74059
 233  236.2951
 234  113.8614
 235  -66.86877
 236  1.119117
 237  72.3083
 238  163.2319
 239  265.8015
 240  332.1815
 241  265.41
 242  85.7694
 243  60.85977
 244  120.0308
 245  72.92019
 246  156.8469
 247  370.0757
 248  298.3605
 249  130.1367
 250  28.29511
 251  75.07192
 252  -152.2954
 253  -100.6698
 254  173.9802
 255  186.9813
 256  113.8825
 257  35.31599
 258  196.9508
 259  147.3852
 260  135.2249
 261  160.8573
 262  208.094
 263  125.6075
 264  265.2133
 265  202.9393
 266  238.1392
 267  77.341
 268  111.4371
 269  183.8716
 270  111.5751
 271  191.5604
 272  127.9328
 273  146.2901
 274  152.4915
 275  86.20512
 276  152.8211
 277  95.4624
 278  7.070558
 279  -69.17274
 280  134.6968
 281  159.8758
 282  135.649
 283  92.74783
 284  75.92694
 285  161.3838
 286  162.7793
 287  134.4012
 288  120.4063
 289  135.1948
 290  98.22264
 291  104.107
 292  267.2425
 293  222.8286
 294  193.9101
 295  106.5154
 296  67.52016
 297  40.17413
 298  -3.486982
 299  149.929
 300  277.2191
 301  24.92052
 302  74.18563
 303  8.758417
 304  38.95581
 305  70.1124
 306  170.0164
 307  230.5827
 308  102.5299
 309  48.32811
 310  -27.6931
 311  70.97096
 312  66.47904
 313  70.43235
 314  66.81273
 315  150.7881
 316  132.6804
 317  95.74335
 318  15.29783
 319  -78.45177
 320  -57.48162
 321  86.75298
 322  248.2628
 323  199.389
 324  164.4363
 325  134.8192
 326  18.14259
 327  30.49527
 328  116.5976
 329  109.2984
 330  158.2041
 331  111.3303
 332  107.0266
 333  44.18666
 334  -23.68865
 335  -37.64784
 336  -59.33333
 337  99.58389
 338  268.3813
 339  187.5804
 340  146.8097
 341  46.85107
 342  39.91766
 343  113.9278
 344  153.7726
 345  255.5526
 346  277.5646
 347  194.2151
 348  56.78304
 349  -21.95692
 350  1.786017
 351  36.87697
 352  60.08768
 353  13.53844
 354  183.5397
 355  144.5191
 356  72.93684
 357  167.4899
 358  151.3147
 359  50.16646
 360  68.42286
 361  25.89847
 362  183.3435
 363  256.4779
 364  259.4979
 365  209.9112
 366  136.1335
 367  124.9186
 368  -17.59747
 369  95.61988
 370  -55.41299
 371  -57.83413
 372  215.6086
 373  203.4739
 374  105.0989
 375  120.3446
 376  156.618
 377  66.43259
 378  -0.4219572
 379  86.93877
 380  146.3687
 381  92.88107
 382  97.15298
 383  91.52866
 384  203.7675
 385  182.9616
 386  80.00588
 387  38.32084
 388  165.9584
 389  142.7365
 390  -28.64593
 391  -36.51563
 392  202.6147
 393  253.9452
 394  93.3492
 395  140.6607
 396  98.9307
 397  157.6802
 398  114.3585
 399  66.20327
 400  102.7089
 401  101.1138
 402  117.94
 403  49.83076
 404  16.53325
 405  156.1786
 406  220.0946
 407  49.32523
 408  12.31921
 409  128.2522
 410  42.09504
 411  165.2848
 412  314.4295
 413  281.1078
 414  155.6301
 415  89.72071
 416  162.3957
 417  150.9941
 418  83.78317
 419  155.3692
 420  248.4302
 421  196.7961
 422  150.6441
 423  91.73773
 424  219.9738
 425  182.6597
 426  72.6649
 427  146.8095
 428  226.927
 429  260.7435
 430  142.068
 431  200.7869
 432  203.2812
 433  256.3708
 434  216.1598
 435  124.7761
 436  228.1939
 437  188.9641
 438  172.7353
 439  179.607
 440  210.8984
 441  202.8973
 442  169.1683
 443  201.64
 444  69.25428
 445  17.77444
 446  129.4596
 447  162.1671
 448  170.7118
 449  171.5107
 450  -23.14051
 451  78.48923
 452  95.02743
 453  164.7258
 454  22.46652
 455  150.4591
 456  196.3281
 457  91.03681
 458  108.8421
 459  44.22314
 460  120.6674
 461  146.0366
 462  80.92038
 463  69.74313
 464  159.5021
 465  165.6916
 466  42.66954
 467  85.43165
 468  130.9079
 469  321.3225
 470  63.77848
 471  70.10941
 472  114.5489
 473  90.63492
 474  114.4999
 475  46.84891
 476  138.224
 477  89.71873
 478  55.22324
 479  95.11446
 480  107.9208
 481  162.9093
 482  169.5668
 483  338.0906
 484  216.8745
 485  100.7381
 486  27.52175
 487  62.65316
 488  198.0656
 489  187.7465
 490  150.7371
 491  148.061
 492  149.8453
 493  39.99818
 494  214.8659
 495  303.7266
 496  239.659
 497  326.9315
 498  200.7664
 499  111.2074
 500  96.11343
 501  110.3697
 502  223.6783
 503  148.4845
 504  257.9405
 505  393.1439
 506  383.253
 507  349.166
 508  330.6771
 509  446.3166
 510  611.702
 511  770.1027
