# Input file       =  1193160708.139042_cleaned.dat
# Candidate        =  PSR_0332+5434
# Telescope        =  AR
# Epoch_topo       =  58053.730209942616
# Epoch_bary       =  N/A
# T_sample         =  0.002
# Data Folded      =  7143424
# Data Avg         =  0.00994365491375951
# Data StdDev      =  1.00004872046423 
# Profile Bins     =  512
# Profile Avg      =  138.638223843721 
# Profile StdDev   =  118.124339274137 
# Reduced chi-sqr  =  1.858
# Prob(Noise)      <  1.03e-28   (~11.1 sigma)
# P_topo (ms)      =  714.491871041639  +/- 0.000109
# P'_topo (s/s)    =  -0                +/- 5.91e-11
# P''_topo (s/s^2) =  0                 +/- 2.68e-14
# P_bary (ms)      =  N/A
# P'_bary (s/s)    =  N/A
# P''_bary (s/s^2) =  N/A
# P_orb (s)        =  N/A
# asin(i)/c (s)    =  N/A
# eccentricity     =  N/A
# w (rad)          =  N/A
# T_peri           =  N/A
######################################################
   0  1152.179
   1  1030.961
   2  735.4955
   3  397.271
   4  143.08
   5  64.55942
   6  134.46
   7  230.8741
   8  260.3954
   9  218.9121
  10  171.4657
  11  92.9426
  12  264.5286
  13  185.6974
  14  105.1628
  15  175.0726
  16  206.767
  17  80.79847
  18  35.54237
  19  141.2216
  20  81.19889
  21  -7.270391
  22  144.4787
  23  187.0446
  24  193.4326
  25  160.2852
  26  145.9335
  27  172.4846
  28  261.108
  29  138.1697
  30  53.28042
  31  -8.046704
  32  62.98727
  33  59.57494
  34  223.5693
  35  255.9915
  36  113.9141
  37  99.37246
  38  167.5514
  39  98.5211
  40  162.3285
  41  185.6529
  42  116.082
  43  71.4006
  44  37.65952
  45  -14.17428
  46  17.50986
  47  94.42593
  48  150.481
  49  163.3552
  50  69.71552
  51  62.5479
  52  167.8257
  53  243.0124
  54  114.5107
  55  27.62051
  56  2.437612
  57  -31.69829
  58  14.09714
  59  -21.70737
  60  63.78262
  61  135.4815
  62  161.3065
  63  124.2972
  64  148.2895
  65  255.0217
  66  161.837
  67  153.8759
  68  154.4954
  69  41.25583
  70  54.61547
  71  166.4115
  72  112.0031
  73  211.0846
  74  231.5261
  75  151.141
  76  40.43919
  77  196.8387
  78  69.97059
  79  153.2849
  80  130.4153
  81  249.29
  82  126.2363
  83  78.23949
  84  109.9365
  85  46.12865
  86  134.3366
  87  133.3176
  88  170.7059
  89  187.399
  90  180.4902
  91  46.32054
  92  96.97633
  93  120.1223
  94  147.8138
  95  143.8073
  96  98.05437
  97  102.2537
  98  114.6703
  99  108.3986
 100  159.1287
 101  185.1388
 102  140.6863
 103  126.8442
 104  173.8496
 105  80.14587
 106  134.798
 107  71.63087
 108  142.268
 109  172.9419
 110  244.081
 111  191.5062
 112  75.64073
 113  71.43315
 114  48.60698
 115  139.7701
 116  140.4024
 117  156.1037
 118  191.7018
 119  139.2538
 120  198.6132
 121  116.5728
 122  58.741
 123  232.2092
 124  248.251
 125  142.0772
 126  149.6933
 127  144.6969
 128  139.604
 129  75.53596
 130  2.41343
 131  86.76568
 132  221.3075
 133  230.842
 134  190.0221
 135  302.3996
 136  167.7819
 137  174.3407
 138  123.555
 139  192.4891
 140  157.1635
 141  213.0164
 142  188.8697
 143  -20.30344
 144  20.50645
 145  76.76368
 146  98.27564
 147  246.1511
 148  256.6151
 149  191.1741
 150  172.7411
 151  204.1913
 152  139.5937
 153  170.3325
 154  224.3142
 155  309.0314
 156  375.9849
 157  274.2227
 158  259.8089
 159  172.165
 160  133.676
 161  177.7526
 162  109.7049
 163  193.3671
 164  287.46
 165  192.4441
 166  182.0551
 167  155.108
 168  74.7464
 169  87.01794
 170  100.3741
 171  233.7324
 172  288.978
 173  234.5364
 174  179.8366
 175  128.4104
 176  133.6013
 177  124.9967
 178  81.57909
 179  101.7488
 180  129.7219
 181  56.49991
 182  -68.04156
 183  -18.67356
 184  37.87927
 185  36.91977
 186  171.7961
 187  164.3409
 188  103.2031
 189  105.1643
 190  34.60159
 191  73.25632
 192  101.0324
 193  174.6695
 194  157.2839
 195  73.64494
 196  149.9158
 197  115.0012
 198  93.81911
 199  191.9365
 200  219.1674
 201  144.8132
 202  -6.284508
 203  114.0304
 204  29.4989
 205  90.4035
 206  41.42776
 207  109.1627
 208  252.1325
 209  226.8745
 210  126.5324
 211  71.96185
 212  23.28311
 213  -29.10465
 214  108.1662
 215  78.15467
 216  218.4868
 217  201.7377
 218  171.4073
 219  96.74741
 220  -45.97194
 221  -97.11889
 222  106.2869
 223  135.5443
 224  69.1954
 225  74.16138
 226  68.90349
 227  121.0898
 228  60.89791
 229  65.06383
 230  48.25521
 231  2.143447
 232  171.6156
 233  207.5022
 234  -20.01364
 235  -57.13133
 236  67.00147
 237  105.2942
 238  236.0461
 239  296.559
 240  329.5308
 241  161.7327
 242  38.58478
 243  107.9402
 244  98.39563
 245  97.37724
 246  288.0652
 247  366.5791
 248  188.4878
 249  56.66332
 250  55.77171
 251  -17.05966
 252  -203.9397
 253  81.42683
 254  210.2696
 255  135.2818
 256  68.98935
 257  111.4046
 258  207.7217
 259  111.4128
 260  132.8934
 261  221.8863
 262  143.3004
 263  207.9388
 264  237.242
 265  231.7764
 266  151.7167
 267  66.42028
 268  180.2106
 269  145.5861
 270  145.3924
 271  170.3095
 272  109.127
 273  166.6059
 274  95.09783
 275  122.0253
 276  152.8825
 277  31.42157
 278  -43.05457
 279  17.59326
 280  200.4234
 281  130.8327
 282  120.9009
 283  64.50507
 284  123.0946
 285  159.3098
 286  141.2938
 287  129.1825
 288  130.7237
 289  143.653
 290  45.16665
 291  214.0362
 292  246.9872
 293  229.4739
 294  139.8125
 295  74.02943
 296  75.02315
 297  -6.629874
 298  53.15596
 299  262.7277
 300  133.5506
 301  37.9599
 302  56.58116
 303  12.81805
 304  41.04361
 305  130.0912
 306  209.964
 307  185.109
 308  61.68441
 309  -11.19534
 310  26.39052
 311  56.15639
 312  102.1252
 313  28.62932
 314  154.8344
 315  124.6489
 316  128.794
 317  28.06687
 318  -19.59436
 319  -109.3069
 320  41.35495
 321  165.9272
 322  263.1609
 323  167.746
 324  158.657
 325  80.8722
 326  -13.65557
 327  93.47124
 328  112.3387
 329  111.4841
 330  180.9215
 331  55.27915
 332  139.5593
 333  -50.72199
 334  10.521
 335  -86.40375
 336  14.29954
 337  227.331
 338  214.0892
 339  183.3965
 340  72.06348
 341  41.87782
 342  74.01134
 343  150.7171
 344  194.1713
 345  284.2913
 346  221.9915
 347  137.007
 348  -1.968366
 349  -2.514999
 350  24.71981
 351  48.4394
 352  18.75348
 353  80.91924
 354  225.3854
 355  62.36557
 356  127.367
 357  176.1965
 358  98.29044
 359  57.14462
 360  28.46381
 361  91.16427
 362  257.7762
 363  255.2599
 364  256.5319
 365  134.8045
 366  162.4881
 367  10.49656
 368  56.03149
 369  36.92243
 370  -101.0555
 371  95.72765
 372  247.4362
 373  137.8273
 374  99.81109
 375  152.3753
 376  110.0342
 377  21.38734
 378  35.64197
 379  143.455
 380  95.36863
 381  106.8932
 382  81.92854
 383  157.3237
 384  205.5951
 385  137.6606
 386  25.90586
 387  108.7233
 388  179.9458
 389  42.92002
 390  -63.85637
 391  81.16274
 392  286.8382
 393  151.3002
 394  114.8641
 395  102.0751
 396  133.4151
 397  144.2367
 398  95.53331
 399  78.91134
 400  100.1672
 401  110.8235
 402  94.93229
 403  18.99056
 404  66.69948
 405  232.5767
 406  126.4375
 407  6.89731
 408  80.71118
 409  99.34273
 410  57.95968
 411  263.7541
 412  328.0371
 413  209.7747
 414  121.1073
 415  115.1883
 416  181.3388
 417  108.4806
 418  91.00554
 419  231.6013
 420  215.7649
 421  170.2317
 422  111.4171
 423  131.37
 424  257.6946
 425  80.07487
 426  126.9872
 427  190.8108
 428  279.0179
 429  170.5195
 430  167.7027
 431  191.4371
 432  252.413
 433  238.4597
 434  148.8656
 435  158.1638
 436  249.9284
 437  156.238
 438  186.9248
 439  181.5876
 440  226.8102
 441  181.517
 442  192.5689
 443  152.9391
 444  -2.728079
 445  96.75419
 446  140.9596
 447  149.5555
 448  202.4336
 449  45.06461
 450  23.51513
 451  96.51347
 452  148.0793
 453  94.2145
 454  51.29435
 455  232.022
 456  105.6997
 457  113.5242
 458  47.42393
 459  101.181
 460  141.8888
 461  132.5424
 462  32.26046
 463  115.1777
 464  184.9752
 465  95.13699
 466  62.42393
 467  97.10383
 468  256.2762
 469  212.4489
 470  6.100774
 471  138.3578
 472  71.61042
 473  126.6259
 474  52.98476
 475  101.5317
 476  134.164
 477  46.82748
 478  91.39153
 479  82.3653
 480  155.9975
 481  138.2523
 482  276.3716
 483  309.3843
 484  121.7581
 485  66.39658
 486  19.03848
 487  152.5282
 488  218.568
 489  160.6244
 490  138.8632
 491  165.8387
 492  83.2676
 493  103.6159
 494  311.4609
 495  235.9125
 496  290.9917
 497  275.8198
 498  133.4219
 499  120.6732
 500  73.10107
 501  187.639
 502  183.8905
 503  180.814
 504  360.2673
 505  404.6155
 506  347.9534
 507  345.3412
 508  369.2441
 509  557.1842
 510  668.1704
 511  956.1454
