# Input file       =  1194970650.113932_cleaned.dat
# Candidate        =  PSR_0332+5434
# Telescope        =  AR
# Epoch_topo       =  58074.678612429765
# Epoch_bary       =  N/A
# T_sample         =  0.002
# Data Folded      =  7143424
# Data Avg         =  0.0999673054638694
# Data StdDev      =  1.00050829157495 
# Profile Bins     =  512
# Profile Avg      =  1394.83378682528 
# Profile StdDev   =  118.178623163204 
# Reduced chi-sqr  =  0.675
# Prob(Noise)      <  1   (~0.0 sigma)
# P_topo (ms)      =  714.511899978566  +/- 5.48e-05
# P'_topo (s/s)    =  -0                +/- 2.97e-11
# P''_topo (s/s^2) =  0                 +/- 1.35e-14
# P_bary (ms)      =  N/A
# P'_bary (s/s)    =  N/A
# P''_bary (s/s^2) =  N/A
# P_orb (s)        =  N/A
# asin(i)/c (s)    =  N/A
# eccentricity     =  N/A
# w (rad)          =  N/A
# T_peri           =  N/A
######################################################
   0  1703.93
   1  1649.565
   2  1547.907
   3  1446.573
   4  1442.848
   5  1521.525
   6  1443.805
   7  1433.995
   8  1505.483
   9  1407.866
  10  1357.019
  11  1393.972
  12  1472.124
  13  1475.155
  14  1451.283
  15  1446.221
  16  1394.236
  17  1437.128
  18  1446.91
  19  1414.676
  20  1420.416
  21  1374.482
  22  1351.448
  23  1365.012
  24  1372.421
  25  1296.766
  26  1322.901
  27  1327.641
  28  1299.216
  29  1332.245
  30  1409.23
  31  1422.072
  32  1300.944
  33  1392.741
  34  1401.823
  35  1379.671
  36  1414.984
  37  1436.829
  38  1433.773
  39  1365.248
  40  1329.4
  41  1408.144
  42  1373.775
  43  1321.165
  44  1335.343
  45  1372.328
  46  1402.123
  47  1486.755
  48  1488.287
  49  1361.265
  50  1308.787
  51  1455.938
  52  1535.309
  53  1423.903
  54  1454.844
  55  1392.109
  56  1348.219
  57  1307.214
  58  1395.341
  59  1370.833
  60  1349.134
  61  1365.03
  62  1354.895
  63  1352.8
  64  1289.549
  65  1377.167
  66  1412.3
  67  1383.026
  68  1275.517
  69  1297.865
  70  1396.049
  71  1434.267
  72  1394.012
  73  1502.067
  74  1473.135
  75  1527.883
  76  1510.688
  77  1439.959
  78  1366.029
  79  1394.806
  80  1453.562
  81  1386.476
  82  1343.298
  83  1279.491
  84  1293.615
  85  1394.771
  86  1369.227
  87  1494.461
  88  1492.836
  89  1469.33
  90  1428.129
  91  1357.712
  92  1384.029
  93  1312.762
  94  1396.38
  95  1381.355
  96  1340.174
  97  1316.984
  98  1288.486
  99  1281.756
 100  1350.849
 101  1388.463
 102  1445.512
 103  1314.273
 104  1261.857
 105  1321.23
 106  1345.071
 107  1271.564
 108  1171.211
 109  1331.411
 110  1369.974
 111  1346.427
 112  1290.116
 113  1308.904
 114  1307.59
 115  1279.066
 116  1385.321
 117  1345.407
 118  1404.283
 119  1473.223
 120  1453.976
 121  1499.524
 122  1444.104
 123  1387.367
 124  1362.792
 125  1367.441
 126  1465.092
 127  1512.733
 128  1446.466
 129  1436.743
 130  1409.75
 131  1419.869
 132  1395.286
 133  1313.823
 134  1377.565
 135  1434.347
 136  1405.375
 137  1476.655
 138  1487.921
 139  1398.111
 140  1388.45
 141  1356.296
 142  1364.535
 143  1450.013
 144  1465.387
 145  1386.216
 146  1221.327
 147  1333.175
 148  1417.753
 149  1444.412
 150  1257.654
 151  1195.151
 152  1253.379
 153  1409.963
 154  1370.855
 155  1434.556
 156  1471.406
 157  1406.253
 158  1420.733
 159  1463.551
 160  1342.85
 161  1352.027
 162  1417.27
 163  1398.179
 164  1356.219
 165  1266.661
 166  1308.301
 167  1401.84
 168  1397.379
 169  1384.496
 170  1249.917
 171  1332.87
 172  1364.784
 173  1438.873
 174  1364.455
 175  1317.31
 176  1405.732
 177  1454.201
 178  1412.684
 179  1342.014
 180  1314.137
 181  1310.677
 182  1264.774
 183  1409.602
 184  1503.503
 185  1501.13
 186  1414.149
 187  1427.208
 188  1432.54
 189  1366.706
 190  1440.255
 191  1471.691
 192  1413.762
 193  1408.998
 194  1502.794
 195  1480.837
 196  1402.343
 197  1355.229
 198  1342.213
 199  1336.124
 200  1360.351
 201  1483.107
 202  1471.811
 203  1410.293
 204  1379.328
 205  1461.833
 206  1498.762
 207  1329.553
 208  1286.715
 209  1278.133
 210  1372.717
 211  1387.688
 212  1338.622
 213  1412.109
 214  1464.713
 215  1444.87
 216  1444.687
 217  1430.794
 218  1462.657
 219  1460.05
 220  1488.81
 221  1392.228
 222  1308.755
 223  1447.517
 224  1453.316
 225  1467.659
 226  1466.62
 227  1433.441
 228  1404.519
 229  1555.393
 230  1485.854
 231  1437.007
 232  1379.134
 233  1327.98
 234  1427.425
 235  1399.418
 236  1479.22
 237  1564.31
 238  1474.721
 239  1406.073
 240  1305.986
 241  1398.92
 242  1414.309
 243  1393.349
 244  1431.033
 245  1469.418
 246  1365.831
 247  1295.179
 248  1439.441
 249  1489.748
 250  1354.066
 251  1338.697
 252  1359.34
 253  1403.741
 254  1384.286
 255  1366.674
 256  1401.693
 257  1404.531
 258  1347.677
 259  1366.723
 260  1363.799
 261  1320.852
 262  1467.565
 263  1522.693
 264  1489.427
 265  1470.707
 266  1476.766
 267  1445.605
 268  1334.989
 269  1324.605
 270  1453.645
 271  1441.953
 272  1446.929
 273  1453.521
 274  1422.169
 275  1303.615
 276  1326.249
 277  1414.392
 278  1365.363
 279  1279.389
 280  1410.567
 281  1433.541
 282  1348.246
 283  1311.423
 284  1402.201
 285  1451.436
 286  1453.17
 287  1371.112
 288  1377.167
 289  1346.192
 290  1390.138
 291  1339.001
 292  1353.997
 293  1389.877
 294  1412.58
 295  1400.134
 296  1340.883
 297  1260.078
 298  1279.599
 299  1336.344
 300  1368.989
 301  1404.231
 302  1488.433
 303  1505.774
 304  1330.901
 305  1388.857
 306  1359.514
 307  1347.311
 308  1315.418
 309  1360.933
 310  1466.034
 311  1434.599
 312  1406.455
 313  1389.473
 314  1343.598
 315  1292.07
 316  1380.454
 317  1402.974
 318  1352.976
 319  1450.883
 320  1439.377
 321  1476.483
 322  1491.141
 323  1399.689
 324  1403.748
 325  1355.195
 326  1330.981
 327  1402.876
 328  1420.176
 329  1453.874
 330  1417.301
 331  1451.396
 332  1399.813
 333  1446.067
 334  1501.138
 335  1490.882
 336  1423.154
 337  1500.682
 338  1493.256
 339  1341.325
 340  1361.868
 341  1441.428
 342  1316.146
 343  1410.894
 344  1473.372
 345  1420.907
 346  1340.108
 347  1441.338
 348  1422.889
 349  1362.44
 350  1198.275
 351  1368.669
 352  1447.433
 353  1515.449
 354  1358.285
 355  1288.848
 356  1257.323
 357  1212.01
 358  1301.983
 359  1392.767
 360  1435.36
 361  1459.795
 362  1419.321
 363  1435.776
 364  1350.121
 365  1266.506
 366  1364.232
 367  1468.09
 368  1397.359
 369  1416.923
 370  1393.537
 371  1376.314
 372  1272.943
 373  1397.923
 374  1404.518
 375  1300.387
 376  1344.497
 377  1430.726
 378  1518.58
 379  1393.571
 380  1375.42
 381  1388.263
 382  1365.375
 383  1360.541
 384  1446.573
 385  1398.626
 386  1379.273
 387  1382.202
 388  1331.454
 389  1224.983
 390  1292.63
 391  1340.954
 392  1347.534
 393  1408.945
 394  1417.704
 395  1404.978
 396  1380.883
 397  1251.327
 398  1317.19
 399  1390.18
 400  1369.235
 401  1406.998
 402  1367.603
 403  1419.888
 404  1332.091
 405  1458.722
 406  1432.726
 407  1417.621
 408  1516.247
 409  1508.411
 410  1342.997
 411  1266.197
 412  1286.267
 413  1357.58
 414  1369.472
 415  1361.187
 416  1452.913
 417  1472.606
 418  1388.487
 419  1330.89
 420  1398.467
 421  1434.75
 422  1416.644
 423  1364.351
 424  1388.761
 425  1380.156
 426  1386.753
 427  1465.032
 428  1462.937
 429  1479.717
 430  1410.489
 431  1419.837
 432  1405.12
 433  1365.612
 434  1405.778
 435  1491.449
 436  1445.439
 437  1374.978
 438  1469.864
 439  1480.93
 440  1331.589
 441  1275.237
 442  1419.986
 443  1423.757
 444  1429.153
 445  1432.033
 446  1372.461
 447  1325.729
 448  1353.644
 449  1377.966
 450  1386.321
 451  1398.71
 452  1389.03
 453  1409.175
 454  1459.773
 455  1392.25
 456  1300.352
 457  1270.542
 458  1304.374
 459  1438.728
 460  1414.785
 461  1391.301
 462  1383.306
 463  1367.636
 464  1428.884
 465  1391.952
 466  1270.111
 467  1332.684
 468  1337.555
 469  1348.648
 470  1448.196
 471  1470.421
 472  1399.702
 473  1389.995
 474  1417.197
 475  1492.471
 476  1407.277
 477  1386.902
 478  1365.415
 479  1267.74
 480  1400.448
 481  1535.808
 482  1496.407
 483  1412.482
 484  1492.936
 485  1595.42
 486  1499.39
 487  1375.456
 488  1308.468
 489  1316.105
 490  1377.582
 491  1416.186
 492  1336.202
 493  1292.023
 494  1318.89
 495  1433.633
 496  1503.848
 497  1393.742
 498  1318.332
 499  1337.815
 500  1404.623
 501  1394.358
 502  1387.495
 503  1377.628
 504  1360.229
 505  1292.658
 506  1357.81
 507  1383.256
 508  1477.847
 509  1501.947
 510  1633.767
 511  1692.124
