# Input file       =  1194209154.098369_cleaned.dat
# Candidate        =  PSR_0332+5434
# Telescope        =  AR
# Epoch_topo       =  58065.865001138525
# Epoch_bary       =  N/A
# T_sample         =  0.002
# Data Folded      =  7340032
# Data Avg         =  0.0336859936993623
# Data StdDev      =  1.00010510086771 
# Profile Bins     =  512
# Profile Avg      =  482.47337650523  
# Profile StdDev   =  119.745620422783 
# Reduced chi-sqr  =  1.188
# Prob(Noise)      <  0.00211   (~2.9 sigma)
# P_topo (ms)      =  714.503115412987  +/- 0.00046
# P'_topo (s/s)    =  -0                +/- 2.43e-10
# P''_topo (s/s^2) =  0                 +/- 1.07e-13
# P_bary (ms)      =  N/A
# P'_bary (s/s)    =  N/A
# P''_bary (s/s^2) =  N/A
# P_orb (s)        =  N/A
# asin(i)/c (s)    =  N/A
# eccentricity     =  N/A
# w (rad)          =  N/A
# T_peri           =  N/A
######################################################
   0  1097.711
   1  968.0374
   2  910.2725
   3  847.1511
   4  591.4011
   5  582.8392
   6  451.7287
   7  554.3864
   8  557.8297
   9  336.4229
  10  350.5722
  11  556.0525
  12  584.5936
  13  457.95
  14  586.8619
  15  676.3749
  16  606.7532
  17  554.1246
  18  650.0025
  19  497.5547
  20  567.9144
  21  605.2534
  22  521.5123
  23  597.1591
  24  404.4116
  25  436.2839
  26  421.1724
  27  523.0282
  28  430.2788
  29  494.5242
  30  402.4026
  31  391.8601
  32  452.7375
  33  504.3919
  34  511.8958
  35  450.9673
  36  498.3585
  37  454.8004
  38  408.6539
  39  434.4078
  40  381.6343
  41  553.1884
  42  595.9455
  43  542.2645
  44  453.255
  45  369.7173
  46  399.4042
  47  390.2639
  48  382.1451
  49  437.3275
  50  489.9085
  51  559.1158
  52  557.8661
  53  505.7281
  54  476.8751
  55  449.1954
  56  442.794
  57  548.1602
  58  609.7178
  59  584.762
  60  531.1653
  61  516.3264
  62  439.485
  63  440.1588
  64  478.4623
  65  622.5247
  66  595.9224
  67  610.7958
  68  559.3848
  69  562.2045
  70  475.3422
  71  477.7718
  72  450.1609
  73  414.3535
  74  524.0352
  75  505.9956
  76  547.2021
  77  534.975
  78  544.1866
  79  492.8247
  80  535.923
  81  490.5987
  82  327.6766
  83  297.4491
  84  364.3507
  85  319.7791
  86  357.0512
  87  465.253
  88  483.7346
  89  431.3631
  90  364.5913
  91  457.3268
  92  542.5616
  93  564.9033
  94  408.1268
  95  344.7378
  96  416.1822
  97  484.8809
  98  477.6444
  99  432.9405
 100  464.4154
 101  452.2019
 102  483.8929
 103  520.8866
 104  417.15
 105  383.3495
 106  334.989
 107  388.5309
 108  300.029
 109  404.2118
 110  417.998
 111  354.9712
 112  373.979
 113  307.0294
 114  268.6218
 115  355.7958
 116  394.0105
 117  408.2742
 118  305.5494
 119  414.0924
 120  448.4547
 121  390.5193
 122  465.6347
 123  556.1801
 124  471.7134
 125  496.0234
 126  374.6371
 127  356.5279
 128  462.7448
 129  498.7113
 130  441.2025
 131  393.971
 132  362.2185
 133  404.2265
 134  463.8876
 135  356.6074
 136  388.5726
 137  376.6859
 138  352.8742
 139  390.505
 140  502.3416
 141  423.6331
 142  366.4807
 143  379.175
 144  320.7236
 145  308.7009
 146  330.0616
 147  446.6127
 148  425.1295
 149  443.0536
 150  503.3492
 151  409.1778
 152  463.1101
 153  382.8999
 154  389.4887
 155  459.0089
 156  457.9421
 157  374.3304
 158  463.6166
 159  489.2789
 160  499.3964
 161  479.1324
 162  506.905
 163  406.9244
 164  382.1505
 165  508.8173
 166  513.4597
 167  507.5468
 168  405.6204
 169  398.7519
 170  448.1623
 171  439.2028
 172  483.8245
 173  473.3437
 174  402.0282
 175  467.517
 176  461.2149
 177  469.7668
 178  394.2603
 179  449.944
 180  537.3191
 181  549.8053
 182  507.873
 183  432.1271
 184  405.0512
 185  489.0352
 186  477.3254
 187  521.764
 188  635.8718
 189  641.6053
 190  549.3541
 191  412.1322
 192  409.4032
 193  505.7641
 194  370.3262
 195  400.9395
 196  371.9869
 197  402.1734
 198  437.5543
 199  527.9722
 200  586.2003
 201  458.7545
 202  490.2239
 203  508.6188
 204  540.7559
 205  532.7783
 206  414.3452
 207  397.9259
 208  486.3749
 209  540.6233
 210  333.0503
 211  372.6125
 212  445.4384
 213  419.3523
 214  391.2689
 215  519.2709
 216  408.2411
 217  303.7267
 218  369.6524
 219  468.41
 220  324.9715
 221  305.0602
 222  387.5883
 223  436.319
 224  430.2695
 225  341.8634
 226  351.8485
 227  329.9789
 228  392.6226
 229  409.0453
 230  387.4714
 231  266.4651
 232  415.6252
 233  605.968
 234  517.8424
 235  449.2586
 236  451.8351
 237  385.1678
 238  420.4278
 239  441.1982
 240  441.7463
 241  523.1754
 242  540.2
 243  519.8556
 244  486.2915
 245  447.9178
 246  485.0581
 247  442.8272
 248  401.4828
 249  479.5799
 250  464.9988
 251  483.8902
 252  482.5861
 253  423.9184
 254  296.3701
 255  326.6334
 256  507.6454
 257  495.4407
 258  437.3519
 259  482.8081
 260  592.9109
 261  549.8254
 262  500.4945
 263  452.5789
 264  501.7416
 265  451.1676
 266  425.2129
 267  457.0997
 268  437.6737
 269  383.219
 270  497.786
 271  555.754
 272  402.4904
 273  371.0491
 274  463.2148
 275  361.7517
 276  332.4924
 277  444.0584
 278  539.7828
 279  556.3441
 280  492.3654
 281  449.885
 282  407.2362
 283  374.9121
 284  348.6235
 285  454.9604
 286  496.9093
 287  390.2418
 288  478.8895
 289  500.355
 290  439.4949
 291  466.8446
 292  480.8824
 293  649.2103
 294  494.9037
 295  354.3501
 296  473.4637
 297  549.2662
 298  646.7966
 299  575.6833
 300  417.033
 301  367.9278
 302  502.3829
 303  456.1077
 304  449.4685
 305  474.4087
 306  416.6512
 307  408.5032
 308  374.9362
 309  450.1479
 310  486.675
 311  507.6171
 312  490.4801
 313  501.4664
 314  544.5334
 315  550.1382
 316  523.693
 317  519.0728
 318  437.8301
 319  358.6267
 320  441.0668
 321  545.6752
 322  434.2188
 323  484.8756
 324  521.8933
 325  552.5274
 326  536.0883
 327  509.6967
 328  607.6573
 329  587.2648
 330  446.531
 331  501.4392
 332  495.9514
 333  532.4333
 334  450.9303
 335  454.1046
 336  479.2615
 337  538.395
 338  525.5088
 339  593.1039
 340  580.5791
 341  572.293
 342  650.4498
 343  514.9396
 344  511.6714
 345  408.1459
 346  487.4478
 347  523.7225
 348  341.7876
 349  395.2705
 350  435.557
 351  370.979
 352  418.8198
 353  376.7572
 354  332.6927
 355  352.5324
 356  472.3643
 357  393.8444
 358  504.8776
 359  586.31
 360  525.1641
 361  434.9801
 362  620.3004
 363  469.8851
 364  347.5517
 365  498.2197
 366  583.2612
 367  488.8831
 368  543.4191
 369  508.3386
 370  409.5569
 371  508.8097
 372  476.0452
 373  437.4569
 374  419.7006
 375  362.6625
 376  412.2494
 377  457.0351
 378  481.0954
 379  519.0033
 380  462.3442
 381  451.0045
 382  495.0519
 383  398.6238
 384  422.1869
 385  406.327
 386  314.6558
 387  411.4217
 388  466.2129
 389  414.8275
 390  431.5896
 391  460.7566
 392  520.4777
 393  598.3538
 394  516.5291
 395  498.6107
 396  490.3801
 397  369.7185
 398  413.1658
 399  446.5466
 400  471.2303
 401  499.7024
 402  483.8778
 403  577.7469
 404  481.8125
 405  493.7205
 406  678.1364
 407  606.9337
 408  507.954
 409  484.0143
 410  499.9728
 411  596.7567
 412  724.2042
 413  543.3665
 414  533.3808
 415  520.1631
 416  550.6736
 417  611.3079
 418  477.718
 419  506.0599
 420  371.484
 421  497.3646
 422  546.6021
 423  507.534
 424  471.2521
 425  488.0758
 426  493.2079
 427  592.1395
 428  633.6857
 429  576.5435
 430  554.8204
 431  560.2296
 432  561.6518
 433  531.4698
 434  548.2327
 435  532.1691
 436  511.8116
 437  555.7715
 438  496.7327
 439  517.7546
 440  537.9503
 441  550.368
 442  556.9793
 443  596.3306
 444  533.1732
 445  535.6983
 446  423.1503
 447  427.9174
 448  451.9732
 449  519.1165
 450  505.9105
 451  427.2302
 452  406.6873
 453  444.588
 454  483.7981
 455  582.3149
 456  547.4299
 457  491.9192
 458  486.3894
 459  532.9227
 460  502.3896
 461  500.9229
 462  587.8878
 463  620.9691
 464  561.5149
 465  537.1698
 466  573.0739
 467  474.8831
 468  463.3224
 469  433.5141
 470  424.5873
 471  419.9526
 472  558.6115
 473  542.8312
 474  552.2549
 475  500.1746
 476  509.9281
 477  496.2387
 478  517.1451
 479  536.8392
 480  484.9051
 481  584.2559
 482  528.2545
 483  620.4015
 484  594.2223
 485  549.9044
 486  465.5268
 487  481.2248
 488  631.1614
 489  745.71
 490  684.7802
 491  701.3635
 492  653.2224
 493  637.9887
 494  623.0534
 495  530.6609
 496  576.9192
 497  586.3972
 498  621.731
 499  582.3118
 500  532.6813
 501  563.7612
 502  553.9257
 503  515.6605
 504  523.5247
 505  614.9359
 506  616.5564
 507  689.5428
 508  652.2634
 509  502.1104
 510  726.1743
 511  914.3976
