# Input file       =  1194539265.099607_cleaned.dat
# Candidate        =  PSR_0332+5434
# Telescope        =  AR
# Epoch_topo       =  58069.685730319528
# Epoch_bary       =  N/A
# T_sample         =  0.002
# Data Folded      =  7143424
# Data Avg         =  0.0881844928399552
# Data StdDev      =  1.00073594185105 
# Profile Bins     =  512
# Profile Avg      =  1230.35000086243 
# Profile StdDev   =  118.205512891575 
# Reduced chi-sqr  =  1.050
# Prob(Noise)      <  0.212   (~0.8 sigma)
# P_topo (ms)      =  714.506863885028  +/- 0.000333
# P'_topo (s/s)    =  -0                +/- 1.8e-10
# P''_topo (s/s^2) =  0                 +/- 8.18e-14
# P_bary (ms)      =  N/A
# P'_bary (s/s)    =  N/A
# P''_bary (s/s^2) =  N/A
# P_orb (s)        =  N/A
# asin(i)/c (s)    =  N/A
# eccentricity     =  N/A
# w (rad)          =  N/A
# T_peri           =  N/A
######################################################
   0  1552.312
   1  1521.011
   2  1468.366
   3  1322.168
   4  1204.001
   5  1161.24
   6  1198.646
   7  1312.989
   8  1259.528
   9  1031.46
  10  1135.387
  11  1254.663
  12  1255.225
  13  1208.785
  14  1203.819
  15  1303.006
  16  1223.863
  17  1179.377
  18  1232.511
  19  1230.708
  20  1204.32
  21  1210.007
  22  1181.822
  23  1126.342
  24  1307.248
  25  1421.819
  26  1330.778
  27  1315.068
  28  1343.126
  29  1255.828
  30  1250.676
  31  1222.721
  32  1338.894
  33  1237.988
  34  1181.015
  35  1240.923
  36  1256.391
  37  1315.95
  38  1286.909
  39  1197.01
  40  1114.702
  41  1187.982
  42  1146.171
  43  1097.615
  44  1153.588
  45  1239.341
  46  1304.972
  47  1200.29
  48  1077.955
  49  1137.367
  50  1232.171
  51  1303.949
  52  1227.396
  53  1245.506
  54  1307.72
  55  1313.867
  56  1295.968
  57  1307.643
  58  1349.529
  59  1331.12
  60  1179.26
  61  1224.852
  62  1241.528
  63  1195.345
  64  1310.948
  65  1440.323
  66  1458.366
  67  1314.65
  68  1321.611
  69  1301.469
  70  1207.19
  71  1192.878
  72  1247.469
  73  1290.459
  74  1237.743
  75  1301.187
  76  1289.251
  77  1228.991
  78  1200.982
  79  1231.883
  80  1140.304
  81  1145.091
  82  1274.933
  83  1292.83
  84  1241.304
  85  1275.586
  86  1247.347
  87  1191.704
  88  1156.476
  89  1149.719
  90  1199.921
  91  1294.669
  92  1055.087
  93  1058.735
  94  1061.799
  95  1080.938
  96  1086.761
  97  1118.195
  98  1047.191
  99  991.9225
 100  931.9403
 101  1084.797
 102  1051.926
 103  1096.877
 104  1155.506
 105  1050.148
 106  1035.456
 107  1058.703
 108  1158.992
 109  1118.973
 110  1067.123
 111  1092.849
 112  1107.949
 113  1053.015
 114  1068.114
 115  1078.115
 116  1133.748
 117  1190.065
 118  1187.256
 119  1296.073
 120  1262.312
 121  1205.905
 122  1016.099
 123  1075.285
 124  1233.167
 125  1276.4
 126  1207.932
 127  1209.045
 128  1218.654
 129  1156.746
 130  1184.639
 131  1293.522
 132  1342.346
 133  1226.362
 134  1205.793
 135  1154.477
 136  1164.615
 137  1212.99
 138  1183.054
 139  1272.652
 140  1271.713
 141  1286.338
 142  1247.281
 143  1256.989
 144  1268.39
 145  1230.07
 146  1207.986
 147  1184.689
 148  1268.183
 149  1219.13
 150  1195.507
 151  1165.99
 152  1204.31
 153  1255.109
 154  1313.514
 155  1280.613
 156  1295.963
 157  1371.66
 158  1262.428
 159  1188.508
 160  1278.956
 161  1219.817
 162  1121.032
 163  1145.036
 164  1154.35
 165  1315.868
 166  1304.96
 167  1224.738
 168  1152.602
 169  1211.378
 170  1189.513
 171  1046.791
 172  1026.702
 173  1122.545
 174  1152.171
 175  1263.273
 176  1262.914
 177  1166.495
 178  1141.632
 179  1190.129
 180  1272.943
 181  1239.416
 182  1173.851
 183  1193.587
 184  1182.338
 185  1104.797
 186  999.6476
 187  1106.247
 188  1170.363
 189  1174.245
 190  1221.413
 191  1189.175
 192  1164.31
 193  1063.849
 194  1134.273
 195  1264.29
 196  1320.009
 197  1281.914
 198  1300.195
 199  1312.624
 200  1271.872
 201  1360
 202  1310.722
 203  1312.688
 204  1347.134
 205  1313.128
 206  1336.129
 207  1282.627
 208  1180.867
 209  1240.056
 210  1245.533
 211  1248.973
 212  1188.759
 213  1176.773
 214  1156.58
 215  1188.219
 216  1284.249
 217  1264.598
 218  1210.119
 219  1283.904
 220  1277.212
 221  1292.903
 222  1210.708
 223  1220.75
 224  1235.011
 225  1277.675
 226  1332.748
 227  1346.216
 228  1352.915
 229  1208.98
 230  1157.337
 231  1264.645
 232  1374.596
 233  1256.772
 234  1239.915
 235  1251.999
 236  1160.861
 237  1138.269
 238  1253.479
 239  1296.901
 240  1321.71
 241  1214.116
 242  1181.815
 243  1238.522
 244  1201.418
 245  1147.142
 246  1198.778
 247  1297.83
 248  1411.531
 249  1411.096
 250  1327.558
 251  1324.817
 252  1312.218
 253  1281.075
 254  1276.061
 255  1239.877
 256  1295.615
 257  1338.525
 258  1129.156
 259  1105.262
 260  1163.865
 261  1243.14
 262  1287.557
 263  1165.313
 264  1274.362
 265  1314.883
 266  1286.661
 267  1267.745
 268  1338.797
 269  1319.931
 270  1261.663
 271  1253.745
 272  1290.58
 273  1236.278
 274  1276.409
 275  1189.589
 276  1215.71
 277  1206.57
 278  1274.83
 279  1273.589
 280  1120.781
 281  1024.95
 282  1199.127
 283  1212.62
 284  1211.126
 285  1260.717
 286  1188.419
 287  1174.187
 288  1259.331
 289  1189.645
 290  1167.829
 291  1163.62
 292  1202.344
 293  1306.431
 294  1149.854
 295  1219.718
 296  1292.585
 297  1253.308
 298  1182.433
 299  1151.501
 300  1246.635
 301  1288.197
 302  1301.664
 303  1146.501
 304  1142.704
 305  1197.036
 306  1127.22
 307  1087.426
 308  1178.038
 309  1160.073
 310  1247.011
 311  1204.022
 312  1296.268
 313  1330.492
 314  1219.277
 315  1258.732
 316  1280.844
 317  1258.293
 318  1169.05
 319  1237.779
 320  1280.001
 321  1168.564
 322  1033.992
 323  1175.782
 324  1248.955
 325  1254.653
 326  1318.234
 327  1191.738
 328  1110.764
 329  1179.049
 330  1275.871
 331  1246.852
 332  1222.252
 333  1275.647
 334  1157.535
 335  1223.712
 336  1252.916
 337  1253.845
 338  1198.188
 339  1185.495
 340  1226.262
 341  1125.31
 342  1147.004
 343  1126.361
 344  1136.375
 345  1192.975
 346  1227.127
 347  1245.135
 348  1237.907
 349  1137.874
 350  1219.723
 351  1184.617
 352  1244.113
 353  1271.148
 354  1156.915
 355  1038.172
 356  1133.116
 357  1252.784
 358  1243.714
 359  1200.77
 360  1226.757
 361  1171.035
 362  1166.659
 363  1270.756
 364  1161.248
 365  1155.305
 366  1100.302
 367  1104.665
 368  1325.654
 369  1267.594
 370  1222.213
 371  1166.545
 372  1224.931
 373  1212.581
 374  1115.707
 375  1275.049
 376  1304.04
 377  1339.247
 378  1306.865
 379  1359.643
 380  1404.672
 381  1349.804
 382  1305.033
 383  1234.725
 384  1233.73
 385  1233.091
 386  1213.266
 387  1273.974
 388  1287.672
 389  1344.111
 390  1380.614
 391  1295.685
 392  1322.499
 393  1295.815
 394  1298.245
 395  1253.919
 396  1272.328
 397  1341.979
 398  1339.255
 399  1387.9
 400  1355.958
 401  1376.773
 402  1448.279
 403  1499.232
 404  1362.24
 405  1344.026
 406  1409.221
 407  1298.432
 408  1208.083
 409  1197.964
 410  1175.591
 411  1305.17
 412  1393.548
 413  1357.743
 414  1251.271
 415  1154.56
 416  1116.424
 417  1161.807
 418  1327.657
 419  1391.545
 420  1339.444
 421  1297.663
 422  1267.828
 423  1251.379
 424  1194.294
 425  1202.608
 426  1266.545
 427  1303.005
 428  1276.016
 429  1154.876
 430  1184.029
 431  1142.21
 432  1145.135
 433  1139.116
 434  1173.896
 435  1208.906
 436  1223.769
 437  1163.416
 438  1152.009
 439  1147.712
 440  1194.251
 441  1145.661
 442  1236.021
 443  1190.786
 444  1323.504
 445  1403.448
 446  1332.869
 447  1254.869
 448  1225.73
 449  1148.868
 450  1164.362
 451  1243.838
 452  1311.392
 453  1290.762
 454  1249.136
 455  1209.014
 456  1130.216
 457  1254.86
 458  1270.534
 459  1272.985
 460  1239.054
 461  1229.781
 462  1245.101
 463  1157.292
 464  1113.191
 465  1205.161
 466  1278.281
 467  1279.122
 468  1249.177
 469  1250.979
 470  1282.638
 471  1213.699
 472  1171.157
 473  1244.755
 474  1199.208
 475  1196.623
 476  1196.016
 477  1127.616
 478  1181.667
 479  1176.666
 480  1205.56
 481  1158.907
 482  1150.511
 483  1116.313
 484  1109.55
 485  1173.699
 486  1182.026
 487  1125.617
 488  1183.628
 489  1255.046
 490  1245.581
 491  1369.247
 492  1427.126
 493  1392.115
 494  1336.076
 495  1296.286
 496  1345.158
 497  1395.384
 498  1358.209
 499  1209.875
 500  1222.293
 501  1204.803
 502  1225.291
 503  1235.21
 504  1188.257
 505  1288.021
 506  1227.655
 507  1276.707
 508  1314.576
 509  1419.779
 510  1500.231
 511  1498.26
