# Input file       =  1194553880.107303_cleaned.dat
# Candidate        =  PSR_0332+5434
# Telescope        =  AR
# Epoch_topo       =  58069.854885501190
# Epoch_bary       =  N/A
# T_sample         =  0.002
# Data Folded      =  7340032
# Data Avg         =  0.0440630286333198
# Data StdDev      =  1.00031873142652 
# Profile Bins     =  512
# Profile Avg      =  631.862172837516 
# Profile StdDev   =  119.771199058252 
# Reduced chi-sqr  =  0.990
# Prob(Noise)      <  0.558   (~0.0 sigma)
# P_topo (ms)      =  714.50704185708   +/- 0.00055
# P'_topo (s/s)    =  -0                +/- 2.9e-10
# P''_topo (s/s^2) =  0                 +/- 1.28e-13
# P_bary (ms)      =  N/A
# P'_bary (s/s)    =  N/A
# P''_bary (s/s^2) =  N/A
# P_orb (s)        =  N/A
# asin(i)/c (s)    =  N/A
# eccentricity     =  N/A
# w (rad)          =  N/A
# T_peri           =  N/A
######################################################
   0  1069.778
   1  1043.827
   2  956.0559
   3  937.1821
   4  794.7579
   5  702.2605
   6  628.3702
   7  777.0196
   8  817.9358
   9  730.8877
  10  689.1409
  11  698.3228
  12  663.6516
  13  642.3734
  14  659.8594
  15  621.871
  16  661.738
  17  606.8171
  18  613.1025
  19  526.326
  20  539.5377
  21  581.5953
  22  602.5122
  23  620.55
  24  627.3624
  25  711.2731
  26  762.715
  27  679.8707
  28  520.1712
  29  499.9419
  30  600.451
  31  650.676
  32  624.1426
  33  536.7961
  34  611.4216
  35  559.0984
  36  616.4492
  37  660.9897
  38  565.4467
  39  626.0878
  40  540.5653
  41  511.0322
  42  620.2886
  43  689.1489
  44  682.3128
  45  670.3438
  46  698.7117
  47  563.772
  48  467.9104
  49  475.5804
  50  606.2861
  51  515.7646
  52  587.8704
  53  662.7236
  54  550.8844
  55  578.4478
  56  576.665
  57  647.5406
  58  601.3367
  59  639.5514
  60  639.6904
  61  552.5901
  62  612.9294
  63  543.7062
  64  633.7373
  65  621.5185
  66  672.7039
  67  602.5289
  68  576.2852
  69  618.6111
  70  722.5766
  71  827.3024
  72  754.3134
  73  560.3914
  74  710.662
  75  674.7287
  76  617.3173
  77  778.733
  78  795.7542
  79  599.8168
  80  580.6059
  81  604.4879
  82  647.1522
  83  628.6693
  84  614.3116
  85  681.501
  86  612.5187
  87  594.5009
  88  537.2767
  89  493.9728
  90  571.4345
  91  531.8275
  92  493.0231
  93  428.2414
  94  516.684
  95  671.0659
  96  586.0193
  97  459.3905
  98  465.7163
  99  608.4508
 100  642.3854
 101  668.8986
 102  578.4956
 103  614.6072
 104  602.8998
 105  680.1608
 106  685.7528
 107  594.9209
 108  538.8495
 109  643.8146
 110  560.6279
 111  546.9514
 112  667.2593
 113  757.3608
 114  621.8275
 115  507.2582
 116  559.3109
 117  576.3602
 118  719.1676
 119  654.3652
 120  701.2095
 121  595.5246
 122  645.0849
 123  776.218
 124  722.2928
 125  630.3749
 126  551.4061
 127  641.8557
 128  665.8547
 129  615.9279
 130  558.163
 131  666.6649
 132  750.3731
 133  574.5925
 134  476.8924
 135  489.5469
 136  534.3716
 137  588.1856
 138  615.7277
 139  610.628
 140  593.2204
 141  557.681
 142  535.9576
 143  548.8307
 144  554.4793
 145  600.975
 146  528.9537
 147  615.8351
 148  625.2858
 149  577.3893
 150  523.7532
 151  613.2257
 152  572.315
 153  644.7335
 154  725.28
 155  693.3386
 156  625.9948
 157  559.5696
 158  617.5668
 159  614.4857
 160  598.6185
 161  643.2891
 162  689.0428
 163  721.3708
 164  729.2357
 165  607.3112
 166  530.0828
 167  461.9392
 168  580.9534
 169  664.688
 170  651.7942
 171  678.3236
 172  782.9859
 173  579.7515
 174  652.5204
 175  670.6656
 176  612.8383
 177  559.8511
 178  575.6082
 179  684.229
 180  729.1223
 181  689.6165
 182  648.2604
 183  549.0507
 184  619.8574
 185  657.5047
 186  692.8659
 187  660.8286
 188  671.3484
 189  677.509
 190  653.4044
 191  568.6346
 192  543.48
 193  613.1578
 194  588.6917
 195  616.4561
 196  660.8901
 197  746.9336
 198  687.1109
 199  671.2725
 200  681.6734
 201  516.6682
 202  530.5632
 203  622.6052
 204  658.2173
 205  690.0239
 206  704.6067
 207  749.9414
 208  632.9891
 209  745.7126
 210  763.6803
 211  698.0871
 212  767.3795
 213  781.3745
 214  818.3436
 215  851.2016
 216  868.3591
 217  722.2067
 218  594.712
 219  707.7947
 220  745.4709
 221  739.2408
 222  675.8776
 223  616.508
 224  647.971
 225  704.4978
 226  604.4359
 227  639.0021
 228  603.1514
 229  579.5997
 230  615.0176
 231  689.8228
 232  639.2344
 233  629.8021
 234  655.0743
 235  694.0237
 236  577.9139
 237  521.5994
 238  712.0643
 239  686.8054
 240  677.285
 241  644.0023
 242  656.4647
 243  681.644
 244  581.0789
 245  531.2717
 246  643.4502
 247  692.3385
 248  690.201
 249  713.5018
 250  613.5334
 251  591.8672
 252  607.229
 253  642.2385
 254  560.1707
 255  664.1567
 256  601.6538
 257  628.0179
 258  533.7106
 259  545.7638
 260  668.9727
 261  631.3853
 262  634.0364
 263  631.7678
 264  657.585
 265  623.0898
 266  514.8191
 267  477.8941
 268  501.5869
 269  542.9499
 270  714.4028
 271  647.9487
 272  477.2848
 273  466.6475
 274  591.1602
 275  563.7478
 276  524.3806
 277  644.9364
 278  599.7376
 279  612.619
 280  667.4954
 281  559.6103
 282  568.9495
 283  605.1564
 284  675.908
 285  667.9385
 286  607.3698
 287  602.926
 288  556.4591
 289  557.0446
 290  604.8818
 291  550.4496
 292  562.2017
 293  626.4894
 294  622.3794
 295  552.6685
 296  689.3146
 297  784.668
 298  574.5119
 299  505.8112
 300  662.5248
 301  568.8443
 302  644.4299
 303  744.478
 304  732.0178
 305  655.5873
 306  527.6685
 307  580.4705
 308  491.0334
 309  704.3245
 310  706.5809
 311  695.6359
 312  633.1872
 313  530.9499
 314  570.2069
 315  520.5887
 316  472.8996
 317  503.0793
 318  448.5977
 319  474.0749
 320  502.5704
 321  543.1441
 322  565.7
 323  501.4864
 324  553.2375
 325  604.9207
 326  598.1062
 327  519.5143
 328  523.9765
 329  598.7874
 330  596.2034
 331  540.1522
 332  587.9547
 333  503.6215
 334  504.8086
 335  556.545
 336  598.0859
 337  534.7196
 338  602.5061
 339  729.478
 340  701.2275
 341  706.3176
 342  754.6662
 343  765.3044
 344  681.3138
 345  617.3071
 346  661.1193
 347  647.1505
 348  684.0306
 349  616.2396
 350  637.7747
 351  699.2507
 352  607.8153
 353  716.6475
 354  675.5406
 355  570.7978
 356  640.8313
 357  585.9493
 358  534.1993
 359  586.8995
 360  538.4541
 361  584.4072
 362  608.9748
 363  637.1163
 364  582.7786
 365  613.9751
 366  610.9016
 367  571.1224
 368  562.0991
 369  679.0316
 370  659.4319
 371  587.8564
 372  603.1307
 373  669.149
 374  627.7375
 375  728.5603
 376  806.0117
 377  669.6125
 378  624.5302
 379  676.5066
 380  530.0463
 381  573.2836
 382  576.5422
 383  664.4538
 384  718.3952
 385  788.7305
 386  712.3979
 387  563.1699
 388  558.7595
 389  595.9891
 390  633.8391
 391  691.3433
 392  708.5905
 393  678.738
 394  612.0248
 395  539.1086
 396  587.1113
 397  735.3691
 398  792.5328
 399  737.9947
 400  644.4993
 401  624.1403
 402  606.5905
 403  663.3401
 404  721.8495
 405  630.3888
 406  665.3632
 407  595.6552
 408  594.8953
 409  635.9326
 410  626.4717
 411  621.1044
 412  570.7392
 413  593.4666
 414  644.4793
 415  687.5348
 416  670.0461
 417  553.0928
 418  559.1386
 419  561.7338
 420  566.2085
 421  612.418
 422  711.2734
 423  683.2042
 424  568.2274
 425  514.9211
 426  605.3708
 427  743.9524
 428  793.6063
 429  819.0061
 430  679.3725
 431  638.6545
 432  607.4562
 433  657.4521
 434  716.7282
 435  681.3579
 436  803.8474
 437  792.8191
 438  578.9817
 439  668.1449
 440  667.8984
 441  526.212
 442  603.0527
 443  568.283
 444  575.0347
 445  497.2122
 446  572.7728
 447  630.1769
 448  607.0591
 449  606.1251
 450  732.9406
 451  556.2753
 452  609.7698
 453  620.7417
 454  574.6176
 455  506.1168
 456  537.4453
 457  666.1315
 458  690.6764
 459  649.8345
 460  624.7798
 461  706.7324
 462  590.8852
 463  602.713
 464  731.2383
 465  645.725
 466  584.0279
 467  636.6086
 468  578.0766
 469  651.1895
 470  580.3795
 471  634.8349
 472  680.8169
 473  631.2486
 474  627.9653
 475  620.2557
 476  671.9355
 477  611.7879
 478  608.3416
 479  611.4758
 480  590.1454
 481  605.0832
 482  615.645
 483  544.5616
 484  589.0394
 485  577.2487
 486  690.9697
 487  668.2319
 488  552.0703
 489  578.2561
 490  612.5717
 491  661.0546
 492  668.7822
 493  677.94
 494  668.1139
 495  658.1476
 496  640.1743
 497  686.9607
 498  676.5685
 499  653.5443
 500  684.2269
 501  738.3788
 502  670.7066
 503  599.8646
 504  646.833
 505  690.1158
 506  740.6564
 507  681.7042
 508  849.921
 509  875.3909
 510  1020.315
 511  1092.458
