# Input file       =  1194712115.107617_cleaned.dat
# Candidate        =  PSR_0332+5434
# Telescope        =  AR
# Epoch_topo       =  58071.686309115939
# Epoch_bary       =  N/A
# T_sample         =  0.002
# Data Folded      =  7208960
# Data Avg         =  0.0122274928370965
# Data StdDev      =  0.999871177736074
# Profile Bins     =  512
# Profile Avg      =  172.114052524769 
# Profile StdDev   =  118.643889849869 
# Reduced chi-sqr  =  1.225
# Prob(Noise)      <  0.000358   (~3.4 sigma)
# P_topo (ms)      =  714.508862405512  +/- 0.000315
# P'_topo (s/s)    =  -0                +/- 1.69e-10
# P''_topo (s/s^2) =  0                 +/- 7.62e-14
# P_bary (ms)      =  N/A
# P'_bary (s/s)    =  N/A
# P''_bary (s/s^2) =  N/A
# P_orb (s)        =  N/A
# asin(i)/c (s)    =  N/A
# eccentricity     =  N/A
# w (rad)          =  N/A
# T_peri           =  N/A
######################################################
   0  724.5955
   1  758.8494
   2  521.9871
   3  190.623
   4  221.1694
   5  349.3319
   6  210.1221
   7  121.7594
   8  156.8648
   9  223.8007
  10  334.3159
  11  268.6188
  12  242.1304
  13  293.2786
  14  238.7709
  15  311.8504
  16  286.2424
  17  216.0611
  18  241.7065
  19  206.2741
  20  199.2834
  21  257.3021
  22  144.0794
  23  131.5587
  24  140.8087
  25  312.0641
  26  308.6465
  27  330.0326
  28  355.5722
  29  298.7277
  30  235.4842
  31  141.7992
  32  217.3105
  33  253.1397
  34  159.5246
  35  251.6645
  36  255.3839
  37  253.3194
  38  201.24
  39  239.8851
  40  217.1758
  41  153.5679
  42  168.1505
  43  135.9931
  44  128.1793
  45  187.6239
  46  219.1587
  47  156.6236
  48  166.0933
  49  88.97353
  50  25.47334
  51  199.084
  52  213.8884
  53  231.4466
  54  234.8583
  55  227.6106
  56  100.8963
  57  186.5615
  58  180.1586
  59  102.809
  60  107.7315
  61  117.5976
  62  67.35213
  63  122.7773
  64  164.0807
  65  235.1466
  66  274.7794
  67  198.9533
  68  241.6635
  69  229.1514
  70  108.5822
  71  112.1976
  72  150.6108
  73  20.01538
  74  198.2966
  75  147.6483
  76  149.7995
  77  149.8502
  78  130.961
  79  133.022
  80  -16.99938
  81  19.96808
  82  22.31555
  83  87.43437
  84  75.75914
  85  69.60773
  86  87.17103
  87  226.8389
  88  163.8834
  89  230.8718
  90  265.8792
  91  249.1912
  92  169.0122
  93  -23.01145
  94  103.587
  95  63.25228
  96  20.41307
  97  -80.53596
  98  -8.817955
  99  156.0605
 100  98.75572
 101  9.664259
 102  -42.68736
 103  24.64381
 104  224.4136
 105  160.6016
 106  129.724
 107  212.4803
 108  226.8169
 109  318.1515
 110  205.2466
 111  229.1254
 112  122.1523
 113  103.3292
 114  182.674
 115  133.0422
 116  229.2986
 117  201.8606
 118  119.5317
 119  79.72468
 120  118.5267
 121  96.28053
 122  122.1926
 123  98.11394
 124  167.9908
 125  290.8475
 126  149.5309
 127  208.8224
 128  244.8996
 129  195.9518
 130  79.84464
 131  93.3354
 132  95.73414
 133  192.4431
 134  126.2031
 135  182.2285
 136  193.1487
 137  270.0521
 138  258.1156
 139  206.5361
 140  213.9367
 141  108.0885
 142  105.0599
 143  220.5154
 144  123.4783
 145  11.15693
 146  64.85258
 147  44.14045
 148  37.48582
 149  71.52647
 150  96.42038
 151  50.53184
 152  63.42195
 153  67.89104
 154  47.59833
 155  177.862
 156  120.7202
 157  145.0389
 158  238.0065
 159  140.7214
 160  49.46496
 161  105.4139
 162  379.4436
 163  181.5239
 164  81.63909
 165  37.2756
 166  75.30521
 167  13.49693
 168  39.72567
 169  130.7296
 170  112.3238
 171  264.904
 172  211.938
 173  201.451
 174  196.6995
 175  160.9668
 176  68.42936
 177  185.4017
 178  337.4335
 179  165.9048
 180  180.6958
 181  262.0403
 182  284.9246
 183  281.8715
 184  344.9896
 185  196.1535
 186  67.10334
 187  101.488
 188  149.4462
 189  255.2985
 190  131.8518
 191  46.74858
 192  136.6646
 193  168.8358
 194  139.1843
 195  72.39847
 196  125.896
 197  123.23
 198  73.4437
 199  84.2759
 200  179.2937
 201  120.6437
 202  188.8314
 203  158.996
 204  90.85498
 205  184.735
 206  299.0048
 207  257.88
 208  41.00723
 209  -15.84312
 210  93.538
 211  149.3963
 212  32.96258
 213  -29.42243
 214  15.85184
 215  144.6687
 216  159.4322
 217  88.23785
 218  63.33518
 219  116.8724
 220  123.3411
 221  130.5382
 222  171.3315
 223  119.7259
 224  81.98203
 225  84.62728
 226  121.4261
 227  140.5856
 228  130.9472
 229  183.6501
 230  147.3934
 231  189.4845
 232  185.6217
 233  152.6162
 234  125.4396
 235  212.2386
 236  159.9608
 237  129.0105
 238  145.7552
 239  251.817
 240  199.6306
 241  154.6005
 242  288.243
 243  348.4539
 244  151.5906
 245  137.0675
 246  330.2244
 247  367.5108
 248  291.4736
 249  309.4187
 250  181.5095
 251  205.5545
 252  173.6906
 253  138.6064
 254  203.7252
 255  101.2781
 256  44.90702
 257  78.1673
 258  234.9524
 259  205.452
 260  147.681
 261  4.172199
 262  35.60336
 263  139.6794
 264  190.7685
 265  209.5665
 266  249.0337
 267  233.8114
 268  98.7208
 269  16.07245
 270  147.6473
 271  217.45
 272  170.5348
 273  160.1584
 274  171.8912
 275  77.04588
 276  42.19341
 277  94.51495
 278  186.8987
 279  174.5592
 280  140.851
 281  149.5922
 282  60.19611
 283  166.6223
 284  43.85161
 285  52.44623
 286  77.69138
 287  147.7025
 288  219.1445
 289  119.3795
 290  103.7819
 291  39.41316
 292  118.0685
 293  94.58501
 294  83.88212
 295  176.893
 296  274.6331
 297  166.8041
 298  95.63194
 299  71.42204
 300  126.4848
 301  276.2343
 302  238.2361
 303  294.6247
 304  271.6988
 305  245.7731
 306  189.0724
 307  288.8255
 308  313.0899
 309  241.903
 310  309.4409
 311  139.4029
 312  108.3664
 313  230.8311
 314  232.9684
 315  202.2324
 316  228.662
 317  236.6556
 318  231.0505
 319  115.7177
 320  217.924
 321  226.1302
 322  388.0289
 323  330.7565
 324  158.188
 325  76.0946
 326  41.80343
 327  212.8604
 328  56.08016
 329  182.7292
 330  214.2779
 331  110.8957
 332  59.781
 333  119.1089
 334  205.1291
 335  248.5395
 336  105.6253
 337  77.82481
 338  205.4948
 339  275.9091
 340  127.1274
 341  221.9192
 342  223.0538
 343  170.676
 344  127.8859
 345  115.1689
 346  196.7092
 347  89.3092
 348  112.6917
 349  137.608
 350  165.2052
 351  200.4982
 352  289.7164
 353  181.853
 354  23.66777
 355  148.2502
 356  203.7029
 357  221.3411
 358  201.54
 359  219.6346
 360  201.076
 361  39.08331
 362  172.6829
 363  180.97
 364  140.0651
 365  99.35184
 366  109.2808
 367  258.4476
 368  80.5842
 369  86.58376
 370  157.2466
 371  182.677
 372  192.2762
 373  182.8192
 374  232.7022
 375  172.1909
 376  190.0999
 377  180.0758
 378  52.47426
 379  75.16988
 380  111.0435
 381  184.6269
 382  304.6233
 383  149.2519
 384  171.2705
 385  182.6302
 386  154.1251
 387  259.925
 388  227.7436
 389  233.7521
 390  294.4446
 391  189.9599
 392  332.9575
 393  288.1038
 394  171.4606
 395  217.9602
 396  202.7031
 397  217.6528
 398  100.4801
 399  231.3545
 400  185.9438
 401  53.94388
 402  169.1087
 403  186.9628
 404  178.4158
 405  118.4809
 406  156.1886
 407  139.1787
 408  67.81897
 409  82.58937
 410  108.5115
 411  39.72554
 412  154.4814
 413  181.4679
 414  46.97742
 415  28.6383
 416  106.0965
 417  215.8429
 418  188.2461
 419  151.7176
 420  178.8235
 421  228.2447
 422  195.7096
 423  193.0393
 424  187.54
 425  145.4348
 426  227.7847
 427  164.4862
 428  20.59435
 429  133.2756
 430  270.4211
 431  252.3937
 432  102.2857
 433  88.11855
 434  268.9749
 435  226.7468
 436  203.559
 437  179.6563
 438  131.9289
 439  72.36543
 440  108.9716
 441  250.1993
 442  289.514
 443  193.2349
 444  128.029
 445  130.4785
 446  246.9935
 447  267.0294
 448  133.8823
 449  181.7466
 450  264.8621
 451  261.3076
 452  271.9007
 453  148.0713
 454  66.90485
 455  95.51559
 456  147.8237
 457  164.2449
 458  194.2696
 459  208.6077
 460  186.326
 461  132.5197
 462  157.9641
 463  191.7683
 464  178.1629
 465  183.4631
 466  274.9904
 467  268.1355
 468  225.3571
 469  111.6112
 470  165.1249
 471  185.4763
 472  87.5046
 473  295.6777
 474  305.9612
 475  231.311
 476  238.1397
 477  201.6273
 478  143.7566
 479  194.4447
 480  209.233
 481  150.4263
 482  61.11678
 483  -53.43415
 484  133.1775
 485  184.2221
 486  166.4022
 487  100.9053
 488  65.7972
 489  90.59174
 490  222.9684
 491  217.2921
 492  289.2355
 493  251.1818
 494  197.089
 495  219.0237
 496  149.1718
 497  133.2007
 498  175.4007
 499  190.5757
 500  222.5098
 501  249.0118
 502  165.6567
 503  290.1974
 504  241.1574
 505  176.0565
 506  220.0299
 507  351.2414
 508  417.9262
 509  503.485
 510  634.7407
 511  678.4026
