# Input file       =  1194985250.121086_cleaned.dat
# Candidate        =  PSR_0332+5434
# Telescope        =  AR
# Epoch_topo       =  58074.847593994047
# Epoch_bary       =  N/A
# T_sample         =  0.002
# Data Folded      =  7340032
# Data Avg         =  0.0663541904439826
# Data StdDev      =  1.00019301809966 
# Profile Bins     =  512
# Profile Avg      =  951.21436445864  
# Profile StdDev   =  119.756147019914 
# Reduced chi-sqr  =  0.526
# Prob(Noise)      <  1   (~0.0 sigma)
# P_topo (ms)      =  714.512096982817  +/- 0.00205
# P'_topo (s/s)    =  -0                +/- 1.08e-09
# P''_topo (s/s^2) =  0                 +/- 4.78e-13
# P_bary (ms)      =  N/A
# P'_bary (s/s)    =  N/A
# P''_bary (s/s^2) =  N/A
# P_orb (s)        =  N/A
# asin(i)/c (s)    =  N/A
# eccentricity     =  N/A
# w (rad)          =  N/A
# T_peri           =  N/A
######################################################
   0  1183.183
   1  1186.769
   2  1197.3
   3  1109.059
   4  1076.845
   5  1106.695
   6  972.4274
   7  913.3857
   8  899.9343
   9  975.6325
  10  945.6086
  11  999.6041
  12  1010.428
  13  965.1845
  14  929.3991
  15  1014.188
  16  1008.05
  17  937.391
  18  918.4464
  19  1000.197
  20  961.2385
  21  961.2147
  22  902.7246
  23  902.3757
  24  961.7052
  25  994.8228
  26  890.4449
  27  971.1516
  28  925.0519
  29  902.9248
  30  908.1599
  31  886.0702
  32  922.49
  33  948.2353
  34  947.9235
  35  971.0987
  36  1024.238
  37  1059.79
  38  1011.037
  39  932.38
  40  1003.36
  41  1009.053
  42  860.7682
  43  890.7798
  44  972.1683
  45  963.7155
  46  883.7697
  47  832.1338
  48  902.5355
  49  886.6347
  50  915.8658
  51  905.0967
  52  903.8614
  53  923.7196
  54  935.4915
  55  1052.03
  56  1017.885
  57  1044.747
  58  1034.173
  59  939.709
  60  925.9639
  61  953.8149
  62  973.1713
  63  907.8958
  64  834.2851
  65  950.184
  66  1023.009
  67  933.2952
  68  865.196
  69  905.5131
  70  914.1451
  71  865.9526
  72  909.3277
  73  937.1184
  74  889.0583
  75  865.1896
  76  973.0566
  77  864.2059
  78  898.5101
  79  820.1941
  80  765.7285
  81  827.756
  82  957.2672
  83  1003.913
  84  1044.319
  85  917.8999
  86  963.0295
  87  963.7922
  88  825.8924
  89  866.7154
  90  953.514
  91  899.8962
  92  903.3627
  93  935.0643
  94  917.4552
  95  878.0021
  96  871.5236
  97  905.3367
  98  895.8921
  99  1024.116
 100  998.5986
 101  946.3825
 102  825.8715
 103  857.2107
 104  925.9254
 105  965.4824
 106  976.796
 107  945.7429
 108  1021.101
 109  1099.429
 110  980.7189
 111  896.1542
 112  918.1722
 113  967.5068
 114  942.4563
 115  955.7162
 116  987.5444
 117  950.8071
 118  955.9316
 119  1020.192
 120  946.9825
 121  826.7538
 122  905.5508
 123  1065.527
 124  1002.608
 125  981.9601
 126  909.8608
 127  987.6036
 128  924.6699
 129  799.051
 130  851.0851
 131  880.2654
 132  877.0905
 133  943.4416
 134  996.7369
 135  1038.942
 136  913.0614
 137  936.3126
 138  1015.183
 139  987.312
 140  1014.009
 141  953.223
 142  941.5848
 143  874.3692
 144  895.6772
 145  919.9377
 146  905.1456
 147  962.4103
 148  960.6694
 149  920.7988
 150  901.3978
 151  948.4885
 152  963.9532
 153  877.9474
 154  919.6238
 155  1001.005
 156  962.0902
 157  949.5475
 158  950.5354
 159  920.8476
 160  912.5456
 161  869.7018
 162  899.0446
 163  884.4068
 164  796.9832
 165  809.4172
 166  858.1055
 167  975.858
 168  952.0303
 169  894.5388
 170  989.7719
 171  997.53
 172  1031.052
 173  996.6924
 174  1012.009
 175  995.0401
 176  1044.1
 177  966.8679
 178  920.8751
 179  938.1769
 180  978.2278
 181  1010.472
 182  970.3079
 183  943.2372
 184  903.7682
 185  838.9106
 186  856.2745
 187  994.1289
 188  893.491
 189  782.8257
 190  910.545
 191  1001.717
 192  954.4756
 193  876.3331
 194  929.6872
 195  976.8836
 196  1026.111
 197  925.1835
 198  935.9318
 199  1010.231
 200  890.0671
 201  939.5171
 202  979.0755
 203  898.0978
 204  879.627
 205  955.7021
 206  945.4856
 207  870.9678
 208  920.3403
 209  1045.094
 210  990.9097
 211  926.7165
 212  887.894
 213  1047.732
 214  954.5919
 215  918.1669
 216  968.1965
 217  944.325
 218  888.7953
 219  956.6332
 220  920.6689
 221  935.6507
 222  870.5544
 223  928.171
 224  930.6991
 225  921.1512
 226  937.5312
 227  912.8805
 228  911.2354
 229  744.3261
 230  832.6752
 231  908.7678
 232  1014.857
 233  987.6365
 234  924.8538
 235  926.1346
 236  950.3589
 237  830.8788
 238  847.7917
 239  860.5823
 240  964.4885
 241  926.0997
 242  886.5609
 243  995.0662
 244  946.9711
 245  908.426
 246  922.2166
 247  890.985
 248  939.0791
 249  961.0552
 250  975.4249
 251  913.4085
 252  909.2975
 253  965.8412
 254  963.3582
 255  878.0634
 256  814.1334
 257  942.9854
 258  1028.531
 259  958.5636
 260  842.9162
 261  820.506
 262  922.2073
 263  1014.599
 264  970.7452
 265  987.712
 266  952.728
 267  949.4952
 268  953.3115
 269  983.0629
 270  935.1131
 271  1017.991
 272  1031.375
 273  1006.848
 274  955.0122
 275  916.3327
 276  971.9617
 277  975.6807
 278  920.6375
 279  862.44
 280  883.7783
 281  1108.975
 282  1085.68
 283  1012.66
 284  1017.966
 285  970.9988
 286  957.7396
 287  897.9472
 288  980.0665
 289  948.1138
 290  924.9978
 291  911.6569
 292  937.3355
 293  985.6421
 294  920.7535
 295  942.3057
 296  943.8781
 297  963.0396
 298  973.3281
 299  1003.26
 300  977.5075
 301  1000.785
 302  1077.442
 303  1060.696
 304  1087.606
 305  1056.75
 306  1018.383
 307  963.7982
 308  951.4301
 309  974.4122
 310  925.3205
 311  958.0042
 312  1010.91
 313  1042.277
 314  1062.34
 315  999.5112
 316  952.811
 317  960.2744
 318  997.184
 319  983.3333
 320  1012.55
 321  1043.195
 322  1059.065
 323  1082.648
 324  1063.297
 325  1007.034
 326  1001.312
 327  1048.959
 328  1077.867
 329  1035.8
 330  1046.771
 331  973.6871
 332  857.7095
 333  878.4479
 334  981.0696
 335  980.6864
 336  920.857
 337  836.7181
 338  914.1151
 339  915.0652
 340  1016.876
 341  947.3492
 342  837.3109
 343  905.2078
 344  907.5133
 345  906.3621
 346  940.0513
 347  965.3682
 348  915.9177
 349  901.5958
 350  922.86
 351  989.4538
 352  896.5665
 353  914.2855
 354  891.4212
 355  981.3033
 356  939.5259
 357  997.7937
 358  995.5961
 359  938.4608
 360  937.244
 361  957.2948
 362  951.4802
 363  844.5378
 364  997.0058
 365  1012.154
 366  913.9315
 367  931.575
 368  935.7756
 369  880.5725
 370  881.2499
 371  871.4459
 372  853.212
 373  995.9419
 374  1026.654
 375  1036.184
 376  1013.203
 377  971.5273
 378  1007.359
 379  950.8541
 380  960.8748
 381  1008.803
 382  911.0471
 383  855.7625
 384  863.7854
 385  924.7689
 386  952.9411
 387  920.3569
 388  946.9631
 389  871.0584
 390  823.8378
 391  916.1199
 392  886.2902
 393  928.8581
 394  911.0424
 395  951.3077
 396  1002.616
 397  929.7238
 398  1002.274
 399  1062.58
 400  959.2498
 401  987.3767
 402  970.6823
 403  969.7618
 404  1026.762
 405  1011.941
 406  997.584
 407  1008.975
 408  1007.084
 409  953.9485
 410  988.7742
 411  935.6025
 412  949.1427
 413  907.8446
 414  903.0291
 415  953.7076
 416  944.5741
 417  900.2151
 418  925.4082
 419  905.5301
 420  905.9598
 421  976.3154
 422  948.2925
 423  949.3883
 424  966.5801
 425  951.0034
 426  929.5475
 427  860.5511
 428  924.8826
 429  985.4032
 430  922.6401
 431  899.9562
 432  892.0546
 433  902.475
 434  979.7238
 435  910.5307
 436  888.0561
 437  961.2608
 438  934.8983
 439  967.8186
 440  892.954
 441  951.2835
 442  936.0775
 443  952.6003
 444  996.0233
 445  908.631
 446  871.0107
 447  884.3217
 448  935.3552
 449  967.8602
 450  908.7025
 451  909.0264
 452  950.2919
 453  1007.058
 454  975.5765
 455  1011.878
 456  1035.519
 457  1026.764
 458  997.4454
 459  1011.3
 460  918.3924
 461  863.4355
 462  925.8275
 463  1052.101
 464  1060.86
 465  969.1267
 466  949.1983
 467  966.8386
 468  868.0953
 469  912.6245
 470  896.5068
 471  973.3752
 472  941.5753
 473  1006.734
 474  928.217
 475  994.0076
 476  1013.811
 477  934.6711
 478  1002.814
 479  945.3112
 480  984.1954
 481  984.9133
 482  1067.707
 483  1035.532
 484  1014.742
 485  1053.422
 486  990.0663
 487  902.9042
 488  915.8846
 489  1008.271
 490  1042.83
 491  976.0556
 492  964.8012
 493  931.9296
 494  917.4209
 495  896.4404
 496  977.8124
 497  952.0713
 498  988.2617
 499  981.727
 500  996.1613
 501  1029.481
 502  974.5544
 503  1033.28
 504  1010.807
 505  968.8947
 506  1037.866
 507  1065.836
 508  1010.071
 509  974.7906
 510  1114.061
 511  1159.525
