# Input file       =  1195502192.101845_cleaned.dat
# Candidate        =  PSR_0332+5434
# Telescope        =  AR
# Epoch_topo       =  58080.830718771358
# Epoch_bary       =  N/A
# T_sample         =  0.002
# Data Folded      =  7340032
# Data Avg         =  0.0601848189979186
# Data StdDev      =  1.00011082207458 
# Profile Bins     =  512
# Profile Avg      =  862.549788584078 
# Profile StdDev   =  119.746305440253 
# Reduced chi-sqr  =  0.724
# Prob(Noise)      <  1   (~0.0 sigma)
# P_topo (ms)      =  714.518264033485  +/- 6.97e-05
# P'_topo (s/s)    =  -0                +/- 3.68e-11
# P''_topo (s/s^2) =  0                 +/- 1.62e-14
# P_bary (ms)      =  N/A
# P'_bary (s/s)    =  N/A
# P''_bary (s/s^2) =  N/A
# P_orb (s)        =  N/A
# asin(i)/c (s)    =  N/A
# eccentricity     =  N/A
# w (rad)          =  N/A
# T_peri           =  N/A
######################################################
   0  1264.404
   1  1120.648
   2  1018.823
   3  969.8604
   4  864.8164
   5  822.8746
   6  857.6229
   7  924.1467
   8  892.7863
   9  812.2161
  10  800.2596
  11  886.5462
  12  923.8907
  13  900.6675
  14  907.0812
  15  912.0599
  16  881.9799
  17  830.9116
  18  880.6568
  19  850.0094
  20  825.0701
  21  809.97
  22  844.1308
  23  859.5531
  24  944.4855
  25  857.0157
  26  838.1703
  27  854.1871
  28  890.1934
  29  956.925
  30  926.8934
  31  776.399
  32  788.5655
  33  834.5719
  34  815.3629
  35  887.5204
  36  877.8236
  37  897.9989
  38  803.9803
  39  769.5349
  40  985.0706
  41  957.7414
  42  813.6718
  43  825.2495
  44  866.0878
  45  927.7471
  46  897.8677
  47  900.2321
  48  862.4189
  49  876.2697
  50  869.0463
  51  876.7211
  52  789.7962
  53  879.0878
  54  878.3214
  55  885.7567
  56  922.7036
  57  889.6445
  58  937.6466
  59  913.6919
  60  849.45
  61  857.055
  62  882.8953
  63  796.075
  64  704.3718
  65  748.0806
  66  783.8316
  67  806.1226
  68  770.8706
  69  820.5806
  70  802.8251
  71  751.3873
  72  740.4243
  73  692.1892
  74  726.7858
  75  728.7559
  76  754.0127
  77  732.5992
  78  762.8377
  79  824.2531
  80  750.9738
  81  786.2928
  82  775.2917
  83  860.2368
  84  831.2086
  85  836.7606
  86  841.9283
  87  751.7831
  88  751.3526
  89  775.7418
  90  770.4855
  91  723.4294
  92  630.0922
  93  704.791
  94  846.087
  95  765.1736
  96  752.409
  97  825.5807
  98  805.0869
  99  824.8276
 100  775.7463
 101  839.3307
 102  711.2499
 103  665.756
 104  826.0582
 105  796.1158
 106  719.3065
 107  900.6405
 108  988.2767
 109  971.2094
 110  894.0768
 111  907.5556
 112  903.3394
 113  868.9813
 114  865.4673
 115  996.0638
 116  899.3178
 117  848.5422
 118  776.7565
 119  781.7797
 120  800.3591
 121  803.5109
 122  872.439
 123  852.6238
 124  828.1067
 125  842.8385
 126  836.445
 127  855.938
 128  845.86
 129  863.8445
 130  899.543
 131  912.2269
 132  798.7531
 133  946.5484
 134  976.7896
 135  896.0864
 136  965.5466
 137  921.8408
 138  921.4886
 139  890.477
 140  871.4631
 141  755.5741
 142  715.8309
 143  745.6163
 144  899.7842
 145  875.7219
 146  778.7818
 147  806.8873
 148  807.6304
 149  807.7936
 150  828.2273
 151  878.8966
 152  863.5215
 153  780.1475
 154  839.9228
 155  893.981
 156  812.4909
 157  771.2419
 158  856.1165
 159  805.0033
 160  835.1367
 161  947.4103
 162  995.2813
 163  868.1365
 164  909.5773
 165  859.0988
 166  899.9623
 167  862.303
 168  827.3973
 169  860.5172
 170  769.5571
 171  950.5719
 172  918.5461
 173  923.3025
 174  923.9634
 175  917.6949
 176  815.5167
 177  743.5419
 178  767.1138
 179  878.9247
 180  882.968
 181  811.1812
 182  802.2491
 183  892.0703
 184  836.901
 185  842.6556
 186  897.4876
 187  932.0776
 188  892.0646
 189  748.0677
 190  812.2303
 191  815.8596
 192  823.1606
 193  755.7649
 194  908.9457
 195  941.9003
 196  976.1937
 197  920.9289
 198  873.7389
 199  879.244
 200  795.7057
 201  770.5057
 202  962.5079
 203  875.1135
 204  775.9355
 205  868.2318
 206  924.4741
 207  914.107
 208  852.7291
 209  889.383
 210  883.0222
 211  846.0449
 212  827.4291
 213  849.6718
 214  861.1334
 215  838.0209
 216  903.5649
 217  799.6123
 218  880.9213
 219  920.7652
 220  944.3862
 221  879.9202
 222  877.3875
 223  895.5985
 224  936.6248
 225  863.7365
 226  892.0836
 227  873.2416
 228  877.165
 229  908.8538
 230  892.7974
 231  871.6119
 232  868.9177
 233  818.074
 234  864.1223
 235  809.0424
 236  875.8607
 237  975.3071
 238  949.7908
 239  882.7377
 240  898.6523
 241  875.2639
 242  806.3043
 243  919.6588
 244  1092.75
 245  994.392
 246  931.5375
 247  927.078
 248  930.3025
 249  888.9514
 250  920.5002
 251  850.5133
 252  866.5636
 253  919.5507
 254  925.3713
 255  845.5371
 256  826.4899
 257  915.4039
 258  942.0011
 259  893.9034
 260  792.1768
 261  847.8094
 262  905.5583
 263  914.3155
 264  859.3002
 265  789.0436
 266  768.0443
 267  796.7659
 268  861.4918
 269  878.6362
 270  759.4735
 271  826.0183
 272  777.4335
 273  783.942
 274  781.6892
 275  783.1514
 276  838.9827
 277  857.8278
 278  846.0109
 279  884.2346
 280  767.7051
 281  742.3645
 282  779.8948
 283  885.6719
 284  878.4682
 285  767.5971
 286  810.3279
 287  902.7053
 288  932.7878
 289  962.9408
 290  976.6183
 291  1031.675
 292  989.8929
 293  900.9514
 294  862.1918
 295  817.8096
 296  893.2889
 297  872.4078
 298  830.0624
 299  811.2202
 300  843.165
 301  902.1332
 302  906.7041
 303  878.5043
 304  878.0469
 305  882.7005
 306  913.5718
 307  887.3334
 308  914.0686
 309  874.0247
 310  820.7271
 311  960.2552
 312  947.3909
 313  905.1525
 314  852.974
 315  923.285
 316  1010.571
 317  907.7026
 318  900.3754
 319  928.0124
 320  909.2619
 321  901.5885
 322  866.5371
 323  925.386
 324  920.129
 325  960.1096
 326  972.4598
 327  920.0255
 328  848.2801
 329  843.5894
 330  863.6027
 331  793.7455
 332  900.103
 333  944.0802
 334  975.2822
 335  961.4008
 336  869.6824
 337  882.6796
 338  878.2214
 339  920.9266
 340  973.399
 341  937.2288
 342  889.278
 343  811.5251
 344  881.0911
 345  901.3581
 346  784.5962
 347  878.7888
 348  910.0897
 349  844.255
 350  840.476
 351  901.3201
 352  927.7742
 353  825.8597
 354  856.5591
 355  864.715
 356  787.9639
 357  764.1887
 358  805.7549
 359  870.347
 360  843.0682
 361  875.4162
 362  864.1923
 363  868.9922
 364  888.1493
 365  897.0795
 366  906.3295
 367  828.9552
 368  787.5676
 369  853.3326
 370  866.5544
 371  846.739
 372  852.4844
 373  906.8635
 374  927.1729
 375  915.2504
 376  869.3142
 377  845.3427
 378  851.5829
 379  865.7589
 380  935.9229
 381  901.7554
 382  937.1321
 383  972.1815
 384  920.9967
 385  841.9907
 386  910.321
 387  872.0109
 388  907.5571
 389  896.4886
 390  892.6821
 391  946.4035
 392  909.1809
 393  983.8959
 394  927.6971
 395  831.5554
 396  760.4472
 397  686.9909
 398  757.862
 399  695.624
 400  759.6264
 401  821.7692
 402  845.2695
 403  744.8771
 404  711.8845
 405  813.3894
 406  833.1932
 407  816.9985
 408  804.9957
 409  837.4879
 410  740.3441
 411  795.4836
 412  796.5438
 413  867.7007
 414  863.8682
 415  806.0603
 416  784.9018
 417  780.1525
 418  783.1893
 419  760.212
 420  796.3571
 421  847.712
 422  874.5367
 423  913.9374
 424  905.3
 425  787.2979
 426  802.9891
 427  846.7245
 428  767.5266
 429  810.4318
 430  788.5252
 431  747.059
 432  778.2919
 433  771.92
 434  908.3831
 435  882.0974
 436  908.6191
 437  939.0035
 438  978.2014
 439  956.7122
 440  932.3975
 441  892.4379
 442  935.4717
 443  956.9338
 444  973.7763
 445  1057.182
 446  963.0553
 447  898.1777
 448  804.7684
 449  814.2682
 450  888.9857
 451  880.473
 452  921.7458
 453  884.8598
 454  825.9139
 455  942.145
 456  888.974
 457  850.7078
 458  909.9341
 459  984.8199
 460  943.2205
 461  919.6323
 462  940.1238
 463  856.1213
 464  743.0695
 465  767.1909
 466  812.681
 467  795.0779
 468  798.8632
 469  824.2706
 470  875.844
 471  823.3196
 472  962.4028
 473  994.103
 474  969.2153
 475  960.9283
 476  979.8627
 477  938.1187
 478  844.8954
 479  842.7234
 480  946.4475
 481  897.1059
 482  809.7643
 483  754.318
 484  892.4191
 485  882.8776
 486  788.6134
 487  814.9695
 488  895.1049
 489  771.8112
 490  737.1084
 491  773.598
 492  877.6569
 493  868.991
 494  852.8252
 495  890.2983
 496  841.379
 497  837.9135
 498  839.5637
 499  894.1689
 500  879.5469
 501  805.4692
 502  755.9733
 503  729.7803
 504  824.3602
 505  820.7032
 506  807.725
 507  878.4863
 508  986.6466
 509  947.6705
 510  1089.852
 511  1258.492
