# Input file       =  1195659868.110136_cleaned.dat
# Candidate        =  PSR_0332+5434
# Telescope        =  AR
# Epoch_topo       =  58082.655672571018
# Epoch_bary       =  N/A
# T_sample         =  0.002
# Data Folded      =  7143424
# Data Avg         =  0.0511174887175249
# Data StdDev      =  1.00035802261466 
# Profile Bins     =  512
# Profile Avg      =  713.181314543527 
# Profile StdDev   =  118.160873606323 
# Reduced chi-sqr  =  0.809
# Prob(Noise)      <  0.999   (~0.0 sigma)
# P_topo (ms)      =  714.520132902426  +/- 2.43e-05
# P'_topo (s/s)    =  -0                +/- 1.32e-11
# P''_topo (s/s^2) =  0                 +/- 5.97e-15
# P_bary (ms)      =  N/A
# P'_bary (s/s)    =  N/A
# P''_bary (s/s^2) =  N/A
# P_orb (s)        =  N/A
# asin(i)/c (s)    =  N/A
# eccentricity     =  N/A
# w (rad)          =  N/A
# T_peri           =  N/A
######################################################
   0  1034.005
   1  858.4659
   2  837.2201
   3  839.8782
   4  818.2212
   5  734.2638
   6  790.9965
   7  742.2811
   8  753.683
   9  794.2843
  10  864.0594
  11  773.6175
  12  683.9965
  13  748.2932
  14  729.1109
  15  630.0769
  16  675.2451
  17  778.7394
  18  828.6317
  19  770.8496
  20  708.2238
  21  696.4408
  22  663.4366
  23  681.1954
  24  723.5179
  25  722.0836
  26  657.9407
  27  631.651
  28  710.7542
  29  663.9318
  30  634.6404
  31  666.7399
  32  702.2057
  33  634.1331
  34  640.5755
  35  776.2377
  36  721.7645
  37  720.2054
  38  717.097
  39  784.2283
  40  690.863
  41  691.1089
  42  697.3704
  43  751.7231
  44  681.0731
  45  563.1255
  46  706.795
  47  767.3463
  48  742.6708
  49  787.3316
  50  779.8633
  51  836.4543
  52  758.0508
  53  765.8161
  54  695.6594
  55  547.0239
  56  597.5304
  57  705.2111
  58  671.857
  59  655.9216
  60  792.9067
  61  742.7311
  62  677.8735
  63  746.1035
  64  773.5299
  65  729.4919
  66  667.9644
  67  629.1311
  68  652.4457
  69  685.4862
  70  680.3176
  71  763.9085
  72  811.6368
  73  696.9976
  74  676.9789
  75  775.2089
  76  743.361
  77  692.7434
  78  802.4291
  79  818.0092
  80  775.2031
  81  692.8095
  82  714.0046
  83  618.8174
  84  638.9415
  85  721.6897
  86  732.4826
  87  594.1475
  88  675.2413
  89  771.2664
  90  708.5747
  91  657.7202
  92  774.4859
  93  857.6243
  94  877.0079
  95  680.5414
  96  729.162
  97  720.0278
  98  558.8251
  99  650.7343
 100  686.7628
 101  648.3585
 102  648.2604
 103  721.8121
 104  723.5558
 105  600.2855
 106  623.2663
 107  764.0895
 108  799.1865
 109  797.426
 110  894.2061
 111  814.703
 112  698.4288
 113  617.9858
 114  698.976
 115  822.3654
 116  788.8426
 117  835.5681
 118  845.3597
 119  681.3204
 120  605.148
 121  746.9252
 122  765.598
 123  761.6243
 124  706.2975
 125  801.4271
 126  763.7939
 127  647.7336
 128  665.6312
 129  649.4379
 130  573.5654
 131  615.215
 132  786.9758
 133  746.5861
 134  763.9454
 135  734.2131
 136  715.2449
 137  651.4457
 138  681.7064
 139  744.5966
 140  681.8449
 141  690.6152
 142  679.7981
 143  755.4485
 144  727.6287
 145  631.8062
 146  692.7216
 147  695.5905
 148  599.6859
 149  615.3511
 150  647.3235
 151  606.0239
 152  623.0927
 153  669.282
 154  801.087
 155  783.6724
 156  769.6358
 157  806.2767
 158  764.5948
 159  700.541
 160  692.6075
 161  754.8563
 162  772.4385
 163  742.5975
 164  864.2011
 165  803.1941
 166  698.5328
 167  817.7098
 168  897.4368
 169  768.8818
 170  601.748
 171  670.4574
 172  671.7771
 173  631.5009
 174  668.3293
 175  753.5991
 176  595.9335
 177  602.5401
 178  607.8101
 179  675.2121
 180  841.2876
 181  778.0472
 182  794.85
 183  697.5541
 184  584.7497
 185  599.2944
 186  729.1059
 187  586.1866
 188  541.4517
 189  804.1281
 190  862.5009
 191  694.565
 192  658.7127
 193  647.5374
 194  630.3387
 195  727.4791
 196  814.9897
 197  746.5403
 198  658.5226
 199  624.8617
 200  667.9615
 201  571.8573
 202  517.4512
 203  566.5616
 204  632.8309
 205  615.1956
 206  520.3603
 207  635.4409
 208  820.0531
 209  852.5821
 210  754.2767
 211  727.7919
 212  671.884
 213  691.8535
 214  742.2823
 215  754.947
 216  676.1354
 217  782.4835
 218  788.4185
 219  751.7991
 220  682.3835
 221  691.824
 222  711.0778
 223  651.3839
 224  695.3129
 225  726.5556
 226  668.0655
 227  557.0936
 228  597.6027
 229  644.167
 230  645.9371
 231  631.9301
 232  616.5179
 233  604.004
 234  519.197
 235  625.7552
 236  713.9341
 237  732.4223
 238  763.7032
 239  852.3709
 240  837.2586
 241  696.5835
 242  634.1341
 243  674.3832
 244  651.8569
 245  646.3046
 246  757.3711
 247  728.6744
 248  683.0219
 249  693.768
 250  757.0344
 251  732.6375
 252  619.3763
 253  725.0219
 254  815.4491
 255  741.5368
 256  616.5917
 257  598.6067
 258  615.1514
 259  586.7521
 260  680.9536
 261  749.0649
 262  690.4012
 263  622.4153
 264  701.1008
 265  666.9403
 266  565.3105
 267  669.8053
 268  795.9343
 269  709.996
 270  672.6929
 271  692.6848
 272  678.5648
 273  717.9401
 274  747.3827
 275  797.8123
 276  711.3044
 277  669.8236
 278  636.7542
 279  746.5607
 280  740.746
 281  840.6117
 282  981.7656
 283  846.521
 284  648.5977
 285  705.6251
 286  832.9724
 287  767.6497
 288  687.5491
 289  670.2549
 290  712.4378
 291  652.0502
 292  674.269
 293  722.5499
 294  761.0236
 295  761.2
 296  841.7329
 297  852.7726
 298  699.4229
 299  731.0249
 300  848.7392
 301  747.0414
 302  628.7543
 303  641.854
 304  735.3563
 305  660.4075
 306  656.2066
 307  735.7592
 308  755.6725
 309  714.0139
 310  728.1454
 311  685.6782
 312  639.014
 313  582.403
 314  668.3136
 315  771.8223
 316  721.0004
 317  680.9902
 318  809.3069
 319  804.0579
 320  661.6515
 321  704.5277
 322  690.8973
 323  680.8021
 324  599.7867
 325  683.6235
 326  637.0291
 327  571.4388
 328  622.8546
 329  661.5033
 330  630.9018
 331  645.3823
 332  742.3823
 333  744.9655
 334  672.571
 335  682.4088
 336  767.2613
 337  729.5302
 338  753.6264
 339  756.4562
 340  758.8359
 341  646.6096
 342  590.5339
 343  678.343
 344  630.7699
 345  607.4539
 346  595.2427
 347  665.3994
 348  723.7687
 349  652.5918
 350  686.2293
 351  732.8763
 352  714.4857
 353  645.5342
 354  805.5037
 355  802.9392
 356  716.4268
 357  711.7411
 358  719.244
 359  645.5313
 360  671.1024
 361  792.7698
 362  737.7981
 363  579.7797
 364  669.5104
 365  825.2936
 366  737.7297
 367  668.538
 368  730.4244
 369  751.5563
 370  626.0767
 371  659.1536
 372  701.9781
 373  747.0373
 374  755.4673
 375  687.932
 376  656.367
 377  601.1517
 378  699.4974
 379  715.1766
 380  762.1685
 381  759.86
 382  746.1725
 383  744.7584
 384  633.5208
 385  645.8235
 386  726.6719
 387  767.9703
 388  715.6097
 389  822.7561
 390  885.8668
 391  770.1719
 392  766.6171
 393  746.9391
 394  812.3389
 395  787.4939
 396  809.3241
 397  921.291
 398  872.2414
 399  783.1679
 400  800.2917
 401  838.7789
 402  641.0161
 403  610.3978
 404  627.9935
 405  600.6376
 406  615.7371
 407  644.8763
 408  713.8307
 409  652.5751
 410  687.6245
 411  737.9631
 412  744.3134
 413  641.832
 414  710.0167
 415  733.0661
 416  706.4648
 417  713.6038
 418  739.8965
 419  713.5819
 420  664.9208
 421  633.1125
 422  765.1981
 423  668.3176
 424  674.4737
 425  740.1272
 426  770.8398
 427  686.499
 428  685.3962
 429  835.0385
 430  707.2684
 431  719.9055
 432  826.6683
 433  847.1826
 434  704.0494
 435  689.1205
 436  799.4806
 437  814.1751
 438  655.1089
 439  661.5841
 440  697.7877
 441  633.0612
 442  564.2342
 443  680.4885
 444  733.696
 445  657.4503
 446  739.0176
 447  777.6786
 448  763.0609
 449  756.3633
 450  845.2487
 451  851.4446
 452  729.7544
 453  710.4738
 454  750.6392
 455  706.0095
 456  556.455
 457  703.3777
 458  746.6525
 459  727.3036
 460  706.4262
 461  795.4673
 462  774.3576
 463  775.0394
 464  776.428
 465  870.815
 466  730.2387
 467  669.2295
 468  714.2847
 469  695.2346
 470  622.6356
 471  546.1772
 472  698.7173
 473  720.4527
 474  681.8262
 475  722.7025
 476  751.3853
 477  728.0923
 478  688.4619
 479  746.7343
 480  712.5303
 481  680.2629
 482  700.7449
 483  781.2208
 484  682.1783
 485  644.9946
 486  740.9208
 487  769.4482
 488  744.453
 489  663.6873
 490  689.7004
 491  639.5399
 492  634.7469
 493  599.7854
 494  653.1243
 495  645.637
 496  724.4603
 497  872.6575
 498  806.7941
 499  683.0552
 500  663.3548
 501  735.9096
 502  654.9565
 503  665.923
 504  753.5036
 505  802.8533
 506  744.7361
 507  782.7429
 508  841.193
 509  857.4882
 510  951.4409
 511  1000.243
