# Input file       =  1195243722.108974_cleaned.dat
# Candidate        =  PSR_0332+5434
# Telescope        =  AR
# Epoch_topo       =  58077.839167927938
# Epoch_bary       =  N/A
# T_sample         =  0.002
# Data Folded      =  7340032
# Data Avg         =  0.0524157933180441
# Data StdDev      =  1.000103262193   
# Profile Bins     =  512
# Profile Avg      =  751.701445022873 
# Profile StdDev   =  119.745400272677 
# Reduced chi-sqr  =  0.843
# Prob(Noise)      <  0.996   (~0.0 sigma)
# P_topo (ms)      =  714.51517043594   +/- 4.6e-05
# P'_topo (s/s)    =  -0                +/- 2.43e-11
# P''_topo (s/s^2) =  0                 +/- 1.07e-14
# P_bary (ms)      =  N/A
# P'_bary (s/s)    =  N/A
# P''_bary (s/s^2) =  N/A
# P_orb (s)        =  N/A
# asin(i)/c (s)    =  N/A
# eccentricity     =  N/A
# w (rad)          =  N/A
# T_peri           =  N/A
######################################################
   0  1156.435
   1  1151.787
   2  1055.254
   3  857.5013
   4  800.6996
   5  738.5359
   6  825.2321
   7  779.9795
   8  739.0956
   9  756.633
  10  773.0057
  11  741.0555
  12  711.1895
  13  768.9029
  14  684.8843
  15  649.2496
  16  797.46
  17  759.6843
  18  687.4937
  19  734.6714
  20  692.8517
  21  714.4509
  22  663.3348
  23  726.4761
  24  711.8236
  25  718.0973
  26  752.2817
  27  812.4226
  28  773.847
  29  790.2616
  30  755.8224
  31  775.749
  32  795.9758
  33  728.8126
  34  737.5605
  35  755.6273
  36  805.5393
  37  807.4312
  38  665.4991
  39  652.593
  40  682.1128
  41  690.6904
  42  771.6101
  43  752.842
  44  829.4476
  45  820.8171
  46  698.622
  47  783.9832
  48  784.0656
  49  782.1071
  50  840.9515
  51  818.4138
  52  910.1197
  53  841.8349
  54  633.7446
  55  646.314
  56  684.5906
  57  702.3542
  58  728.1962
  59  808.7465
  60  865.9843
  61  778.8787
  62  746.0303
  63  775.7287
  64  669.0413
  65  761.0248
  66  853.2143
  67  869.9216
  68  720.955
  69  719.1268
  70  804.0688
  71  820.2851
  72  804.1339
  73  752.0516
  74  756.551
  75  785.8776
  76  865.5933
  77  795.3229
  78  748.1558
  79  744.2642
  80  774.6844
  81  824.5204
  82  794.4451
  83  884.879
  84  871.3755
  85  801.8533
  86  829.3403
  87  843.5865
  88  881.6729
  89  802.4335
  90  753.9454
  91  790.5159
  92  804.05
  93  717.8798
  94  746.5001
  95  795.3348
  96  861.8551
  97  763.205
  98  803.4244
  99  795.5509
 100  643.7297
 101  674.9394
 102  873.4798
 103  918.1828
 104  830.477
 105  747.1257
 106  658.6799
 107  603.4694
 108  668.6495
 109  798.2797
 110  790.2294
 111  761.6405
 112  674.9232
 113  709.3666
 114  683.3904
 115  642.3342
 116  693.9953
 117  680.14
 118  651.5447
 119  651.1989
 120  822.4586
 121  849.0865
 122  761.7454
 123  807.2546
 124  843.3162
 125  810.8295
 126  846.5034
 127  780.6997
 128  745.3757
 129  747.8129
 130  831.2881
 131  838.8614
 132  754.3379
 133  636.5424
 134  702.7277
 135  776.1826
 136  644.6387
 137  710.4664
 138  729.5786
 139  689.7586
 140  656.1907
 141  733.4639
 142  737.0393
 143  715.4819
 144  681.5983
 145  782.1332
 146  653.7426
 147  597.2823
 148  605.0528
 149  787.5873
 150  796.2416
 151  646.2852
 152  653.8971
 153  652.3523
 154  617.4219
 155  688.4633
 156  713.7205
 157  723.554
 158  660.9421
 159  702.3364
 160  711.5817
 161  733.5459
 162  672.8428
 163  699.3539
 164  810.3901
 165  819.0983
 166  675.1352
 167  629.4951
 168  554.7444
 169  591.0192
 170  653.0945
 171  746.815
 172  642.4203
 173  708.4167
 174  850.6888
 175  807.8491
 176  756.5469
 177  764.1982
 178  805.2056
 179  716.3575
 180  722.8728
 181  796.8
 182  754.5717
 183  654.6326
 184  637.2482
 185  749.8513
 186  747.3649
 187  727.1735
 188  870.0137
 189  816.5709
 190  662.7841
 191  743.1542
 192  808.5267
 193  694.152
 194  693.766
 195  801.1304
 196  857.5571
 197  831.6498
 198  744.3679
 199  788.4308
 200  722.7858
 201  699.7095
 202  733.342
 203  689.2293
 204  667.2456
 205  754.5885
 206  811.0851
 207  722.0757
 208  598.1539
 209  764.4076
 210  801.2914
 211  680.722
 212  716.1893
 213  815.2456
 214  861.1944
 215  741.7552
 216  697.6684
 217  632.9333
 218  632.1463
 219  664.37
 220  807.795
 221  853.7526
 222  787.151
 223  768.9901
 224  804.4478
 225  761.9965
 226  698.0637
 227  765.0511
 228  862.0447
 229  773.2748
 230  737.9195
 231  856.6079
 232  770.412
 233  688.3873
 234  688.6014
 235  729.8667
 236  627.8404
 237  649.6398
 238  796.2665
 239  834.9763
 240  735.3187
 241  662.1837
 242  627.7116
 243  690.7547
 244  705.0045
 245  757.6255
 246  785.2165
 247  794.0499
 248  746.3353
 249  777.3527
 250  706.3233
 251  673.3389
 252  764.3109
 253  801.0386
 254  688.3702
 255  662.395
 256  781.2689
 257  804.2743
 258  818.0567
 259  781.7692
 260  974.0994
 261  896.1442
 262  664.6625
 263  687.582
 264  723.7899
 265  672.8606
 266  705.52
 267  655.517
 268  689.29
 269  786.8149
 270  742.6354
 271  824.731
 272  748.5322
 273  728.0053
 274  674.5715
 275  733.8419
 276  731.3203
 277  784.2039
 278  881.455
 279  846.1004
 280  841.5018
 281  811.706
 282  892.1734
 283  751.4744
 284  710.8926
 285  815.2932
 286  833.1301
 287  813.0596
 288  842.2691
 289  793.5367
 290  757.6361
 291  772.5018
 292  822.4183
 293  808.5287
 294  750.2495
 295  722.4866
 296  799.6302
 297  834.376
 298  821.0718
 299  776.49
 300  874.646
 301  852.9643
 302  774.2037
 303  736.2772
 304  731.1784
 305  684.2816
 306  665.7373
 307  804.5653
 308  737.7297
 309  647.0792
 310  638.8512
 311  679.6768
 312  738.3013
 313  707.4784
 314  789.509
 315  686.9575
 316  746.5341
 317  790.802
 318  812.5161
 319  692.618
 320  652.0241
 321  706.2471
 322  693.5853
 323  710.1634
 324  704.6344
 325  717.0358
 326  751.8849
 327  696.7433
 328  719.9139
 329  683.9769
 330  669.2919
 331  756.1061
 332  767.2594
 333  722.1299
 334  694.4599
 335  770.8888
 336  834.1841
 337  841.8616
 338  809.9305
 339  766.2697
 340  664.0647
 341  633.2859
 342  771.9061
 343  866.6755
 344  822.1719
 345  846.3179
 346  819.1019
 347  722.2974
 348  752.7513
 349  755.5483
 350  800.5567
 351  836.4394
 352  785.4634
 353  736.9453
 354  653.9496
 355  546.0301
 356  623.0395
 357  827.1651
 358  806.8826
 359  757.2863
 360  799.2269
 361  740.8839
 362  608.0334
 363  676.6146
 364  769.918
 365  708.6771
 366  735.2621
 367  822.8372
 368  798.6039
 369  785.5391
 370  767.934
 371  672.3387
 372  745.7552
 373  764.9103
 374  833.1072
 375  833.0267
 376  722.7237
 377  729.5746
 378  865.1747
 379  877.6303
 380  843.1603
 381  770.2007
 382  699.8771
 383  703.5767
 384  783.804
 385  818.6118
 386  800.378
 387  802.5746
 388  830.3134
 389  760.912
 390  727.8785
 391  811.603
 392  766.8179
 393  674.1521
 394  758.4899
 395  841.5843
 396  805.4271
 397  764.8612
 398  738.9144
 399  765.0409
 400  783.1533
 401  758.3074
 402  775.2572
 403  749.4722
 404  639.0608
 405  672.5448
 406  680.9585
 407  794.1365
 408  752.9319
 409  699.2411
 410  789.3564
 411  751.962
 412  746.8157
 413  833.1991
 414  801.5083
 415  649.191
 416  673.0076
 417  714.8654
 418  740.0259
 419  717.576
 420  775.178
 421  805.2805
 422  676.83
 423  574.1259
 424  605.6887
 425  649.6313
 426  733.6886
 427  686.6456
 428  750.8497
 429  730.7943
 430  671.4559
 431  686.5831
 432  759.2584
 433  753.3822
 434  664.5601
 435  797.152
 436  903.0966
 437  765.6149
 438  828.2983
 439  866.8986
 440  788.4104
 441  668.1199
 442  804.2172
 443  783.0222
 444  795.7661
 445  728.5912
 446  819.5979
 447  715.1688
 448  614.8798
 449  666.6623
 450  712.7342
 451  631.2763
 452  676.8749
 453  744.622
 454  839.6252
 455  811.4667
 456  755.1842
 457  806.5519
 458  782.1641
 459  903.2286
 460  938.1243
 461  778.4292
 462  800.296
 463  806.3867
 464  784.9753
 465  755.1519
 466  626.5311
 467  668.502
 468  700.8678
 469  641.7002
 470  621.7659
 471  699.0729
 472  679.4427
 473  703.5304
 474  638.7418
 475  578.3135
 476  588.1519
 477  752.0455
 478  822.967
 479  849.0128
 480  785.2463
 481  732.8338
 482  728.4306
 483  547.2613
 484  612.3278
 485  699.3312
 486  722.6077
 487  539.0457
 488  516.3264
 489  650.2811
 490  691.6887
 491  720.0103
 492  772.363
 493  700.0146
 494  787.512
 495  797.0215
 496  741.4023
 497  797.0888
 498  727.7295
 499  758.2609
 500  790.1853
 501  775.5667
 502  716.3743
 503  790.0963
 504  890.1008
 505  806.6985
 506  776.7935
 507  872.5807
 508  827.2701
 509  899.1762
 510  971.0683
 511  1134.857
