# Input file       =  1195689392.107103_cleaned.dat
# Candidate        =  PSR_0332+5434
# Telescope        =  AR
# Epoch_topo       =  58082.997385498878
# Epoch_bary       =  N/A
# T_sample         =  0.002
# Data Folded      =  7340032
# Data Avg         =  0.107146664771957
# Data StdDev      =  1.00049202206479 
# Profile Bins     =  512
# Profile Avg      =  1536.15746150676 
# Profile StdDev   =  119.791947672547 
# Reduced chi-sqr  =  0.838
# Prob(Noise)      <  0.997   (~0.0 sigma)
# P_topo (ms)      =  714.52084783516   +/- 3.03e-05
# P'_topo (s/s)    =  -0                +/- 1.6e-11
# P''_topo (s/s^2) =  0                 +/- 7.05e-15
# P_bary (ms)      =  N/A
# P'_bary (s/s)    =  N/A
# P''_bary (s/s^2) =  N/A
# P_orb (s)        =  N/A
# asin(i)/c (s)    =  N/A
# eccentricity     =  N/A
# w (rad)          =  N/A
# T_peri           =  N/A
######################################################
   0  1830.632
   1  1718.257
   2  1720.532
   3  1627.93
   4  1702.923
   5  1790.869
   6  1677.746
   7  1583.174
   8  1488.776
   9  1562.288
  10  1587.713
  11  1515.191
  12  1651.784
  13  1604.387
  14  1554.506
  15  1583.783
  16  1555.111
  17  1470.773
  18  1404.679
  19  1441.58
  20  1504.769
  21  1522.245
  22  1565.806
  23  1579.319
  24  1471.289
  25  1378.401
  26  1448.896
  27  1581.483
  28  1520.589
  29  1403.627
  30  1619.011
  31  1610.5
  32  1495.707
  33  1553.834
  34  1531.433
  35  1434.035
  36  1481.731
  37  1584.173
  38  1519.893
  39  1537.555
  40  1574.244
  41  1501.256
  42  1503.116
  43  1486.977
  44  1462.309
  45  1530.316
  46  1513.944
  47  1473.115
  48  1541.824
  49  1442.066
  50  1421.83
  51  1482.25
  52  1612.814
  53  1502.419
  54  1460.79
  55  1525.087
  56  1470.001
  57  1443.632
  58  1538.547
  59  1658.311
  60  1546.267
  61  1514.509
  62  1501.904
  63  1534.212
  64  1542.51
  65  1444.126
  66  1432.749
  67  1450.471
  68  1489.98
  69  1537.857
  70  1524.238
  71  1438.054
  72  1518.909
  73  1537.155
  74  1494.007
  75  1489.827
  76  1543.822
  77  1558.81
  78  1501.749
  79  1486.033
  80  1534.276
  81  1484.633
  82  1334.564
  83  1457.346
  84  1467.192
  85  1418.304
  86  1441.854
  87  1570.939
  88  1549.073
  89  1429.662
  90  1384.359
  91  1562.998
  92  1642.005
  93  1625.843
  94  1679.496
  95  1616.796
  96  1479.352
  97  1433.272
  98  1487.425
  99  1598.929
 100  1510.956
 101  1545.44
 102  1533.426
 103  1424.345
 104  1467.41
 105  1532.472
 106  1427.272
 107  1450.857
 108  1519.345
 109  1636.567
 110  1503.933
 111  1418.474
 112  1629.28
 113  1575.804
 114  1443.806
 115  1477.325
 116  1557.171
 117  1518.451
 118  1477.378
 119  1606.595
 120  1636.662
 121  1523.239
 122  1474.575
 123  1655.936
 124  1514.202
 125  1593.052
 126  1545.483
 127  1556.574
 128  1449.792
 129  1507.2
 130  1549.186
 131  1541.841
 132  1511.495
 133  1503.214
 134  1617.217
 135  1573.581
 136  1618.748
 137  1545.411
 138  1572.459
 139  1634.928
 140  1544.563
 141  1628.612
 142  1603.146
 143  1504.391
 144  1451.508
 145  1557.19
 146  1540.203
 147  1542.606
 148  1664.48
 149  1648.858
 150  1551.466
 151  1581.154
 152  1605.284
 153  1466.867
 154  1472.52
 155  1588.738
 156  1617.075
 157  1562.756
 158  1521.569
 159  1574.277
 160  1517.374
 161  1514.568
 162  1620.181
 163  1682.31
 164  1569.283
 165  1542.515
 166  1543.639
 167  1599.542
 168  1617.116
 169  1564.514
 170  1719.729
 171  1570.267
 172  1581.861
 173  1690.787
 174  1751.235
 175  1587.094
 176  1659.263
 177  1667.209
 178  1505.706
 179  1491.292
 180  1531.036
 181  1532.075
 182  1498.26
 183  1494.718
 184  1537.414
 185  1480.746
 186  1553.364
 187  1505.076
 188  1586.373
 189  1580.67
 190  1573.759
 191  1698.205
 192  1652.622
 193  1674.88
 194  1548.46
 195  1523.931
 196  1544.048
 197  1606.333
 198  1486.608
 199  1453.005
 200  1426.239
 201  1361.721
 202  1652.995
 203  1692.988
 204  1528.259
 205  1514.5
 206  1526.83
 207  1508.964
 208  1497.284
 209  1544.476
 210  1656.365
 211  1651.049
 212  1600.9
 213  1633.486
 214  1596.373
 215  1536.161
 216  1473.049
 217  1503.066
 218  1464.628
 219  1521.482
 220  1541.935
 221  1490.417
 222  1554.021
 223  1618.096
 224  1529.873
 225  1448.457
 226  1518.136
 227  1632.308
 228  1550.281
 229  1527.17
 230  1589.911
 231  1597.989
 232  1513.043
 233  1558.376
 234  1595.87
 235  1492.765
 236  1494.928
 237  1474.373
 238  1431.226
 239  1429.898
 240  1509.346
 241  1562.125
 242  1586.087
 243  1566.361
 244  1543.227
 245  1517.354
 246  1498.533
 247  1516.036
 248  1573.124
 249  1578.877
 250  1554.522
 251  1522.864
 252  1649.515
 253  1466.202
 254  1422.343
 255  1481.487
 256  1461.04
 257  1446.485
 258  1526.119
 259  1549.467
 260  1432.34
 261  1413.733
 262  1513.723
 263  1609.854
 264  1544.313
 265  1436.455
 266  1497.844
 267  1509.094
 268  1446.705
 269  1455.396
 270  1497.132
 271  1529.09
 272  1520.002
 273  1577.484
 274  1555.849
 275  1530.062
 276  1577.286
 277  1635.341
 278  1635.215
 279  1534.922
 280  1599.433
 281  1679.683
 282  1586.922
 283  1539.057
 284  1564.717
 285  1567.801
 286  1522.476
 287  1456.039
 288  1395.919
 289  1401.09
 290  1365.616
 291  1459.647
 292  1545.681
 293  1476.969
 294  1466.245
 295  1508.488
 296  1467.657
 297  1402.671
 298  1486.654
 299  1628.83
 300  1498.987
 301  1507.421
 302  1516.75
 303  1427.026
 304  1393.328
 305  1454.011
 306  1553.532
 307  1404.37
 308  1318.193
 309  1517.575
 310  1609.556
 311  1521.458
 312  1501.187
 313  1508.319
 314  1402.911
 315  1335.442
 316  1452.304
 317  1504.678
 318  1476.047
 319  1456.594
 320  1418.011
 321  1407.182
 322  1522.507
 323  1542.496
 324  1549.36
 325  1460.443
 326  1462.031
 327  1436.801
 328  1459.848
 329  1441.999
 330  1455.012
 331  1539.301
 332  1497.154
 333  1414.252
 334  1476.578
 335  1591.261
 336  1498.833
 337  1484.937
 338  1608.011
 339  1631.708
 340  1588.74
 341  1619.913
 342  1575.569
 343  1419.811
 344  1526.156
 345  1592.493
 346  1617.994
 347  1530.28
 348  1401.319
 349  1424.135
 350  1481.08
 351  1503.838
 352  1512.644
 353  1552.574
 354  1447.821
 355  1477.972
 356  1614.891
 357  1488.333
 358  1470.213
 359  1499.593
 360  1482.923
 361  1437.416
 362  1486.322
 363  1543.09
 364  1480.053
 365  1460.971
 366  1587.57
 367  1489.225
 368  1328.536
 369  1319.023
 370  1332.809
 371  1368.566
 372  1439.666
 373  1555.355
 374  1642.032
 375  1580.515
 376  1446.257
 377  1504.743
 378  1504.92
 379  1541.791
 380  1580.961
 381  1523.447
 382  1489.557
 383  1522.373
 384  1516.836
 385  1529.642
 386  1498.937
 387  1483.935
 388  1574.014
 389  1602.721
 390  1518.102
 391  1621.585
 392  1658.415
 393  1551.34
 394  1549.542
 395  1686.225
 396  1610.562
 397  1493.114
 398  1464.071
 399  1583.563
 400  1595.106
 401  1580.392
 402  1537.963
 403  1622.523
 404  1509.647
 405  1550.666
 406  1630.276
 407  1612.072
 408  1562.748
 409  1602.857
 410  1601.341
 411  1555.681
 412  1562.024
 413  1583.218
 414  1571.41
 415  1528.209
 416  1644.725
 417  1596.633
 418  1678.067
 419  1543.082
 420  1573.146
 421  1562.628
 422  1629.119
 423  1575.926
 424  1581.773
 425  1547.791
 426  1508.632
 427  1672.854
 428  1759.198
 429  1695.71
 430  1646.656
 431  1668.994
 432  1624.818
 433  1551.583
 434  1648.751
 435  1724.468
 436  1693.944
 437  1591.427
 438  1546.617
 439  1545.114
 440  1505.056
 441  1492.369
 442  1623.008
 443  1615.324
 444  1513.076
 445  1581.514
 446  1597.757
 447  1534.724
 448  1471.555
 449  1598.804
 450  1568.632
 451  1502.71
 452  1546.745
 453  1566.475
 454  1574.242
 455  1550.79
 456  1721.834
 457  1693.21
 458  1624.844
 459  1504.695
 460  1493.523
 461  1477.998
 462  1471.147
 463  1505.822
 464  1583.268
 465  1422.282
 466  1450.576
 467  1600.643
 468  1534.348
 469  1549.218
 470  1673.246
 471  1721.448
 472  1442.332
 473  1419.871
 474  1417.212
 475  1417.56
 476  1488.749
 477  1548.863
 478  1525.724
 479  1478.151
 480  1470.614
 481  1485.461
 482  1389.181
 483  1406.004
 484  1508.485
 485  1656.484
 486  1543.513
 487  1503.981
 488  1477.788
 489  1503.742
 490  1478.2
 491  1530.782
 492  1576.546
 493  1517.504
 494  1459.268
 495  1515.994
 496  1606.515
 497  1558.517
 498  1428.045
 499  1555.315
 500  1646.716
 501  1576.25
 502  1568.116
 503  1546.63
 504  1529.92
 505  1606.839
 506  1619.092
 507  1564.928
 508  1589.91
 509  1603.725
 510  1732.825
 511  1837.93
