# Input file       =  1195918367.104826_cleaned.dat
# Candidate        =  PSR_0332+5434
# Telescope        =  AR
# Epoch_topo       =  58085.647559083634
# Epoch_bary       =  N/A
# T_sample         =  0.002
# Data Folded      =  7208960
# Data Avg         =  0.0415427918902178
# Data StdDev      =  1.0002852879254  
# Profile Bins     =  512
# Profile Avg      =  584.837883878598 
# Profile StdDev   =  118.693027823623 
# Reduced chi-sqr  =  0.808
# Prob(Noise)      <  0.999   (~0.0 sigma)
# P_topo (ms)      =  714.523233433388  +/- 3.07e-05
# P'_topo (s/s)    =  -0                +/- 1.65e-11
# P''_topo (s/s^2) =  0                 +/- 7.42e-15
# P_bary (ms)      =  N/A
# P'_bary (s/s)    =  N/A
# P''_bary (s/s^2) =  N/A
# P_orb (s)        =  N/A
# asin(i)/c (s)    =  N/A
# eccentricity     =  N/A
# w (rad)          =  N/A
# T_peri           =  N/A
######################################################
   0  879.2238
   1  825.8161
   2  863.1782
   3  687.7308
   4  604.9601
   5  527.8499
   6  575.5172
   7  556.6321
   8  500.2556
   9  650.6344
  10  575.8426
  11  635.6999
  12  605.8163
  13  660.3358
  14  650.7183
  15  596.1918
  16  552.4177
  17  515.9488
  18  515.1072
  19  554.6224
  20  616.8008
  21  571.4017
  22  548.0448
  23  557.328
  24  602.5627
  25  542.288
  26  558.2381
  27  621.6985
  28  562.8027
  29  544.0248
  30  591.5593
  31  653.9266
  32  498.5614
  33  367.8218
  34  573.5254
  35  672.9324
  36  567.4235
  37  581.8653
  38  667.9487
  39  631.2529
  40  599.2561
  41  669.002
  42  555.6754
  43  506.0045
  44  540.5107
  45  658.4746
  46  707.2771
  47  633.7911
  48  604.4478
  49  604.7654
  50  553.5614
  51  580.8867
  52  625.1884
  53  603.2558
  54  611.6556
  55  559.8322
  56  625.5936
  57  582.2574
  58  565.1136
  59  648.2373
  60  763.6871
  61  658.6104
  62  554.0359
  63  676.297
  64  650.4498
  65  624.093
  66  727.0734
  67  763.1874
  68  758.7425
  69  641.1099
  70  605.3312
  71  496.5583
  72  558.1109
  73  567.2648
  74  623.3787
  75  602.2156
  76  623.0874
  77  612.1746
  78  609.861
  79  616.3201
  80  645.0365
  81  680.5375
  82  584.5307
  83  519.05
  84  609.1657
  85  600.0908
  86  554.1995
  87  595.8754
  88  631.9263
  89  581.154
  90  574.2823
  91  628.4586
  92  584.5588
  93  520.1774
  94  521.4415
  95  587.6028
  96  564.4466
  97  644.6586
  98  569.1218
  99  623.6436
 100  616.1506
 101  638.3047
 102  624.3828
 103  647.2855
 104  584.4795
 105  554.4769
 106  626.7554
 107  512.2754
 108  581.8498
 109  663.1979
 110  588.2195
 111  522.2325
 112  566.1556
 113  605.9147
 114  617.2644
 115  651.9197
 116  609.6035
 117  643.2032
 118  628.0865
 119  567.6912
 120  662.5909
 121  697.3411
 122  680.1882
 123  553.2369
 124  585.7482
 125  642.129
 126  663.2202
 127  704.755
 128  742.3513
 129  707.674
 130  679.8029
 131  679.8561
 132  573.9318
 133  606.2722
 134  590.5784
 135  707.8868
 136  633.9575
 137  583.5917
 138  459.4157
 139  498.8797
 140  500.5579
 141  565.904
 142  644.7911
 143  486.6453
 144  434.9402
 145  499.0045
 146  624.7908
 147  513.4638
 148  481.8399
 149  614.8143
 150  546.272
 151  635.6049
 152  623.1686
 153  559.8278
 154  553.5142
 155  545.1397
 156  665.7882
 157  602.862
 158  594.2364
 159  576.0326
 160  578.0677
 161  598.0677
 162  624.3157
 163  641.5847
 164  615.7167
 165  517.9735
 166  521.9313
 167  581.1395
 168  489.9212
 169  498.5349
 170  597.3958
 171  543.2057
 172  462.5912
 173  522.6796
 174  575.7239
 175  468.8083
 176  407.903
 177  490.1312
 178  479.8239
 179  409.9426
 180  529.3818
 181  498.9174
 182  499.2312
 183  477.123
 184  564.9088
 185  662.0579
 186  565.6238
 187  596.2125
 188  666.9161
 189  666.9225
 190  481.7532
 191  532.8026
 192  605.8593
 193  510.9662
 194  505.0089
 195  501.8043
 196  573.5111
 197  549.4282
 198  510.408
 199  608.5483
 200  520.5367
 201  503.1862
 202  495.415
 203  585.9449
 204  589.8469
 205  521.7098
 206  584.6131
 207  499.3375
 208  540.9476
 209  562.1211
 210  637.9485
 211  637.9257
 212  635.263
 213  700.4922
 214  674.7692
 215  572.3248
 216  544.9406
 217  650.8972
 218  635.9757
 219  627.47
 220  588.1344
 221  512.3458
 222  472.108
 223  445.1598
 224  518.1068
 225  523.9066
 226  565.5917
 227  506.7643
 228  621.4311
 229  489.0323
 230  599.4821
 231  644.1263
 232  561.265
 233  527.1133
 234  536.6295
 235  500.0374
 236  483.8378
 237  610.6406
 238  681.2992
 239  657.4578
 240  583.7242
 241  564.7043
 242  624.9143
 243  589.7668
 244  587.665
 245  577.1215
 246  596.7524
 247  542.4678
 248  520.0963
 249  592.4425
 250  531.6677
 251  488.8828
 252  541.7212
 253  610.2025
 254  529.7607
 255  377.1392
 256  564.1441
 257  583.5618
 258  505.4065
 259  492.981
 260  499.9385
 261  434.9994
 262  413.3587
 263  623.923
 264  631.0707
 265  661.4931
 266  592.6594
 267  632.8879
 268  499.3535
 269  488.8538
 270  492.0117
 271  480.4042
 272  471.3813
 273  587.4285
 274  625.6843
 275  548.7716
 276  533.028
 277  577.3135
 278  614.8058
 279  600.6757
 280  511.8412
 281  630.3218
 282  598.6913
 283  561.6243
 284  484.675
 285  686.6037
 286  630.5645
 287  461.1946
 288  495.2511
 289  575.3199
 290  613.7557
 291  508.5345
 292  518.0309
 293  524.431
 294  477.6219
 295  579.2191
 296  656.6651
 297  493.593
 298  448.1539
 299  481.0665
 300  557.5099
 301  517.1307
 302  553.2166
 303  574.0879
 304  533.994
 305  618.7709
 306  648.3024
 307  625.7809
 308  499.1476
 309  526.8643
 310  642.37
 311  653.7289
 312  635.6863
 313  654.7806
 314  627.4497
 315  497.4009
 316  571.9576
 317  571.5409
 318  652.0439
 319  566.5305
 320  563.753
 321  598.3641
 322  505.5918
 323  614.5267
 324  659.374
 325  655.2015
 326  534.9401
 327  527.5674
 328  602.3937
 329  523.0699
 330  461.3964
 331  491.6252
 332  560.399
 333  596.7761
 334  447.0979
 335  489.0563
 336  440.473
 337  389.3113
 338  441.839
 339  552.6978
 340  617.7692
 341  575.822
 342  667.7679
 343  567.5052
 344  509.9717
 345  501.6772
 346  530.2198
 347  575.403
 348  508.6808
 349  559.7606
 350  569.0411
 351  444.0282
 352  510.0705
 353  530.4565
 354  569.1324
 355  624.9193
 356  695.8722
 357  692.1827
 358  583.0284
 359  533.2247
 360  655.1671
 361  529.8085
 362  418.5777
 363  542.4758
 364  574.911
 365  495.5061
 366  500.5518
 367  599.0282
 368  631.5255
 369  547.0443
 370  552.3188
 371  635.959
 372  515.0746
 373  569.2023
 374  704.8231
 375  583.4778
 376  527.0106
 377  424.0014
 378  618.5609
 379  622.8681
 380  575.2864
 381  639.1795
 382  552.2277
 383  574.7895
 384  521.7946
 385  498.2529
 386  568.7833
 387  588.2181
 388  686.1435
 389  617.0028
 390  643.205
 391  487.9555
 392  570.6664
 393  632.3428
 394  596.2552
 395  584.2313
 396  547.2747
 397  514.9059
 398  604.6382
 399  641.7731
 400  557.3091
 401  548.0472
 402  588.285
 403  582.7048
 404  551.7721
 405  561.506
 406  682.8435
 407  711.7775
 408  597.3499
 409  519.2681
 410  596.7725
 411  467.2646
 412  371.2189
 413  408.6508
 414  518.684
 415  542.8591
 416  483.1207
 417  532.9491
 418  543.9452
 419  507.343
 420  524.2007
 421  610.2311
 422  519.5143
 423  469.8395
 424  547.7079
 425  629.3871
 426  544.5833
 427  524.7247
 428  605.8516
 429  634.3809
 430  463.9671
 431  532.8071
 432  633.5425
 433  598.8348
 434  513.3458
 435  558.3185
 436  517.4039
 437  546.6808
 438  568.7628
 439  642.5815
 440  662.2543
 441  612.6697
 442  546.3179
 443  606.2235
 444  589.556
 445  519.235
 446  594.4721
 447  701.7353
 448  589.3246
 449  568.3192
 450  678.6002
 451  620.0612
 452  606.2556
 453  651.3697
 454  620.869
 455  506.2117
 456  602.4515
 457  628.766
 458  524.1751
 459  579.6268
 460  711.4612
 461  635.7612
 462  622.8376
 463  629.2272
 464  713.7734
 465  662.7333
 466  716.407
 467  689.9375
 468  625.1851
 469  521.7128
 470  696.0195
 471  753.1042
 472  688.8114
 473  659.8725
 474  626.8502
 475  694.0574
 476  643.5347
 477  633.5167
 478  754.0067
 479  695.7344
 480  658.5797
 481  762.631
 482  763.2421
 483  619.2729
 484  656.5941
 485  583.7437
 486  529.4514
 487  491.0071
 488  582.1398
 489  737.2971
 490  656.8491
 491  610.8156
 492  506.5589
 493  549.7084
 494  593.2428
 495  659.4266
 496  758.8975
 497  666.8277
 498  638.6053
 499  617.2153
 500  634.9477
 501  601.8376
 502  549.8433
 503  660.4828
 504  721.6797
 505  732.4805
 506  716.0483
 507  759.7054
 508  715.5858
 509  706.9807
 510  927.8549
 511  904.7684
