# Input file       =  1195689392.107103_cleaned.dat
# Candidate        =  PSR_0332+5434
# Telescope        =  AR
# Epoch_topo       =  58082.997385498878
# Epoch_bary       =  N/A
# T_sample         =  0.002
# Data Folded      =  7340032
# Data Avg         =  0.107146664771957
# Data StdDev      =  1.00049202206479 
# Profile Bins     =  512
# Profile Avg      =  1536.15746147978 
# Profile StdDev   =  119.791947672547 
# Reduced chi-sqr  =  0.835
# Prob(Noise)      <  0.997   (~0.0 sigma)
# P_topo (ms)      =  714.520847574017  +/- 3.07e-05
# P'_topo (s/s)    =  -0                +/- 1.62e-11
# P''_topo (s/s^2) =  0                 +/- 7.14e-15
# P_bary (ms)      =  N/A
# P'_bary (s/s)    =  N/A
# P''_bary (s/s^2) =  N/A
# P_orb (s)        =  N/A
# asin(i)/c (s)    =  N/A
# eccentricity     =  N/A
# w (rad)          =  N/A
# T_peri           =  N/A
######################################################
   0  1742.942
   1  1739.55
   2  1662.729
   3  1628.177
   4  1780.667
   5  1738.907
   6  1636.798
   7  1496.88
   8  1532.437
   9  1601.499
  10  1538.727
  11  1574.204
  12  1645.953
  13  1564.766
  14  1574.673
  15  1572.603
  16  1511.928
  17  1434.792
  18  1416.305
  19  1460.49
  20  1536.524
  21  1524.66
  22  1609.348
  23  1486.9
  24  1446.087
  25  1374.324
  26  1550.143
  27  1551.676
  28  1448.813
  29  1504.398
  30  1643.498
  31  1523.352
  32  1530.479
  33  1576.071
  34  1450.29
  35  1437.183
  36  1561.151
  37  1571.972
  38  1486.798
  39  1575.785
  40  1552.815
  41  1493.754
  42  1494.086
  43  1457.253
  44  1505.849
  45  1533.831
  46  1462.486
  47  1526.286
  48  1505.622
  49  1429.108
  50  1418.585
  51  1578.405
  52  1569.463
  53  1448.769
  54  1509.214
  55  1494.358
  56  1459.822
  57  1471.947
  58  1624.058
  59  1614.086
  60  1525.454
  61  1508.18
  62  1504.785
  63  1554.87
  64  1495.945
  65  1411.749
  66  1441.137
  67  1468.871
  68  1534.294
  69  1529.91
  70  1458.095
  71  1480.648
  72  1559.254
  73  1499.936
  74  1484.796
  75  1513.752
  76  1581.1
  77  1504.286
  78  1478.856
  79  1529.975
  80  1535.574
  81  1364.23
  82  1371.18
  83  1519.221
  84  1425.682
  85  1427.16
  86  1496.201
  87  1599.937
  88  1479.872
  89  1364.561
  90  1475.183
  91  1636.792
  92  1647.467
  93  1625.697
  94  1684.391
  95  1520.798
  96  1455.66
  97  1426.772
  98  1569.56
  99  1578.43
 100  1494.857
 101  1565.4
 102  1468.078
 103  1439.122
 104  1515.103
 105  1475.153
 106  1437.087
 107  1475.901
 108  1589.824
 109  1579.835
 110  1429.57
 111  1547.72
 112  1634.177
 113  1470.047
 114  1453.651
 115  1531.913
 116  1546.243
 117  1475.815
 118  1540.636
 119  1660.22
 120  1564.54
 121  1440.25
 122  1614.097
 123  1589.02
 124  1542.115
 125  1560.435
 126  1578.002
 127  1492.853
 128  1465.615
 129  1527.081
 130  1564.235
 131  1520.584
 132  1478.411
 133  1585.611
 134  1595.317
 135  1610.749
 136  1560.664
 137  1562.092
 138  1620.953
 139  1581.296
 140  1566.521
 141  1642.654
 142  1565.241
 143  1446.837
 144  1509.905
 145  1562.476
 146  1517.21
 147  1606.877
 148  1665.556
 149  1601.656
 150  1562.134
 151  1613.591
 152  1516.87
 153  1460.005
 154  1534.497
 155  1621.842
 156  1577.38
 157  1536.635
 158  1551.969
 159  1548.666
 160  1493.564
 161  1579.223
 162  1691.107
 163  1603.205
 164  1542.981
 165  1544.268
 166  1572.947
 167  1626.556
 168  1548.758
 169  1679.21
 170  1655.951
 171  1546.531
 172  1636.667
 173  1756.828
 174  1653.143
 175  1589.242
 176  1717.477
 177  1579.249
 178  1471.024
 179  1508.94
 180  1534.187
 181  1526.155
 182  1475.661
 183  1529.907
 184  1498.916
 185  1537.297
 186  1519.214
 187  1535.036
 188  1601.451
 189  1562.346
 190  1642.038
 191  1672.365
 192  1677.226
 193  1620.8
 194  1519.413
 195  1509.341
 196  1630.319
 197  1524.717
 198  1466.263
 199  1424.329
 200  1377.27
 201  1503.941
 202  1721.108
 203  1603.186
 204  1501.258
 205  1538.725
 206  1503.317
 207  1490.867
 208  1533.674
 209  1610.401
 210  1671.261
 211  1592.352
 212  1634.356
 213  1613.921
 214  1569.555
 215  1484.468
 216  1511.053
 217  1472.124
 218  1476.295
 219  1548.418
 220  1524.064
 221  1513.081
 222  1591.219
 223  1591.734
 224  1459.733
 225  1477.589
 226  1577.966
 227  1618.959
 228  1517.847
 229  1554.334
 230  1614.685
 231  1540.991
 232  1539.676
 233  1587.285
 234  1525.832
 235  1499.743
 236  1499.456
 237  1446.241
 238  1415.974
 239  1478.974
 240  1550.881
 241  1553.704
 242  1574.942
 243  1559.104
 244  1546.974
 245  1495.243
 246  1491.193
 247  1554.847
 248  1594.938
 249  1549.686
 250  1518.526
 251  1605.885
 252  1581.328
 253  1402.493
 254  1462.61
 255  1489.826
 256  1430.264
 257  1480.169
 258  1553.409
 259  1503.155
 260  1402.825
 261  1440.415
 262  1601.625
 263  1592.123
 264  1485.721
 265  1438.671
 266  1533.138
 267  1468.628
 268  1434.16
 269  1460.429
 270  1529.903
 271  1530.26
 272  1556.166
 273  1568.57
 274  1523.446
 275  1573.073
 276  1597.597
 277  1652.422
 278  1584.574
 279  1538.556
 280  1671.878
 281  1616.125
 282  1574.792
 283  1530.504
 284  1575.669
 285  1534.605
 286  1495.06
 287  1428.249
 288  1390.658
 289  1374.471
 290  1407.484
 291  1532.651
 292  1501.732
 293  1463.573
 294  1504.213
 295  1494.873
 296  1416.765
 297  1402.119
 298  1614.685
 299  1565.179
 300  1483.751
 301  1520.174
 302  1486.865
 303  1385.084
 304  1417.762
 305  1516.273
 306  1503.364
 307  1327.294
 308  1399.747
 309  1615.644
 310  1568.262
 311  1483.787
 312  1511.28
 313  1455.266
 314  1366.342
 315  1385.239
 316  1488.858
 317  1490.379
 318  1477.812
 319  1425.02
 320  1394.608
 321  1463.05
 322  1555.386
 323  1546.047
 324  1484.55
 325  1473.905
 326  1445.772
 327  1451.852
 328  1444.561
 329  1457.092
 330  1492.666
 331  1527.168
 332  1433.395
 333  1427.078
 334  1583.063
 335  1524.367
 336  1486.987
 337  1551.038
 338  1653.178
 339  1588.797
 340  1594.141
 341  1633.718
 342  1465.542
 343  1464.039
 344  1563.064
 345  1627.295
 346  1585.317
 347  1433.961
 348  1405.314
 349  1455.699
 350  1510.406
 351  1471.523
 352  1567.465
 353  1500.615
 354  1440.175
 355  1574.953
 356  1552.919
 357  1468.425
 358  1476.328
 359  1494.785
 360  1467.655
 361  1459.581
 362  1518.009
 363  1513.118
 364  1448.379
 365  1543.175
 366  1562.439
 367  1361.219
 368  1328.094
 369  1325.05
 370  1351.387
 371  1390.697
 372  1526.434
 373  1607.963
 374  1621.912
 375  1486.295
 376  1476.183
 377  1532.074
 378  1478.385
 379  1581.757
 380  1559.182
 381  1502.834
 382  1495.985
 383  1514.074
 384  1539.752
 385  1529.353
 386  1458.401
 387  1532.615
 388  1621.95
 389  1550.536
 390  1558.437
 391  1652.774
 392  1621.25
 393  1506.424
 394  1633.604
 395  1668.089
 396  1542.573
 397  1458.936
 398  1520.006
 399  1604.217
 400  1600.318
 401  1531.979
 402  1597.772
 403  1577.709
 404  1516.819
 405  1586.576
 406  1624.417
 407  1590.445
 408  1591.214
 409  1612.331
 410  1551.929
 411  1573.894
 412  1561.555
 413  1602.83
 414  1507.824
 415  1621.514
 416  1617.369
 417  1631.146
 418  1617.468
 419  1537.079
 420  1591.554
 421  1570.86
 422  1618.954
 423  1559.891
 424  1599.17
 425  1490.709
 426  1582.632
 427  1763.619
 428  1723.5
 429  1670.639
 430  1630.804
 431  1676.808
 432  1576.384
 433  1570.247
 434  1718.557
 435  1702.529
 436  1649.816
 437  1537.179
 438  1569.047
 439  1523.53
 440  1496.061
 441  1538.6
 442  1664.508
 443  1543.246
 444  1533.99
 445  1604.559
 446  1574.008
 447  1487.653
 448  1536.512
 449  1594.473
 450  1536.196
 451  1512.436
 452  1555.138
 453  1567.882
 454  1545.757
 455  1670.389
 456  1705.987
 457  1666.84
 458  1549.806
 459  1508.836
 460  1462.325
 461  1479.321
 462  1459.311
 463  1592.334
 464  1491.635
 465  1391.802
 466  1578.705
 467  1568.906
 468  1527.08
 469  1587.472
 470  1760.857
 471  1567.378
 472  1381.965
 473  1444.778
 474  1409.57
 475  1469.36
 476  1515.02
 477  1539.735
 478  1500.929
 479  1457.673
 480  1477.366
 481  1443.827
 482  1393.385
 483  1442.323
 484  1599.914
 485  1611.485
 486  1523.443
 487  1484.552
 488  1480.743
 489  1495.627
 490  1497.822
 491  1572.695
 492  1547.038
 493  1485.362
 494  1469.502
 495  1574.019
 496  1582.775
 497  1498.284
 498  1453.736
 499  1638.145
 500  1609.041
 501  1570.144
 502  1577.291
 503  1503.978
 504  1570.031
 505  1638.806
 506  1580.632
 507  1566.042
 508  1585.872
 509  1694.108
 510  1785.244
 511  1871.626
