# Input file       =  1195933010.124426_cleaned.dat
# Candidate        =  PSR_0332+5434
# Telescope        =  AR
# Epoch_topo       =  58085.817038477151
# Epoch_bary       =  N/A
# T_sample         =  0.002
# Data Folded      =  7340032
# Data Avg         =  0.0628604553297839
# Data StdDev      =  1.00007101163321 
# Profile Bins     =  512
# Profile Avg      =  901.154726701984 
# Profile StdDev   =  119.741538815228 
# Reduced chi-sqr  =  0.942
# Prob(Noise)      <  0.823   (~0.0 sigma)
# P_topo (ms)      =  714.523431310773  +/- 8.73e-05
# P'_topo (s/s)    =  -0                +/- 4.6e-11
# P''_topo (s/s^2) =  0                 +/- 2.03e-14
# P_bary (ms)      =  N/A
# P'_bary (s/s)    =  N/A
# P''_bary (s/s^2) =  N/A
# P_orb (s)        =  N/A
# asin(i)/c (s)    =  N/A
# eccentricity     =  N/A
# w (rad)          =  N/A
# T_peri           =  N/A
######################################################
   0  1240.944
   1  1300.292
   2  1187.755
   3  927.6451
   4  912.5462
   5  825.4905
   6  898.0233
   7  1035.637
   8  976.3834
   9  955.3409
  10  1034.264
  11  1042.911
  12  887.8986
  13  876.6548
  14  927.277
  15  893.6138
  16  918.2471
  17  967.6248
  18  909.657
  19  929.5166
  20  868.9554
  21  978.7421
  22  971.1639
  23  966.848
  24  925.3542
  25  967.5414
  26  917.7253
  27  856.0852
  28  989.0032
  29  1005.839
  30  1068.709
  31  912.5533
  32  805.5939
  33  876.0994
  34  847.1027
  35  874.253
  36  863.567
  37  929.3105
  38  962.2907
  39  939.3466
  40  969.7982
  41  867.6096
  42  847.6116
  43  879.6713
  44  928.1779
  45  876.0702
  46  941.1893
  47  956.5475
  48  880.6699
  49  845.7298
  50  802.5858
  51  847.5887
  52  832.5485
  53  965.7498
  54  879.1074
  55  772.8584
  56  816.0267
  57  829.3479
  58  814.5517
  59  874.202
  60  828.6283
  61  889.5467
  62  910.9521
  63  1017.097
  64  1041.13
  65  961.334
  66  935.5415
  67  934.6503
  68  930.1981
  69  996.9673
  70  902.5538
  71  862.0788
  72  848.7426
  73  914.7639
  74  903.0377
  75  947.8913
  76  1005.89
  77  878.1382
  78  804.6207
  79  814.6569
  80  947.3584
  81  1019.294
  82  1026.229
  83  959.8643
  84  783.7473
  85  806.0636
  86  837.0026
  87  822.5089
  88  907.5952
  89  838.2957
  90  806.583
  91  792.7186
  92  764.1353
  93  873.5016
  94  856.3004
  95  863.2706
  96  902.9164
  97  988.814
  98  1000.99
  99  983.0544
 100  933.7781
 101  913.0957
 102  886.4606
 103  969.9626
 104  972.2449
 105  938.6273
 106  845.2643
 107  869.1932
 108  940.0919
 109  923.4055
 110  877.258
 111  854.9695
 112  849.5847
 113  794.9649
 114  794.5943
 115  801.0257
 116  929.1609
 117  915.9247
 118  803.8624
 119  878.6465
 120  936.8926
 121  946.5081
 122  941.723
 123  879.0146
 124  917.8076
 125  864.356
 126  897.6252
 127  803.2429
 128  781.333
 129  843.2286
 130  927.922
 131  956.5593
 132  904.2298
 133  923.6855
 134  855.5609
 135  969.1497
 136  944.911
 137  891.2386
 138  899.3206
 139  893.6072
 140  892.3329
 141  847.2141
 142  899.8748
 143  905.5314
 144  889.1254
 145  855.6363
 146  888.5012
 147  848.3359
 148  799.6462
 149  771.7473
 150  892.8027
 151  939.0995
 152  892.1547
 153  894.3455
 154  951.2441
 155  814.6839
 156  669.9906
 157  744.1877
 158  802.4206
 159  797.6453
 160  823.7222
 161  827.7986
 162  790.3834
 163  773.5637
 164  759.3608
 165  688.1088
 166  740.7111
 167  850.0734
 168  940.6852
 169  914.2538
 170  800.4697
 171  750.7168
 172  842.4428
 173  887.5464
 174  911.2788
 175  837.7485
 176  859.7485
 177  831.0231
 178  899.671
 179  848.0843
 180  904.79
 181  950.4164
 182  913.2179
 183  777.8293
 184  649.2922
 185  732.2493
 186  879.9263
 187  886.7827
 188  822.5653
 189  891.7042
 190  922.171
 191  902.9962
 192  894.7599
 193  865.1345
 194  864.2698
 195  900.9871
 196  883.5013
 197  889.7545
 198  847.392
 199  760.8809
 200  735.962
 201  815.0676
 202  796.3294
 203  817.0403
 204  819.9584
 205  799.8409
 206  812.8507
 207  845.8455
 208  814.1061
 209  727.2696
 210  768.65
 211  865.1482
 212  903.7368
 213  741.1286
 214  785.9312
 215  989.4186
 216  964.7819
 217  934.3363
 218  930.8924
 219  899.4663
 220  979.1752
 221  934.9086
 222  851.2855
 223  754.4351
 224  834.8137
 225  976.8076
 226  913.7897
 227  797.541
 228  790.3621
 229  760.6461
 230  800.5081
 231  846.705
 232  853.0757
 233  808.7903
 234  765.9106
 235  765.5376
 236  812.3057
 237  876.5507
 238  918.6544
 239  940.5522
 240  981.3683
 241  875.2099
 242  769.0975
 243  745.3504
 244  850.3015
 245  877.2385
 246  900.3845
 247  918.8274
 248  883.7025
 249  844.7172
 250  960.3929
 251  1012.124
 252  947.8959
 253  893.8624
 254  962.1839
 255  954.6989
 256  823.585
 257  821.3659
 258  879.5488
 259  880.1946
 260  920.0618
 261  838.788
 262  804.7435
 263  852.6339
 264  881.7405
 265  901.3807
 266  901.6062
 267  977.9409
 268  979.7949
 269  951.5502
 270  941.4711
 271  861.3771
 272  902.553
 273  929.2148
 274  895.7465
 275  900.2222
 276  890.4071
 277  938.2505
 278  949.6519
 279  912.991
 280  900.5704
 281  849.0029
 282  818.0131
 283  874.4238
 284  911.0421
 285  813.9914
 286  924.0168
 287  869.5662
 288  903.6091
 289  962.801
 290  986.4384
 291  969.185
 292  805.0746
 293  825.6102
 294  824.2884
 295  772.7872
 296  887.7269
 297  874.6448
 298  842.2224
 299  797.5208
 300  779.494
 301  774.0103
 302  772.9391
 303  854.2618
 304  839.0715
 305  942.0646
 306  902.8163
 307  939.0978
 308  925.4371
 309  864.8795
 310  994.4728
 311  961.2635
 312  1005.461
 313  976.4065
 314  812.2623
 315  827.1814
 316  937.6489
 317  1031.073
 318  1071.267
 319  902.7525
 320  907.2539
 321  874.1344
 322  845.6083
 323  871.4133
 324  850.1518
 325  909.8239
 326  1025.86
 327  974.9688
 328  903.0312
 329  903.7671
 330  922.18
 331  902.3016
 332  884.045
 333  887.5563
 334  966.3911
 335  948.6816
 336  850.5192
 337  849.7438
 338  791.9746
 339  838.6418
 340  1003.912
 341  979.6283
 342  993.6395
 343  1004.44
 344  854.0242
 345  881.038
 346  949.5256
 347  983.5767
 348  937.4045
 349  961.9564
 350  888.3881
 351  828.3909
 352  781.1456
 353  675.4385
 354  771.7351
 355  763.821
 356  852.5232
 357  740.8593
 358  724.1217
 359  796.9937
 360  821.6519
 361  807.6719
 362  845.8286
 363  915.8441
 364  951.4016
 365  883.3639
 366  819.4961
 367  871.3315
 368  806.2465
 369  828.5078
 370  880.6396
 371  871.0496
 372  866.7788
 373  971.9061
 374  981.3162
 375  934.051
 376  864.0965
 377  842.6411
 378  931.6475
 379  873.3743
 380  815.3848
 381  770.3909
 382  844.8099
 383  960.1179
 384  1027.065
 385  861.5461
 386  805.1607
 387  873.1483
 388  854.3884
 389  970.4175
 390  1139.151
 391  1083.043
 392  933.1387
 393  841.0231
 394  888.5021
 395  865.1293
 396  804.6063
 397  920.7774
 398  953.8848
 399  971.0762
 400  1073.226
 401  1046.077
 402  959.8399
 403  924.6879
 404  1045.317
 405  1042.801
 406  1006.541
 407  987.0309
 408  1040.692
 409  823.7014
 410  640.4625
 411  870.8806
 412  1020.174
 413  1038.175
 414  928.0825
 415  954.5002
 416  921.9245
 417  921.7447
 418  974.4418
 419  991.6444
 420  986.2368
 421  1017.142
 422  1027.689
 423  1024.138
 424  920.5367
 425  919.9048
 426  1034.428
 427  1061.886
 428  944.9599
 429  853.9563
 430  864.9081
 431  839.5319
 432  810.9801
 433  805.4886
 434  886.0677
 435  947.3192
 436  911.9779
 437  962.5884
 438  938.0374
 439  891.2449
 440  950.3
 441  1011.017
 442  901.7369
 443  909.5463
 444  1064.89
 445  1125.261
 446  925.3968
 447  970.0027
 448  958.1529
 449  916.5553
 450  995.3902
 451  988.0273
 452  912.4962
 453  903.4794
 454  951.2465
 455  954.3032
 456  1008.174
 457  1001.872
 458  935.4066
 459  1011.591
 460  965.5463
 461  921.9712
 462  904.5138
 463  930.2907
 464  905.8812
 465  888.1969
 466  968.9839
 467  955.5597
 468  978.0906
 469  857.4662
 470  964.7773
 471  871.2057
 472  893.8026
 473  948.6498
 474  1070.913
 475  1067.502
 476  970.5405
 477  1061.768
 478  1078.062
 479  1022.474
 480  969.0783
 481  925.5945
 482  945.8596
 483  1006.94
 484  1018.2
 485  948.1782
 486  906.5659
 487  930.8628
 488  895.4459
 489  973.3658
 490  949.0352
 491  1048.537
 492  1014.872
 493  961.6467
 494  1035.518
 495  1094.269
 496  906.4533
 497  908.4924
 498  856.1437
 499  850.4785
 500  879.5591
 501  869.972
 502  828.0363
 503  847.8698
 504  928.9736
 505  888.9593
 506  968.1434
 507  1010.36
 508  960.5872
 509  1018.898
 510  1066.999
 511  1177.74
