# Input file       =  1195603227.108312_cleaned.dat
# Candidate        =  PSR_0332+5434
# Telescope        =  AR
# Epoch_topo       =  58082.000105420273
# Epoch_bary       =  N/A
# T_sample         =  0.002
# Data Folded      =  7340032
# Data Avg         =  0.0873649678253105
# Data StdDev      =  1.00038443336647 
# Profile Bins     =  512
# Profile Avg      =  1252.48880248744 
# Profile StdDev   =  119.779065751018 
# Reduced chi-sqr  =  0.936
# Prob(Noise)      <  0.845   (~0.0 sigma)
# P_topo (ms)      =  714.519813637765  +/- 4.84e-05
# P'_topo (s/s)    =  -0                +/- 2.55e-11
# P''_topo (s/s^2) =  0                 +/- 1.13e-14
# P_bary (ms)      =  N/A
# P'_bary (s/s)    =  N/A
# P''_bary (s/s^2) =  N/A
# P_orb (s)        =  N/A
# asin(i)/c (s)    =  N/A
# eccentricity     =  N/A
# w (rad)          =  N/A
# T_peri           =  N/A
######################################################
   0  1668.23
   1  1520.062
   2  1513.669
   3  1495.408
   4  1425.91
   5  1327.524
   6  1318.173
   7  1265.278
   8  1276.349
   9  1280.446
  10  1340.393
  11  1370.692
  12  1220.112
  13  1282.478
  14  1415.443
  15  1392.33
  16  1330.181
  17  1327.909
  18  1357.184
  19  1254.955
  20  1438.948
  21  1425.935
  22  1278.227
  23  1179.645
  24  1366.297
  25  1325.872
  26  1301.98
  27  1242.903
  28  1291.034
  29  1270.941
  30  1227.152
  31  1221.082
  32  1342.325
  33  1355.626
  34  1333.443
  35  1316.383
  36  1356.455
  37  1265.354
  38  1297.021
  39  1277.438
  40  1256.505
  41  1251.498
  42  1368.981
  43  1271.883
  44  1277.911
  45  1287.873
  46  1103.161
  47  1247.801
  48  1272.668
  49  1370.049
  50  1337.224
  51  1246.826
  52  1140.834
  53  1268.323
  54  1261.4
  55  1216.163
  56  1288.678
  57  1416.263
  58  1326.042
  59  1264.137
  60  1238.725
  61  1244.516
  62  1361.534
  63  1452.455
  64  1291.552
  65  1214.198
  66  1170.545
  67  1218.776
  68  1169.059
  69  1184.689
  70  1292.185
  71  1305.805
  72  1194.352
  73  1254.424
  74  1259.687
  75  1263.007
  76  1123.821
  77  1179.696
  78  1263.926
  79  1382.815
  80  1265.525
  81  1159.582
  82  1195.059
  83  1338.673
  84  1354.681
  85  1279.412
  86  1158.976
  87  1158.956
  88  1177.489
  89  1199.613
  90  1178.65
  91  1189.196
  92  1229.171
  93  1301.999
  94  1296.647
  95  1194.854
  96  1282.978
  97  1173.16
  98  1192.633
  99  1227.645
 100  1216.786
 101  1194.622
 102  1155.937
 103  1154.806
 104  1140.797
 105  1133.535
 106  1262.239
 107  1247.524
 108  1229.674
 109  1176.089
 110  1187.589
 111  1169.8
 112  1079.086
 113  1068.513
 114  1208.698
 115  1120.391
 116  1076.723
 117  1220.144
 118  1187.291
 119  1151.564
 120  1221.638
 121  1253.933
 122  1359.74
 123  1263.437
 124  1240.656
 125  1259.087
 126  1273.211
 127  1298.702
 128  1191.488
 129  1285.446
 130  1254.787
 131  1334.096
 132  1305.959
 133  1312.171
 134  1310.579
 135  1284.911
 136  1257.991
 137  1344.294
 138  1331.266
 139  1323.571
 140  1295.378
 141  1170.167
 142  1182.06
 143  1363.969
 144  1279.235
 145  1180.969
 146  1245.529
 147  1298.579
 148  1159.851
 149  1293.246
 150  1372.471
 151  1239.726
 152  1160.759
 153  1297.264
 154  1181.99
 155  1142.809
 156  1316.347
 157  1268.208
 158  1228.675
 159  1190.526
 160  1166.523
 161  1201.358
 162  1179.607
 163  1259.239
 164  1253.261
 165  1175.798
 166  1038.474
 167  1122.813
 168  1248.459
 169  1279.029
 170  1272.538
 171  1266.336
 172  1275.445
 173  1205.787
 174  1130.629
 175  1208.499
 176  1279.362
 177  1290.231
 178  1318.033
 179  1334.886
 180  1275.291
 181  1204.197
 182  1268.265
 183  1213.602
 184  1211.29
 185  1143.216
 186  1200.374
 187  1187.038
 188  1091.348
 189  1223.41
 190  1414.062
 191  1296.547
 192  1308.029
 193  1243.868
 194  1198.15
 195  1187.267
 196  1213.015
 197  1204.135
 198  1203.098
 199  1208.537
 200  1357.31
 201  1291.368
 202  1354.585
 203  1290.176
 204  1329.797
 205  1291.878
 206  1206.49
 207  1214.423
 208  1179.013
 209  1159.294
 210  1185.594
 211  1203.075
 212  1183.48
 213  1116.606
 214  1222.83
 215  1208.679
 216  1167.299
 217  1194.017
 218  1247.739
 219  1291.465
 220  1232.671
 221  1302.35
 222  1334.201
 223  1348.772
 224  1190.233
 225  1218.922
 226  1180.207
 227  1213.031
 228  1155.78
 229  1147.1
 230  1218.376
 231  1218.715
 232  1259.293
 233  1312.288
 234  1260.599
 235  1256.554
 236  1075.445
 237  1040.928
 238  1239.214
 239  1258.237
 240  1098.415
 241  1183.664
 242  1273.598
 243  1273.172
 244  1299.201
 245  1227.466
 246  1216.184
 247  1194.655
 248  1234.557
 249  1254.734
 250  1222.892
 251  1222.696
 252  1212.442
 253  1220.42
 254  1173.372
 255  1268.596
 256  1268.776
 257  1292.878
 258  1306.921
 259  1209.903
 260  1313.412
 261  1423.184
 262  1223.692
 263  1172.58
 264  1266.169
 265  1302.103
 266  1248.297
 267  1223.719
 268  1258.716
 269  1138.484
 270  1113.246
 271  1225.082
 272  1257.993
 273  1116.249
 274  1072.366
 275  1223.894
 276  1247.281
 277  1096.25
 278  1219.947
 279  1252.378
 280  1371.086
 281  1176.189
 282  1165.441
 283  1223.561
 284  1179.957
 285  1191.365
 286  1227.579
 287  1177.252
 288  1145.427
 289  1298.456
 290  1330.735
 291  1257.807
 292  1277.077
 293  1268.693
 294  1218.222
 295  1180.939
 296  1209.199
 297  1242.49
 298  1142.767
 299  1244.659
 300  1261.661
 301  1306.168
 302  1257.365
 303  1227.646
 304  1275.166
 305  1227.513
 306  1240.509
 307  1333.2
 308  1340.119
 309  1193.442
 310  1132.332
 311  1209.772
 312  1138.588
 313  1217.262
 314  1217.212
 315  1251.534
 316  1312.747
 317  1364.762
 318  1307.993
 319  1344.879
 320  1279.052
 321  1373.114
 322  1324.326
 323  1382.753
 324  1340.911
 325  1353.747
 326  1254.308
 327  1163.057
 328  1240.429
 329  1319.874
 330  1328.657
 331  1345.154
 332  1262.673
 333  1307.921
 334  1217.958
 335  1203.618
 336  1336.255
 337  1343.22
 338  1165.862
 339  1158.836
 340  1250.862
 341  1258.93
 342  1281.111
 343  1365.173
 344  1403.516
 345  1362.963
 346  1314.006
 347  1273.288
 348  1278.169
 349  1232.943
 350  1367.827
 351  1330.082
 352  1339.645
 353  1376.204
 354  1260.62
 355  1304.445
 356  1261.617
 357  1230.569
 358  1313.182
 359  1159.016
 360  1276.999
 361  1366.086
 362  1346.094
 363  1296.116
 364  1411.302
 365  1275.274
 366  1181.211
 367  1170.698
 368  1301.836
 369  1257.063
 370  1204.513
 371  1405.804
 372  1290.044
 373  1249.537
 374  1224.273
 375  1239.085
 376  1220.084
 377  1212.741
 378  1220.441
 379  1146.81
 380  1140.106
 381  1120.726
 382  1173.638
 383  1234.271
 384  1246.351
 385  1307.617
 386  1296.52
 387  1200.558
 388  1121.121
 389  1258.052
 390  1361.302
 391  1229.806
 392  1229.325
 393  1277.891
 394  1136.429
 395  1118.229
 396  1133.136
 397  1227.152
 398  1227.723
 399  1150.457
 400  1216.368
 401  1238.251
 402  1153.888
 403  1266.224
 404  1293.764
 405  1248.976
 406  1221.88
 407  1267.243
 408  1225.193
 409  1265.674
 410  1243.616
 411  1246.149
 412  1125.228
 413  1157.293
 414  1219.977
 415  1143.852
 416  1138.994
 417  1118.774
 418  1191.701
 419  1216.366
 420  1211.748
 421  1145.08
 422  1237.412
 423  1226.094
 424  1128.791
 425  1131.584
 426  1212.897
 427  1217.512
 428  1175.698
 429  1200.595
 430  1218.245
 431  1170.206
 432  1200.65
 433  1196.789
 434  1231.672
 435  1138.517
 436  1190.648
 437  1124.071
 438  1159.021
 439  1179.298
 440  1312.113
 441  1240.717
 442  1179.194
 443  1313.452
 444  1307.496
 445  1231.378
 446  1157.19
 447  1180.271
 448  1275.05
 449  1184.191
 450  1214.369
 451  1218.736
 452  1247.641
 453  1322.783
 454  1343.776
 455  1258.349
 456  1322.85
 457  1205.034
 458  1138.549
 459  1125.237
 460  1180.893
 461  1201.629
 462  1241.114
 463  1089.882
 464  1233.944
 465  1277.284
 466  1268.758
 467  1206.975
 468  1347.341
 469  1378.754
 470  1199.342
 471  1245.965
 472  1293.224
 473  1242.722
 474  1216.635
 475  1277.943
 476  1283.636
 477  1269.334
 478  1148.604
 479  1293.199
 480  1302.855
 481  1333.44
 482  1342.266
 483  1403.488
 484  1236.481
 485  1239.011
 486  1297.417
 487  1267.182
 488  1278.046
 489  1325.436
 490  1296.074
 491  1243.352
 492  1228.773
 493  1309.691
 494  1264.904
 495  1256.707
 496  1208.599
 497  1413.698
 498  1417.232
 499  1321.36
 500  1358.897
 501  1323.553
 502  1328.283
 503  1337.161
 504  1455.548
 505  1383.702
 506  1294.786
 507  1418.679
 508  1427.379
 509  1425.49
 510  1632.897
 511  1732.437
