# Input file       =  1195933010.124426_cleaned.dat
# Candidate        =  PSR_0332+5434
# Telescope        =  AR
# Epoch_topo       =  58085.817038477151
# Epoch_bary       =  N/A
# T_sample         =  0.002
# Data Folded      =  7340032
# Data Avg         =  0.0628604553297839
# Data StdDev      =  1.00007101163321 
# Profile Bins     =  512
# Profile Avg      =  901.154726718105 
# Profile StdDev   =  119.741538815228 
# Reduced chi-sqr  =  0.942
# Prob(Noise)      <  0.821   (~0.0 sigma)
# P_topo (ms)      =  714.523431353767  +/- 8.53e-05
# P'_topo (s/s)    =  -0                +/- 4.5e-11
# P''_topo (s/s^2) =  0                 +/- 1.99e-14
# P_bary (ms)      =  N/A
# P'_bary (s/s)    =  N/A
# P''_bary (s/s^2) =  N/A
# P_orb (s)        =  N/A
# asin(i)/c (s)    =  N/A
# eccentricity     =  N/A
# w (rad)          =  N/A
# T_peri           =  N/A
######################################################
   0  1211.256
   1  1245.691
   2  1293.207
   3  1066.266
   4  898.4081
   5  893.8055
   6  812.9317
   7  991.1453
   8  1019.39
   9  941.2081
  10  971.8622
  11  1072.573
  12  989.2008
  13  855.7554
  14  913.1207
  15  906.8527
  16  896.2874
  17  948.6486
  18  931.9611
  19  927.7643
  20  901.8854
  21  922.2955
  22  982.4039
  23  964.1776
  24  936.7401
  25  934.2549
  26  964.1016
  27  877.2225
  28  915.5267
  29  1022.159
  30  1024.408
  31  1025.08
  32  822.0281
  33  843.9815
  34  865.4623
  35  857.1646
  36  868.9034
  37  891.286
  38  946.1646
  39  932.9833
  40  965.2893
  41  945.0026
  42  853.9193
  43  858.8901
  44  907.931
  45  908.3258
  46  878.9249
  47  954.4593
  48  928.6996
  49  859.991
  50  835.477
  51  820.8409
  52  835.9113
  53  886.4457
  54  937.33
  55  837.8479
  56  761.6204
  57  864.1145
  58  808.1121
  59  850.9597
  60  841.5293
  61  830.5229
  62  891.597
  63  958.7847
  64  1076.637
  65  990.204
  66  952.0118
  67  932.1839
  68  920.6378
  69  960.9151
  70  959.8684
  71  891.8578
  72  856.106
  73  884.9036
  74  902.0859
  75  910.4169
  76  979.0855
  77  964.4298
  78  830.2659
  79  806.695
  80  871.3401
  81  985.1921
  82  1033.722
  83  984.4809
  84  894.2274
  85  757.9092
  86  849.7034
  87  827.0389
  88  859.9865
  89  899.1419
  90  789.4267
  91  806.7344
  92  761.5114
  93  822.8383
  94  882.5393
  95  853.65
  96  883.264
  97  934.6501
  98  1007.936
  99  982.4421
 100  957.446
 101  931.8833
 102  895.5501
 103  930.1927
 104  974.2888
 105  963.8387
 106  880.8011
 107  845.6638
 108  897.8159
 109  957.2064
 110  907.3591
 111  864.1836
 112  853.4557
 113  813.5405
 114  786.7702
 115  803.7294
 116  838.6083
 117  971.5766
 118  850.8752
 119  834.7114
 120  896.4693
 121  919.8997
 122  960.6145
 123  923.3575
 124  899.6024
 125  899.2706
 126  875.8071
 127  868.524
 128  761.1567
 129  793.9189
 130  880.0051
 131  974.2532
 132  928.2756
 133  941.2706
 134  863.0112
 135  894.8542
 136  948.1857
 137  932.3198
 138  896.5823
 139  919.0876
 140  903.7073
 141  858.5873
 142  865.0364
 143  885.8871
 144  908.7295
 145  866.9492
 146  881.3762
 147  887.403
 148  825.0566
 149  778.7676
 150  800.753
 151  919.2224
 152  921.4135
 153  885.4431
 154  949.0481
 155  905.3384
 156  729.3378
 157  682.7056
 158  772.3003
 159  800.2341
 160  799.2297
 161  856.1965
 162  819.6497
 163  771.9881
 164  767.3719
 165  722.6751
 166  684.6896
 167  791.4061
 168  905.7183
 169  948.8008
 170  880.1909
 171  746.7456
 172  770.0364
 173  871.7688
 174  890.5588
 175  910.2399
 176  834.3237
 177  856.2901
 178  848.9059
 179  879.0382
 180  846.9821
 181  940.8254
 182  944.6805
 183  883.5501
 184  707.9163
 185  671.0045
 186  789.3425
 187  901.6364
 188  831.6663
 189  855.9516
 190  915.9013
 191  923.6696
 192  902.2627
 193  879.9778
 194  843.9053
 195  885.4987
 196  884.3988
 197  902.8076
 198  885.1147
 199  819.1497
 200  730.0844
 201  773.6973
 202  798.5084
 203  788.2873
 204  830.3059
 205  825.5058
 206  804.8967
 207  826.8442
 208  849.3279
 209  766.3474
 210  718.9813
 211  788.0034
 212  922.0473
 213  849.4562
 214  728.9245
 215  869.6459
 216  1009.225
 217  925.9618
 218  943.5692
 219  898.7617
 220  953.2141
 221  969.6589
 222  920.0859
 223  776.023
 224  764.7818
 225  902.9587
 226  974.2121
 227  877.7711
 228  775.8434
 229  788.5833
 230  764.8575
 231  821.4326
 232  844.4967
 233  828.8
 234  780.1207
 235  788.1556
 236  773.1375
 237  854.8771
 238  876.0733
 239  932.5153
 240  963.9532
 241  943.8213
 242  828.2248
 243  750.5585
 244  796.8754
 245  863.5707
 246  869.5692
 247  914.273
 248  914.5214
 249  856.3946
 250  884.9555
 251  1013.148
 252  994.1019
 253  914.8722
 254  889.0396
 255  988.1247
 256  889.1733
 257  820.6912
 258  848.4919
 259  881.7372
 260  910.8268
 261  878.4545
 262  802.4064
 263  810.7908
 264  889.6061
 265  889.1399
 266  919.3298
 267  914.751
 268  1003.984
 269  948.7477
 270  953.9888
 271  909.5459
 272  862.7584
 273  930.4838
 274  920.8506
 275  889.8539
 276  893.8718
 277  884.7436
 278  954.7101
 279  952.8906
 280  909.4153
 281  889.4459
 282  831.2456
 283  817.8663
 284  909.0267
 285  831.7181
 286  862.916
 287  939.8427
 288  865.0706
 289  944.8065
 290  965.261
 291  995.0231
 292  886.1771
 293  781.4214
 294  862.3183
 295  793.3199
 296  814.7351
 297  901.1983
 298  843.0577
 299  831.8055
 300  766.4146
 301  785.5945
 302  757.0817
 303  843.7778
 304  838.24
 305  882.6868
 306  931.778
 307  893.0988
 308  960.7688
 309  875.5884
 310  924.7429
 311  1005.304
 312  955.3784
 313  1019.416
 314  892.2501
 315  798.4998
 316  874.9146
 317  998.0757
 318  1071.072
 319  999.5722
 320  870.123
 321  898.3968
 322  851.2796
 323  865.9458
 324  862.1109
 325  874.9374
 326  966.4828
 327  1021.685
 328  921.2673
 329  891.5294
 330  924.882
 331  908.4222
 332  902.5621
 333  880.8346
 334  931.6317
 335  962.9469
 336  891.9297
 337  840.6022
 338  839.3964
 339  786.4336
 340  927.7243
 341  1011.03
 342  971.6667
 343  1014.835
 344  930.8283
 345  836.5108
 346  931.6835
 347  985.5816
 348  947.7764
 349  958.0763
 350  925.7571
 351  853.1686
 352  822.8075
 353  710.0677
 354  739.4554
 355  758.1274
 356  810.1761
 357  809.9934
 358  708.5386
 359  749.1017
 360  827.079
 361  812.0509
 362  823.878
 363  880.1493
 364  945.5424
 365  932.0327
 366  819.8694
 367  848.858
 368  861.6564
 369  808.1588
 370  843.6362
 371  888.9028
 372  850.2045
 373  921.0109
 374  974.579
 375  956.6508
 376  930.2158
 377  834.5242
 378  891.895
 379  893.142
 380  845.9323
 381  783.8759
 382  799.2682
 383  891.6733
 384  1031.863
 385  967.4668
 386  812.8973
 387  827.1271
 388  860.1525
 389  871.8021
 390  1062.365
 391  1152.369
 392  1021.359
 393  876.7455
 394  848.8933
 395  889.7807
 396  811.7591
 397  851.752
 398  957.6456
 399  970.4579
 400  1014.045
 401  1069.851
 402  988.246
 403  943.014
 404  974.1575
 405  1072.661
 406  1010.994
 407  996.9953
 408  1027.286
 409  982.3285
 410  676.8895
 411  701.6616
 412  978.812
 413  1045.388
 414  991.9717
 415  932.2961
 416  955.6277
 417  893.4654
 418  928.7555
 419  996.9711
 420  1012.081
 421  995.3798
 422  1026.522
 423  1022.37
 424  989.0013
 425  881.4585
 426  960.7136
 427  1077.547
 428  1034.759
 429  893.5778
 430  851.9687
 431  849.4189
 432  819.0169
 433  797.1923
 434  826.5051
 435  944.8917
 436  931.7273
 437  944.6117
 438  957.4124
 439  891.6417
 440  893.9553
 441  997.1763
 442  992.6774
 443  882.7604
 444  966.9606
 445  1143.023
 446  1021.65
 447  915.5516
 448  973.7698
 449  926.7164
 450  958.8074
 451  1020.541
 452  944.7293
 453  894.6724
 454  915.7506
 455  957.1451
 456  971.671
 457  1026.205
 458  969.1838
 459  975.7302
 460  999.1776
 461  929.8362
 462  902.0534
 463  910.7546
 464  941.2902
 465  881.7231
 466  935.5628
 467  972.1691
 468  965.2388
 469  913.3381
 470  887.4927
 471  940.6694
 472  874.8318
 473  913.4565
 474  1008.453
 475  1090.421
 476  1011.289
 477  978.8361
 478  1094.511
 479  1056.748
 480  1012.816
 481  949.913
 482  908.3883
 483  990.7175
 484  986.4981
 485  1011.878
 486  896.3963
 487  952.7734
 488  900.046
 489  945.0434
 490  953.3261
 491  971.771
 492  1058.237
 493  974.2353
 494  992.4965
 495  1095.801
 496  1010.598
 497  894.7651
 498  899.5486
 499  823.7358
 500  861.015
 501  880.3398
 502  877.8734
 503  813.4109
 504  901.0565
 505  910.7316
 506  903.9667
 507  991.6062
 508  974.0524
 509  990.7505
 510  1062.633
 511  1110.339
