# Input file       =  1195832188.113894_cleaned.dat
# Candidate        =  PSR_0332+5434
# Telescope        =  AR
# Epoch_topo       =  58084.650117058962
# Epoch_bary       =  N/A
# T_sample         =  0.002
# Data Folded      =  7208960
# Data Avg         =  0.042615808125844
# Data StdDev      =  1.00024512718123 
# Profile Bins     =  512
# Profile Avg      =  600.021421418379 
# Profile StdDev   =  118.68826238282  
# Reduced chi-sqr  =  0.650
# Prob(Noise)      <  1   (~0.0 sigma)
# P_topo (ms)      =  714.522200544112  +/- 0.000287
# P'_topo (s/s)    =  -0                +/- 1.54e-10
# P''_topo (s/s^2) =  0                 +/- 6.93e-14
# P_bary (ms)      =  N/A
# P'_bary (s/s)    =  N/A
# P''_bary (s/s^2) =  N/A
# P_orb (s)        =  N/A
# asin(i)/c (s)    =  N/A
# eccentricity     =  N/A
# w (rad)          =  N/A
# T_peri           =  N/A
######################################################
   0  915.4227
   1  873.168
   2  839.6225
   3  697.8344
   4  690.6793
   5  572.1982
   6  544.0267
   7  510.8812
   8  488.845
   9  638.8552
  10  620.8948
  11  656.2151
  12  586.3409
  13  617.1358
  14  731.0713
  15  753.2938
  16  693.5287
  17  614.6077
  18  535.7421
  19  570.1436
  20  622.4872
  21  675.7601
  22  592.3105
  23  567.4021
  24  581.6448
  25  587.0439
  26  617.9646
  27  628.5252
  28  695.7572
  29  649.9483
  30  659.9576
  31  699.5578
  32  610.528
  33  610.5406
  34  541.439
  35  452.375
  36  608.5273
  37  539.4771
  38  612.9111
  39  622.6492
  40  607.124
  41  667.9881
  42  664.1254
  43  592.4743
  44  586.3427
  45  659.4079
  46  617.8592
  47  495.7334
  48  535.517
  49  565.7835
  50  655.319
  51  587.0368
  52  593.8587
  53  609.48
  54  631.6575
  55  605.1199
  56  618.8167
  57  664.3054
  58  663.7029
  59  633.8698
  60  547.0533
  61  536.5969
  62  517.2497
  63  618.0131
  64  682.124
  65  635.0856
  66  587.7389
  67  690.364
  68  656.2658
  69  662.6282
  70  636.5435
  71  529.57
  72  498.033
  73  559.263
  74  654.1896
  75  628.345
  76  593.1337
  77  574.4993
  78  551.7807
  79  520.3218
  80  528.5381
  81  556.6956
  82  591.9129
  83  495.7664
  84  503.6116
  85  474.7232
  86  492.1181
  87  602.5165
  88  613.0349
  89  718.6247
  90  662.5687
  91  593.8868
  92  559.2847
  93  488.6047
  94  542.138
  95  532.2133
  96  445.01
  97  571.8149
  98  642.9029
  99  520.8909
 100  574.2478
 101  586.0818
 102  592.4445
 103  558.7125
 104  538.2924
 105  580.4109
 106  594.6417
 107  667.9852
 108  595.6273
 109  476.5426
 110  455.2148
 111  451.4988
 112  535.1583
 113  666.7355
 114  723.4476
 115  653.4247
 116  613.8449
 117  640.656
 118  552.6374
 119  480.4686
 120  525.1841
 121  630.7747
 122  592.7174
 123  568.2806
 124  672.3641
 125  724.2717
 126  662.0522
 127  659.6825
 128  681.0208
 129  627.0869
 130  544.3822
 131  637.3162
 132  684.7455
 133  581.9415
 134  574.3188
 135  554.3281
 136  687.66
 137  659.7368
 138  631.5753
 139  616.9708
 140  669.7639
 141  755.1337
 142  725.1852
 143  729.4579
 144  681.4224
 145  657.6341
 146  667.6241
 147  635.788
 148  596.5842
 149  611.371
 150  712.9378
 151  625.2273
 152  598.9997
 153  610.5152
 154  601.3063
 155  600.6141
 156  589.1257
 157  584.9888
 158  598.8533
 159  631.465
 160  630.6578
 161  608.6576
 162  545.4688
 163  646.5083
 164  647.8486
 165  585.8707
 166  609.2275
 167  585.2553
 168  599.0143
 169  552.9993
 170  569.1853
 171  597.3281
 172  567.3015
 173  553.6779
 174  641.0174
 175  597.2637
 176  583.1467
 177  568.3121
 178  626.9775
 179  621.1466
 180  575.3109
 181  628.8381
 182  585.5643
 183  611.6174
 184  628.0124
 185  645.1083
 186  718.802
 187  670.8027
 188  590.7189
 189  640.5106
 190  694.6808
 191  565.9781
 192  524.3967
 193  612.4205
 194  543.7167
 195  655.9174
 196  576.9572
 197  466.7148
 198  566.9208
 199  500.7234
 200  529.9594
 201  557.6925
 202  672.2233
 203  590.3023
 204  431.1298
 205  433.2708
 206  438.0102
 207  472.7237
 208  550.2347
 209  626.2868
 210  538.0377
 211  635.2086
 212  492.925
 213  557.5193
 214  658.0431
 215  603.7077
 216  539.1348
 217  531.7224
 218  487.8528
 219  522.2328
 220  531.2356
 221  573.9121
 222  571.1834
 223  482.5794
 224  604.4744
 225  636.1036
 226  561.2001
 227  607.8936
 228  543.673
 229  517.2896
 230  490.3643
 231  596.8456
 232  620.6725
 233  604.5701
 234  584.6062
 235  535.0898
 236  543.475
 237  501.2225
 238  510.8078
 239  565.8968
 240  556.5724
 241  556.7328
 242  498.9019
 243  650.5681
 244  610.7205
 245  597.4496
 246  560.2859
 247  501.1205
 248  462.0284
 249  546.0458
 250  649.9127
 251  488.9803
 252  527.5541
 253  650.4679
 254  811.1312
 255  693.3182
 256  669.3139
 257  665.9395
 258  552.2718
 259  554.9581
 260  590.2433
 261  645.1459
 262  595.873
 263  608.5107
 264  476.674
 265  515.2657
 266  598.6199
 267  679.3632
 268  593.8557
 269  553.4722
 270  620.1172
 271  654.4114
 272  647.3188
 273  589.5757
 274  583.5937
 275  608.2817
 276  564.0643
 277  651.1566
 278  703.6072
 279  568.4681
 280  534.0165
 281  567.0609
 282  572.1851
 283  642.7604
 284  671.4272
 285  650.1327
 286  603.8773
 287  603.703
 288  513.4535
 289  513.622
 290  549.4095
 291  545.3063
 292  605.178
 293  644.6753
 294  604.8196
 295  442.309
 296  406.2546
 297  572.4251
 298  634.4056
 299  599.328
 300  590.1636
 301  563.0519
 302  513.5919
 303  549.1912
 304  562.5167
 305  669.4483
 306  614.4144
 307  607.2784
 308  626.3987
 309  615.908
 310  554.6105
 311  534.2947
 312  570.2469
 313  659.6259
 314  598.1549
 315  628.0078
 316  623.3799
 317  570.9662
 318  654.8695
 319  665.906
 320  643.0692
 321  589.2495
 322  580.1111
 323  569.0419
 324  672.9062
 325  670.765
 326  594.7794
 327  580.638
 328  570.8584
 329  495.1276
 330  478.7328
 331  626.3715
 332  565.8958
 333  551.311
 334  557.5792
 335  594.6232
 336  535.2341
 337  539.1423
 338  494.6518
 339  592.7655
 340  669.2579
 341  599.8527
 342  641.4999
 343  623.3522
 344  625.0083
 345  633.2875
 346  607.0043
 347  644.6182
 348  532.4931
 349  487.5727
 350  539.9772
 351  600.5001
 352  607.4802
 353  598.322
 354  541.1344
 355  583.2482
 356  686.3432
 357  715.6511
 358  706.4141
 359  627.6362
 360  589.0153
 361  714.6716
 362  569.9041
 363  535.4907
 364  589.5931
 365  568.0482
 366  678.4827
 367  728.9107
 368  700.1841
 369  656.2023
 370  632.6335
 371  591.9653
 372  542.3019
 373  552.6782
 374  605.527
 375  711.3335
 376  598.8839
 377  642.5223
 378  576.4297
 379  581.4409
 380  671.7557
 381  703.2302
 382  723.0095
 383  606.413
 384  564.8575
 385  628.0768
 386  654.5682
 387  713.8859
 388  653.3121
 389  705.8892
 390  624.2321
 391  521.3398
 392  634.6203
 393  779.2687
 394  704.0951
 395  631.9162
 396  690.6835
 397  720.8272
 398  706.1593
 399  654.5448
 400  640.1165
 401  599.6307
 402  624.2161
 403  617.5726
 404  596.941
 405  578.18
 406  627.4053
 407  614.5229
 408  585.1569
 409  597.9474
 410  598.5994
 411  626.0422
 412  507.0228
 413  519.0044
 414  518.7213
 415  534.6409
 416  578.2729
 417  509.6313
 418  478.1029
 419  506.4373
 420  572.7715
 421  662.3616
 422  637.8636
 423  684.0093
 424  715.513
 425  575.8922
 426  496.9438
 427  475.2248
 428  551.955
 429  625.3387
 430  634.1304
 431  549.636
 432  531.1801
 433  641.7481
 434  562.8749
 435  538.2824
 436  622.0252
 437  661.9158
 438  553.3246
 439  548.2034
 440  478.3325
 441  475.9866
 442  560.4252
 443  665.8587
 444  743.8626
 445  649.7969
 446  629.5612
 447  587.2847
 448  567.3089
 449  564.6872
 450  498.5661
 451  522.0525
 452  551.1119
 453  592.837
 454  656.1257
 455  626.8989
 456  689.1902
 457  661.711
 458  631.1829
 459  553.7906
 460  542.7672
 461  673.661
 462  691.7476
 463  669.2889
 464  612.4554
 465  547.7073
 466  539.512
 467  582.1682
 468  487.446
 469  552.8689
 470  556.3914
 471  612.9064
 472  578.8386
 473  542.3439
 474  551.29
 475  661.7028
 476  704.4518
 477  643.4713
 478  637.8149
 479  606.4597
 480  560.9461
 481  544.9313
 482  609.5036
 483  646.0062
 484  589.5546
 485  669.7952
 486  664.9059
 487  611.5884
 488  609.3377
 489  585.9515
 490  597.06
 491  581.278
 492  550.2946
 493  585.6
 494  506.4721
 495  536.5042
 496  542.6747
 497  604.8376
 498  558.2458
 499  564.3385
 500  617.2226
 501  516.1434
 502  561.556
 503  606.0289
 504  620.1664
 505  675.6599
 506  670.9614
 507  623.4108
 508  651.2935
 509  784.4096
 510  880.9484
 511  820.5754
