# Input file       =  1195746036.118177_cleaned.dat
# Candidate        =  PSR_0332+5434
# Telescope        =  AR
# Epoch_topo       =  58083.652987478898
# Epoch_bary       =  N/A
# T_sample         =  0.002
# Data Folded      =  7208960
# Data Avg         =  0.0780569567406341
# Data StdDev      =  1.0002864513209  
# Profile Bins     =  512
# Profile Avg      =  1098.97822398509 
# Profile StdDev   =  118.693165871173 
# Reduced chi-sqr  =  0.901
# Prob(Noise)      <  0.947   (~0.0 sigma)
# P_topo (ms)      =  714.521166931231  +/- 0.000206
# P'_topo (s/s)    =  -0                +/- 1.1e-10
# P''_topo (s/s^2) =  0                 +/- 4.96e-14
# P_bary (ms)      =  N/A
# P'_bary (s/s)    =  N/A
# P''_bary (s/s^2) =  N/A
# P_orb (s)        =  N/A
# asin(i)/c (s)    =  N/A
# eccentricity     =  N/A
# w (rad)          =  N/A
# T_peri           =  N/A
######################################################
   0  1411.8
   1  1382.711
   2  1328.92
   3  1342.609
   4  1247.648
   5  1197.869
   6  1136.88
   7  1168.173
   8  1215.047
   9  1100.445
  10  1146.745
  11  1134.331
  12  1130.186
  13  1081.619
  14  1140.515
  15  1160.008
  16  1063.058
  17  1106.098
  18  1068.08
  19  985.576
  20  1035.46
  21  1033.639
  22  1165.804
  23  1144.46
  24  1052.118
  25  1159.523
  26  1006.32
  27  1132.417
  28  1122.739
  29  1060.094
  30  947.6669
  31  1000.202
  32  1037.684
  33  997.305
  34  1062.822
  35  1105.333
  36  1013.226
  37  960.5348
  38  1015.408
  39  992.5683
  40  1043.786
  41  1165.832
  42  1105.874
  43  1026.001
  44  877.9758
  45  832.6346
  46  951.581
  47  912.2714
  48  1040.819
  49  1056.188
  50  1095.918
  51  1082.307
  52  1117.284
  53  1180.007
  54  1162.969
  55  1103.454
  56  1168.502
  57  1070.749
  58  1049.09
  59  1080.292
  60  1191.556
  61  1116.224
  62  1106.645
  63  1174.285
  64  1083.385
  65  926.08
  66  1074.103
  67  1066.062
  68  1024.001
  69  1008.129
  70  1058.408
  71  1027.08
  72  1108.971
  73  1151.293
  74  1185.18
  75  1047.069
  76  972.7114
  77  991.9786
  78  1058.791
  79  1040.232
  80  950.9642
  81  940.9963
  82  972.9724
  83  977.1354
  84  1048.685
  85  1043.383
  86  1027.912
  87  997.9457
  88  973.2756
  89  956.8536
  90  936.1152
  91  971.7861
  92  1167.851
  93  1138.626
  94  1123.219
  95  1003.369
  96  1126.268
  97  1186.433
  98  1172.157
  99  1091.149
 100  999.2451
 101  1129.704
 102  1187.659
 103  1158.182
 104  1075.547
 105  1042.834
 106  1159.112
 107  1150.902
 108  1116.896
 109  1163.97
 110  1193.008
 111  1072.707
 112  1093.577
 113  1154.941
 114  1102.037
 115  1104.444
 116  1137.081
 117  1244.17
 118  1250.097
 119  1159.451
 120  1094.915
 121  1114.758
 122  1122.515
 123  1165.032
 124  1117.3
 125  1198.909
 126  1229.93
 127  1211.217
 128  1078.998
 129  1032.515
 130  1045.235
 131  1019.594
 132  1080.521
 133  1108.579
 134  1033.925
 135  1122.797
 136  1084.405
 137  1212.213
 138  1210.563
 139  1165.236
 140  1254.903
 141  1250.019
 142  1167.995
 143  1104.288
 144  1140.137
 145  1127.499
 146  1121.857
 147  1147.369
 148  1112.743
 149  1182.564
 150  1197.389
 151  1217.711
 152  1210.596
 153  1195.059
 154  1145.817
 155  1149.79
 156  1224.107
 157  1184.402
 158  1157.316
 159  1134.306
 160  1122.47
 161  1152.315
 162  1173.939
 163  1139.617
 164  1187.209
 165  1139.361
 166  1191.448
 167  1122.599
 168  1052.013
 169  1106.334
 170  1138.738
 171  1125.365
 172  1177.869
 173  1215.467
 174  1084.68
 175  1031.874
 176  1071.192
 177  1025.543
 178  996.7164
 179  1033.319
 180  1079.72
 181  1149.455
 182  1155.595
 183  1103.479
 184  1128.024
 185  1137.36
 186  1109.158
 187  1076.111
 188  1040.789
 189  1106.684
 190  977.849
 191  988.5792
 192  1044.518
 193  1019.153
 194  938.9713
 195  1110.52
 196  1127.483
 197  1092.653
 198  1094.375
 199  1167.339
 200  1094.588
 201  1084.369
 202  1010.476
 203  990.3693
 204  974.3611
 205  1002.803
 206  1113.382
 207  1140.426
 208  1093.554
 209  1064.003
 210  983.0353
 211  973.3077
 212  1014.428
 213  1101.593
 214  1193.348
 215  1126.536
 216  1105.955
 217  1051.444
 218  1127.162
 219  1076.514
 220  960.0481
 221  1129.564
 222  1215.977
 223  1158.45
 224  1207.232
 225  1081.602
 226  1084.327
 227  1068.31
 228  1079.725
 229  1133.245
 230  1044.183
 231  1060.497
 232  1044.642
 233  1124.003
 234  1191.014
 235  1209.178
 236  1211.699
 237  1152.169
 238  1204.493
 239  1101.756
 240  1103.484
 241  1172.924
 242  1117.531
 243  1046.971
 244  1139.442
 245  1095.635
 246  1066.625
 247  1036.006
 248  1032.346
 249  1120.241
 250  1189.038
 251  1087.908
 252  1039.309
 253  1099.462
 254  1144.469
 255  1139.431
 256  1093.421
 257  1120.953
 258  1099.383
 259  1027.76
 260  1129.464
 261  1102.988
 262  1166.468
 263  1149.728
 264  1070.948
 265  1017.417
 266  995.2422
 267  1054.101
 268  1148.918
 269  1194.508
 270  1203.403
 271  1175.915
 272  1109.969
 273  1166.682
 274  1094.141
 275  1100.125
 276  1135.956
 277  1057.696
 278  1039.221
 279  958.6062
 280  996.8655
 281  1087.442
 282  1011.004
 283  996.8162
 284  967.1423
 285  963.6296
 286  989.1221
 287  1016.586
 288  1114.149
 289  1092.16
 290  1016.639
 291  899.1479
 292  969.2104
 293  1090.248
 294  990.3947
 295  1096.957
 296  1177.463
 297  1072.966
 298  995.1291
 299  1014.065
 300  1048.53
 301  923.2589
 302  964.332
 303  1087.366
 304  1179.839
 305  1082.085
 306  1167.33
 307  1190.766
 308  1184.302
 309  1145.409
 310  1079.479
 311  1091.473
 312  1080.154
 313  1046.078
 314  1009.204
 315  1025.968
 316  1108.662
 317  1011.342
 318  1013.401
 319  1010.647
 320  1077.999
 321  1213.831
 322  1318.004
 323  1294.474
 324  1318.846
 325  1324.325
 326  1224.611
 327  1212.873
 328  1098.973
 329  1152.768
 330  1277.803
 331  1294.047
 332  1204.91
 333  1086.401
 334  1120.522
 335  1098.764
 336  1127.371
 337  1101.096
 338  1129.135
 339  1096.043
 340  1099.101
 341  1127.886
 342  1144.746
 343  1117.452
 344  1011.46
 345  1003.663
 346  1125.935
 347  1125.548
 348  1159.531
 349  1070.905
 350  1053.497
 351  1102.281
 352  1099.63
 353  1115.596
 354  1204.865
 355  1193.518
 356  1146.205
 357  1126.005
 358  1038.854
 359  1039.437
 360  968.257
 361  1051.926
 362  1102.77
 363  1118.749
 364  1208.357
 365  1095.666
 366  1000.99
 367  1038.642
 368  1085.713
 369  1121.862
 370  1173.526
 371  1192.661
 372  1079.619
 373  1096.113
 374  1014.404
 375  1061.042
 376  996.28
 377  1042.375
 378  1057.363
 379  1100.146
 380  1057.355
 381  1116.104
 382  1208.707
 383  1060.945
 384  1003.955
 385  1110.5
 386  1158.339
 387  1183.702
 388  1131.495
 389  1197.821
 390  1247.429
 391  1201.517
 392  1148.629
 393  1104.067
 394  1074.873
 395  1148.079
 396  1217.23
 397  1232.518
 398  1217.146
 399  1187.357
 400  1099.798
 401  1012.771
 402  1000.38
 403  1180.114
 404  1090.094
 405  1082.871
 406  1073.09
 407  1074.394
 408  1099.549
 409  1126.619
 410  1100.501
 411  1113.921
 412  1142.437
 413  1127.204
 414  1178.472
 415  1227.227
 416  1174.717
 417  1189.321
 418  1108.39
 419  1015.762
 420  1073.543
 421  1119.818
 422  1110.829
 423  1050.511
 424  1027.112
 425  1117.274
 426  1170.13
 427  1202.49
 428  1177.414
 429  1130.449
 430  1111.977
 431  988.3194
 432  1020.707
 433  1069.563
 434  1036.876
 435  1130.32
 436  1131.984
 437  1099.203
 438  1103.813
 439  1126.028
 440  1017.865
 441  1046.344
 442  1018.363
 443  1050.845
 444  1110.368
 445  1089.272
 446  1169.778
 447  1151.856
 448  1077.804
 449  1069.982
 450  1076.853
 451  1026.504
 452  965.4349
 453  1127.524
 454  1083.409
 455  1091.765
 456  1144.044
 457  1050.537
 458  1057.233
 459  1109.748
 460  1277.448
 461  1199.463
 462  1041.482
 463  1069.335
 464  1037.255
 465  971.0282
 466  1039.067
 467  1170.257
 468  1179.356
 469  1118.929
 470  1138.973
 471  1018.96
 472  1041.66
 473  978.6074
 474  1063.695
 475  1085.593
 476  1070.565
 477  1140.176
 478  1020.27
 479  1017.833
 480  954.253
 481  987.5673
 482  1021.399
 483  949.7758
 484  1052.782
 485  1042.819
 486  1122.57
 487  1114.192
 488  1075.521
 489  1078.593
 490  1028.82
 491  999.2427
 492  1050.795
 493  1107.021
 494  1098.285
 495  1043.495
 496  1076.49
 497  1018.373
 498  941.9434
 499  947.2043
 500  1038.44
 501  1035.286
 502  995.5715
 503  1036.664
 504  1133.428
 505  1083.475
 506  1070.717
 507  1159.132
 508  1179.562
 509  1240.629
 510  1404.858
 511  1386.043
