# Input file       =  1195229060.104711_cleaned.dat
# Candidate        =  PSR_0332+5434
# Telescope        =  AR
# Epoch_topo       =  58077.669468804525
# Epoch_bary       =  N/A
# T_sample         =  0.002
# Data Folded      =  7208960
# Data Avg         =  0.0930344098668329
# Data StdDev      =  1.00051133684816 
# Profile Bins     =  512
# Profile Avg      =  1309.87379604009 
# Profile StdDev   =  118.719850602486 
# Reduced chi-sqr  =  0.450
# Prob(Noise)      <  1   (~0.0 sigma)
# P_topo (ms)      =  714.514972351966  +/- 0.000972
# P'_topo (s/s)    =  -0                +/- 5.22e-10
# P''_topo (s/s^2) =  0                 +/- 2.35e-13
# P_bary (ms)      =  N/A
# P'_bary (s/s)    =  N/A
# P''_bary (s/s^2) =  N/A
# P_orb (s)        =  N/A
# asin(i)/c (s)    =  N/A
# eccentricity     =  N/A
# w (rad)          =  N/A
# T_peri           =  N/A
######################################################
   0  1414.757
   1  1483.977
   2  1438.364
   3  1295.536
   4  1250.244
   5  1290.836
   6  1309.29
   7  1283.111
   8  1303.877
   9  1296.009
  10  1307.374
  11  1272.342
  12  1311.18
  13  1393.676
  14  1386.057
  15  1390.313
  16  1338.766
  17  1365.112
  18  1261.419
  19  1312
  20  1308.065
  21  1329.003
  22  1311.345
  23  1299.913
  24  1267.329
  25  1211.318
  26  1209.572
  27  1228.993
  28  1236.593
  29  1236.936
  30  1268.486
  31  1278.335
  32  1141.726
  33  1266.613
  34  1316.346
  35  1302.761
  36  1280.61
  37  1330.317
  38  1328.063
  39  1253.504
  40  1275.973
  41  1260.034
  42  1316.82
  43  1295.032
  44  1343.274
  45  1365.473
  46  1367.091
  47  1338.916
  48  1305.746
  49  1316.309
  50  1306.991
  51  1362.63
  52  1341.443
  53  1336.459
  54  1327.056
  55  1335.131
  56  1354.866
  57  1318.273
  58  1312.33
  59  1308.983
  60  1271.738
  61  1205.264
  62  1284.775
  63  1353.802
  64  1350.167
  65  1251.729
  66  1188.63
  67  1294.925
  68  1282.259
  69  1318.06
  70  1295.703
  71  1280.006
  72  1231.054
  73  1164.422
  74  1255.011
  75  1281.544
  76  1309.678
  77  1323.104
  78  1376.61
  79  1336.682
  80  1276.4
  81  1231.079
  82  1229.796
  83  1346.013
  84  1323.643
  85  1247.547
  86  1214.23
  87  1256.285
  88  1339.392
  89  1351.471
  90  1322.397
  91  1319.954
  92  1348.056
  93  1310.072
  94  1275.721
  95  1307.512
  96  1276.221
  97  1324.018
  98  1312.018
  99  1374.493
 100  1269.638
 101  1265.225
 102  1312.996
 103  1391.318
 104  1311.017
 105  1307.707
 106  1242.569
 107  1236.113
 108  1303.509
 109  1229.288
 110  1247.205
 111  1250.476
 112  1268.745
 113  1195.698
 114  1225.227
 115  1151.246
 116  1209.394
 117  1257.243
 118  1255.48
 119  1292.062
 120  1329.356
 121  1394.305
 122  1337.95
 123  1270.164
 124  1264.653
 125  1287.487
 126  1338.437
 127  1318.505
 128  1355.355
 129  1266.027
 130  1345.033
 131  1382.731
 132  1369.863
 133  1339.371
 134  1286.237
 135  1340.201
 136  1362.101
 137  1288.938
 138  1238.511
 139  1293.8
 140  1324.184
 141  1328.118
 142  1360.832
 143  1380.832
 144  1365.958
 145  1314.32
 146  1363.615
 147  1298.398
 148  1285.988
 149  1267.236
 150  1334.353
 151  1324.331
 152  1383.771
 153  1425.876
 154  1409.113
 155  1389.679
 156  1369
 157  1331.051
 158  1253.1
 159  1336.525
 160  1326.944
 161  1354.824
 162  1298.175
 163  1273.33
 164  1283.205
 165  1298.539
 166  1307.893
 167  1302.207
 168  1260.429
 169  1292.064
 170  1285.752
 171  1276.364
 172  1282.372
 173  1346.244
 174  1482.666
 175  1388.035
 176  1344.678
 177  1350.887
 178  1280.008
 179  1280.018
 180  1258.899
 181  1282.888
 182  1317.253
 183  1330.686
 184  1371.989
 185  1406.938
 186  1356.135
 187  1355.491
 188  1391.833
 189  1319.142
 190  1302.36
 191  1338.696
 192  1331.089
 193  1309.295
 194  1335.818
 195  1361.133
 196  1264.406
 197  1174.089
 198  1272.373
 199  1246.553
 200  1265.178
 201  1264.764
 202  1232.03
 203  1230.647
 204  1249.178
 205  1238.958
 206  1193.98
 207  1279.986
 208  1274.867
 209  1284.307
 210  1240.001
 211  1359.251
 212  1404.005
 213  1294.38
 214  1350.87
 215  1299.396
 216  1321.818
 217  1387.521
 218  1386.208
 219  1322.486
 220  1264.561
 221  1238.612
 222  1199.178
 223  1242.713
 224  1249.004
 225  1339.266
 226  1344.516
 227  1326.029
 228  1365.46
 229  1316.604
 230  1330.716
 231  1255.296
 232  1242.269
 233  1292.435
 234  1363.287
 235  1379.281
 236  1319.668
 237  1280.522
 238  1303.363
 239  1368.254
 240  1323.402
 241  1365.871
 242  1351.299
 243  1397.061
 244  1315.136
 245  1327.02
 246  1333.394
 247  1331.515
 248  1445.519
 249  1362.799
 250  1365.078
 251  1332.579
 252  1243.825
 253  1227.707
 254  1270.868
 255  1360.923
 256  1316.49
 257  1298.849
 258  1274.016
 259  1382.92
 260  1391.492
 261  1356.657
 262  1318.414
 263  1272.089
 264  1265.405
 265  1242.109
 266  1226.869
 267  1277.491
 268  1303.144
 269  1317.363
 270  1304.897
 271  1252.589
 272  1186.043
 273  1254.539
 274  1288.138
 275  1359.252
 276  1244.127
 277  1264.839
 278  1280.679
 279  1209.174
 280  1206.19
 281  1180.006
 282  1272.271
 283  1296.874
 284  1309.052
 285  1268.026
 286  1261.122
 287  1255.158
 288  1269.549
 289  1333.279
 290  1324.107
 291  1366.073
 292  1359.598
 293  1338.572
 294  1409.64
 295  1390.051
 296  1405.71
 297  1373.366
 298  1464.489
 299  1397.359
 300  1357.914
 301  1337.093
 302  1390.735
 303  1454.776
 304  1388.293
 305  1285.453
 306  1201.48
 307  1316.957
 308  1379.682
 309  1341.654
 310  1290.573
 311  1332.23
 312  1382.584
 313  1415.237
 314  1467.54
 315  1395.109
 316  1391.723
 317  1422.717
 318  1306.963
 319  1303.994
 320  1317.776
 321  1428.037
 322  1405.685
 323  1400.262
 324  1343.904
 325  1357.873
 326  1275.524
 327  1306.223
 328  1306.328
 329  1333.479
 330  1343.983
 331  1307.276
 332  1314.142
 333  1286.656
 334  1297.416
 335  1290.246
 336  1285.844
 337  1300.496
 338  1234.841
 339  1287.156
 340  1290.037
 341  1321.436
 342  1339.525
 343  1307.057
 344  1200.724
 345  1196.958
 346  1288.624
 347  1255.17
 348  1250.05
 349  1306.229
 350  1377.797
 351  1341.103
 352  1398.422
 353  1371.915
 354  1391.129
 355  1361.252
 356  1375.106
 357  1346.791
 358  1351.162
 359  1370.124
 360  1332.844
 361  1354.818
 362  1399.239
 363  1350.003
 364  1325.307
 365  1343.96
 366  1354.901
 367  1392.5
 368  1372.48
 369  1323.27
 370  1374.011
 371  1333.888
 372  1390.873
 373  1350.239
 374  1379.726
 375  1318.613
 376  1298.692
 377  1325.089
 378  1272.813
 379  1316.459
 380  1407.982
 381  1410.878
 382  1347.894
 383  1314.747
 384  1360.809
 385  1367.452
 386  1321.824
 387  1290.297
 388  1364.087
 389  1405.569
 390  1328.313
 391  1421.044
 392  1371.952
 393  1362.655
 394  1393.858
 395  1389.526
 396  1379.776
 397  1380.852
 398  1367.231
 399  1386.404
 400  1334.445
 401  1291.775
 402  1356.287
 403  1374.279
 404  1332.423
 405  1308.157
 406  1311.763
 407  1335.882
 408  1333.818
 409  1308.187
 410  1274.981
 411  1309.765
 412  1264.925
 413  1305.204
 414  1280.415
 415  1272.866
 416  1328.586
 417  1340.39
 418  1352.68
 419  1319.545
 420  1374.496
 421  1295.972
 422  1286.213
 423  1317.663
 424  1312.379
 425  1314.524
 426  1280.908
 427  1374.056
 428  1363.53
 429  1238.945
 430  1111.525
 431  1193.66
 432  1312.903
 433  1305.852
 434  1287.448
 435  1324.795
 436  1273.548
 437  1284.367
 438  1220.669
 439  1265.814
 440  1275.679
 441  1300.246
 442  1279.74
 443  1305.66
 444  1317.011
 445  1309.346
 446  1318.763
 447  1299.283
 448  1366.961
 449  1359.735
 450  1347.844
 451  1339.002
 452  1328.603
 453  1353.588
 454  1350.631
 455  1303.741
 456  1283.733
 457  1274.923
 458  1263.236
 459  1258.409
 460  1250.523
 461  1325.485
 462  1382.027
 463  1324.666
 464  1291.074
 465  1297.536
 466  1292.817
 467  1258.705
 468  1273.495
 469  1260.546
 470  1250.006
 471  1262.279
 472  1307.207
 473  1351.742
 474  1315.222
 475  1298.665
 476  1332.716
 477  1277.109
 478  1235.823
 479  1268.472
 480  1303.322
 481  1267.567
 482  1210.344
 483  1196.183
 484  1206.132
 485  1187.041
 486  1191.285
 487  1210.618
 488  1314.893
 489  1283.89
 490  1260.271
 491  1281.672
 492  1243.726
 493  1191.143
 494  1220.522
 495  1224.221
 496  1164.7
 497  1225.918
 498  1204.374
 499  1178.484
 500  1218.671
 501  1269.326
 502  1214.604
 503  1223.6
 504  1264.407
 505  1260.698
 506  1327.593
 507  1352.127
 508  1343.24
 509  1395.838
 510  1366.07
 511  1393.2
