# Input file       =  1196435398.113372_cleaned.dat
# Candidate        =  PSR_0332+5434
# Telescope        =  AR
# Epoch_topo       =  58091.631714275143
# Epoch_bary       =  N/A
# T_sample         =  0.002
# Data Folded      =  7208960
# Data Avg         =  0.0665225875690467
# Data StdDev      =  1.0002666863272  
# Profile Bins     =  512
# Profile Avg      =  936.579622213087 
# Profile StdDev   =  118.690820573312 
# Reduced chi-sqr  =  0.816
# Prob(Noise)      <  0.999   (~0.0 sigma)
# P_topo (ms)      =  714.529397839678  +/- 0.000197
# P'_topo (s/s)    =  -0                +/- 1.06e-10
# P''_topo (s/s^2) =  0                 +/- 4.75e-14
# P_bary (ms)      =  N/A
# P'_bary (s/s)    =  N/A
# P''_bary (s/s^2) =  N/A
# P_orb (s)        =  N/A
# asin(i)/c (s)    =  N/A
# eccentricity     =  N/A
# w (rad)          =  N/A
# T_peri           =  N/A
######################################################
   0  1236.307
   1  1134.866
   2  1081.712
   3  1083.172
   4  1102.577
   5  1024.149
   6  1028.362
   7  993.9308
   8  983.5364
   9  984.8022
  10  993.1331
  11  1011.413
  12  920.8036
  13  883.316
  14  953.892
  15  1002.571
  16  895.2272
  17  965.6801
  18  921.9485
  19  937.5051
  20  892.9012
  21  1012.25
  22  992.6896
  23  1138.871
  24  1176.623
  25  1085.937
  26  1109.979
  27  1022.042
  28  1028.619
  29  1013.862
  30  953.9359
  31  1018.286
  32  916.2855
  33  888.1514
  34  953.9537
  35  1018.332
  36  934.6304
  37  942.8229
  38  960.9491
  39  988.6865
  40  1012.278
  41  895.4446
  42  956.0309
  43  913.1996
  44  936.4005
  45  948.6849
  46  1004.795
  47  949.8693
  48  990.4154
  49  867.23
  50  825.7823
  51  925.5997
  52  989.7215
  53  947.8912
  54  1007.922
  55  1010.545
  56  1014.588
  57  919.7072
  58  944.7723
  59  1024.471
  60  1099.968
  61  977.2365
  62  973.5135
  63  974.1646
  64  1009.489
  65  989.46
  66  989.3818
  67  998.0623
  68  954.6108
  69  892.0191
  70  922.9196
  71  862.2612
  72  817.6993
  73  877.8682
  74  986.1709
  75  882.8302
  76  837.8936
  77  1027.893
  78  1024.928
  79  1007.492
  80  945.8585
  81  1007.403
  82  983.8048
  83  1055.066
  84  998.6713
  85  1003.441
  86  915.2548
  87  992.8683
  88  1112.553
  89  1093.671
  90  1119.792
  91  853.1266
  92  811.6926
  93  821.431
  94  793.2351
  95  877.1758
  96  911.9406
  97  935.0892
  98  1018.513
  99  1071.45
 100  934.5406
 101  857.3667
 102  830.3986
 103  939.306
 104  1006.734
 105  869.8687
 106  898.7988
 107  879.5957
 108  864.2865
 109  1024.165
 110  999.7124
 111  900.7637
 112  934.7816
 113  970.0244
 114  915.2947
 115  881.2158
 116  909.6232
 117  886.6932
 118  838.2016
 119  832.925
 120  870.6942
 121  870.8756
 122  905.0714
 123  937.1422
 124  832.7955
 125  783.8217
 126  907.6266
 127  770.1271
 128  876.4334
 129  804.9133
 130  909.2661
 131  989.3718
 132  915.883
 133  888.6014
 134  793.4402
 135  914.8823
 136  874.6407
 137  816.7992
 138  889.4458
 139  927.8107
 140  1008.232
 141  877.768
 142  959.0706
 143  876.3032
 144  750.6344
 145  763.804
 146  897.1518
 147  881.0063
 148  999.1804
 149  942.8646
 150  848.4998
 151  832.087
 152  877.3664
 153  868.2314
 154  918.4841
 155  953.3743
 156  917.2546
 157  920.4382
 158  877.915
 159  929.787
 160  970.6588
 161  925.8876
 162  989.9301
 163  916.3264
 164  966.6733
 165  1020.025
 166  893.9796
 167  1034.81
 168  1108.218
 169  1068.132
 170  1021.625
 171  1017.57
 172  1044.766
 173  1063.54
 174  1024.411
 175  955.5447
 176  962.8937
 177  979.8256
 178  1056.286
 179  885.5735
 180  911.1901
 181  1039.31
 182  891.4466
 183  871.6318
 184  919.4956
 185  960.403
 186  922.7524
 187  851.499
 188  858.478
 189  973.7179
 190  976.8293
 191  944.706
 192  868.3969
 193  850.9798
 194  817.5565
 195  816.8082
 196  986.5851
 197  1011.255
 198  1008.105
 199  961.944
 200  1001.625
 201  939.8484
 202  899.6586
 203  860.4955
 204  893.2076
 205  967.5868
 206  852.8326
 207  875.8254
 208  936.7179
 209  990.2244
 210  941.7855
 211  784.2231
 212  793.959
 213  798.8371
 214  841.915
 215  805.3867
 216  915.743
 217  1010.543
 218  992.3246
 219  916.7274
 220  947.2186
 221  895.8408
 222  947.6866
 223  911.8797
 224  974.1556
 225  924.2675
 226  987.1982
 227  862.6913
 228  917.0247
 229  931.1309
 230  870.6516
 231  917.3988
 232  963.865
 233  921.7723
 234  993.2493
 235  979.8562
 236  936.3085
 237  910.6431
 238  943.2639
 239  967.4156
 240  999.8273
 241  995.876
 242  1063.276
 243  950.3234
 244  887.9091
 245  991.9958
 246  1001.759
 247  1058.925
 248  954.1229
 249  910.0922
 250  961.2362
 251  996.9563
 252  976.0145
 253  1001.887
 254  968.9913
 255  936.845
 256  853.5966
 257  996.3461
 258  1072.495
 259  1028.044
 260  1000.077
 261  918.5062
 262  871.881
 263  932.6558
 264  938.7656
 265  844.5392
 266  876.4517
 267  1045.558
 268  997.7263
 269  990.9415
 270  977.5944
 271  974.064
 272  846.0005
 273  831.3808
 274  981.8832
 275  1073.743
 276  845.5769
 277  749.0544
 278  814.4407
 279  806.9174
 280  723.0957
 281  781.9215
 282  858.0897
 283  865.8575
 284  833.0594
 285  860.4356
 286  825.973
 287  926.1993
 288  885.2703
 289  934.8936
 290  1048.879
 291  1115.389
 292  1050.546
 293  880.5831
 294  860.7296
 295  967.1373
 296  976.6053
 297  926.9411
 298  956.2667
 299  967.0306
 300  869.3865
 301  913.0815
 302  1030.347
 303  1051.824
 304  1027.699
 305  860.2629
 306  871.3521
 307  827.4691
 308  837.4217
 309  895.4977
 310  965.0371
 311  947.1949
 312  989.7389
 313  982.6687
 314  949.9935
 315  846.4261
 316  906.3854
 317  953.1574
 318  917.3806
 319  918.9365
 320  885.2738
 321  901.6227
 322  803.5992
 323  866.9888
 324  919.2316
 325  982.4948
 326  956.829
 327  906.936
 328  810.9964
 329  850.7109
 330  812.902
 331  879.6967
 332  901.439
 333  919.5321
 334  946.4705
 335  968.4213
 336  1005.665
 337  1017.763
 338  965.6119
 339  869.888
 340  870.9455
 341  952.964
 342  904.2017
 343  921.8165
 344  972.5143
 345  830.4006
 346  730.043
 347  747.0898
 348  882.6229
 349  933.07
 350  915.8883
 351  942.4961
 352  940.9046
 353  980.1897
 354  911.873
 355  922.3553
 356  911.8649
 357  965.7772
 358  1115.459
 359  1001.129
 360  924.871
 361  887.2864
 362  968.6063
 363  987.722
 364  940.9926
 365  954.9207
 366  879.8558
 367  935.8947
 368  913.3538
 369  977.2064
 370  974.5523
 371  959.1401
 372  912.8699
 373  788.503
 374  876.3575
 375  988.3311
 376  1037.684
 377  1053.677
 378  964.1862
 379  898.7716
 380  918.2263
 381  861.9982
 382  851.0942
 383  849.194
 384  983.3716
 385  1023.246
 386  938.7175
 387  864.7097
 388  957.934
 389  967.3087
 390  920.3508
 391  921.1655
 392  892.1
 393  814.6607
 394  952.6799
 395  973.6649
 396  902.4155
 397  893.0773
 398  952.715
 399  961.4379
 400  996.1555
 401  930.0566
 402  807.9075
 403  770.6557
 404  864.6586
 405  925.074
 406  974.3659
 407  1004.822
 408  997.7139
 409  934.8635
 410  989.6181
 411  982.2106
 412  915.8541
 413  825.2101
 414  843.0618
 415  897.1365
 416  973.057
 417  1043.726
 418  1128.73
 419  939.324
 420  956.2247
 421  979.4493
 422  1018.561
 423  895.7376
 424  906.2821
 425  974.3229
 426  950.1807
 427  861.0687
 428  825.3142
 429  809.098
 430  878.7798
 431  970.0515
 432  1007.093
 433  993.0301
 434  944.7805
 435  824.0403
 436  907.1655
 437  995.1089
 438  1048.324
 439  1012.76
 440  902.3041
 441  1041.21
 442  913.8184
 443  829.2058
 444  775.7454
 445  874.2217
 446  864.3889
 447  914.5767
 448  883.7103
 449  858.9327
 450  941.0971
 451  913.644
 452  960.0893
 453  951.7374
 454  913.6699
 455  818.0842
 456  876.4021
 457  998.4687
 458  986.1453
 459  1021.815
 460  1027.999
 461  948.5761
 462  909.2496
 463  963.0956
 464  956.7183
 465  973.626
 466  951.9227
 467  983.7804
 468  997.533
 469  982.2123
 470  976.7057
 471  872.3239
 472  922.4474
 473  888.3986
 474  830.2278
 475  1006.07
 476  916.8227
 477  946.126
 478  1022.081
 479  939.4482
 480  976.0114
 481  928.1206
 482  1032.897
 483  989.7015
 484  918.1433
 485  914.2042
 486  973.6338
 487  1003.071
 488  859.1255
 489  811.67
 490  874.5627
 491  900.1602
 492  893.9123
 493  937.8576
 494  854.1026
 495  845.0809
 496  824.5468
 497  829.3002
 498  916.8943
 499  868.403
 500  876.2802
 501  890.0747
 502  832.9057
 503  920.8588
 504  935.2443
 505  918.6274
 506  922.5266
 507  991.9995
 508  1013.732
 509  1062.122
 510  1176.472
 511  1271.249
