# Input file       =  1196464943.112988_cleaned.dat
# Candidate        =  PSR_0332+5434
# Telescope        =  AR
# Epoch_topo       =  58091.973670289211
# Epoch_bary       =  N/A
# T_sample         =  0.002
# Data Folded      =  7340032
# Data Avg         =  0.0463781783387885
# Data StdDev      =  1.00064457361088 
# Profile Bins     =  512
# Profile Avg      =  664.888076948118 
# Profile StdDev   =  119.810213132365 
# Reduced chi-sqr  =  0.717
# Prob(Noise)      <  1   (~0.0 sigma)
# P_topo (ms)      =  714.530111274442  +/- 5.58e-05
# P'_topo (s/s)    =  -0                +/- 2.94e-11
# P''_topo (s/s^2) =  0                 +/- 1.3e-14
# P_bary (ms)      =  N/A
# P'_bary (s/s)    =  N/A
# P''_bary (s/s^2) =  N/A
# P_orb (s)        =  N/A
# asin(i)/c (s)    =  N/A
# eccentricity     =  N/A
# w (rad)          =  N/A
# T_peri           =  N/A
######################################################
   0  935.2735
   1  841.7103
   2  776.2816
   3  813.2039
   4  719.4644
   5  630.7681
   6  773.1987
   7  608.333
   8  520.2962
   9  638.2087
  10  588.6827
  11  558.2235
  12  668.688
  13  736.3782
  14  656.1823
  15  685.6115
  16  728.0417
  17  704.2386
  18  641.2441
  19  654.4273
  20  713.0711
  21  678.7304
  22  632.8269
  23  617.001
  24  522.4399
  25  572.0052
  26  545.7278
  27  674.043
  28  692.9953
  29  695.009
  30  664.0858
  31  655.0907
  32  693.1287
  33  671.894
  34  664.3356
  35  644.8286
  36  609.4849
  37  707.3196
  38  668.8409
  39  601.0782
  40  623.6806
  41  689.3979
  42  765.8257
  43  695.7766
  44  664.0252
  45  690.2996
  46  645.3608
  47  630.712
  48  658.1113
  49  649.0815
  50  711.7841
  51  690.0627
  52  683.5602
  53  573.6025
  54  609.17
  55  660.3309
  56  692.0834
  57  703.8535
  58  610.6074
  59  614.9113
  60  653.9819
  61  702.9052
  62  671.8216
  63  641.4894
  64  660.7118
  65  649.2579
  66  760.1238
  67  831.3674
  68  859.9457
  69  800.3663
  70  654.0878
  71  669.4362
  72  681.6816
  73  675.013
  74  634.326
  75  540.9902
  76  608.3243
  77  754.5374
  78  769.3368
  79  752.9622
  80  781.2143
  81  767.7311
  82  734.8731
  83  706.1511
  84  682.2201
  85  533.6415
  86  610.8718
  87  638.2431
  88  595.4545
  89  657.4885
  90  716.9518
  91  826.0968
  92  697.9792
  93  600.1459
  94  635.1415
  95  687.6914
  96  733.2526
  97  617.3343
  98  587.9222
  99  675.9786
 100  618.1508
 101  608.5204
 102  621.8657
 103  729.8004
 104  731.4462
 105  671.6166
 106  686.6049
 107  718.4583
 108  614.1696
 109  544.0823
 110  660.1386
 111  751.7724
 112  689.9219
 113  893.2031
 114  720.1861
 115  642.1625
 116  610.8774
 117  623.1694
 118  733.2371
 119  709.9515
 120  638.0903
 121  585.1298
 122  667.1688
 123  692.5403
 124  769.5126
 125  742.5664
 126  660.0437
 127  612.8116
 128  601.3591
 129  630.2897
 130  683.2092
 131  709.9843
 132  627.6948
 133  592.3163
 134  624.4864
 135  699.0592
 136  658.3101
 137  592.3857
 138  646.7324
 139  658.2765
 140  616.7894
 141  763.3427
 142  801.3736
 143  760.4893
 144  788.5554
 145  713.1116
 146  869.9426
 147  764.9551
 148  663.4313
 149  670.5542
 150  744.2241
 151  729.8046
 152  687.5181
 153  755.1
 154  755.512
 155  641.2519
 156  734.9969
 157  673.547
 158  678.9615
 159  684.5327
 160  760.668
 161  634.9741
 162  606.4787
 163  660.9468
 164  733.9583
 165  594.0287
 166  556.1416
 167  608.1932
 168  621.8834
 169  549.1613
 170  607.9974
 171  587.7499
 172  563.7043
 173  548.5885
 174  668.5383
 175  663.8673
 176  723.207
 177  810.5441
 178  672.3206
 179  632.9304
 180  619.2214
 181  647.0806
 182  681.0226
 183  640.9401
 184  700.5112
 185  815.6102
 186  778.5013
 187  700.5182
 188  573.3568
 189  711.6215
 190  723.9336
 191  707.8618
 192  669.6058
 193  657.3571
 194  646.8293
 195  599.1435
 196  712.0882
 197  743.6636
 198  707.8909
 199  685.6087
 200  623.2248
 201  649.3431
 202  591.9042
 203  630.9131
 204  716.2259
 205  731.3415
 206  745.6732
 207  595.8086
 208  554.2621
 209  563.5026
 210  533.5573
 211  622.5752
 212  613.515
 213  670.8712
 214  638.3713
 215  577.308
 216  678.3318
 217  689.1125
 218  632.2841
 219  649.1439
 220  708.0308
 221  793.7473
 222  659.7063
 223  628.4525
 224  679.1624
 225  621.4751
 226  679.7859
 227  718.1652
 228  734.8843
 229  648.2941
 230  681.5359
 231  657.6257
 232  649.7011
 233  804.327
 234  792.6723
 235  653.306
 236  574.9607
 237  661.0359
 238  674.4706
 239  642.5498
 240  595.4455
 241  685.5519
 242  639.1553
 243  741.1893
 244  729.9796
 245  631.7574
 246  660.4166
 247  673.3859
 248  577.4747
 249  609.6236
 250  671.9113
 251  662.5205
 252  625.2546
 253  784.7125
 254  731.0032
 255  644.6255
 256  810.8869
 257  759.2612
 258  624.6425
 259  671.8301
 260  691.6044
 261  710.7231
 262  727.7643
 263  760.5415
 264  745.9093
 265  656.9539
 266  583.8531
 267  565.3629
 268  657.673
 269  687.8138
 270  667.8231
 271  748.6379
 272  688.0852
 273  541.4139
 274  474.1168
 275  765.8893
 276  752.8357
 277  697.624
 278  660.5782
 279  663.7888
 280  757.5395
 281  757.2943
 282  723.8185
 283  664.8369
 284  656.8884
 285  693.4138
 286  655.722
 287  656.6791
 288  643.1183
 289  708.6143
 290  617.8469
 291  634.4769
 292  663.1981
 293  609.2372
 294  585.6495
 295  665.3202
 296  779.6663
 297  603.2512
 298  589.8837
 299  618.8708
 300  765.0725
 301  774.4628
 302  721.5909
 303  765.4862
 304  747.7859
 305  572.3755
 306  523.6782
 307  585.9818
 308  647.0331
 309  685.7775
 310  694.3481
 311  594.7673
 312  548.0419
 313  644.2556
 314  684.4642
 315  661.4941
 316  648.3081
 317  697.6113
 318  734.6879
 319  769.5936
 320  694.2864
 321  555.2327
 322  527.0746
 323  655.6617
 324  696.5284
 325  702.6855
 326  703.8159
 327  637.1259
 328  641.1226
 329  659.0289
 330  596.627
 331  620.1855
 332  711.3269
 333  703.9296
 334  633.6494
 335  673.633
 336  702.816
 337  637.2376
 338  644.6625
 339  682.8081
 340  596.48
 341  669.0703
 342  659.5313
 343  673.4836
 344  602.4069
 345  617.2922
 346  664.3405
 347  537.3772
 348  452.8227
 349  632.1639
 350  670.5531
 351  621.7741
 352  637.4833
 353  844.907
 354  752.3304
 355  693.633
 356  644.7585
 357  781.4456
 358  733.2433
 359  724.062
 360  716.0814
 361  728.8814
 362  543.6882
 363  602.2798
 364  669.6682
 365  807.2509
 366  743.7748
 367  701.1451
 368  757.5558
 369  542.7758
 370  443.1357
 371  573.352
 372  549.4587
 373  654.0919
 374  727.5327
 375  687.4841
 376  619.0666
 377  523.5152
 378  544.487
 379  596.4724
 380  586.7847
 381  571.0554
 382  607.802
 383  620.4221
 384  757.7431
 385  712.2015
 386  705.4885
 387  702.0094
 388  553.2659
 389  564.9128
 390  572.9381
 391  627.5012
 392  672.3037
 393  649.2293
 394  601.9779
 395  595.8583
 396  668.2618
 397  625.5875
 398  533.6075
 399  568.2756
 400  664.8184
 401  614.0336
 402  559.3132
 403  663.1666
 404  667.6373
 405  625.6012
 406  585.7662
 407  624.6461
 408  557.8707
 409  580.7087
 410  603.1884
 411  649.6984
 412  654.1281
 413  750.4194
 414  758.9621
 415  679.3887
 416  530.6006
 417  463.282
 418  596.7466
 419  641.2764
 420  619.2815
 421  671.6424
 422  624.8533
 423  607.0576
 424  601.4739
 425  674.7539
 426  686.2539
 427  670.0662
 428  711.6736
 429  741.3763
 430  641.4501
 431  581.8027
 432  600.4016
 433  627.4608
 434  583.1069
 435  682.1813
 436  688.3185
 437  601.9626
 438  633.0369
 439  673.4619
 440  644.525
 441  639.5071
 442  706.6018
 443  763.9793
 444  700.0749
 445  634.7566
 446  624.707
 447  640.6424
 448  634.7092
 449  659.3922
 450  619.663
 451  512.1275
 452  525.2835
 453  611.8195
 454  634.0001
 455  499.7542
 456  589.7707
 457  762.4034
 458  775.0648
 459  717.5215
 460  708.6707
 461  722.0328
 462  672.2736
 463  631.1998
 464  623.7276
 465  547.0105
 466  592.3457
 467  628.1954
 468  702.47
 469  665.476
 470  656.5708
 471  626.3111
 472  596.7109
 473  547.2006
 474  533.4976
 475  599.7184
 476  614.7022
 477  548.8782
 478  562.3344
 479  676.7094
 480  647.7192
 481  663.0079
 482  731.3825
 483  717.005
 484  641.9435
 485  632.3378
 486  683.4633
 487  682.6202
 488  633.7186
 489  541.3495
 490  642.546
 491  658.0176
 492  650.2033
 493  649.2745
 494  588.5351
 495  605.5343
 496  672.3339
 497  790.778
 498  827.2148
 499  819.3445
 500  776.9417
 501  701.2964
 502  688.6503
 503  718.2308
 504  764.3077
 505  765.106
 506  764.376
 507  758.7991
 508  740.5623
 509  798.0647
 510  942.5418
 511  938.6147
