# Input file       =  1196120284.110461_cleaned.dat
# Candidate        =  PSR_0332+5434
# Telescope        =  AR
# Epoch_topo       =  58087.984561463672
# Epoch_bary       =  N/A
# T_sample         =  0.002
# Data Folded      =  7340032
# Data Avg         =  0.0441271408173977
# Data StdDev      =  1.00009408947026 
# Profile Bins     =  512
# Profile Avg      =  632.63199997574  
# Profile StdDev   =  119.744301994732 
# Reduced chi-sqr  =  0.756
# Prob(Noise)      <  1   (~0.0 sigma)
# P_topo (ms)      =  714.52601024747   +/- 0.000408
# P'_topo (s/s)    =  -0                +/- 2.15e-10
# P''_topo (s/s^2) =  0                 +/- 9.5e-14
# P_bary (ms)      =  N/A
# P'_bary (s/s)    =  N/A
# P''_bary (s/s^2) =  N/A
# P_orb (s)        =  N/A
# asin(i)/c (s)    =  N/A
# eccentricity     =  N/A
# w (rad)          =  N/A
# T_peri           =  N/A
######################################################
   0  977.5225
   1  938.1387
   2  844.6301
   3  768.2653
   4  552.3681
   5  563.0766
   6  594.3239
   7  629.4111
   8  593.8685
   9  639.876
  10  605.5979
  11  575.2174
  12  583.5627
  13  566.4785
  14  519.6263
  15  659.1888
  16  668.0223
  17  524.826
  18  548.3498
  19  616.2576
  20  567.7594
  21  689.4921
  22  740.7589
  23  756.4247
  24  760.8361
  25  677.5299
  26  522.3631
  27  650.061
  28  773.6318
  29  640.5233
  30  587.4614
  31  591.6375
  32  659.0335
  33  617.2424
  34  663.2201
  35  671.2002
  36  632.087
  37  623.7897
  38  626.8595
  39  695.7023
  40  714.3658
  41  721.7756
  42  689.8307
  43  548.9773
  44  507.1931
  45  574.2112
  46  575.7595
  47  562.6711
  48  578.5915
  49  637.5952
  50  695.838
  51  593.7153
  52  549.4471
  53  600.7323
  54  626.0028
  55  657.9966
  56  604.4695
  57  617.3616
  58  466.9214
  59  523.7838
  60  641.5456
  61  639.1348
  62  495.648
  63  599.2429
  64  571.8005
  65  661.1979
  66  627.3139
  67  672.2345
  68  720.1263
  69  738.6562
  70  684.4627
  71  716.5165
  72  648.0269
  73  632.4612
  74  658.915
  75  678.1489
  76  675.5004
  77  687.589
  78  744.3345
  79  632.3489
  80  640.8326
  81  662.3524
  82  621.1507
  83  537.5916
  84  647.5714
  85  692.5748
  86  677.8575
  87  611.3682
  88  576.0996
  89  606.0635
  90  654.1837
  91  626.3739
  92  641.7692
  93  576.7756
  94  583.3422
  95  605.9529
  96  630.0377
  97  661.495
  98  642.2946
  99  620.5394
 100  546.6585
 101  546.0684
 102  608.3318
 103  613.6561
 104  535.688
 105  579.4944
 106  627.2265
 107  551.9918
 108  604.5536
 109  711.8312
 110  667.4584
 111  603.18
 112  556.4471
 113  595.6774
 114  591.6559
 115  572.7586
 116  663.9732
 117  784.9472
 118  657.0558
 119  565.6255
 120  463.9859
 121  506.9906
 122  517.7458
 123  539.3167
 124  624.3387
 125  635.2606
 126  606.0435
 127  614.4594
 128  544.7612
 129  562.5734
 130  519.72
 131  567.7331
 132  577.6169
 133  627.971
 134  544.9063
 135  500.2279
 136  480.2386
 137  588.7913
 138  707.2789
 139  720.4207
 140  673.6404
 141  727.9991
 142  543.0905
 143  575.6605
 144  553.4723
 145  588.5661
 146  601.5721
 147  545.8553
 148  549.1207
 149  634.1829
 150  698.2497
 151  580.6851
 152  532.0442
 153  651.5861
 154  676.1676
 155  517.7358
 156  590.1435
 157  628.1068
 158  668.2033
 159  709.2971
 160  623.5557
 161  606.7827
 162  632.0656
 163  619.7443
 164  623.7363
 165  682.9613
 166  708.3235
 167  720.1211
 168  626.2217
 169  619.3596
 170  693.1205
 171  611.6549
 172  594.3694
 173  656.6226
 174  867.0872
 175  850.3074
 176  721.2003
 177  646.6875
 178  612.2371
 179  652.778
 180  652.8336
 181  680.0122
 182  660.761
 183  610.1163
 184  629.73
 185  529.3345
 186  563.5204
 187  417.5276
 188  364.3358
 189  531.9236
 190  582.5922
 191  473.7688
 192  531.3023
 193  657.3093
 194  654.8125
 195  608.8934
 196  509.3012
 197  609.7241
 198  692.377
 199  526.8933
 200  592.8438
 201  567.1088
 202  621.898
 203  651.0208
 204  667.39
 205  670.7391
 206  617.531
 207  599.1958
 208  627.2115
 209  698.0776
 210  643.2458
 211  673.1383
 212  497.4048
 213  644.1279
 214  564.3209
 215  539.1402
 216  623.4489
 217  685.9185
 218  697.9089
 219  553.4971
 220  510.4463
 221  532.7366
 222  582.0098
 223  547.765
 224  586.2354
 225  598.6102
 226  637.2159
 227  645.9099
 228  635.0419
 229  515.3433
 230  459.9863
 231  537.1798
 232  632.3843
 233  651.0914
 234  702.5986
 235  720.8693
 236  632.0961
 237  615.266
 238  586.3711
 239  662.3634
 240  641.4059
 241  659.7042
 242  722.4608
 243  787.4017
 244  601.2495
 245  587.6559
 246  648.232
 247  576.0717
 248  563.2108
 249  674.6794
 250  680.9642
 251  673.2286
 252  658.5374
 253  648.6716
 254  670.9008
 255  753.2161
 256  720.7748
 257  700.2521
 258  632.3187
 259  710.3424
 260  708.0007
 261  692.9692
 262  617.9485
 263  695.6424
 264  752.3459
 265  581.7764
 266  577.4069
 267  575.1984
 268  658.9188
 269  696.5469
 270  680.6581
 271  689.125
 272  665.5722
 273  584.4621
 274  645.0585
 275  596.4443
 276  699.6031
 277  755.2513
 278  715.1956
 279  547.2626
 280  587.5953
 281  718.2863
 282  695.23
 283  720.6426
 284  714.5397
 285  635.3065
 286  583.0252
 287  570.8143
 288  505.1198
 289  592.8051
 290  672.7404
 291  583.9788
 292  548.1715
 293  623.0352
 294  691.5417
 295  673.7225
 296  596.5334
 297  605.4329
 298  696.1162
 299  566.022
 300  563.1084
 301  618.3822
 302  684.4084
 303  690.5874
 304  614.8322
 305  567.1384
 306  540.4003
 307  670.6774
 308  672.4887
 309  574.9601
 310  515.381
 311  605.3823
 312  683.8513
 313  773.2984
 314  703.637
 315  616.457
 316  666.5692
 317  796.2581
 318  725.725
 319  654.012
 320  674.6577
 321  686.6072
 322  681.0485
 323  617.3334
 324  563.4838
 325  449.5229
 326  532.2249
 327  690.3044
 328  610.9474
 329  680.9695
 330  661.8674
 331  687.6891
 332  754.3438
 333  704.7626
 334  639.4373
 335  683.3137
 336  677.2303
 337  604.9071
 338  527.6348
 339  635.0419
 340  699.9424
 341  688.1307
 342  687.1861
 343  644.446
 344  548.0928
 345  485.8498
 346  681.1129
 347  710.5085
 348  582.945
 349  656.6696
 350  708.6996
 351  696.069
 352  563.2744
 353  651.1402
 354  713.4423
 355  703.8845
 356  669.3352
 357  687.8419
 358  630.9444
 359  497.8364
 360  492.9918
 361  499.4939
 362  487.7512
 363  585.4041
 364  685.2692
 365  647.749
 366  597.1929
 367  610.208
 368  644.1144
 369  578.1909
 370  542.3654
 371  564.4025
 372  608.4133
 373  625.6637
 374  634.5114
 375  640.1904
 376  577.828
 377  686.4255
 378  682.7799
 379  634.8446
 380  545.4891
 381  565.9075
 382  600.4549
 383  501.1751
 384  571.8161
 385  620.8185
 386  702.9671
 387  704.3746
 388  692.3958
 389  716.0922
 390  667.1766
 391  492.9818
 392  533.7211
 393  687.8962
 394  594.4568
 395  602.679
 396  713.6349
 397  760.6783
 398  599.9571
 399  671.5906
 400  695.7035
 401  788.359
 402  756.8315
 403  636.0971
 404  655.6538
 405  700.5173
 406  551.8132
 407  547.024
 408  647.1213
 409  662.9886
 410  536.1575
 411  542.3722
 412  612.843
 413  704.135
 414  658.6297
 415  618.5912
 416  545.2415
 417  552.0736
 418  648.1386
 419  610.0434
 420  568.94
 421  573.1744
 422  761.8303
 423  678.8731
 424  621.839
 425  777.5417
 426  809.9466
 427  714.3195
 428  619.0247
 429  679.9223
 430  623.3752
 431  604.2901
 432  640.3179
 433  611.0757
 434  711.8668
 435  675.0622
 436  688.4641
 437  677.8729
 438  633.0414
 439  626.0129
 440  646.424
 441  689.7028
 442  577.5947
 443  582.8412
 444  596.2932
 445  526.4833
 446  703.205
 447  634.4968
 448  601.5789
 449  660.3186
 450  691.5135
 451  735.7949
 452  664.4841
 453  699.316
 454  650.8796
 455  616.1388
 456  561.5001
 457  715.9974
 458  799.2825
 459  625.3076
 460  592.793
 461  625.9068
 462  673.9431
 463  622.0963
 464  595.7866
 465  569.6511
 466  618.3994
 467  656.4591
 468  587.3083
 469  609.119
 470  627.7375
 471  574.4052
 472  690.6503
 473  676.9987
 474  537.8265
 475  595.321
 476  661.3491
 477  672.4229
 478  535.2966
 479  682.2798
 480  653.3777
 481  682.5053
 482  572.5935
 483  546.8553
 484  582.7346
 485  721.6704
 486  679.921
 487  594.1497
 488  515.5001
 489  623.6238
 490  665.1489
 491  780.1677
 492  745.4827
 493  647.9969
 494  600.0095
 495  625.5629
 496  630.2308
 497  690.2274
 498  751.409
 499  690.332
 500  607.4976
 501  614.6736
 502  564.0711
 503  512.8114
 504  622.3297
 505  852.8096
 506  791.2358
 507  623.0833
 508  712.7574
 509  743.7462
 510  803.924
 511  931.8782
