# Input file       =  1196779532.114438_cleaned.dat
# Candidate        =  PSR_0332+5434
# Telescope        =  AR
# Epoch_topo       =  58095.614746694882
# Epoch_bary       =  N/A
# T_sample         =  0.002
# Data Folded      =  7208960
# Data Avg         =  0.0420884097263354
# Data StdDev      =  1.00001098436857 
# Profile Bins     =  512
# Profile Avg      =  592.597832970915 
# Profile StdDev   =  118.660479189652 
# Reduced chi-sqr  =  1.097
# Prob(Noise)      <  0.0636   (~1.5 sigma)
# P_topo (ms)      =  714.53347676531   +/- 4.18e-05
# P'_topo (s/s)    =  -0                +/- 2.24e-11
# P''_topo (s/s^2) =  0                 +/- 1.01e-14
# P_bary (ms)      =  N/A
# P'_bary (s/s)    =  N/A
# P''_bary (s/s^2) =  N/A
# P_orb (s)        =  N/A
# asin(i)/c (s)    =  N/A
# eccentricity     =  N/A
# w (rad)          =  N/A
# T_peri           =  N/A
######################################################
   0  853.8277
   1  966.8221
   2  762.2512
   3  593.5217
   4  469.787
   5  609.6976
   6  549.2285
   7  624.374
   8  604.5486
   9  651.7578
  10  573.9255
  11  529.3181
  12  579.9012
  13  430.3584
  14  495.4825
  15  438.3717
  16  599.8641
  17  695.5916
  18  683.5914
  19  585.2764
  20  521.0573
  21  434.9802
  22  474.4882
  23  554.5873
  24  627.4745
  25  613.1461
  26  589.1978
  27  653.97
  28  498.6616
  29  473.8877
  30  659.3143
  31  593.0909
  32  614.296
  33  600.475
  34  592.6972
  35  617.7434
  36  603.8986
  37  511.3152
  38  507.3672
  39  475.9497
  40  467.5994
  41  558.5137
  42  608.6985
  43  490.7354
  44  535.5111
  45  567.0096
  46  556.6166
  47  578.7673
  48  534.3605
  49  474.2111
  50  422.6111
  51  664.6412
  52  599.5361
  53  603.4038
  54  644.4069
  55  546.0593
  56  488.0357
  57  638.0523
  58  725.4655
  59  680.8536
  60  735.3207
  61  645.2975
  62  558.8936
  63  637.2391
  64  575.7698
  65  579.8668
  66  570.256
  67  641.2261
  68  596.1287
  69  656.8397
  70  640.9852
  71  602.3237
  72  606.6761
  73  553.2946
  74  651.5617
  75  621.6308
  76  664.6053
  77  554.2507
  78  541.6672
  79  647.9623
  80  593.0706
  81  597.5532
  82  654.275
  83  652.7222
  84  628.5353
  85  607.6696
  86  617.3407
  87  661.6115
  88  671.1124
  89  622.4303
  90  631.2587
  91  711.8194
  92  649.9741
  93  656.3729
  94  601.2917
  95  529.85
  96  583.4001
  97  572.6855
  98  526.2678
  99  663.5964
 100  714.6793
 101  557.2491
 102  536.8696
 103  574.6696
 104  616.95
 105  674.5234
 106  588.217
 107  586.5065
 108  634.2166
 109  640.3707
 110  706.15
 111  564.178
 112  633.1157
 113  656.2915
 114  584.9074
 115  432.4446
 116  413.4682
 117  547.3931
 118  658.8284
 119  781.4758
 120  698.47
 121  501.0713
 122  458.6124
 123  566.5775
 124  541.675
 125  635.1008
 126  695.6584
 127  535.3076
 128  502.8591
 129  613.9058
 130  645.2697
 131  662.2772
 132  630.003
 133  537.8648
 134  657.6169
 135  660.27
 136  524.7859
 137  541.6932
 138  501.8688
 139  543.2509
 140  620.5956
 141  570.3239
 142  729.2943
 143  752.3272
 144  714.4312
 145  605.166
 146  485.8775
 147  533.1353
 148  624.7827
 149  627.2004
 150  720.3281
 151  687.2996
 152  597.8964
 153  391.2114
 154  462.2463
 155  584.1933
 156  584.5667
 157  648.9908
 158  596.4035
 159  656.2623
 160  674.702
 161  668.3643
 162  620.5313
 163  486.4831
 164  608.8134
 165  696.1222
 166  678.7601
 167  700.4986
 168  625.3254
 169  530.4338
 170  617.7605
 171  511.2412
 172  569.8192
 173  603.2659
 174  553.3574
 175  695.4605
 176  716.5373
 177  563.1742
 178  461.1554
 179  486.1371
 180  436.5587
 181  489.4808
 182  623.8782
 183  654.8521
 184  549.2168
 185  505.4828
 186  607.0147
 187  538.0818
 188  486.5775
 189  679.7391
 190  658.4252
 191  712.5627
 192  800.1664
 193  724.7551
 194  603.1315
 195  609.0801
 196  600.4213
 197  514.7769
 198  476.7835
 199  624.1877
 200  745.4568
 201  679.1273
 202  652.8409
 203  597.2493
 204  561.6924
 205  562.7679
 206  508.6455
 207  610.4778
 208  607.1565
 209  688.3635
 210  760.7616
 211  723.1519
 212  619.0306
 213  627.816
 214  600.0999
 215  494.1165
 216  606.5141
 217  699.3799
 218  630.944
 219  563.0396
 220  523.8948
 221  408.8171
 222  405.9527
 223  529.8004
 224  627.3113
 225  714.0285
 226  638.9458
 227  502.3187
 228  551.3192
 229  568.8532
 230  573.7069
 231  606.9489
 232  708.1545
 233  652.8362
 234  568.5516
 235  673.5844
 236  582.3485
 237  482.7028
 238  473.1925
 239  439.2021
 240  475.0519
 241  671.109
 242  549.8539
 243  520.2217
 244  431.8592
 245  529.242
 246  671.1815
 247  653.5779
 248  777.006
 249  687.881
 250  626.3679
 251  582.4421
 252  631.2083
 253  631.4246
 254  501.0929
 255  557.2134
 256  672.7719
 257  737.0133
 258  807.8639
 259  656.6874
 260  533.9421
 261  552.08
 262  548.1061
 263  561.2199
 264  568.0452
 265  592.2722
 266  705.2181
 267  633.7321
 268  575.3719
 269  571.755
 270  568.9647
 271  596.7861
 272  539.4203
 273  626.5685
 274  695.2165
 275  604.0312
 276  681.124
 277  484.7638
 278  496.6932
 279  647.4299
 280  685.3908
 281  530.7704
 282  677.9938
 283  725.1367
 284  662.4446
 285  535.2623
 286  596.4659
 287  512.8108
 288  471.9348
 289  519.9148
 290  631.6219
 291  544.9485
 292  533.3495
 293  610.272
 294  561.7717
 295  532.4396
 296  513.7959
 297  573.42
 298  763.9617
 299  829.0968
 300  619.8382
 301  595.8597
 302  520.1644
 303  461.2427
 304  511.9034
 305  584.1194
 306  727.3991
 307  648.4228
 308  640.7678
 309  613.2776
 310  515.6468
 311  530.012
 312  611.1516
 313  742.8319
 314  630.175
 315  578.7436
 316  523.928
 317  594.7286
 318  408.5446
 319  452.2396
 320  481.5108
 321  632.0446
 322  659.5885
 323  534.4821
 324  554.5965
 325  607.7285
 326  444.0951
 327  494.8114
 328  585.2123
 329  567.2193
 330  558.9744
 331  706.798
 332  727.7538
 333  589.8141
 334  543.2781
 335  648.9976
 336  575.3318
 337  557.9887
 338  557.0258
 339  703.6632
 340  745.9566
 341  703.3356
 342  647.2916
 343  575.2916
 344  406.4021
 345  397.3078
 346  487.6504
 347  632.082
 348  630.9501
 349  610.183
 350  547.2128
 351  362.5969
 352  487.6276
 353  474.9987
 354  458.9536
 355  484.3236
 356  555.9603
 357  633.3678
 358  630.1687
 359  626.0155
 360  499.0561
 361  458.8406
 362  610.9285
 363  533.4539
 364  579.5305
 365  686.4892
 366  737.209
 367  643.689
 368  497.513
 369  385.4442
 370  490.6246
 371  515.4615
 372  540.6074
 373  624.8347
 374  676.2521
 375  622.5464
 376  660.5477
 377  604.5533
 378  546.0593
 379  535.3956
 380  608.4752
 381  687.8016
 382  668.6123
 383  556.6684
 384  464.1667
 385  493.7586
 386  549.7278
 387  640.1692
 388  519.6813
 389  672.8359
 390  669.6327
 391  574.1264
 392  522.5624
 393  406.1829
 394  584.7046
 395  527.6979
 396  594.6288
 397  749.7839
 398  759.3152
 399  764.9924
 400  554.5161
 401  390.1319
 402  450.6542
 403  495.1025
 404  497.2537
 405  580.9948
 406  735.3602
 407  719.2295
 408  641.0266
 409  712.5034
 410  609.4995
 411  592.4301
 412  482.0562
 413  567.4595
 414  686.0297
 415  641.0032
 416  712.9597
 417  631.5928
 418  561.3802
 419  542.8958
 420  606.6948
 421  542.6611
 422  480.0625
 423  604.5215
 424  604.3666
 425  425.795
 426  389.3272
 427  445.898
 428  399.657
 429  494.503
 430  762.2848
 431  772.5623
 432  589.7199
 433  518.7161
 434  483.5254
 435  591.4839
 436  547.2179
 437  578.8755
 438  507.3348
 439  559.2529
 440  596.0032
 441  637.9357
 442  647.4219
 443  500.9835
 444  508.6608
 445  495.4721
 446  483.2824
 447  580.5157
 448  627.6226
 449  503.933
 450  401.8988
 451  410.71
 452  351.1803
 453  513.5023
 454  603.9919
 455  523.2686
 456  569.7938
 457  573.0442
 458  583.6595
 459  603.9496
 460  584.1019
 461  666.2178
 462  640.0614
 463  671.6984
 464  618.0394
 465  575.3826
 466  622.4394
 467  539.0456
 468  467.0382
 469  599.8365
 470  578.3
 471  482.4596
 472  513.0998
 473  590.0876
 474  622.9816
 475  579.4192
 476  507.2108
 477  684.1342
 478  563.1483
 479  481.2372
 480  619.8769
 481  725.4481
 482  567.2382
 483  575.1514
 484  488.277
 485  498.1985
 486  574.7007
 487  793.7988
 488  764.4291
 489  687.545
 490  718.4923
 491  595.5599
 492  590.1163
 493  612.0255
 494  646.0693
 495  616.1252
 496  591.4623
 497  719.3422
 498  672.1414
 499  601.24
 500  627.5712
 501  501.7026
 502  470.9633
 503  752.2612
 504  805.7525
 505  696.3768
 506  699.2496
 507  684.3475
 508  701.0635
 509  793.9936
 510  908.5547
 511  830.7355
