# Input file       =  1196004548.112581_cleaned.dat
# Candidate        =  PSR_0332+5434
# Telescope        =  AR
# Epoch_topo       =  58086.645024451173
# Epoch_bary       =  N/A
# T_sample         =  0.002
# Data Folded      =  7208960
# Data Avg         =  0.129735145230255
# Data StdDev      =  1.00061983618526 
# Profile Bins     =  512
# Profile Avg      =  1826.66859290088 
# Profile StdDev   =  118.7327250444   
# Reduced chi-sqr  =  0.810
# Prob(Noise)      <  0.999   (~0.0 sigma)
# P_topo (ms)      =  714.52426488883   +/- 0.000411
# P'_topo (s/s)    =  -0                +/- 2.21e-10
# P''_topo (s/s^2) =  0                 +/- 9.93e-14
# P_bary (ms)      =  N/A
# P'_bary (s/s)    =  N/A
# P''_bary (s/s^2) =  N/A
# P_orb (s)        =  N/A
# asin(i)/c (s)    =  N/A
# eccentricity     =  N/A
# w (rad)          =  N/A
# T_peri           =  N/A
######################################################
   0  2085.236
   1  2034.334
   2  2029.931
   3  1983.349
   4  1923.615
   5  1782.867
   6  1890.531
   7  1831.633
   8  1828.193
   9  1775.854
  10  1753.029
  11  1902.376
  12  1912.836
  13  1917.113
  14  1937.043
  15  1790.891
  16  1779.937
  17  1809.753
  18  1830.432
  19  1858.417
  20  1828.589
  21  1792.931
  22  1811.411
  23  1775.218
  24  1754.786
  25  1680.594
  26  1828.637
  27  1801.374
  28  1826.717
  29  1827.118
  30  1755.53
  31  1794.46
  32  1814.018
  33  1805.435
  34  1836.837
  35  1928.952
  36  1892.068
  37  1837.979
  38  1832.529
  39  1789.649
  40  1815.038
  41  1850.234
  42  1792.204
  43  1772.889
  44  1817.626
  45  1858.172
  46  1859.232
  47  1847.257
  48  1857.527
  49  1849.11
  50  1859.346
  51  1833.294
  52  1855.429
  53  1856.292
  54  1821.662
  55  1680.501
  56  1750.402
  57  1806.756
  58  1727.611
  59  1725.266
  60  1792.95
  61  1941.608
  62  1832.142
  63  1764.411
  64  1813.171
  65  1731.034
  66  1789.106
  67  1831.31
  68  1722.884
  69  1730.794
  70  1712.952
  71  1730.103
  72  1786.839
  73  1803.51
  74  1836.853
  75  1813.865
  76  1792.036
  77  1826.189
  78  1825.591
  79  1766.036
  80  1815.876
  81  1786.667
  82  1778.472
  83  1784.692
  84  1817.827
  85  1880.127
  86  1857.984
  87  1816.099
  88  1802.553
  89  1714.395
  90  1718.827
  91  1804.296
  92  1892.896
  93  1799.72
  94  1764.504
  95  1786.63
  96  1862.111
  97  1783.232
  98  1836.038
  99  1939.322
 100  2057.659
 101  1976.647
 102  1932.026
 103  1879.832
 104  1729.708
 105  1665.466
 106  1663.588
 107  1817.618
 108  1824.933
 109  1869.56
 110  1994.772
 111  1738.426
 112  1846.837
 113  1884.083
 114  1817.76
 115  1798.209
 116  1786.047
 117  1792.583
 118  1713.999
 119  1838.366
 120  1835.336
 121  1812.54
 122  1819.115
 123  1778.112
 124  1842.021
 125  1751.503
 126  1773.214
 127  1703.449
 128  1694.991
 129  1726.147
 130  1827.509
 131  1819.687
 132  1797.002
 133  1759.853
 134  1840.544
 135  1861.205
 136  1754.318
 137  1805.637
 138  1916.881
 139  1863.841
 140  1940.835
 141  1970.55
 142  1953.38
 143  1947.762
 144  1918.73
 145  1850.874
 146  1688.384
 147  1696.142
 148  1774.006
 149  1750.12
 150  1773.357
 151  1818.066
 152  1828.04
 153  1855.871
 154  1672.793
 155  1678.552
 156  1791.262
 157  1794.453
 158  1788.325
 159  1851.358
 160  1800.923
 161  1684.091
 162  1769.62
 163  1927.325
 164  1929.46
 165  1968.559
 166  1997.956
 167  1978.506
 168  1836.421
 169  1781.403
 170  1841.672
 171  1791.839
 172  1870.746
 173  1766.418
 174  1898.255
 175  1836.933
 176  1728.546
 177  1794.79
 178  1828.615
 179  1878.275
 180  1822.809
 181  1798.06
 182  1742.69
 183  1683.89
 184  1735.917
 185  1688.51
 186  1728.051
 187  1762.001
 188  1876.616
 189  1807.797
 190  1747.93
 191  1792.083
 192  1860.485
 193  1847.734
 194  1829.981
 195  1818.729
 196  1841.806
 197  1791.251
 198  1914.65
 199  1943.103
 200  1919.464
 201  1833.903
 202  1756.474
 203  1794.244
 204  1818.669
 205  1842.082
 206  1933.523
 207  1927.473
 208  1916.118
 209  1842.836
 210  1819.611
 211  1780.776
 212  1809.414
 213  1817.061
 214  1790.824
 215  1816.782
 216  1786.406
 217  1822.433
 218  1759.35
 219  1799.565
 220  1735.862
 221  1680.018
 222  1740.09
 223  1754.235
 224  1873.633
 225  1820.942
 226  1632.727
 227  1688.785
 228  1781.494
 229  1669.159
 230  1643.23
 231  1608.346
 232  1707.655
 233  1737.386
 234  1846.391
 235  1929.705
 236  1802.19
 237  1840.922
 238  1857.418
 239  1869.52
 240  1733.844
 241  1734.837
 242  1774.168
 243  1798.65
 244  1801.607
 245  1752.675
 246  1889.417
 247  1863.473
 248  1879.547
 249  1826.73
 250  1889.699
 251  1849.513
 252  1740.758
 253  1818.668
 254  1755.851
 255  1866.122
 256  1889.619
 257  1914.725
 258  1834.784
 259  1805.465
 260  1953.698
 261  1819.804
 262  1816.867
 263  1947.4
 264  1957.332
 265  1840.984
 266  1791.121
 267  1921.512
 268  1920.694
 269  1773.944
 270  1839.954
 271  1842.787
 272  1908.46
 273  1856.788
 274  1857.766
 275  1807.987
 276  1876.601
 277  1962.172
 278  2009.689
 279  1964.484
 280  1919.247
 281  1825.173
 282  1871.592
 283  1729.941
 284  1707.358
 285  1762.292
 286  1811.806
 287  1840.829
 288  1719.161
 289  1820.474
 290  1838.888
 291  1881.369
 292  1818.903
 293  1806.111
 294  1863.135
 295  1846.62
 296  1878.891
 297  1754.189
 298  1671.838
 299  1718.711
 300  1797.698
 301  1806.569
 302  1692.179
 303  1745.984
 304  1865.43
 305  1918.325
 306  1938.486
 307  1957.05
 308  1868.193
 309  1886.482
 310  2015.762
 311  2054.506
 312  1948.026
 313  1854.288
 314  1899.385
 315  1827.915
 316  1826.666
 317  1765.726
 318  1795.399
 319  1829.064
 320  1866.565
 321  1851.908
 322  1836.858
 323  1851.262
 324  1822.318
 325  1824.677
 326  1754.005
 327  1761.302
 328  1854.837
 329  1831.164
 330  1801.899
 331  1798.318
 332  1815.903
 333  1804.543
 334  1861.052
 335  1929.649
 336  1799.421
 337  1781.007
 338  1847.045
 339  1754.234
 340  1788.228
 341  1903.511
 342  1936.526
 343  1817.157
 344  1908.461
 345  1856.476
 346  1730.787
 347  1760.114
 348  1739.086
 349  1711.479
 350  1745.992
 351  1853.272
 352  1812.176
 353  1839.773
 354  1833.959
 355  1810.913
 356  1750.97
 357  1753.399
 358  1735.234
 359  1714.411
 360  1742.23
 361  1818.474
 362  1910.416
 363  1858.967
 364  1843.769
 365  1831.145
 366  1870.981
 367  1841.506
 368  1806.771
 369  1856.72
 370  1868.128
 371  1811.83
 372  1867.697
 373  1851.726
 374  1928.364
 375  1924.205
 376  1855.179
 377  1824.8
 378  1924.015
 379  1932.976
 380  1877.99
 381  1857.731
 382  1941.031
 383  1836.272
 384  1776.783
 385  1713.545
 386  1720.02
 387  1809.808
 388  1801.827
 389  1852.714
 390  1752.075
 391  1788.248
 392  1818.636
 393  1817.066
 394  1812.578
 395  1753.596
 396  1819.491
 397  1698.635
 398  1712.472
 399  1807.176
 400  1863.475
 401  1820.783
 402  1802.082
 403  1842.95
 404  1860.394
 405  1921.447
 406  1914.791
 407  1862.566
 408  1826.619
 409  1824.344
 410  1857.311
 411  1876.014
 412  1920.8
 413  1928.998
 414  1844.248
 415  1813.844
 416  1925.478
 417  1980.5
 418  1988.882
 419  1963.518
 420  1874.057
 421  1794.588
 422  1854.869
 423  1806.274
 424  1726.756
 425  1794.167
 426  1799.241
 427  1765.172
 428  1814.972
 429  1821.746
 430  1845.455
 431  1893.64
 432  1887.879
 433  1880.46
 434  1848.337
 435  1888.573
 436  1885.981
 437  1880.223
 438  1876.772
 439  1893.597
 440  1874.103
 441  1816.285
 442  1720.56
 443  1725.249
 444  1743.747
 445  1802.26
 446  1689.25
 447  1707.87
 448  1748.147
 449  1760.884
 450  1842.397
 451  1708.046
 452  1660.928
 453  1758.13
 454  1823.943
 455  1764.19
 456  1799.989
 457  1796.487
 458  1826.444
 459  1807.183
 460  1782.99
 461  1774.935
 462  1764.509
 463  1796.689
 464  1861.08
 465  1869.935
 466  1812.997
 467  1771.318
 468  1746.826
 469  1744.602
 470  1781.481
 471  1797.442
 472  1863.005
 473  1821.102
 474  1727.891
 475  1775.359
 476  1776.766
 477  1759.156
 478  1826.91
 479  1833.79
 480  1768.724
 481  1781.31
 482  1867.07
 483  1924.255
 484  1897.152
 485  2018.148
 486  1877.292
 487  1761.268
 488  1751.459
 489  1777.925
 490  1920.855
 491  1928.211
 492  1865.38
 493  1819.943
 494  1792.216
 495  1753.942
 496  1840.367
 497  1866.985
 498  1817.752
 499  1859.676
 500  1873.152
 501  1841.837
 502  1885.578
 503  1994.115
 504  1966.818
 505  1942.063
 506  2005.686
 507  2013.292
 508  1905.659
 509  1979.443
 510  2106.111
 511  2157.872
