# Input file       =  1196191533.12459_cleaned.dat
# Candidate        =  PSR_0332+5434
# Telescope        =  AR
# Epoch_topo       =  58088.809202830904
# Epoch_bary       =  N/A
# T_sample         =  0.002
# Data Folded      =  7340032
# Data Avg         =  0.0567486284135044
# Data StdDev      =  0.999950499521671
# Profile Bins     =  512
# Profile Avg      =  813.659427279099 
# Profile StdDev   =  119.727109534194 
# Reduced chi-sqr  =  0.783
# Prob(Noise)      <  1   (~0.0 sigma)
# P_topo (ms)      =  714.526521228195  +/- 7.22e-05
# P'_topo (s/s)    =  -0                +/- 3.81e-11
# P''_topo (s/s^2) =  0                 +/- 1.68e-14
# P_bary (ms)      =  N/A
# P'_bary (s/s)    =  N/A
# P''_bary (s/s^2) =  N/A
# P_orb (s)        =  N/A
# asin(i)/c (s)    =  N/A
# eccentricity     =  N/A
# w (rad)          =  N/A
# T_peri           =  N/A
######################################################
   0  1018.211
   1  1013.743
   2  1009.004
   3  967.9487
   4  908.4755
   5  933.9629
   6  834.1682
   7  863.5837
   8  866.3633
   9  831.9649
  10  676.9152
  11  791.9822
  12  832.5804
  13  850.2583
  14  855.3796
  15  803.7551
  16  758.1502
  17  834.1587
  18  811.5411
  19  802.6367
  20  828.131
  21  934.4647
  22  911.8781
  23  801.5083
  24  843.2903
  25  858.5229
  26  895.0812
  27  883.7106
  28  929.8701
  29  831.389
  30  981.1635
  31  1036.633
  32  973.445
  33  924.6619
  34  780.9507
  35  862.5825
  36  930.5662
  37  920.3889
  38  816.1674
  39  734.7171
  40  826.1732
  41  833.1256
  42  846.0773
  43  807.1077
  44  782.8014
  45  771.1429
  46  805.5499
  47  886.6067
  48  877.9337
  49  903.1349
  50  910.1741
  51  795.5637
  52  804.5769
  53  823.3467
  54  813.3629
  55  902.3414
  56  943.5338
  57  797.6763
  58  702.5828
  59  736.2249
  60  810.5012
  61  775.9808
  62  787.758
  63  741.2941
  64  863.3516
  65  839.6646
  66  762.5915
  67  650.2096
  68  724.3524
  69  704.1907
  70  738.9615
  71  719.0937
  72  635.0978
  73  704.8649
  74  727.9913
  75  750.4015
  76  683.139
  77  798.8355
  78  753.6242
  79  805.5969
  80  702.2196
  81  727.6105
  82  809.6851
  83  690.7865
  84  817.1801
  85  913.146
  86  903.6801
  87  877.2811
  88  881.5805
  89  856.692
  90  777.4614
  91  819.2843
  92  840.3638
  93  840.5616
  94  817.528
  95  755.373
  96  824.6859
  97  819.2673
  98  734.4454
  99  848.4452
 100  862.0683
 101  735.8655
 102  777.489
 103  869.6367
 104  930.4512
 105  850.635
 106  933.3248
 107  898.2281
 108  878.6748
 109  916.7932
 110  839.0634
 111  792.9561
 112  864.9329
 113  911.4137
 114  917.7026
 115  874.8231
 116  881.9839
 117  824.6974
 118  830.9037
 119  861.2678
 120  943.2699
 121  831.6389
 122  795.1805
 123  834.9165
 124  741.3348
 125  796.8088
 126  692.205
 127  769.1161
 128  801.6745
 129  847.0974
 130  772.4962
 131  664.0957
 132  772.5527
 133  797.6185
 134  687.2759
 135  722.7769
 136  817.151
 137  835.8844
 138  792.7892
 139  698.4019
 140  778.6217
 141  755.3626
 142  720.8202
 143  840.5291
 144  829.328
 145  885.973
 146  833.1284
 147  834.1107
 148  894.0518
 149  867.8212
 150  916.8232
 151  990.4973
 152  881.3481
 153  760.7155
 154  765.2017
 155  805.5643
 156  783.5784
 157  801.2753
 158  744.4787
 159  739.7883
 160  818.7713
 161  821.0781
 162  760.6057
 163  769.0083
 164  883.8495
 165  965.7657
 166  820.8024
 167  812.5428
 168  840.7753
 169  849.2752
 170  880.8257
 171  862.7292
 172  791.5485
 173  903.9697
 174  932.4208
 175  804.1823
 176  685.1028
 177  813.1627
 178  873.2802
 179  936.8007
 180  878.4438
 181  837.6343
 182  742.7728
 183  736.9553
 184  838.6198
 185  857.9398
 186  765.2037
 187  803.2895
 188  834.983
 189  792.8488
 190  743.8195
 191  775.8264
 192  893.4084
 193  859.3579
 194  722.3375
 195  776.7363
 196  800.7925
 197  976.3341
 198  945.7881
 199  1014.761
 200  986.2028
 201  913.4323
 202  768.941
 203  755.2369
 204  809.2236
 205  893.6905
 206  816.8873
 207  847.7528
 208  864.8903
 209  784.3918
 210  739.0028
 211  755.8254
 212  803.148
 213  800.522
 214  888.5799
 215  789.2014
 216  739.6152
 217  734.9549
 218  747.1665
 219  836.6549
 220  878.7312
 221  923.2339
 222  855.5046
 223  701.2136
 224  745.9427
 225  763.22
 226  785.3646
 227  877.6224
 228  885.5331
 229  874.7762
 230  855.6787
 231  834.9933
 232  848.9255
 233  837.8489
 234  901.7934
 235  928.4694
 236  903.1379
 237  947.4971
 238  790.5527
 239  798.8623
 240  794.5624
 241  737.0895
 242  773.2577
 243  799.9879
 244  745.0855
 245  803.0007
 246  881.9526
 247  852.1356
 248  808.3016
 249  741.4639
 250  785.9467
 251  858.968
 252  860.673
 253  817.276
 254  786.9178
 255  839.0563
 256  907.0136
 257  911.8171
 258  815.506
 259  811.9909
 260  814.7833
 261  763.4652
 262  730.4113
 263  880.1229
 264  872.1381
 265  768.9676
 266  725.4069
 267  724.5107
 268  693.7089
 269  696.7738
 270  818.9147
 271  929.5137
 272  885.1164
 273  817.0261
 274  743.8035
 275  698.131
 276  758.6203
 277  758.567
 278  828.5667
 279  894.0331
 280  829.4598
 281  787.1268
 282  687.1023
 283  716.6044
 284  778.8846
 285  817.1467
 286  859.2299
 287  811.0353
 288  832.9841
 289  885.8096
 290  757.4966
 291  689.8242
 292  783.5245
 293  762.9277
 294  899.445
 295  873.2766
 296  795.1137
 297  713.4563
 298  770.195
 299  795.4
 300  874.8167
 301  796.4407
 302  670.7018
 303  648.3699
 304  794.4338
 305  780.3864
 306  749.0413
 307  697.9995
 308  803.0975
 309  819.459
 310  818.2415
 311  720.1496
 312  707.9503
 313  801.3008
 314  793.4135
 315  782.2089
 316  762.0773
 317  698.3644
 318  741.4376
 319  687.0598
 320  656.6064
 321  789.1303
 322  754.6031
 323  736.9696
 324  654.1556
 325  710.2877
 326  771.5443
 327  817.282
 328  681.046
 329  713.2576
 330  790.465
 331  820.3345
 332  827.8142
 333  763.4321
 334  835.8914
 335  874.7015
 336  893.6907
 337  812.0604
 338  775.7604
 339  753.7999
 340  721.6422
 341  766.2819
 342  768.1685
 343  724.9821
 344  719.2693
 345  827.5397
 346  650.6824
 347  573.5612
 348  643.8016
 349  652.3999
 350  632.5679
 351  723.2344
 352  890.3793
 353  837.192
 354  737.7237
 355  773.2072
 356  776.8415
 357  821.6724
 358  795.2717
 359  726.6993
 360  833.0093
 361  896.3306
 362  916.5028
 363  851.8586
 364  804.957
 365  844.23
 366  892.8268
 367  719.6123
 368  721.0366
 369  794.9868
 370  830.7426
 371  805.8354
 372  865.0887
 373  787.98
 374  746.2667
 375  829.7743
 376  785.9496
 377  831.4128
 378  913.9598
 379  874.3304
 380  863.6663
 381  880.9277
 382  832.0171
 383  718.6259
 384  732.6566
 385  798.2916
 386  770.0729
 387  729.5228
 388  820.1299
 389  907.5137
 390  892.6702
 391  827.1187
 392  754.1707
 393  819.9255
 394  918.3823
 395  944.2229
 396  850.8819
 397  724.2235
 398  728.3091
 399  801.6286
 400  860.9127
 401  787.6188
 402  729.0711
 403  674.2169
 404  786.4826
 405  832.7448
 406  770.9017
 407  825.4554
 408  886.6783
 409  868.7681
 410  827.3553
 411  851.5958
 412  750.2517
 413  788.4706
 414  817.3201
 415  813.1926
 416  847.2639
 417  915.3214
 418  857.9692
 419  794.4062
 420  787.887
 421  758.0577
 422  733.2611
 423  815.8001
 424  803.9477
 425  740.0775
 426  717.7401
 427  742.4691
 428  786.6946
 429  812.8555
 430  743.3062
 431  767.4733
 432  807.3322
 433  841.0884
 434  822.4058
 435  739.9466
 436  710.3642
 437  828.8102
 438  903.3257
 439  751.9531
 440  814.863
 441  793.8011
 442  686.0522
 443  808.3572
 444  771.0874
 445  775.6443
 446  862.4276
 447  792.2155
 448  820.2766
 449  835.4142
 450  819.3136
 451  849.5862
 452  873.9222
 453  880.1364
 454  839.5646
 455  740.7289
 456  779.5765
 457  895.0418
 458  926.6629
 459  914.819
 460  856.5881
 461  938.779
 462  948.218
 463  795.8765
 464  846.9296
 465  853.8509
 466  900.856
 467  898.9394
 468  871.8544
 469  734.7236
 470  734.2987
 471  811.8519
 472  795.9447
 473  921.5452
 474  868.2273
 475  784.9369
 476  790.2923
 477  752.7499
 478  625.8643
 479  516.4794
 480  817.7781
 481  905.6981
 482  869.9149
 483  738.8343
 484  689.8542
 485  723.9268
 486  857.816
 487  757.0934
 488  825.3652
 489  945.0997
 490  967.4302
 491  855.1406
 492  780.9056
 493  778.2493
 494  837.7452
 495  842.4897
 496  973.2762
 497  878.4852
 498  845.597
 499  898.387
 500  856.7574
 501  859.0604
 502  833.5794
 503  739.3814
 504  684.1361
 505  781.8516
 506  831.5244
 507  800.5281
 508  817.4772
 509  930.3995
 510  1075.831
 511  1097.24
