# Input file       =  1196966586.130779_cleaned.dat
# Candidate        =  PSR_0332+5434
# Telescope        =  AR
# Epoch_topo       =  58097.779723735868
# Epoch_bary       =  N/A
# T_sample         =  0.002
# Data Folded      =  7340032
# Data Avg         =  0.0750022491117903
# Data StdDev      =  1.00017054630012 
# Profile Bins     =  512
# Profile Avg      =  1075.50569105227 
# Profile StdDev   =  119.753456403123 
# Reduced chi-sqr  =  0.739
# Prob(Noise)      <  1   (~0.0 sigma)
# P_topo (ms)      =  714.535689296173  +/- 0.000254
# P'_topo (s/s)    =  -0                +/- 1.34e-10
# P''_topo (s/s^2) =  0                 +/- 5.92e-14
# P_bary (ms)      =  N/A
# P'_bary (s/s)    =  N/A
# P''_bary (s/s^2) =  N/A
# P_orb (s)        =  N/A
# asin(i)/c (s)    =  N/A
# eccentricity     =  N/A
# w (rad)          =  N/A
# T_peri           =  N/A
######################################################
   0  1436.196
   1  1460.166
   2  1309.684
   3  1264.136
   4  1181.647
   5  1036.714
   6  1135.782
   7  1152.124
   8  1072.499
   9  1055.336
  10  1100.748
  11  1083.176
  12  1038.2
  13  1065.985
  14  1080.356
  15  1065.845
  16  1084.807
  17  1173.499
  18  1119.416
  19  1062.846
  20  1103.087
  21  1136.176
  22  1151.297
  23  1146.277
  24  1076.025
  25  1018.816
  26  1018.99
  27  1067.901
  28  1161.474
  29  1194.474
  30  1040.678
  31  1012.728
  32  1047.966
  33  1128.701
  34  1221.289
  35  1179.447
  36  1037.45
  37  1107.129
  38  1203.785
  39  1188.623
  40  1113.033
  41  1099.227
  42  1004.187
  43  928.0984
  44  1008.949
  45  1047.946
  46  1095.681
  47  1099.875
  48  1082.747
  49  1165.657
  50  1072.782
  51  1018.309
  52  1112.397
  53  1144.258
  54  1069.391
  55  1157.663
  56  1197.22
  57  1087.847
  58  1083.346
  59  1046.253
  60  1051.732
  61  1017.962
  62  1064.223
  63  1126.202
  64  1076.986
  65  1113.24
  66  1103.101
  67  1029.577
  68  910.519
  69  997.2867
  70  1041.524
  71  1054.443
  72  1031.821
  73  1103.099
  74  1074.251
  75  1049.123
  76  1019.025
  77  1011.06
  78  1028.554
  79  930.8843
  80  1049.372
  81  1016.631
  82  1001.459
  83  1000.34
  84  999.618
  85  1054.24
  86  1084.667
  87  1002.968
  88  1058.83
  89  1018.693
  90  1109.749
  91  1219.671
  92  1258.13
  93  1156.989
  94  995.3436
  95  992.0055
  96  1062.848
  97  1123.757
  98  1050.75
  99  974.806
 100  993.6735
 101  1189.524
 102  1232.621
 103  1123.75
 104  1155.976
 105  1155.51
 106  1108.623
 107  1019.617
 108  1055.31
 109  1060.66
 110  1122.274
 111  1039.39
 112  1130.732
 113  1129.554
 114  1114.289
 115  1120.06
 116  1128.716
 117  1146.878
 118  1043.967
 119  978.1517
 120  1069.314
 121  1076.278
 122  1054.073
 123  1123.176
 124  1122.333
 125  1110.397
 126  1066.344
 127  1084.609
 128  1051.213
 129  1055.167
 130  1005.923
 131  1073.248
 132  1180.574
 133  1190.343
 134  1160.048
 135  1200.415
 136  1146.298
 137  1013.646
 138  1021.36
 139  1028.381
 140  1001.651
 141  1040.488
 142  1049.368
 143  1038.75
 144  1131.555
 145  1153.68
 146  1109.369
 147  1113.563
 148  1074.77
 149  1035.925
 150  1000.814
 151  978.5121
 152  984.977
 153  1079.712
 154  1140.674
 155  1077.582
 156  1165.996
 157  1179.533
 158  1121.289
 159  1091.274
 160  1146.048
 161  1179.221
 162  1187.747
 163  1115.103
 164  1020.395
 165  955.1057
 166  987.195
 167  1032.401
 168  1020.456
 169  1147.436
 170  1098.416
 171  1167.018
 172  1009.294
 173  943.6765
 174  1057.009
 175  1171.267
 176  1145.135
 177  1207.62
 178  1127.116
 179  1067.96
 180  1070.26
 181  1081.278
 182  1110.774
 183  1096.739
 184  1059.199
 185  1175.01
 186  1155.421
 187  1149.02
 188  1151.242
 189  1088.999
 190  1137.545
 191  1135.495
 192  1116.412
 193  1079.871
 194  1036.689
 195  998.702
 196  1099.599
 197  1142.17
 198  1210.637
 199  1217.211
 200  1060.833
 201  1008.198
 202  1130.789
 203  1132.65
 204  1156.533
 205  1163.558
 206  1150.294
 207  1100.929
 208  1121.889
 209  1168.869
 210  1118.215
 211  1042.321
 212  994.7488
 213  1046.897
 214  1078.726
 215  1059.069
 216  1096.912
 217  1148.074
 218  1128.276
 219  1015.442
 220  982.7302
 221  1117.679
 222  1023.336
 223  1063.576
 224  1139.702
 225  958.9195
 226  909.07
 227  1013.176
 228  1042.134
 229  1039.865
 230  916.6566
 231  962.1262
 232  1070.624
 233  1211.172
 234  1173.29
 235  1141.175
 236  1075.539
 237  996.476
 238  1035.149
 239  1187.298
 240  1167.1
 241  1178.999
 242  1174.393
 243  1071.062
 244  1076.799
 245  1043.065
 246  1128.602
 247  1046.992
 248  1014.643
 249  1091.063
 250  1070.33
 251  983.7758
 252  995.9869
 253  994.0052
 254  977.5992
 255  932.2694
 256  1015.047
 257  1059.019
 258  1082.121
 259  1105.699
 260  1035.72
 261  970.8649
 262  1024.01
 263  984.0163
 264  1145.892
 265  1062.169
 266  997.5078
 267  1104.991
 268  1054.833
 269  1043.344
 270  994.77
 271  1053.587
 272  1088.642
 273  1113.658
 274  1079.701
 275  1060.139
 276  1039.278
 277  1117.118
 278  1100.256
 279  1060.242
 280  1024.233
 281  1038.335
 282  1047.994
 283  1027.119
 284  1048.629
 285  1026.932
 286  966.4426
 287  1048.133
 288  1088.954
 289  1064.758
 290  1002.681
 291  976.1544
 292  1029.111
 293  1151.79
 294  1064.248
 295  1055.542
 296  1006.436
 297  937.165
 298  898.1354
 299  952.5306
 300  1097.189
 301  1121.525
 302  1038.541
 303  1110.427
 304  1027.673
 305  1120.144
 306  1123.713
 307  1138.077
 308  1106.642
 309  990.5131
 310  955.3503
 311  1017.034
 312  1035.02
 313  1026.093
 314  1089.22
 315  1064.392
 316  978.8378
 317  1049.052
 318  1017.927
 319  1084.061
 320  1048.233
 321  1029.597
 322  1092.376
 323  1105.807
 324  1082.048
 325  1095.186
 326  1057.596
 327  1045.396
 328  1132.592
 329  1079.055
 330  989.8356
 331  1008.059
 332  1080.332
 333  1021.878
 334  1023.73
 335  1075.416
 336  1043.775
 337  1001.328
 338  975.0568
 339  951.5776
 340  1010.749
 341  1021.404
 342  951.6543
 343  989.7639
 344  1017.664
 345  1031.707
 346  1031.311
 347  1032.978
 348  1004.884
 349  1035.087
 350  1094.395
 351  1000.762
 352  1038.614
 353  1009.215
 354  997.8823
 355  930.4171
 356  1030.045
 357  1059.297
 358  978.1427
 359  1049.658
 360  1087.094
 361  1030.636
 362  1005.969
 363  1035.029
 364  1064.654
 365  1048.196
 366  1000.451
 367  998.6624
 368  1059.595
 369  1171.574
 370  1144.006
 371  1049.527
 372  1056.651
 373  1052.256
 374  1035.028
 375  1090.603
 376  958.996
 377  929.928
 378  947.0805
 379  906.4836
 380  932.7459
 381  920.45
 382  1005.475
 383  939.2584
 384  937.7855
 385  1018.619
 386  1044.706
 387  1065.461
 388  996.2771
 389  1027.998
 390  926.7399
 391  889.6479
 392  981.8803
 393  1024.215
 394  1023.062
 395  979.4207
 396  1013.112
 397  1002.766
 398  1008.717
 399  990.9339
 400  1118.219
 401  1096.552
 402  1065.928
 403  1070.558
 404  997.9702
 405  1026.7
 406  1044.823
 407  1136.562
 408  1068.773
 409  1010.871
 410  1114.904
 411  1169.663
 412  1101.482
 413  1168.972
 414  1040.378
 415  1088.008
 416  1179.049
 417  1167.382
 418  1139.933
 419  1115.682
 420  1102.217
 421  1050.972
 422  1018.718
 423  1006.615
 424  1088.577
 425  1159.047
 426  1093.24
 427  1006.993
 428  1041.135
 429  1104.223
 430  1055.851
 431  1085.878
 432  1076.896
 433  939.8719
 434  1045.303
 435  1078.551
 436  1196.015
 437  1168.482
 438  1138.909
 439  1184.629
 440  1247.355
 441  1195.605
 442  1238.945
 443  1243.089
 444  1147.383
 445  1155.244
 446  1169.89
 447  1160.49
 448  1105.986
 449  1130.713
 450  1220.426
 451  1096.204
 452  1052.807
 453  1084.999
 454  1080.276
 455  1012.044
 456  1066.032
 457  1084.088
 458  1146.148
 459  1077.23
 460  1116.258
 461  1155.171
 462  1101.272
 463  1095.134
 464  1003.379
 465  1138.958
 466  1116.148
 467  1082.933
 468  1070.763
 469  1083.556
 470  1135.642
 471  1100.637
 472  1050.161
 473  1081.605
 474  1069.872
 475  1092.629
 476  982.0143
 477  1018.746
 478  1135.551
 479  1058.51
 480  1077.682
 481  1105.433
 482  1029.473
 483  1102.115
 484  1044.225
 485  1074.234
 486  1108.56
 487  1013.306
 488  1016.837
 489  1113.954
 490  1251.801
 491  1212.063
 492  1145.325
 493  1053.171
 494  958.9335
 495  1038.104
 496  1093.562
 497  1123.312
 498  1049.984
 499  1017.932
 500  1213.004
 501  1156.737
 502  1104
 503  1218.772
 504  1167.574
 505  1056.374
 506  1029.224
 507  1153.603
 508  1136.297
 509  1195.593
 510  1211.959
 511  1320.552
