# Input file       =  1196363886.122779_cleaned.dat
# Candidate        =  PSR_0332+5434
# Telescope        =  AR
# Epoch_topo       =  58090.804029198829
# Epoch_bary       =  N/A
# T_sample         =  0.002
# Data Folded      =  7340032
# Data Avg         =  0.0302178008928294
# Data StdDev      =  0.999997203804812
# Profile Bins     =  512
# Profile Avg      =  433.167508649312 
# Profile StdDev   =  119.732701579826 
# Reduced chi-sqr  =  0.927
# Prob(Noise)      <  0.879   (~0.0 sigma)
# P_topo (ms)      =  714.528572620766  +/- 0.000214
# P'_topo (s/s)    =  -0                +/- 1.13e-10
# P''_topo (s/s^2) =  0                 +/- 4.98e-14
# P_bary (ms)      =  N/A
# P'_bary (s/s)    =  N/A
# P''_bary (s/s^2) =  N/A
# P_orb (s)        =  N/A
# asin(i)/c (s)    =  N/A
# eccentricity     =  N/A
# w (rad)          =  N/A
# T_peri           =  N/A
######################################################
   0  587.9988
   1  649.6787
   2  832.0978
   3  658.9478
   4  506.3624
   5  458.8608
   6  396.2442
   7  284.9535
   8  327.5204
   9  464.2479
  10  410.3406
  11  268.3141
  12  406.868
  13  438.7743
  14  343.4686
  15  309.9204
  16  348.1151
  17  336.8605
  18  387.3039
  19  447.549
  20  490.6886
  21  316.64
  22  270.7191
  23  297.4883
  24  420.045
  25  373.8521
  26  284.9731
  27  352.2206
  28  368.3549
  29  409.9471
  30  401.2625
  31  399.7714
  32  368.0498
  33  409.6968
  34  432.9758
  35  374.6613
  36  382.6404
  37  402.3591
  38  360.6565
  39  353.1248
  40  346.5339
  41  342.0426
  42  338.8278
  43  362.8728
  44  369.7066
  45  364.3817
  46  362.6134
  47  390.9748
  48  469.6381
  49  379.3167
  50  348.8664
  51  337.3609
  52  278.281
  53  393.1678
  54  430.2169
  55  478.621
  56  407.6101
  57  348.6436
  58  370.2195
  59  388.0916
  60  347.9369
  61  274.7574
  62  357.194
  63  375.0523
  64  373.856
  65  253.9248
  66  252.441
  67  462.9521
  68  444.0824
  69  433.9733
  70  465.0269
  71  441.3039
  72  383.3275
  73  393.2609
  74  442.427
  75  497.0223
  76  472.7357
  77  343.1136
  78  416.3839
  79  272.6043
  80  349.2853
  81  446.0419
  82  390.9536
  83  404.0827
  84  511.8711
  85  469.1877
  86  427.6023
  87  277.5694
  88  284.8744
  89  298.5813
  90  363.6778
  91  364.0747
  92  451.2191
  93  496.774
  94  461.6892
  95  342.0258
  96  347.9449
  97  352.1874
  98  399.6049
  99  386.1335
 100  401.7672
 101  359.9328
 102  402.4501
 103  470.14
 104  430.7788
 105  407.2857
 106  447.9489
 107  448.8386
 108  500.8128
 109  507.6175
 110  535.9143
 111  369.5898
 112  475.5655
 113  521.9122
 114  484.3229
 115  392.7748
 116  522.4313
 117  633.7451
 118  566.9044
 119  579.4434
 120  487.4995
 121  376.4009
 122  360.2693
 123  484.3904
 124  472.5044
 125  463.7273
 126  369.8771
 127  247.7469
 128  398.967
 129  453.0223
 130  431.1779
 131  424.9571
 132  417.5526
 133  403.5891
 134  376.7894
 135  412.4427
 136  462.3539
 137  409.3987
 138  369.0692
 139  347.4503
 140  375.7336
 141  383.7172
 142  383.5453
 143  447.0972
 144  422.4577
 145  398.1839
 146  476.7725
 147  459.2604
 148  394.2113
 149  389.1536
 150  502.6601
 151  535.084
 152  393.0691
 153  449.8151
 154  515.178
 155  549.9404
 156  517.0654
 157  417.7202
 158  371.0468
 159  420.8226
 160  417.843
 161  335.2982
 162  364.6787
 163  464.0658
 164  549.4675
 165  426.3774
 166  467.1127
 167  458.7665
 168  392.4603
 169  477.5754
 170  442.6742
 171  486.4892
 172  448.7767
 173  584.2751
 174  452.2271
 175  494.0305
 176  427.5471
 177  459.1092
 178  519.2012
 179  540.0733
 180  540.9477
 181  466.6386
 182  479.1154
 183  360.0551
 184  436.1999
 185  578.3898
 186  486.5673
 187  394.808
 188  385.0588
 189  370.3612
 190  355.4203
 191  508.9605
 192  636.2828
 193  537.1509
 194  434.7881
 195  462.9888
 196  539.0333
 197  534.4934
 198  503.0216
 199  459.8553
 200  464.7367
 201  408.0901
 202  361.8852
 203  447.6213
 204  388.8709
 205  360.7668
 206  272.2024
 207  361.0714
 208  351.1093
 209  333.9212
 210  478.6985
 211  481.3288
 212  344.8862
 213  337.0363
 214  437.0084
 215  489.0574
 216  417.9879
 217  327.8432
 218  330.707
 219  311.1573
 220  377.4015
 221  311.6461
 222  253.1335
 223  224.1426
 224  274.6234
 225  416.5361
 226  440.0817
 227  459.7043
 228  420.0623
 229  415.9748
 230  548.7678
 231  586.3632
 232  618.0598
 233  609.1731
 234  566.617
 235  453.0789
 236  538.9908
 237  434.4199
 238  418.4102
 239  565.8278
 240  516.4103
 241  466.7396
 242  414.7679
 243  479.5322
 244  418.6055
 245  421.7632
 246  613.1123
 247  597.0323
 248  601.1676
 249  637.3575
 250  543.9894
 251  434.4597
 252  374.8225
 253  403.5094
 254  418.7792
 255  329.5534
 256  408.4834
 257  341.4753
 258  413.2057
 259  440.134
 260  416.4747
 261  355.3822
 262  388.6139
 263  370.9535
 264  363.8635
 265  472.4962
 266  558.9282
 267  525.8138
 268  492.5819
 269  461.2859
 270  410.0151
 271  468.0671
 272  582.6122
 273  578.8164
 274  510.8097
 275  469.9425
 276  482.1278
 277  452.8875
 278  454.7178
 279  481.5169
 280  348.682
 281  334.5516
 282  379.1521
 283  461.8357
 284  474.4805
 285  445.1283
 286  403.498
 287  410.437
 288  459.6482
 289  436.844
 290  374.0489
 291  430.5811
 292  300.2274
 293  368.3313
 294  430.8386
 295  307.6537
 296  257.9753
 297  348.4939
 298  325.1167
 299  364.6
 300  439.2159
 301  404.2217
 302  444.7088
 303  556.1149
 304  496.0714
 305  514.03
 306  485.9308
 307  455.1054
 308  458.0832
 309  472.1178
 310  500.6664
 311  409.9296
 312  433.7188
 313  430.0157
 314  453.6325
 315  438.7165
 316  396.8316
 317  409.7526
 318  385.4626
 319  407.9256
 320  416.9027
 321  504.429
 322  477.0167
 323  460.2836
 324  474.2481
 325  481.5101
 326  490.2846
 327  550.2092
 328  464.4792
 329  388.081
 330  413.1985
 331  427.6956
 332  488.4178
 333  286.1027
 334  436.7552
 335  494.0036
 336  450.9149
 337  435.0574
 338  415.0948
 339  347.104
 340  387.7809
 341  421.033
 342  500.1129
 343  426.8643
 344  487.4237
 345  422.122
 346  505.9653
 347  458.6039
 348  462.1269
 349  495.9216
 350  415.4029
 351  454.1268
 352  491.1041
 353  430.0019
 354  411.5032
 355  394.6442
 356  539.6277
 357  521.0104
 358  425.9787
 359  477.7348
 360  501.7703
 361  502.0132
 362  427.1732
 363  551.4874
 364  446.4777
 365  468.296
 366  527.8938
 367  468.7696
 368  516.2407
 369  428.7849
 370  428.6496
 371  428.0916
 372  418.1604
 373  437.6164
 374  485.1603
 375  463.4706
 376  393.1992
 377  402.6238
 378  493.6268
 379  469.3636
 380  560.3094
 381  578.0233
 382  551.2535
 383  523.0756
 384  458.3509
 385  489.4662
 386  383.8001
 387  375.1332
 388  507.312
 389  539.3477
 390  447.4125
 391  532.9394
 392  558.72
 393  457.4418
 394  380.3137
 395  439.4152
 396  414.4457
 397  436.5822
 398  499.0801
 399  598.377
 400  507.8734
 401  525.4045
 402  554.7938
 403  504.7176
 404  514.8751
 405  450.1786
 406  467.1209
 407  467.4049
 408  463.7181
 409  421.4616
 410  420.8572
 411  407.7681
 412  289.4258
 413  318.1917
 414  446.6696
 415  503.4109
 416  530.5975
 417  505.2618
 418  445.6445
 419  457.0931
 420  416.6404
 421  430.9124
 422  391.513
 423  362.8521
 424  375.9433
 425  414.3085
 426  295.8208
 427  211.452
 428  242.869
 429  343.5603
 430  203.1394
 431  201.0764
 432  341.4944
 433  427.4366
 434  396.8491
 435  363.2489
 436  355.3339
 437  339.7334
 438  424.456
 439  357.8983
 440  436.9608
 441  431.1699
 442  383.1197
 443  515.6483
 444  542.6577
 445  459.7792
 446  330.1071
 447  231.4207
 448  289.2969
 449  363.9903
 450  339.7979
 451  268.285
 452  427.0358
 453  406.9986
 454  426.3683
 455  558.8528
 456  599.2549
 457  495.1741
 458  428.1929
 459  539.0355
 460  494.5835
 461  463.3112
 462  331.7322
 463  397.8095
 464  458.1426
 465  394.978
 466  411.6652
 467  346.858
 468  390.6923
 469  423.6479
 470  348.5109
 471  459.6433
 472  510.7021
 473  593.7112
 474  631.0568
 475  571.5984
 476  502.5024
 477  492.0599
 478  502.522
 479  475.5803
 480  385.6756
 481  374.0408
 482  358.0075
 483  440.6292
 484  413.4405
 485  374.151
 486  419.2607
 487  465.4826
 488  435.7244
 489  409.9636
 490  414.2959
 491  440.7115
 492  566.8351
 493  509.5156
 494  369.0007
 495  391.6514
 496  383.675
 497  358.5399
 498  287.6002
 499  463.3354
 500  574.7355
 501  499.8546
 502  408.7737
 503  341.8973
 504  495.9044
 505  525.824
 506  413.6187
 507  508.9693
 508  557.9885
 509  587.4218
 510  708.5503
 511  755.1163
