# Input file       =  1196865738.117129_cleaned.dat
# Candidate        =  PSR_0332+5434
# Telescope        =  AR
# Epoch_topo       =  58096.612501355659
# Epoch_bary       =  N/A
# T_sample         =  0.002
# Data Folded      =  7143424
# Data Avg         =  0.0498928123322494
# Data StdDev      =  1.00024947073633 
# Profile Bins     =  512
# Profile Avg      =  696.144186484234 
# Profile StdDev   =  118.148051612112 
# Reduced chi-sqr  =  0.865
# Prob(Noise)      <  0.987   (~0.0 sigma)
# P_topo (ms)      =  714.534492348195  +/- 0.000104
# P'_topo (s/s)    =  -0                +/- 5.61e-11
# P''_topo (s/s^2) =  0                 +/- 2.55e-14
# P_bary (ms)      =  N/A
# P'_bary (s/s)    =  N/A
# P''_bary (s/s^2) =  N/A
# P_orb (s)        =  N/A
# asin(i)/c (s)    =  N/A
# eccentricity     =  N/A
# w (rad)          =  N/A
# T_peri           =  N/A
######################################################
   0  985.3745
   1  995.2068
   2  865.6022
   3  675.8611
   4  586.9096
   5  636.9927
   6  706.2802
   7  668.3535
   8  636.7234
   9  645.4193
  10  652.7357
  11  813.7374
  12  730.0638
  13  758.9486
  14  736.6482
  15  714.3788
  16  633.8747
  17  624.514
  18  643.0233
  19  614.6699
  20  606.0809
  21  660.0942
  22  688.8062
  23  734.509
  24  692.8287
  25  655.4349
  26  715.7855
  27  660.653
  28  623.1556
  29  658.3945
  30  739.6702
  31  686.412
  32  615.4694
  33  686.077
  34  796.8782
  35  753.1582
  36  663.478
  37  763.8622
  38  818.6192
  39  725.4846
  40  708.5694
  41  692.5679
  42  722.6699
  43  716.0928
  44  663.7464
  45  697.655
  46  716.1613
  47  702.9634
  48  775.017
  49  668.4759
  50  625.247
  51  638.9385
  52  690.9399
  53  802.9477
  54  648.6884
  55  538.813
  56  627.5338
  57  650.4383
  58  569.168
  59  569.5558
  60  639.7718
  61  594.6567
  62  712.4221
  63  762.3097
  64  845.5853
  65  770.983
  66  632.1671
  67  573.7799
  68  648.9797
  69  681.7073
  70  695.5003
  71  818.5101
  72  695.9557
  73  670.749
  74  629.5679
  75  727.0776
  76  624.4773
  77  598.4406
  78  761.6622
  79  756.3561
  80  762.5867
  81  627.5196
  82  664.6533
  83  813.369
  84  801.7697
  85  735.129
  86  776.8273
  87  786.4319
  88  641.3845
  89  632.6146
  90  662.444
  91  767.1188
  92  595.9639
  93  523.0419
  94  604.3773
  95  723.5688
  96  648.0852
  97  639.685
  98  708.6009
  99  684.9273
 100  567.3819
 101  681.4175
 102  735.1695
 103  609.7633
 104  519.905
 105  643.656
 106  700.1727
 107  712.1906
 108  631.6311
 109  640.3059
 110  686.598
 111  677.299
 112  751.3729
 113  836.7786
 114  764.5953
 115  677.6979
 116  620.4575
 117  728.4048
 118  732.8648
 119  702.1016
 120  706.2136
 121  627.3586
 122  711.0608
 123  773.5718
 124  713.5824
 125  663.8452
 126  600.5705
 127  575.4932
 128  614.6183
 129  659.2312
 130  703.3784
 131  710.1926
 132  738.8139
 133  691.7659
 134  634.4533
 135  671.1776
 136  684.4911
 137  663.8527
 138  771.3295
 139  714.8808
 140  611.0948
 141  684.1024
 142  635.7168
 143  756.8127
 144  807.744
 145  724.4791
 146  652.8016
 147  692.6475
 148  743.9287
 149  754.4179
 150  659.7136
 151  628.8217
 152  635.8733
 153  555.4214
 154  666.5312
 155  747.8133
 156  700.2581
 157  670.238
 158  746.0664
 159  692.955
 160  694.4619
 161  780.9775
 162  740.102
 163  641.7231
 164  607.292
 165  646.9313
 166  647.1362
 167  586.8857
 168  691.2543
 169  702.4935
 170  829.1826
 171  784.3109
 172  656.2974
 173  674.1776
 174  659.3033
 175  641.0068
 176  707.327
 177  899.6138
 178  980.6197
 179  884.3101
 180  766.3702
 181  602.4543
 182  623.2546
 183  601.8239
 184  613.7794
 185  657.1933
 186  700.5862
 187  788.8258
 188  720.1882
 189  640.8459
 190  705.8322
 191  671.3282
 192  739.6127
 193  815.77
 194  881.0682
 195  754.0717
 196  676.0881
 197  701.4064
 198  662.4272
 199  625.6305
 200  572.438
 201  594.7569
 202  652.4877
 203  681.0595
 204  707.2827
 205  722.6074
 206  749.9706
 207  654.849
 208  528.7664
 209  628.3492
 210  698.5979
 211  820.835
 212  731.1995
 213  670.8152
 214  668.1891
 215  756.0864
 216  703.0804
 217  710.421
 218  721.2066
 219  744.8732
 220  772.8329
 221  774.3534
 222  802.2909
 223  726.806
 224  729.5341
 225  590.7752
 226  609.0568
 227  646.7224
 228  761.6347
 229  734.3141
 230  692.0582
 231  691.5118
 232  481.8715
 233  611.2186
 234  723.6032
 235  654.7476
 236  715.8322
 237  904.6946
 238  901.7175
 239  734.7068
 240  650.5184
 241  680.0682
 242  665.2609
 243  639.6973
 244  732.0322
 245  758.6102
 246  644.8823
 247  589.1898
 248  597.954
 249  748.6997
 250  711.8152
 251  693.8671
 252  783.7632
 253  747.6829
 254  836.0077
 255  720.0585
 256  790.9654
 257  823.5382
 258  684.3289
 259  657.4011
 260  651.9125
 261  702.6033
 262  652.8502
 263  541.4152
 264  666.9086
 265  608.6409
 266  621.605
 267  648.3083
 268  671.6479
 269  700.6744
 270  752.7543
 271  732.4145
 272  679.8766
 273  627.4331
 274  717.8812
 275  575.7419
 276  548.1163
 277  629.7505
 278  705.8043
 279  647.8723
 280  599.3964
 281  663.7277
 282  705.6277
 283  766.0684
 284  672.0751
 285  699.6132
 286  721.0991
 287  715.1144
 288  668.5092
 289  689.733
 290  667.9604
 291  630.7437
 292  635.202
 293  662.9952
 294  746.2761
 295  751.4695
 296  632.0096
 297  578.8814
 298  708.1285
 299  755.0165
 300  737.4729
 301  791.8767
 302  806.3026
 303  766.4561
 304  665.048
 305  569.0991
 306  637.9457
 307  565.087
 308  562.9808
 309  591.1901
 310  633.679
 311  738.2444
 312  702.9615
 313  771.5604
 314  739.7247
 315  645.0939
 316  627.3448
 317  646.3893
 318  802.4469
 319  856.9346
 320  776.7611
 321  745.2426
 322  696.4515
 323  609.5961
 324  666.7883
 325  637.4279
 326  489.4018
 327  539.0665
 328  671.6785
 329  703.3453
 330  683.1216
 331  819.6327
 332  756.7939
 333  779.8
 334  694.6514
 335  739.2571
 336  686.4449
 337  698.038
 338  827.0247
 339  712.0142
 340  690.9349
 341  630.8213
 342  633.1232
 343  731.0914
 344  685.8767
 345  615.5845
 346  626.1441
 347  592.2817
 348  653.1254
 349  682.7338
 350  812.5205
 351  807.6599
 352  815.1268
 353  741.7295
 354  636.6407
 355  593.716
 356  701.6257
 357  747.756
 358  666.8548
 359  695.1491
 360  680.9552
 361  742.7488
 362  725.9439
 363  752.0848
 364  675.1392
 365  600.3982
 366  736.3527
 367  767.1489
 368  818.9794
 369  866.7211
 370  726.3453
 371  562.4933
 372  635.0516
 373  635.77
 374  648.4053
 375  778.1903
 376  716.8576
 377  619.4986
 378  618.53
 379  715.0049
 380  750.4485
 381  653.6796
 382  724.8636
 383  764.3222
 384  786.502
 385  841.7233
 386  793.0213
 387  711.6297
 388  633.3369
 389  621.7162
 390  630.7663
 391  628.861
 392  629.0095
 393  706.2604
 394  669.5989
 395  732.0441
 396  680.8066
 397  525.1381
 398  610.4442
 399  725.1133
 400  796.2045
 401  691.4568
 402  769.9642
 403  822.46
 404  703.1865
 405  690.0563
 406  647.1608
 407  631.0637
 408  687.2709
 409  656.6982
 410  859.9641
 411  774.0693
 412  758.2034
 413  756.02
 414  795.1407
 415  848.1346
 416  720.3811
 417  629.2799
 418  691.5931
 419  778.4395
 420  753.3937
 421  527.2601
 422  614.9017
 423  563.7484
 424  648.0214
 425  688.7855
 426  777.2897
 427  736.0996
 428  720.1541
 429  625.2298
 430  671.5905
 431  794.7703
 432  749.5034
 433  793.6354
 434  654.9601
 435  648.3367
 436  673.5768
 437  717.0742
 438  547.6697
 439  712.9994
 440  618.1567
 441  460.4155
 442  653.5931
 443  723.3384
 444  589.1498
 445  635.6346
 446  653.7811
 447  719.0414
 448  668.0084
 449  732.7783
 450  780.7773
 451  757.6738
 452  617.5672
 453  618.6151
 454  559.8739
 455  647.5439
 456  712.6387
 457  644.2885
 458  717.2849
 459  790.3825
 460  704.4845
 461  685.9919
 462  557.0217
 463  535.7579
 464  668.9058
 465  716.8416
 466  738.9855
 467  800.7888
 468  707.9512
 469  703.9979
 470  615.0058
 471  614.2803
 472  659.9261
 473  665.8171
 474  681.5147
 475  787.5716
 476  857.2915
 477  731.9003
 478  612.7126
 479  712.5536
 480  752.4449
 481  700.9818
 482  622.0512
 483  653.3077
 484  646.6426
 485  638.3505
 486  668.2624
 487  773.7015
 488  833.3413
 489  741.7029
 490  724.0749
 491  714.129
 492  686.9388
 493  695.636
 494  766.3688
 495  803.8923
 496  874.5223
 497  768.9725
 498  728.6253
 499  681.9308
 500  667.4349
 501  699.1232
 502  710.226
 503  700.2707
 504  689.826
 505  750.5383
 506  715.5122
 507  738.6595
 508  882.9195
 509  983.2125
 510  1026.77
 511  960.5661
