# Input file       =  1196120284.110461_cleaned.dat
# Candidate        =  PSR_0332+5434
# Telescope        =  AR
# Epoch_topo       =  58087.984561463672
# Epoch_bary       =  N/A
# T_sample         =  0.002
# Data Folded      =  7340032
# Data Avg         =  0.0441271408173977
# Data StdDev      =  1.00009408947026 
# Profile Bins     =  512
# Profile Avg      =  632.631999892763 
# Profile StdDev   =  119.744301994732 
# Reduced chi-sqr  =  0.748
# Prob(Noise)      <  1   (~0.0 sigma)
# P_topo (ms)      =  714.52601044015   +/- 0.000403
# P'_topo (s/s)    =  -0                +/- 2.13e-10
# P''_topo (s/s^2) =  0                 +/- 9.39e-14
# P_bary (ms)      =  N/A
# P'_bary (s/s)    =  N/A
# P''_bary (s/s^2) =  N/A
# P_orb (s)        =  N/A
# asin(i)/c (s)    =  N/A
# eccentricity     =  N/A
# w (rad)          =  N/A
# T_peri           =  N/A
######################################################
   0  963.5128
   1  896.4554
   2  812.1693
   3  631.1312
   4  539.0286
   5  572.9408
   6  630.739
   7  589.7651
   8  635.5953
   9  622.6537
  10  588.8388
  11  566.2974
  12  602.9265
  13  531.1988
  14  579.3998
  15  706.7421
  16  564.7393
  17  533.5202
  18  590.2039
  19  582.6324
  20  619.4717
  21  734.4562
  22  749.3204
  23  759.8058
  24  734.6797
  25  571.8232
  26  566.0352
  27  747.5778
  28  721.2421
  29  582.3409
  30  583.0031
  31  638.9734
  32  631.4746
  33  633.5859
  34  678.7774
  35  652.8373
  36  625.2645
  37  615.3726
  38  658.2399
  39  731.437
  40  716.6346
  41  712.4143
  42  612.6945
  43  493.8554
  44  564.4072
  45  567.3273
  46  576.4054
  47  567.933
  48  597.4581
  49  689.5303
  50  646.6027
  51  565.715
  52  576.2831
  53  606.2452
  54  647.173
  55  617.2307
  56  642.2983
  57  519.7269
  58  495.1294
  59  567.324
  60  689.4188
  61  527.5836
  62  541.0864
  63  601.8706
  64  614.5944
  65  650.8749
  66  644.1891
  67  687.6639
  68  750.478
  69  702.7212
  70  694.3907
  71  692.6378
  72  615.6661
  73  667.6686
  74  667.8139
  75  682.446
  76  663.6002
  77  725.854
  78  709.5886
  79  595.7419
  80  682.4922
  81  624.2028
  82  576.6448
  83  590.2538
  84  677.2128
  85  700.0946
  86  642.1041
  87  594.4321
  88  576.4837
  89  627.0732
  90  650.9674
  91  635.9972
  92  611.4214
  93  556.9987
  94  607.3953
  95  615.3024
  96  648.5095
  97  652.9417
  98  636.1577
  99  589.4827
 100  528.8571
 101  584.0296
 102  606.3593
 103  588.4521
 104  528.7703
 105  630.5382
 106  588.7544
 107  547.7407
 108  690.651
 109  683.2062
 110  639.8347
 111  558.5972
 112  583.9857
 113  597.2678
 114  563.8767
 115  612.7444
 116  758.698
 117  738.8506
 118  596.8817
 119  507.1133
 120  466.0732
 121  533.4791
 122  509.2886
 123  578.072
 124  651.05
 125  605.4665
 126  638.3882
 127  552.3469
 128  582.4656
 129  517.8131
 130  559.9812
 131  544.4335
 132  623.3699
 133  586.5197
 134  516.3824
 135  481.0042
 136  518.7754
 137  661.3301
 138  734.4601
 139  684.4491
 140  730.5817
 141  630.6077
 142  536.8783
 143  581.2989
 144  547.546
 145  617.4689
 146  560.1119
 147  551.7172
 148  573.6422
 149  694.8802
 150  635.0975
 151  532.7162
 152  587.4016
 153  703.842
 154  590.7205
 155  542.0186
 156  625.0654
 157  620.9736
 158  708.9849
 159  669.3419
 160  607.9152
 161  614.1544
 162  632.1721
 163  608.212
 164  661.1279
 165  697.1808
 166  707.6596
 167  683.4271
 168  603.3235
 169  671.36
 170  654.0135
 171  591.645
 172  612.9904
 173  796.1838
 174  861.0198
 175  786.5494
 176  667.7543
 177  630.1824
 178  638.4023
 179  631.3612
 180  686.8525
 181  665.8803
 182  632.4944
 183  611.058
 184  585.3954
 185  546.7408
 186  515.3555
 187  336.9876
 188  463.0698
 189  583.3903
 190  526.164
 191  464.1478
 192  624.3396
 193  675.3267
 194  621.7774
 195  561.3999
 196  507.9584
 197  723.9022
 198  580.6054
 199  555.7626
 200  584.3187
 201  579.3538
 202  658.6358
 203  647.3854
 204  682.6942
 205  627.5747
 206  611.8918
 207  590.2089
 208  707.966
 209  632.6777
 210  698.2187
 211  555.2747
 212  567.3364
 213  622.3654
 214  527.6867
 215  590.5907
 216  658.768
 217  702.9031
 218  619.5278
 219  520.5892
 220  534.1582
 221  542.2379
 222  575.7762
 223  545.2041
 224  621.8616
 225  611.317
 226  645.1816
 227  642.9536
 228  574.3246
 229  483.1905
 230  479.6091
 231  607.5979
 232  630.3167
 233  681.3419
 234  730.5682
 235  675.1108
 236  611.5917
 237  588.5365
 238  621.3767
 239  662.8028
 240  656.4535
 241  677.5603
 242  785.3546
 243  673.9476
 244  577.2205
 245  631.4492
 246  635.5458
 247  528.7444
 248  629.797
 249  689.2601
 250  680.4764
 251  675.7793
 252  644.5706
 253  645.2003
 254  729.5741
 255  734.6989
 256  715.6774
 257  666.468
 258  658.0267
 259  733.8823
 260  692.8119
 261  647.952
 262  630.7538
 263  763.3026
 264  650.4772
 265  573.2194
 266  575.2272
 267  620.4224
 268  688.4315
 269  679.3115
 270  683.2241
 271  685.7836
 272  615.2576
 273  612.7397
 274  623.3667
 275  636.5452
 276  744.7774
 277  752.5945
 278  614.1624
 279  540.9918
 280  677.0506
 281  709.6107
 282  682.8167
 283  735.0533
 284  678.5081
 285  604.3218
 286  573.473
 287  534.7629
 288  519.3721
 289  672.2233
 290  622.9044
 291  557.4676
 292  587.1594
 293  673.8855
 294  696.1558
 295  615.2749
 296  589.7236
 297  665.7523
 298  653.0237
 299  527.0168
 300  589.5068
 301  664.3581
 302  698.816
 303  647.6343
 304  586.9718
 305  550.8607
 306  608.306
 307  687.6495
 308  622.0079
 309  512.0626
 310  581.3557
 311  636.081
 312  738.1552
 313  756.912
 314  639.5298
 315  632.0914
 316  739.6027
 317  787.5811
 318  674.1234
 319  657.1402
 320  691.6385
 321  663.2343
 322  670.0201
 323  581.6771
 324  506.5806
 325  453.1633
 326  651.4553
 327  649.3763
 328  631.0355
 329  680.7936
 330  663.5197
 331  729.2001
 332  751.0701
 333  652.0797
 334  660.4342
 335  684.4441
 336  649.0286
 337  538.1372
 338  573.3006
 339  690.4391
 340  711.0566
 341  685.3369
 342  669.354
 343  583.187
 344  496.9305
 345  580.039
 346  733.9952
 347  623.6551
 348  598.4327
 349  715.9753
 350  708.0388
 351  608.8536
 352  603.5687
 353  694.2766
 354  715.0247
 355  673.9221
 356  685.585
 357  693.4224
 358  542.437
 359  479.6696
 360  493.8869
 361  490.0609
 362  519.2986
 363  664.3029
 364  672.7164
 365  621.1285
 366  596.6732
 367  625.8715
 368  610.3323
 369  547.2669
 370  549.2328
 371  598.9813
 372  622.5339
 373  625.6224
 374  655.5156
 375  592.6426
 376  637.9842
 377  687.2244
 378  666.5955
 379  573.5797
 380  549.3929
 381  595.0298
 382  536.8378
 383  531.0613
 384  612.3251
 385  660.1916
 386  712.9201
 387  690.6288
 388  703.4587
 389  719.7681
 390  562.6096
 391  479.7144
 392  644.2129
 393  641.3213
 394  569.0801
 395  670.1498
 396  769.783
 397  667.7877
 398  607.3902
 399  703.7032
 400  737.894
 401  799.3365
 402  680.2005
 403  627.9745
 404  699.818
 405  627.2183
 406  507.9229
 407  619.1858
 408  678.6265
 409  602.7636
 410  517.0967
 411  574.7844
 412  669.0904
 413  691.0972
 414  630.322
 415  587.1756
 416  509.9435
 417  620.7897
 418  636.6893
 419  583.5654
 420  539.0521
 421  694.2723
 422  758.827
 423  611.2382
 424  703.7499
 425  819.1317
 426  773.8916
 427  642.5786
 428  629.5622
 429  665.8298
 430  604.734
 431  646.553
 432  610.3694
 433  654.3615
 434  709.1342
 435  670.6305
 436  707.2454
 437  633.4403
 438  623.6404
 439  637.5325
 440  670.8439
 441  641.9453
 442  557.4785
 443  613.3234
 444  537.9765
 445  612.9721
 446  703.0615
 447  579.9055
 448  654.8554
 449  668.5521
 450  740.3539
 451  683.971
 452  677.8448
 453  679.0377
 454  634.4813
 455  571.1379
 456  634.8657
 457  793.0541
 458  712.5146
 459  574.8349
 460  617.5403
 461  669.2162
 462  636.6095
 463  607.3867
 464  572.3757
 465  594.7568
 466  646.4037
 467  618.1825
 468  588.7271
 469  628.7155
 470  601.808
 471  603.908
 472  735.1902
 473  573.4206
 474  575.4506
 475  620.1472
 476  701.632
 477  570.1368
 478  616.0003
 479  667.8256
 480  665.6664
 481  628.1725
 482  561.9124
 483  542.8425
 484  683.1494
 485  699.1677
 486  659.9127
 487  502.3853
 488  592.3968
 489  641.0648
 490  739.998
 491  784.0413
 492  677.2857
 493  622.7106
 494  599.1562
 495  641.1859
 496  634.1609
 497  744.7933
 498  724.0887
 499  644.097
 500  606.5267
 501  600.4604
 502  508.1294
 503  562.8756
 504  748.9525
 505  874.9069
 506  645.8447
 507  672.3113
 508  723.8713
 509  781.0051
 510  861.5359
 511  989.5375
