# Input file       =  1196708008.118209_cleaned.dat
# Candidate        =  PSR_0332+5434
# Telescope        =  AR
# Epoch_topo       =  58094.786922664454
# Epoch_bary       =  N/A
# T_sample         =  0.002
# Data Folded      =  7340032
# Data Avg         =  0.0523864044060718
# Data StdDev      =  1.00041736669069 
# Profile Bins     =  512
# Profile Avg      =  750.761117567033 
# Profile StdDev   =  119.783008957924 
# Reduced chi-sqr  =  0.787
# Prob(Noise)      <  1   (~0.0 sigma)
# P_topo (ms)      =  714.532642335982  +/- 0.000164
# P'_topo (s/s)    =  -0                +/- 8.68e-11
# P''_topo (s/s^2) =  0                 +/- 3.83e-14
# P_bary (ms)      =  N/A
# P'_bary (s/s)    =  N/A
# P''_bary (s/s^2) =  N/A
# P_orb (s)        =  N/A
# asin(i)/c (s)    =  N/A
# eccentricity     =  N/A
# w (rad)          =  N/A
# T_peri           =  N/A
######################################################
   0  1070.778
   1  1074.702
   2  976.6906
   3  733.5632
   4  746.3947
   5  695.7009
   6  693.9803
   7  674.4745
   8  641.288
   9  691.4694
  10  751.211
  11  739.0555
  12  758.5164
  13  675.512
  14  802.7451
  15  774.2076
  16  704.0767
  17  698.4309
  18  732.7456
  19  731.2007
  20  744.7639
  21  812.8358
  22  844.6754
  23  801.7161
  24  747.7712
  25  787.4893
  26  857.1368
  27  842.4667
  28  802.6073
  29  756.9214
  30  705.1329
  31  734.8176
  32  716.0906
  33  811.6306
  34  738.9647
  35  838.1103
  36  861.792
  37  703.2604
  38  665.0721
  39  708.4309
  40  640.9848
  41  609.1211
  42  612.4503
  43  697.9395
  44  749.8311
  45  566.8854
  46  576.7772
  47  765.4296
  48  764.3061
  49  801.8269
  50  746.6136
  51  725.6359
  52  787.1726
  53  810.7747
  54  651.3595
  55  634.8368
  56  705.1696
  57  710.7062
  58  710.8694
  59  679.5554
  60  671.1104
  61  624.5844
  62  659.4716
  63  693.4662
  64  789.7248
  65  887.7398
  66  814.447
  67  702.161
  68  692.9671
  69  673.4332
  70  771.6691
  71  776.7518
  72  755.2701
  73  745.0466
  74  736.0139
  75  840.134
  76  731.2059
  77  754.0424
  78  757.5152
  79  824.7628
  80  717.4052
  81  698.8516
  82  606.1093
  83  612.4854
  84  606.0875
  85  731.1492
  86  822.2213
  87  787.7317
  88  751.4467
  89  669.6091
  90  730.0132
  91  671.0894
  92  760.0616
  93  806.2007
  94  786.6555
  95  781.0438
  96  831.5842
  97  808.1985
  98  668.9973
  99  730.6954
 100  806.4456
 101  836.064
 102  849.9202
 103  789.1853
 104  612.4335
 105  570.8507
 106  649.8647
 107  740.0834
 108  748.8392
 109  698.6738
 110  634.5112
 111  606.0153
 112  661.1761
 113  778.6239
 114  844.4671
 115  964.7671
 116  822.4081
 117  616.1525
 118  746.5317
 119  739.8187
 120  671.548
 121  688.1509
 122  730.3448
 123  772.5934
 124  690.3394
 125  716.6956
 126  768.5569
 127  757.4692
 128  746.7511
 129  775.295
 130  826.5073
 131  868.0934
 132  783.3047
 133  793.393
 134  710.0934
 135  743.405
 136  747.4317
 137  778.7457
 138  725.0683
 139  684.0524
 140  757.6099
 141  823.744
 142  790.7017
 143  823.8872
 144  743.0079
 145  753.6977
 146  677.7589
 147  638.9134
 148  691.1461
 149  738.1686
 150  832.2469
 151  856.1719
 152  788.1304
 153  839.6481
 154  811.9131
 155  706.9879
 156  709.1138
 157  741.3375
 158  755.7794
 159  751.9329
 160  754.5092
 161  753.4349
 162  748.561
 163  727.3665
 164  760.876
 165  708.1027
 166  598.6098
 167  727.5603
 168  791.0219
 169  726.109
 170  602.9011
 171  518.1077
 172  533.0884
 173  690.1713
 174  790.7969
 175  719.0181
 176  749.6299
 177  662.2687
 178  600.2062
 179  661.7737
 180  657.1401
 181  776.3551
 182  818.8935
 183  727.936
 184  755.1483
 185  775.4149
 186  761.8387
 187  608.11
 188  669.5507
 189  794.1791
 190  762.1816
 191  800.3842
 192  771.7488
 193  683.8636
 194  683.6703
 195  758.5985
 196  775.4675
 197  759.9461
 198  794.5594
 199  793.7415
 200  737.7435
 201  678.9366
 202  568.4966
 203  641.6954
 204  653.7342
 205  639.1828
 206  689.5583
 207  784.7999
 208  744.7667
 209  632.7383
 210  702.2609
 211  755.1161
 212  797.7852
 213  793.6835
 214  882.8242
 215  789.1159
 216  671.5349
 217  839.9811
 218  882.0607
 219  778.6444
 220  720.8008
 221  841.402
 222  863.5941
 223  731.4028
 224  738.5557
 225  813.5908
 226  753.7956
 227  787.8784
 228  922.4083
 229  820.0101
 230  675.8687
 231  677.1953
 232  766.2594
 233  745.465
 234  846.2892
 235  739.8799
 236  668.4667
 237  713.2637
 238  737.7637
 239  799.0772
 240  772.4285
 241  777.7231
 242  840.1155
 243  837.3679
 244  839.8793
 245  805.5112
 246  758.4513
 247  787.9895
 248  666.5986
 249  800.7498
 250  849.6064
 251  813.4607
 252  831.8268
 253  781.2748
 254  696.4806
 255  757.9753
 256  710.2352
 257  685.1287
 258  804.4575
 259  799.1891
 260  653.0149
 261  653.3627
 262  813.6654
 263  789.3805
 264  747.2739
 265  829.436
 266  711.3725
 267  698.4436
 268  788.9915
 269  779.4252
 270  734.876
 271  832.4059
 272  808.0382
 273  719.3449
 274  748.5195
 275  852.5822
 276  796.9882
 277  772.3076
 278  632.8504
 279  741.5695
 280  790.7544
 281  753.2543
 282  811.8286
 283  757.0373
 284  853.7278
 285  910.4446
 286  777.2314
 287  661.1196
 288  659.2847
 289  712.6906
 290  717.2733
 291  635.7762
 292  627.5693
 293  809.8091
 294  771.6644
 295  714.1505
 296  721.5815
 297  729.0577
 298  658.4388
 299  664.2104
 300  814.675
 301  788.8728
 302  705.6567
 303  766.8975
 304  739.4526
 305  797.1917
 306  693.4333
 307  718.5302
 308  702.983
 309  683.715
 310  633.2201
 311  725.6635
 312  852.8074
 313  780.2616
 314  830.3329
 315  927.7281
 316  829.7877
 317  749.7778
 318  889.6916
 319  833.1437
 320  771.5607
 321  652.7723
 322  759.7206
 323  775.1475
 324  792.661
 325  879.088
 326  896.6328
 327  881.5385
 328  820.8602
 329  906.4915
 330  816.9727
 331  679.4471
 332  685.7068
 333  743.5104
 334  706.1985
 335  748.728
 336  769.9958
 337  748.2562
 338  691.9288
 339  683.7095
 340  754.5982
 341  849.7606
 342  745.4092
 343  648.379
 344  587.3178
 345  686.2759
 346  763.4651
 347  704.6861
 348  753.8924
 349  673.8754
 350  690.0301
 351  728.7288
 352  766.536
 353  712.7845
 354  645.7813
 355  803.1799
 356  723.8942
 357  634.0844
 358  719.3536
 359  793.2825
 360  699.7872
 361  797.2463
 362  799.0455
 363  738.2128
 364  837.9915
 365  892.7264
 366  827.4527
 367  812.6207
 368  908.3396
 369  911.0443
 370  765.2814
 371  762.6528
 372  813.0038
 373  723.9749
 374  621.1058
 375  711.577
 376  729.222
 377  753.623
 378  754.1173
 379  773.6241
 380  797.0967
 381  740.9254
 382  817.168
 383  857.1137
 384  709.5409
 385  767.355
 386  809.0276
 387  872.4429
 388  755.4557
 389  755.1521
 390  729.5443
 391  754.1509
 392  733.8453
 393  750.0045
 394  752.0084
 395  715.8999
 396  734.1208
 397  860.377
 398  838.8732
 399  702.9327
 400  707.213
 401  812.8186
 402  687.0602
 403  720.4786
 404  805.2747
 405  790.6629
 406  718.9353
 407  702.9388
 408  671.7895
 409  678.9959
 410  680.2916
 411  710.8146
 412  737.4
 413  863.1855
 414  854.4381
 415  761.0436
 416  680.5244
 417  692.9968
 418  759.4305
 419  769.0496
 420  785.4642
 421  871.9299
 422  816.7698
 423  809.4733
 424  836.7457
 425  798.3914
 426  771.5516
 427  833.095
 428  767.3691
 429  754.1893
 430  774.1948
 431  708.9366
 432  685.9517
 433  708.4083
 434  758.9952
 435  814.9908
 436  832.261
 437  840.1516
 438  795.0706
 439  844.1714
 440  779.0808
 441  706.3465
 442  682.781
 443  693.7697
 444  749.7081
 445  735.1774
 446  791.8469
 447  851.7263
 448  844.6304
 449  837.0617
 450  771.4082
 451  738.3552
 452  740.5278
 453  696.799
 454  731.2068
 455  823.7051
 456  874.3915
 457  806.5288
 458  823.8192
 459  777.2177
 460  740.3755
 461  745.8748
 462  868.3774
 463  826.7053
 464  744.7384
 465  697.3912
 466  780.7573
 467  748.6862
 468  715.0904
 469  771.3267
 470  627.0365
 471  664.335
 472  638.8273
 473  589.5208
 474  637.7056
 475  716.7413
 476  626.7884
 477  560.818
 478  621.3896
 479  697.1317
 480  652.8564
 481  650.037
 482  708.6934
 483  713.491
 484  717.7393
 485  611.8819
 486  684.0594
 487  750.5637
 488  681.3786
 489  646.3523
 490  727.353
 491  712.7638
 492  752.637
 493  812.2
 494  820.2541
 495  743.4633
 496  658.2966
 497  676.7888
 498  789.0434
 499  767.6479
 500  729.1507
 501  792.5745
 502  805.6863
 503  821.7892
 504  785.6264
 505  740.9345
 506  842.4972
 507  871.2748
 508  839.6554
 509  917.6938
 510  989.4294
 511  1100.903
