# Input file       =  1196191533.12459_cleaned.dat
# Candidate        =  PSR_0332+5434
# Telescope        =  AR
# Epoch_topo       =  58088.809202830904
# Epoch_bary       =  N/A
# T_sample         =  0.002
# Data Folded      =  7340032
# Data Avg         =  0.0567486284135044
# Data StdDev      =  0.999950499521671
# Profile Bins     =  512
# Profile Avg      =  813.659427281439 
# Profile StdDev   =  119.727109534194 
# Reduced chi-sqr  =  0.772
# Prob(Noise)      <  1   (~0.0 sigma)
# P_topo (ms)      =  714.526521244297  +/- 7.53e-05
# P'_topo (s/s)    =  -0                +/- 3.97e-11
# P''_topo (s/s^2) =  0                 +/- 1.75e-14
# P_bary (ms)      =  N/A
# P'_bary (s/s)    =  N/A
# P''_bary (s/s^2) =  N/A
# P_orb (s)        =  N/A
# asin(i)/c (s)    =  N/A
# eccentricity     =  N/A
# w (rad)          =  N/A
# T_peri           =  N/A
######################################################
   0  1011.104
   1  1014.582
   2  1001.491
   3  919.1371
   4  922.1959
   5  881.0831
   6  826.8259
   7  867.9948
   8  874.5386
   9  733.8885
  10  722.4951
  11  823.9294
  12  842.1879
  13  860.9852
  14  842.1439
  15  751.2167
  16  806.3759
  17  842.4823
  18  799.5931
  19  804.2607
  20  880.0487
  21  949.3135
  22  834.1599
  23  815.4557
  24  859.5638
  25  886.7734
  26  878.1253
  27  918.0296
  28  863.3777
  29  890.729
  30  1046.258
  31  1004.135
  32  952.4257
  33  855.0944
  34  779.3664
  35  921.3986
  36  923.4055
  37  885.4463
  38  748.085
  39  784.2239
  40  832.8865
  41  844.9429
  42  830.0373
  43  794.6799
  44  769.8848
  45  795.6262
  46  833.3241
  47  911.004
  48  861.6869
  49  941.8991
  50  842.1104
  51  787.9402
  52  816.5552
  53  809.9535
  54  846.1693
  55  950.3873
  56  873.3032
  57  728.6253
  58  712.8536
  59  781.916
  60  801.2196
  61  780.6364
  62  749.5828
  63  794.1824
  64  869.9583
  65  807.2167
  66  669.434
  67  702.6673
  68  723.2756
  69  725.1271
  70  734.2703
  71  654.3315
  72  677.604
  73  719.0093
  74  758.8596
  75  683.3641
  76  760.9656
  77  771.9988
  78  794.0544
  79  758.6492
  80  678.4535
  81  809.3959
  82  730.6236
  83  746.4363
  84  888.4754
  85  922.1843
  86  870.5801
  87  882.7474
  88  862.94
  89  816.467
  90  780.8254
  91  846.6407
  92  839.8249
  93  835.3121
  94  777.6001
  95  777.1727
  96  857.9524
  97  746.064
  98  793.2356
  99  874.5964
 100  787.2679
 101  744.3245
 102  825.8187
 103  919.2862
 104  872.9844
 105  889.2267
 106  936.5515
 107  876.4832
 108  905.3313
 109  896.3207
 110  778.8495
 111  836.6146
 112  888.6385
 113  935.7066
 114  893.6978
 115  877.4409
 116  845.6885
 117  811.485
 118  837.5847
 119  933.8687
 120  892.7318
 121  773.8129
 122  846.9346
 123  758.5576
 124  800.347
 125  729.6392
 126  722.1719
 127  793.8131
 128  822.8902
 129  833.2232
 130  692.511
 131  722.2318
 132  808.0478
 133  730.6339
 134  687.7249
 135  787.3174
 136  813.8115
 137  829.7407
 138  728.8473
 139  745.304
 140  774.1873
 141  713.1594
 142  785.6662
 143  846.0919
 144  856.9064
 145  870.3868
 146  821.7858
 147  880.6776
 148  876.2182
 149  879.9202
 150  965.6638
 151  958.5938
 152  785.6633
 153  769.7144
 154  770.8034
 155  810.7829
 156  783.2317
 157  785.7904
 158  730.5309
 159  766.5905
 160  855.2545
 161  763.1303
 162  776.3653
 163  794.2379
 164  972.9133
 165  880.6014
 166  809.3413
 167  832.6009
 168  833.4603
 169  869.0772
 170  882.5796
 171  813.9865
 172  834.4568
 173  953.1971
 174  871.9805
 175  711.7848
 176  743.0372
 177  854.6462
 178  914.8019
 179  908.4427
 180  858.7546
 181  795.2982
 182  726.7119
 183  784.3593
 184  870.8152
 185  794.2394
 186  774.7629
 187  836.1199
 188  817.5848
 189  776.9031
 190  736.1068
 191  833.3026
 192  909.4576
 193  766.4313
 194  748.3192
 195  768.1056
 196  909.6246
 197  985.5852
 198  961.1589
 199  1021.022
 200  939.0732
 201  838.7025
 202  752.7711
 203  759.472
 204  877.9139
 205  844.4014
 206  828.1818
 207  878.1749
 208  827.2559
 209  739.4293
 210  748.379
 211  791.4637
 212  791.9146
 213  857.4344
 214  841.9561
 215  736.7301
 216  760.0569
 217  720.9595
 218  798.9577
 219  865.0453
 220  909.5697
 221  911.4844
 222  753.4488
 223  706.3694
 224  770.2499
 225  760.4103
 226  836.121
 227  889.6498
 228  885.1086
 229  855.5467
 230  862.4753
 231  809.569
 232  872.4993
 233  828.0162
 234  958.2608
 235  886.2935
 236  957.1324
 237  861.5804
 238  775.2466
 239  805.3781
 240  766.4549
 241  741.3127
 242  804.8015
 243  762.8561
 244  758.7351
 245  862.608
 246  872.8817
 247  832.0489
 248  773.274
 249  748.0686
 250  827.5708
 251  874.1971
 252  833.2554
 253  809.4253
 254  780.4298
 255  890.4399
 256  923.7048
 257  864.9557
 258  804.6729
 259  812.2415
 260  798.1879
 261  711.4374
 262  818.8942
 263  895.6161
 264  825.9355
 265  722.8974
 266  738.8695
 267  701.8121
 268  692.8919
 269  748.0984
 270  893.5459
 271  924.9262
 272  837.3422
 273  788.848
 274  689.0057
 275  741.5042
 276  758.7659
 277  780.0446
 278  883.9211
 279  862.007
 280  801.7346
 281  743.007
 282  667.5501
 283  785.7195
 284  762.1597
 285  867.3615
 286  821.8417
 287  823.7502
 288  875.5389
 289  833.8782
 290  676.7918
 291  767.9174
 292  764.3151
 293  831.968
 294  916.4446
 295  826.5217
 296  726.9116
 297  744.3588
 298  778.3704
 299  848.4691
 300  852.4935
 301  713.1703
 302  643.2151
 303  723.002
 304  802.1851
 305  768.7587
 306  711.8901
 307  759.874
 308  813.3914
 309  821.4437
 310  779.4985
 311  681.5802
 312  780.5712
 313  793.4594
 314  779.1605
 315  786.1638
 316  704.0909
 317  727.068
 318  731.5872
 319  631.7308
 320  756.6087
 321  758.912
 322  774.7438
 323  664.9916
 324  678.4963
 325  742.094
 326  809.1457
 327  753.3118
 328  655.8109
 329  786.3146
 330  806.5723
 331  858.6522
 332  762.8578
 333  790.8892
 334  863.1983
 335  885.2258
 336  858.3494
 337  774.6309
 338  785.2101
 339  725.7079
 340  745.8684
 341  771.6786
 342  759.8318
 343  694.1619
 344  788.6759
 345  756.6848
 346  564.1302
 347  623.6465
 348  648.6075
 349  648.9528
 350  671.1396
 351  821.8003
 352  884.6712
 353  766.0444
 354  753.5623
 355  774.0153
 356  801.6582
 357  824.2265
 358  746.1725
 359  769.6158
 360  873.9876
 361  928.4636
 362  867.9476
 363  832.1844
 364  796.9709
 365  909.9514
 366  783.5338
 367  701.8073
 368  761.395
 369  836.1401
 370  804.7805
 371  839.3642
 372  835.6303
 373  762.8729
 374  784.022
 375  827.3714
 376  766.9128
 377  908.7454
 378  891.7418
 379  864.9226
 380  868.8494
 381  857.2495
 382  773.3089
 383  699.562
 384  784.9713
 385  798.3167
 386  727.0625
 387  778.2914
 388  868.5361
 389  912.8994
 390  862.2064
 391  777.3364
 392  789.3119
 393  861.9965
 394  945.4058
 395  899.8597
 396  781.097
 397  712.0448
 398  761.8076
 399  849.4888
 400  824.1084
 401  769.8808
 402  677.6465
 403  722.657
 404  837.2416
 405  789.6379
 406  792.5612
 407  870.4791
 408  886.2849
 409  830.2329
 410  853.5871
 411  788.0939
 412  758.2452
 413  804.2228
 414  830.0045
 415  807.6385
 416  912.8895
 417  890.4378
 418  814.9829
 419  779.3244
 420  779.4043
 421  727.5422
 422  784.2523
 423  822.0427
 424  772.3552
 425  721.6019
 426  719.3408
 427  777.7821
 428  806.435
 429  780.3945
 430  733.3583
 431  800.7842
 432  822.3525
 433  833.3231
 434  786.0416
 435  715.8907
 436  762.6929
 437  895.83
 438  815.4124
 439  758.0206
 440  850.2909
 441  699.327
 442  752.104
 443  806.9019
 444  742.175
 445  847.5156
 446  820.8547
 447  802.308
 448  835.9962
 449  832.9675
 450  822.7847
 451  872.642
 452  867.4601
 453  875.796
 454  776.0519
 455  748.6211
 456  840.6408
 457  927.8156
 458  918.9238
 459  880.159
 460  886.0682
 461  973.015
 462  861.862
 463  810.0419
 464  855.9576
 465  853.9922
 466  921.0432
 467  881.2168
 468  834.5439
 469  680.7818
 470  807.8516
 471  779.7022
 472  876.1454
 473  915.3106
 474  801.8421
 475  784.8538
 476  767.9053
 477  699.0335
 478  534.2662
 479  671.9948
 480  897.876
 481  892.4709
 482  798.1306
 483  707.5182
 484  691.8817
 485  817.1693
 486  812.3228
 487  755.7491
 488  913.0782
 489  960.5535
 490  928.7778
 491  785.0047
 492  771.0318
 493  818.6322
 494  834.582
 495  930.1309
 496  936.6357
 497  834.2932
 498  880.1191
 499  880.9682
 500  847.6727
 501  847.9373
 502  792.9301
 503  688.4991
 504  734.6636
 505  828.7134
 506  812.0276
 507  798.424
 508  862.4164
 509  1026.19
 510  1107.19
 511  1050.897
