# Input file       =  1196636713.121882_cleaned.dat
# Candidate        =  PSR_0332+5434
# Telescope        =  AR
# Epoch_topo       =  58093.961749095855
# Epoch_bary       =  N/A
# T_sample         =  0.002
# Data Folded      =  7340032
# Data Avg         =  0.0427093830730272
# Data StdDev      =  1.00013229689623 
# Profile Bins     =  512
# Profile Avg      =  612.119763148358 
# Profile StdDev   =  119.748876685856 
# Reduced chi-sqr  =  0.602
# Prob(Noise)      <  1   (~0.0 sigma)
# P_topo (ms)      =  714.532131450207  +/- 0.000156
# P'_topo (s/s)    =  -0                +/- 8.23e-11
# P''_topo (s/s^2) =  0                 +/- 3.63e-14
# P_bary (ms)      =  N/A
# P'_bary (s/s)    =  N/A
# P''_bary (s/s^2) =  N/A
# P_orb (s)        =  N/A
# asin(i)/c (s)    =  N/A
# eccentricity     =  N/A
# w (rad)          =  N/A
# T_peri           =  N/A
######################################################
   0  812.342
   1  827.6104
   2  824.3395
   3  767.7078
   4  677.8406
   5  673.8575
   6  695.0797
   7  707.0516
   8  645.1633
   9  627.3352
  10  664.1563
  11  701.4225
  12  779.1951
  13  684.5179
  14  689.7608
  15  684.4802
  16  705.7529
  17  632.1873
  18  577.2972
  19  665.2508
  20  698.6943
  21  620.5417
  22  535.1511
  23  557.5861
  24  598.1365
  25  581.7311
  26  598.2137
  27  603.1091
  28  691.0072
  29  637.6458
  30  558.3839
  31  520.4867
  32  554.6292
  33  592.463
  34  659.9294
  35  639.4374
  36  604.6262
  37  591.7836
  38  643.9824
  39  626.8234
  40  677.5984
  41  707.1729
  42  552.299
  43  620.816
  44  775.4333
  45  748.33
  46  700.0131
  47  694.6893
  48  736.6828
  49  707.0211
  50  662.1169
  51  606.3286
  52  669.0366
  53  693.3658
  54  687.0522
  55  624.1262
  56  626.0605
  57  626.7526
  58  572.5618
  59  661.3461
  60  679.5361
  61  616.078
  62  662.7864
  63  615.0623
  64  563.5839
  65  528.8058
  66  485.4649
  67  541.1055
  68  493.9896
  69  509.9088
  70  586.3815
  71  584.906
  72  523.3442
  73  447.3906
  74  603.8314
  75  553.3288
  76  522.4073
  77  609.6274
  78  631.8135
  79  581.2027
  80  577.5665
  81  552.3144
  82  687.4114
  83  698.7509
  84  593.462
  85  737.28
  86  705.2901
  87  738.0585
  88  645.5742
  89  559.0817
  90  547.6234
  91  548.8837
  92  720.3256
  93  699.2933
  94  640.3931
  95  647.9567
  96  666.6554
  97  637.4243
  98  536.8318
  99  504.0417
 100  514.5442
 101  495.8605
 102  494.2256
 103  555.718
 104  570.5446
 105  526.3992
 106  582.5861
 107  497.6697
 108  498.794
 109  529.9839
 110  595.6215
 111  620.299
 112  602.002
 113  592.3131
 114  505.8694
 115  596.5711
 116  634.1718
 117  670.8148
 118  653.871
 119  609.317
 120  543.5582
 121  588.4665
 122  506.3918
 123  520.137
 124  616.5748
 125  709.6088
 126  649.3929
 127  587.6435
 128  622.2486
 129  569.5407
 130  586.1558
 131  658.0974
 132  668.3345
 133  578.6984
 134  550.4758
 135  638.1698
 136  547.6169
 137  576.6316
 138  589.7538
 139  548.5742
 140  552.2794
 141  581.5024
 142  682.2497
 143  719.3279
 144  560.7239
 145  467.3707
 146  572.7479
 147  596.8162
 148  615.6366
 149  597.9106
 150  687.6204
 151  632.2766
 152  574.9297
 153  555.5178
 154  548.0775
 155  518.5499
 156  574.7452
 157  624.4077
 158  674.1843
 159  646.7166
 160  670.9025
 161  628.67
 162  588.0422
 163  598.1406
 164  526.6591
 165  535.9015
 166  576.0471
 167  667.2697
 168  642.7892
 169  605.564
 170  599.5536
 171  705.0405
 172  581.0153
 173  578.1531
 174  672.7438
 175  559.8206
 176  596.8919
 177  643.0695
 178  679.0583
 179  604.0372
 180  493.8694
 181  572.6072
 182  623.2664
 183  623.826
 184  622.8052
 185  601.2517
 186  569.0029
 187  562.7017
 188  570.3761
 189  746.8511
 190  771.4909
 191  585.0602
 192  564.5706
 193  630.212
 194  557.6804
 195  498.0348
 196  602.1369
 197  584.1423
 198  536.7849
 199  614.2477
 200  528.9323
 201  423.5037
 202  493.3835
 203  561.3608
 204  502.6475
 205  602.9856
 206  599.4522
 207  625.7416
 208  643.6431
 209  645.5688
 210  562.4655
 211  609.8687
 212  621.3344
 213  600.0562
 214  663.0286
 215  705.2443
 216  685.4058
 217  665.3882
 218  736.5931
 219  628.166
 220  598.3631
 221  643.1616
 222  590.9053
 223  595.4981
 224  633.5292
 225  719.0589
 226  753.245
 227  658.3767
 228  588.1689
 229  633.8069
 230  592.491
 231  674.5641
 232  680.072
 233  643.0746
 234  559.4593
 235  609.9075
 236  577.9842
 237  532.6111
 238  520.9241
 239  590.6141
 240  639.8654
 241  563.3847
 242  610.0767
 243  592.3883
 244  606.5607
 245  612.7523
 246  601.075
 247  637.2556
 248  661.514
 249  589.5804
 250  583.3453
 251  541.6265
 252  605.3091
 253  633.8079
 254  616.0417
 255  702.0592
 256  766.2307
 257  707.7598
 258  671.1645
 259  709.3049
 260  648.2496
 261  585.9835
 262  650.9504
 263  714.7337
 264  763.3868
 265  727.8356
 266  734.699
 267  747.7803
 268  604.5936
 269  633.562
 270  675.1393
 271  689.5455
 272  690.4919
 273  646.9431
 274  778.2839
 275  693.4402
 276  547.2735
 277  520.7014
 278  483.1916
 279  594.3453
 280  554.4453
 281  585.4761
 282  639.8045
 283  717.2975
 284  696.5703
 285  597.6363
 286  527.9047
 287  560.167
 288  583.787
 289  615.7713
 290  564.2489
 291  616.2888
 292  625.6819
 293  605.713
 294  615.4247
 295  546.6771
 296  654.4888
 297  701.5929
 298  671.4086
 299  600.7129
 300  640.1184
 301  579.9718
 302  509.4635
 303  561.7217
 304  593.3325
 305  530.3638
 306  579.8784
 307  575.0043
 308  615.9684
 309  528.5005
 310  581.7476
 311  681.5881
 312  620.5336
 313  619.4316
 314  639.576
 315  676.2556
 316  656.8123
 317  536.5659
 318  553.3338
 319  595.8508
 320  684.0143
 321  590.7487
 322  695.2045
 323  659.8329
 324  603.3094
 325  591.3568
 326  685.8342
 327  643.4841
 328  655.3425
 329  604.4706
 330  604.5984
 331  697.0018
 332  630.1331
 333  534.5982
 334  459.2432
 335  473.9966
 336  635.3715
 337  681.5953
 338  556.5557
 339  594.6335
 340  633.4744
 341  684.6364
 342  631.7581
 343  625.7969
 344  561.7391
 345  555.5684
 346  626.0897
 347  646.7249
 348  580.1022
 349  636.1825
 350  647.2137
 351  585.4226
 352  559.2983
 353  550.4803
 354  450.95
 355  532.9617
 356  645.5262
 357  617.0172
 358  616.6669
 359  628.9218
 360  536.6946
 361  563.9515
 362  665.4468
 363  728.9747
 364  670.1107
 365  621.9287
 366  586.0623
 367  524.9073
 368  614.509
 369  696.2662
 370  617.3339
 371  674.5291
 372  723.96
 373  586.7939
 374  594.9832
 375  530.2272
 376  646.5603
 377  621.255
 378  607.9453
 379  610.8941
 380  519.2477
 381  491.1512
 382  575.028
 383  551.4748
 384  509.7545
 385  516.098
 386  565.5239
 387  564.3235
 388  621.231
 389  577.9982
 390  645.2473
 391  609.62
 392  621.7909
 393  618.6763
 394  490.0854
 395  512.209
 396  612.0201
 397  615.3118
 398  547.2119
 399  591.5507
 400  583.4794
 401  626.5518
 402  581.1757
 403  662.6184
 404  649.5355
 405  587.6799
 406  589.673
 407  611.7449
 408  565.078
 409  562.0576
 410  581.1301
 411  585.9
 412  648.0724
 413  612.5574
 414  519.686
 415  659.8486
 416  604.0238
 417  462.7198
 418  584.3688
 419  636.2079
 420  697.1026
 421  673.5399
 422  530.5743
 423  619.4673
 424  630.0816
 425  540.9013
 426  576.2693
 427  549.2877
 428  567.8605
 429  641.5909
 430  641.0214
 431  748.6929
 432  751.3682
 433  561.7517
 434  628.7557
 435  623.0637
 436  580.1349
 437  635.4986
 438  635.7362
 439  688.6331
 440  604.8456
 441  670.256
 442  701.9124
 443  633.5327
 444  667.7642
 445  593.073
 446  593.4725
 447  569.3958
 448  575.6583
 449  557.9715
 450  624.4205
 451  656.2815
 452  723.2358
 453  732.0244
 454  753.3213
 455  606.8521
 456  468.9043
 457  393.4437
 458  513.3781
 459  518.1867
 460  650.6231
 461  634.5588
 462  645.8878
 463  629.8025
 464  633.3503
 465  638.8408
 466  563.2527
 467  638.2338
 468  631.8357
 469  595.454
 470  635.5704
 471  606.0216
 472  698.2963
 473  560.6232
 474  579.0574
 475  627.3218
 476  640.3803
 477  641.4441
 478  568.3524
 479  612.0258
 480  546.8506
 481  554.7337
 482  604.4438
 483  595.6888
 484  595.1152
 485  564.5031
 486  628.7242
 487  676.8038
 488  659.1247
 489  581.6398
 490  518.2345
 491  581.8828
 492  668.291
 493  569.4526
 494  595.4855
 495  551.3079
 496  506.9474
 497  558.6512
 498  587.1335
 499  526.2463
 500  553.3672
 501  493.7006
 502  465.097
 503  602.2674
 504  631.898
 505  511.0339
 506  554.6859
 507  583.6511
 508  616.2156
 509  709.3478
 510  778.5817
 511  825.8166
