# Input file       =  1197641248.109297_cleaned.dat
# Candidate        =  PSR_0332+5434
# Telescope        =  AR
# Epoch_topo       =  58105.588311450199
# Epoch_bary       =  N/A
# T_sample         =  0.002
# Data Folded      =  7143424
# Data Avg         =  0.0437886650637009
# Data StdDev      =  1.00017262187894 
# Profile Bins     =  512
# Profile Avg      =  610.927622711278 
# Profile StdDev   =  118.138974333858 
# Reduced chi-sqr  =  1.296
# Prob(Noise)      <  6.67e-06   (~4.4 sigma)
# P_topo (ms)      =  714.543463761757  +/- 6.07e-05
# P'_topo (s/s)    =  -0                +/- 3.29e-11
# P''_topo (s/s^2) =  0                 +/- 1.49e-14
# P_bary (ms)      =  N/A
# P'_bary (s/s)    =  N/A
# P''_bary (s/s^2) =  N/A
# P_orb (s)        =  N/A
# asin(i)/c (s)    =  N/A
# eccentricity     =  N/A
# w (rad)          =  N/A
# T_peri           =  N/A
######################################################
   0  1137.2
   1  970.0365
   2  901.736
   3  841.1624
   4  737.7208
   5  764.1288
   6  771.4537
   7  786.8087
   8  740.1077
   9  707.885
  10  643.4351
  11  697.1622
  12  694.5686
  13  701.4131
  14  711.7164
  15  641.6927
  16  764.7728
  17  701.71
  18  676.5319
  19  679.17
  20  754.3185
  21  750.8544
  22  755.1126
  23  655.1148
  24  593.1361
  25  684.5525
  26  630.6234
  27  647.3331
  28  575.2716
  29  642.9485
  30  584.8992
  31  560.4504
  32  673.2774
  33  661.2416
  34  608.4406
  35  601.1683
  36  595.7385
  37  596.645
  38  519.6369
  39  580.3928
  40  627.3851
  41  671.0178
  42  573.5247
  43  489.9143
  44  527.6473
  45  503.4647
  46  533.0583
  47  516.2946
  48  551.6916
  49  584.8427
  50  598.7488
  51  424.5918
  52  322.6605
  53  445.2058
  54  547.5076
  55  614.1883
  56  626.4446
  57  600.5172
  58  647.0801
  59  555.6788
  60  625.1861
  61  642.2549
  62  634.0939
  63  592.8351
  64  550.8384
  65  589.3397
  66  604.0036
  67  663.0747
  68  670.2891
  69  554.0261
  70  637.1124
  71  699.8176
  72  799.0983
  73  690.104
  74  632.3945
  75  607.5103
  76  597.7155
  77  644.0793
  78  737.7484
  79  668.8555
  80  604.0781
  81  743.9716
  82  736.2574
  83  563.361
  84  477.1205
  85  644.0489
  86  637.1971
  87  556.1102
  88  603.9926
  89  769.7758
  90  843.5698
  91  591.6104
  92  437.4563
  93  479.8518
  94  567.6848
  95  611.0963
  96  628.4614
  97  639.4009
  98  624.7512
  99  738.562
 100  712.2419
 101  552.9441
 102  599.0818
 103  561.9741
 104  619.3334
 105  809.038
 106  633.8481
 107  678.4438
 108  597.3795
 109  512.3524
 110  638.5918
 111  654.9927
 112  623.8276
 113  727.2978
 114  738.2258
 115  716.8645
 116  705.0997
 117  656.4588
 118  522.5153
 119  629.5522
 120  571.7599
 121  605.4506
 122  740.7857
 123  644.593
 124  499.8189
 125  525.5731
 126  564.1741
 127  584.8253
 128  620.8276
 129  635.0157
 130  659.8392
 131  696.8172
 132  677.4226
 133  587.5701
 134  526.4901
 135  477.3884
 136  612.5572
 137  646.7165
 138  587.114
 139  676.7462
 140  674.6213
 141  754.639
 142  599.0845
 143  529.7752
 144  534.5883
 145  482.5162
 146  611.5871
 147  618.6479
 148  659.9755
 149  661.025
 150  563.6387
 151  517.2667
 152  479.4256
 153  512.8201
 154  714.4022
 155  672.6346
 156  598.0331
 157  541.8509
 158  502.9905
 159  461.9697
 160  591.7654
 161  548.8456
 162  488.7567
 163  518.5169
 164  680.8518
 165  664.8503
 166  565.6266
 167  513.4123
 168  564.7318
 169  472.8533
 170  385.657
 171  554.3576
 172  532.7594
 173  555.8315
 174  588.2386
 175  584.6684
 176  592.4976
 177  497.4883
 178  560.1241
 179  746.5513
 180  770.5762
 181  745.8977
 182  670.1489
 183  627.9169
 184  599.4086
 185  579.3969
 186  660.4338
 187  628.8179
 188  528.717
 189  701.3143
 190  705.9424
 191  518.4237
 192  409.9247
 193  471.7201
 194  637.3167
 195  622.0748
 196  617.1091
 197  686.6943
 198  710.5675
 199  547.34
 200  490.7942
 201  476.8775
 202  609.6632
 203  582.9788
 204  630.0963
 205  632.8731
 206  561.3404
 207  547.3648
 208  486.2196
 209  561.1959
 210  620.9819
 211  643.2667
 212  570.2918
 213  508.7774
 214  557.7493
 215  603.6234
 216  540.5237
 217  457.4326
 218  504.1088
 219  480.3937
 220  538.4047
 221  561.5058
 222  679.7
 223  635.8746
 224  457.6504
 225  484.8296
 226  658.5658
 227  658.2113
 228  645.519
 229  712.8927
 230  561.8311
 231  539.3779
 232  619.2407
 233  579.0043
 234  584.8961
 235  459.4534
 236  504.0652
 237  603.1252
 238  611.8838
 239  617.7254
 240  568.8063
 241  586
 242  668.6316
 243  608.4092
 244  570.5551
 245  603.2244
 246  647.3773
 247  664.3055
 248  606.0899
 249  602.6304
 250  669.6133
 251  634.8964
 252  533.5594
 253  501.1665
 254  657.4535
 255  697.4658
 256  603.9941
 257  448.0769
 258  555.6833
 259  526.5573
 260  419.6035
 261  489.6278
 262  524.3668
 263  430.5406
 264  492.3412
 265  521.8338
 266  530.5458
 267  481.4893
 268  580.6927
 269  396.4614
 270  487.425
 271  523.0174
 272  583.257
 273  586.2086
 274  589.0441
 275  593.465
 276  605.2343
 277  525.7126
 278  588.9507
 279  653.3826
 280  667.8869
 281  574.7165
 282  487.9376
 283  607.6228
 284  588.7611
 285  601.9806
 286  484.8055
 287  549.6763
 288  556.7285
 289  611.6114
 290  620.2506
 291  550.1696
 292  610.2167
 293  564.1566
 294  662.0438
 295  698.1423
 296  717.0825
 297  643.1545
 298  605.9135
 299  576.296
 300  597.7896
 301  592.9705
 302  642.8401
 303  792.8486
 304  715.5425
 305  641.9426
 306  619.6868
 307  530.0464
 308  519.107
 309  500.2855
 310  534.8497
 311  525.2484
 312  563.1451
 313  621.3922
 314  574.2023
 315  557.5241
 316  571.6782
 317  521.437
 318  425.0198
 319  430.1032
 320  455.8769
 321  622.9106
 322  582.4479
 323  556.5372
 324  581.9785
 325  525.2872
 326  572.7875
 327  561.7117
 328  685.5614
 329  692.8104
 330  698.3786
 331  532.2025
 332  422.3553
 333  511.9416
 334  531.5872
 335  512.8977
 336  538.2743
 337  600.3871
 338  582.0012
 339  520.5396
 340  575.4264
 341  530.5548
 342  579.7541
 343  625.4537
 344  621.2541
 345  517.9606
 346  616.1696
 347  679.6653
 348  705.7817
 349  602.2433
 350  555.1932
 351  511.7853
 352  518.8326
 353  638.2506
 354  671.9681
 355  555.49
 356  597.1622
 357  569.8267
 358  618.1183
 359  607.6923
 360  550.2841
 361  573.2568
 362  633.3002
 363  550.9589
 364  480.1577
 365  420.0292
 366  440.6999
 367  569.9268
 368  626.9803
 369  555.5024
 370  566.8808
 371  554.722
 372  355.3005
 373  326.1382
 374  515.9714
 375  511.6386
 376  630.2612
 377  687.0237
 378  714.6362
 379  588.5015
 380  559.9943
 381  507.6877
 382  550.1555
 383  525.3193
 384  528.3812
 385  537.6856
 386  615.496
 387  598.1806
 388  610.799
 389  633.033
 390  633.4597
 391  503.3746
 392  526.593
 393  633.2961
 394  679.8577
 395  680.4254
 396  673.0042
 397  642.6406
 398  584.1572
 399  423.8957
 400  481.0235
 401  618.0891
 402  703.1237
 403  742.736
 404  752.8041
 405  620.1671
 406  497.9529
 407  542.5572
 408  566.2388
 409  646.5846
 410  643.1892
 411  637.9414
 412  739.3633
 413  662.6054
 414  564.4406
 415  504.9147
 416  595.8248
 417  582.2576
 418  539.0129
 419  554.0884
 420  538.5858
 421  477.385
 422  501.1999
 423  589.1087
 424  667.1861
 425  722.707
 426  660.1912
 427  724.2258
 428  757.2109
 429  689.1483
 430  589.8416
 431  600.4792
 432  492.4964
 433  509.5437
 434  624.0656
 435  570.4033
 436  566.2073
 437  690.0696
 438  692.3781
 439  545.2255
 440  557.6542
 441  621.5897
 442  607.2812
 443  540.8041
 444  633.8777
 445  774.5181
 446  497.9574
 447  524.624
 448  465.7371
 449  483.4138
 450  487.3347
 451  547.5684
 452  642.966
 453  683.8258
 454  603.2186
 455  540.1983
 456  551.986
 457  584.4653
 458  728.0646
 459  831.7782
 460  820.1235
 461  854.6596
 462  818.6296
 463  661.0309
 464  670.4006
 465  671.8893
 466  582.8003
 467  524.2892
 468  659.8675
 469  765.0505
 470  610.5564
 471  634.7014
 472  673.9998
 473  699.3273
 474  636.4619
 475  684.4617
 476  775.5222
 477  773.0659
 478  749.471
 479  734.6217
 480  752.5715
 481  651.726
 482  751.5327
 483  733.294
 484  677.2658
 485  775.7559
 486  667.9599
 487  672.8975
 488  620.4983
 489  606.8694
 490  707.188
 491  671.4244
 492  679.0945
 493  792.9082
 494  752.5987
 495  712.2491
 496  611.3655
 497  598.031
 498  672.4102
 499  613.795
 500  672.1702
 501  826.9645
 502  810.4142
 503  733.3195
 504  764.3109
 505  740.1781
 506  758.3989
 507  767.6056
 508  871.0759
 509  798.1644
 510  889.2931
 511  1034.825
