# Input file       =  1197038256.128744_cleaned.dat
# Candidate        =  PSR_0332+5434
# Telescope        =  AR
# Epoch_topo       =  58098.609237601202
# Epoch_bary       =  N/A
# T_sample         =  0.002
# Data Folded      =  7143424
# Data Avg         =  0.0969767872011389
# Data StdDev      =  1.00054722412869 
# Profile Bins     =  512
# Profile Avg      =  1352.96410082398 
# Profile StdDev   =  118.183221821343 
# Reduced chi-sqr  =  0.942
# Prob(Noise)      <  0.823   (~0.0 sigma)
# P_topo (ms)      =  714.536515537538  +/- 9.08e-05
# P'_topo (s/s)    =  -0                +/- 4.92e-11
# P''_topo (s/s^2) =  0                 +/- 2.23e-14
# P_bary (ms)      =  N/A
# P'_bary (s/s)    =  N/A
# P''_bary (s/s^2) =  N/A
# P_orb (s)        =  N/A
# asin(i)/c (s)    =  N/A
# eccentricity     =  N/A
# w (rad)          =  N/A
# T_peri           =  N/A
######################################################
   0  1747.054
   1  1601.816
   2  1402.901
   3  1390.586
   4  1325.918
   5  1330.369
   6  1366.672
   7  1436.223
   8  1328.876
   9  1316.479
  10  1318.868
  11  1359.328
  12  1219.163
  13  1237.387
  14  1347.937
  15  1348.624
  16  1283.328
  17  1243.486
  18  1252.987
  19  1302.724
  20  1272.944
  21  1479.042
  22  1385.85
  23  1354.629
  24  1446.59
  25  1423.877
  26  1344.901
  27  1342.101
  28  1448.683
  29  1531.188
  30  1414.088
  31  1333.348
  32  1386.114
  33  1412.549
  34  1339.243
  35  1355.423
  36  1382.61
  37  1417.731
  38  1472.933
  39  1479.329
  40  1500.032
  41  1440.568
  42  1367.368
  43  1359.986
  44  1397.537
  45  1426.905
  46  1499.205
  47  1403.603
  48  1270.448
  49  1324.428
  50  1435.541
  51  1303.2
  52  1298.593
  53  1284.509
  54  1375.877
  55  1326.581
  56  1337.226
  57  1304.156
  58  1377.998
  59  1185.431
  60  1223.151
  61  1336.062
  62  1305.267
  63  1258.348
  64  1279.855
  65  1324.301
  66  1196.194
  67  1187.699
  68  1288.189
  69  1322.428
  70  1197.167
  71  1301.669
  72  1398.411
  73  1369.231
  74  1253.816
  75  1267.776
  76  1289.143
  77  1352.883
  78  1398.703
  79  1380.695
  80  1470.085
  81  1397.496
  82  1283.923
  83  1249.288
  84  1274.577
  85  1332.634
  86  1334.938
  87  1481.259
  88  1481.353
  89  1501.818
  90  1451.691
  91  1401.181
  92  1306.176
  93  1462.918
  94  1392.54
  95  1478.354
  96  1461.889
  97  1500.481
  98  1427.704
  99  1376.376
 100  1359.738
 101  1351.899
 102  1240.601
 103  1318.76
 104  1326.61
 105  1372.353
 106  1373.709
 107  1412.911
 108  1321.309
 109  1263.077
 110  1277.845
 111  1263.416
 112  1347.185
 113  1385.911
 114  1388.973
 115  1470.297
 116  1369.147
 117  1292.188
 118  1263.933
 119  1275.797
 120  1259.113
 121  1457.379
 122  1445.312
 123  1410.983
 124  1251.384
 125  1279.819
 126  1320.854
 127  1244.248
 128  1306.59
 129  1369.865
 130  1398.595
 131  1282.156
 132  1286.7
 133  1281.742
 134  1320.803
 135  1225.733
 136  1178.983
 137  1265.477
 138  1370.706
 139  1308.895
 140  1311.26
 141  1393.417
 142  1241.004
 143  1364.018
 144  1347.782
 145  1375.618
 146  1390.777
 147  1254.944
 148  1179.323
 149  1259.712
 150  1246.298
 151  1146.779
 152  1124.124
 153  1168.838
 154  1223.744
 155  1155.02
 156  1197.313
 157  1340.666
 158  1335.093
 159  1198.69
 160  1172.753
 161  1205.141
 162  1302.218
 163  1339.064
 164  1416.12
 165  1395.945
 166  1378.393
 167  1301.551
 168  1295.512
 169  1330.425
 170  1426.488
 171  1522.856
 172  1585.693
 173  1493.034
 174  1420.892
 175  1371.545
 176  1376.757
 177  1397.075
 178  1370.586
 179  1421.045
 180  1285.188
 181  1270.819
 182  1292.651
 183  1240.87
 184  1197.139
 185  1290.884
 186  1281.85
 187  1272.166
 188  1203.739
 189  1263.921
 190  1305.45
 191  1272.243
 192  1392.797
 193  1426.041
 194  1398.267
 195  1323.879
 196  1300
 197  1305.042
 198  1265.751
 199  1355.25
 200  1258.001
 201  1287.946
 202  1252.4
 203  1374.855
 204  1399.184
 205  1392.365
 206  1448.135
 207  1362.787
 208  1323.079
 209  1418.999
 210  1452.639
 211  1411.098
 212  1465.374
 213  1457.093
 214  1497.919
 215  1525.376
 216  1365.792
 217  1231.882
 218  1324.84
 219  1343.112
 220  1397.524
 221  1352.981
 222  1473.118
 223  1391.013
 224  1263.307
 225  1284.452
 226  1346.424
 227  1479.585
 228  1483.991
 229  1485.251
 230  1455.446
 231  1400.281
 232  1395.809
 233  1331.516
 234  1230.781
 235  1284.523
 236  1377.979
 237  1440.235
 238  1592.397
 239  1486.876
 240  1368.91
 241  1251.511
 242  1327.869
 243  1422.01
 244  1403.895
 245  1364.911
 246  1451.682
 247  1468.421
 248  1263.19
 249  1275.86
 250  1333.514
 251  1428.128
 252  1365.101
 253  1395.101
 254  1518.422
 255  1427.224
 256  1310.59
 257  1298.236
 258  1219.014
 259  1212.661
 260  1343.479
 261  1482.683
 262  1482.613
 263  1398.282
 264  1392.672
 265  1360.372
 266  1354.474
 267  1315.833
 268  1320.047
 269  1324.063
 270  1317.521
 271  1447.64
 272  1383.911
 273  1357.609
 274  1275.912
 275  1355.418
 276  1364.976
 277  1445.083
 278  1368.78
 279  1360.801
 280  1449.957
 281  1435.87
 282  1354.862
 283  1375.905
 284  1394.569
 285  1367.562
 286  1321.336
 287  1407.165
 288  1335.64
 289  1377.069
 290  1434.65
 291  1409.493
 292  1364.168
 293  1318.549
 294  1307.868
 295  1327.757
 296  1343.918
 297  1381.534
 298  1396.148
 299  1374.66
 300  1419.616
 301  1329.117
 302  1298.793
 303  1309.096
 304  1392.013
 305  1300.291
 306  1286.214
 307  1252.324
 308  1328.938
 309  1341.684
 310  1362.891
 311  1253.317
 312  1231.024
 313  1147.357
 314  1174.695
 315  1189.458
 316  1252.574
 317  1225.09
 318  1316.933
 319  1300.471
 320  1314.018
 321  1433.173
 322  1442.823
 323  1374.99
 324  1383.69
 325  1463.762
 326  1377.856
 327  1344.42
 328  1377.452
 329  1370.026
 330  1331.811
 331  1334.153
 332  1366.256
 333  1417.229
 334  1334.133
 335  1310.247
 336  1399.858
 337  1463.015
 338  1405.764
 339  1361.213
 340  1312.646
 341  1266.006
 342  1318.882
 343  1411.076
 344  1502.583
 345  1411.895
 346  1394.472
 347  1393.824
 348  1396.868
 349  1330.89
 350  1263.984
 351  1288.574
 352  1292.351
 353  1359.44
 354  1240.401
 355  1365.934
 356  1439.695
 357  1374.715
 358  1342.957
 359  1437.621
 360  1416.113
 361  1472.568
 362  1298.807
 363  1302.642
 364  1361.317
 365  1351.429
 366  1326.101
 367  1377.444
 368  1378.702
 369  1327.461
 370  1318.94
 371  1286.647
 372  1210.858
 373  1347.381
 374  1277.303
 375  1383.763
 376  1382.192
 377  1383.807
 378  1477.175
 379  1292.545
 380  1319.815
 381  1415.752
 382  1419.588
 383  1344.378
 384  1290.034
 385  1395.016
 386  1515.509
 387  1426.509
 388  1383.331
 389  1362.132
 390  1255.314
 391  1144.916
 392  1316.182
 393  1374.519
 394  1377.36
 395  1450.975
 396  1450.199
 397  1345.523
 398  1266.731
 399  1181.697
 400  1207.727
 401  1274.737
 402  1330.645
 403  1293.058
 404  1327.731
 405  1370.865
 406  1362.133
 407  1251.541
 408  1367.286
 409  1419.407
 410  1435.365
 411  1388
 412  1260.619
 413  1244.954
 414  1334.917
 415  1214.125
 416  1248.99
 417  1336.138
 418  1341.245
 419  1306.111
 420  1402.435
 421  1384.714
 422  1365.499
 423  1248.367
 424  1282.193
 425  1355.661
 426  1468.1
 427  1398.625
 428  1279.957
 429  1304.239
 430  1398.195
 431  1312.563
 432  1304.667
 433  1422.523
 434  1442.153
 435  1448.206
 436  1421.315
 437  1373.244
 438  1372.943
 439  1444.837
 440  1478.342
 441  1385.35
 442  1288.938
 443  1354.557
 444  1353.621
 445  1348.042
 446  1346.375
 447  1371.562
 448  1355.396
 449  1303.616
 450  1338.146
 451  1367.098
 452  1403.646
 453  1530.775
 454  1499.895
 455  1450.833
 456  1362.676
 457  1324.97
 458  1279.217
 459  1335.96
 460  1295.142
 461  1364.587
 462  1433.119
 463  1319.997
 464  1316.029
 465  1279.266
 466  1317.79
 467  1335.165
 468  1301.992
 469  1341.487
 470  1267.019
 471  1317.388
 472  1438.845
 473  1472.493
 474  1386.072
 475  1285.868
 476  1312.225
 477  1285.562
 478  1265.262
 479  1246.253
 480  1321.238
 481  1275.659
 482  1287.02
 483  1323.912
 484  1310.811
 485  1313.181
 486  1410.552
 487  1471.844
 488  1435.876
 489  1330.783
 490  1352.167
 491  1342.138
 492  1373.494
 493  1416.168
 494  1337.302
 495  1358.702
 496  1368.188
 497  1323.15
 498  1358.651
 499  1412.329
 500  1388.279
 501  1492.08
 502  1495.23
 503  1433.496
 504  1392.103
 505  1386.479
 506  1314.392
 507  1448.788
 508  1544.33
 509  1499.254
 510  1579.063
 511  1696.406
