# Input file       =  1197914847.107016_cleaned.dat
# Candidate        =  PSR_0332+5434
# Telescope        =  AR
# Epoch_topo       =  58108.754966516390
# Epoch_bary       =  N/A
# T_sample         =  0.002
# Data Folded      =  7340032
# Data Avg         =  0.040556798249679
# Data StdDev      =  1.00002700387227 
# Profile Bins     =  512
# Profile Avg      =  581.413417302268 
# Profile StdDev   =  119.736269632386 
# Reduced chi-sqr  =  0.741
# Prob(Noise)      <  1   (~0.0 sigma)
# P_topo (ms)      =  714.546532424678  +/- 0.000295
# P'_topo (s/s)    =  -0                +/- 1.56e-10
# P''_topo (s/s^2) =  0                 +/- 6.88e-14
# P_bary (ms)      =  N/A
# P'_bary (s/s)    =  N/A
# P''_bary (s/s^2) =  N/A
# P_orb (s)        =  N/A
# asin(i)/c (s)    =  N/A
# eccentricity     =  N/A
# w (rad)          =  N/A
# T_peri           =  N/A
######################################################
   0  861.9487
   1  740.267
   2  786.4854
   3  778.1266
   4  718.3234
   5  604.6326
   6  584.3005
   7  532.463
   8  654.0607
   9  680.3904
  10  649.8583
  11  474.7772
  12  470.2466
  13  628.4245
  14  463.7032
  15  376.6739
  16  607.8989
  17  658.5107
  18  634.0773
  19  547.5541
  20  642.4747
  21  526.7214
  22  458.3649
  23  554.0831
  24  666.4601
  25  665.5745
  26  621.6919
  27  678.1683
  28  657.5712
  29  627.6011
  30  627.1021
  31  596.6572
  32  572.7637
  33  585.0471
  34  703.2903
  35  665.1637
  36  670.729
  37  685.939
  38  667.7925
  39  655.6306
  40  662.99
  41  700.5453
  42  535.2231
  43  542.0106
  44  470.0919
  45  572.062
  46  561.4222
  47  561.6857
  48  488.8332
  49  526.929
  50  565.6598
  51  552.2508
  52  599.0949
  53  586.9252
  54  632.4561
  55  595.8832
  56  645.1849
  57  579.7145
  58  667.2933
  59  682.4827
  60  635.7805
  61  631.3333
  62  624.4366
  63  591.442
  64  571.5515
  65  576.65
  66  656.7139
  67  540.7072
  68  466.7399
  69  572.688
  70  510.6067
  71  481.2397
  72  525.0345
  73  551.9299
  74  581.7235
  75  448.2216
  76  489.8401
  77  513.7948
  78  625.8702
  79  542.1565
  80  500.7462
  81  479.089
  82  471.0152
  83  422.1808
  84  461.8376
  85  443.7039
  86  391.1236
  87  489.5477
  88  622.4159
  89  592.5665
  90  499.847
  91  481.1667
  92  489.6441
  93  515.9774
  94  544.5888
  95  593.9761
  96  600.6537
  97  512.5321
  98  505.2323
  99  550.8804
 100  507.5291
 101  515.6145
 102  694.4008
 103  583.1537
 104  562.9089
 105  543.5928
 106  604.8193
 107  638.0112
 108  590.9677
 109  547.683
 110  551.4258
 111  507.7631
 112  494.4828
 113  421.7748
 114  536.1255
 115  598.4684
 116  570.2529
 117  555.3482
 118  447.756
 119  488.2008
 120  597.1607
 121  532.622
 122  529.2494
 123  656.1565
 124  582.7814
 125  597.7183
 126  655.2186
 127  624.1577
 128  628.28
 129  506.6326
 130  523.4735
 131  556.5223
 132  564.0038
 133  524.1475
 134  463.8001
 135  606.8818
 136  574.9185
 137  503.0346
 138  585.0998
 139  623.0081
 140  666.9114
 141  500.681
 142  477.9471
 143  447.1716
 144  453.9197
 145  559.0081
 146  527.8824
 147  439.5956
 148  458.5634
 149  418.3153
 150  480.7572
 151  527.476
 152  531.8898
 153  711.407
 154  593.9941
 155  464.1548
 156  581.2322
 157  635.8218
 158  614.6037
 159  700.6068
 160  558.9203
 161  610.6422
 162  655.8837
 163  505.5192
 164  497.602
 165  591.8433
 166  537.6724
 167  481.5507
 168  598.6613
 169  588.6548
 170  607.2792
 171  512.1803
 172  422.4717
 173  500.4926
 174  524.3495
 175  667.9102
 176  619.2103
 177  573.8346
 178  615.8896
 179  569.603
 180  537.2821
 181  664.8121
 182  623.1465
 183  551.6003
 184  609.6788
 185  678.5998
 186  522.5601
 187  522.1646
 188  472.0699
 189  418.7925
 190  493.1692
 191  537.9255
 192  531.5964
 193  506.1913
 194  453.2635
 195  551.813
 196  576.6193
 197  554.2907
 198  540.2199
 199  549.7116
 200  424.112
 201  494.3006
 202  588.5573
 203  612.4302
 204  510.2115
 205  553.8795
 206  563.9273
 207  557.9593
 208  471.6563
 209  523.8913
 210  513.0403
 211  599.5599
 212  640.9258
 213  591.8715
 214  526.0244
 215  542.1268
 216  569.476
 217  604.3956
 218  532.7905
 219  439.4302
 220  454.7916
 221  513.5361
 222  584.9335
 223  590.5195
 224  499.3027
 225  518.0209
 226  495.5726
 227  525.3677
 228  564.0109
 229  535.2618
 230  525.8459
 231  577.7039
 232  644.1671
 233  587.722
 234  657.8005
 235  608.4719
 236  550.6534
 237  607.6226
 238  641.8782
 239  640.2061
 240  609.3385
 241  634.6465
 242  667.26
 243  573.0248
 244  594.9803
 245  538.682
 246  568.0384
 247  701.1761
 248  719.1053
 249  661.9099
 250  578.2217
 251  616.379
 252  501.3745
 253  495.0785
 254  558.5506
 255  647.0554
 256  588.1946
 257  577.5886
 258  638.1371
 259  562.7507
 260  517.7006
 261  546.0068
 262  578.8971
 263  595.7561
 264  672.0227
 265  571.7811
 266  472.8714
 267  551.7104
 268  527.4742
 269  532.1854
 270  419.8759
 271  612.4428
 272  665.8453
 273  561.2804
 274  545.5859
 275  483.97
 276  487.4395
 277  529.3479
 278  577.4789
 279  724.7354
 280  636.0222
 281  622.8013
 282  650.952
 283  604.756
 284  602.9402
 285  617.3188
 286  554.3019
 287  567.1451
 288  577.1018
 289  664.6381
 290  589.5613
 291  621.8165
 292  613.6167
 293  721.5533
 294  651.5223
 295  645.1859
 296  505.321
 297  553.9041
 298  607.2959
 299  527.2471
 300  593.8652
 301  616.7289
 302  750.4961
 303  665.7354
 304  566.895
 305  606.3025
 306  690.3787
 307  615.9622
 308  678.4173
 309  653.7161
 310  573.7697
 311  639.2405
 312  593.8524
 313  583.0638
 314  557.5579
 315  569.5024
 316  605.5345
 317  576.9957
 318  552.7748
 319  598.3024
 320  568.1367
 321  710.0452
 322  624.8214
 323  603.611
 324  642.3088
 325  620.4012
 326  503.0129
 327  559.0173
 328  632.5485
 329  555.3606
 330  507.4924
 331  445.7282
 332  585.0292
 333  589.6162
 334  558.1509
 335  509.3218
 336  502.2549
 337  534.4832
 338  649.5028
 339  598.4111
 340  675.205
 341  671.0076
 342  629.821
 343  553.2656
 344  489.6287
 345  571.6355
 346  641.123
 347  529.2045
 348  562.1774
 349  678.8787
 350  674.3746
 351  661.8564
 352  601.3283
 353  514.9127
 354  531.2941
 355  501.3085
 356  614.0159
 357  605.0941
 358  616.5863
 359  659.2628
 360  572.6179
 361  512.0177
 362  555.2775
 363  699.5372
 364  556.2657
 365  538.1797
 366  595.8719
 367  628.9283
 368  616.7136
 369  577.7515
 370  643.2329
 371  594.881
 372  604.9201
 373  504.9584
 374  546.0785
 375  557.8667
 376  492.8024
 377  543.9166
 378  596.707
 379  569.3168
 380  525.2418
 381  604.9341
 382  687.1733
 383  646.0954
 384  675.4179
 385  572.8804
 386  498.0303
 387  616.6467
 388  622.3834
 389  616.2473
 390  551.243
 391  561.9154
 392  540.3192
 393  594.0021
 394  513.845
 395  535.2885
 396  642.1893
 397  613.3538
 398  679.6561
 399  674.5601
 400  659.2567
 401  704.874
 402  614.6032
 403  622.8926
 404  613.0345
 405  511.4784
 406  626.5988
 407  648.1119
 408  659.0536
 409  660.8922
 410  588.7164
 411  397.405
 412  391.9864
 413  541.3269
 414  684.9775
 415  723.7177
 416  628.5894
 417  572.6985
 418  541.0416
 419  500.6723
 420  546.1456
 421  637.8093
 422  612.28
 423  478.7978
 424  532.9372
 425  529.6956
 426  617.892
 427  712.7335
 428  828.4575
 429  709.8942
 430  612.0856
 431  511.0706
 432  592.8873
 433  627.7253
 434  591.7292
 435  559.9005
 436  587.0375
 437  535.6218
 438  476.3637
 439  467.4564
 440  572.1149
 441  605.793
 442  655.7698
 443  742.7178
 444  627.5471
 445  567.2511
 446  569.0652
 447  601.5475
 448  671.3462
 449  742.6089
 450  685.0189
 451  654.0264
 452  548.3587
 453  549.3148
 454  605.5465
 455  591.9674
 456  591.7397
 457  603.0742
 458  589.2004
 459  559.9593
 460  531.2482
 461  561.5886
 462  558.3147
 463  633.2733
 464  712.9564
 465  758.5936
 466  571.9579
 467  599.9028
 468  627.2194
 469  645.2662
 470  624.2636
 471  581.8217
 472  558.3803
 473  497.8623
 474  569.6415
 475  538.2745
 476  500.4184
 477  460.4731
 478  547.4225
 479  638.7435
 480  576.9353
 481  632.9813
 482  631.2994
 483  661.2888
 484  582.0297
 485  506.2924
 486  540.3098
 487  607.4487
 488  625.097
 489  688.4236
 490  578.7985
 491  546.7853
 492  682.1102
 493  608.7011
 494  614.4955
 495  617.4568
 496  600.7877
 497  542.4885
 498  548.2991
 499  528.0764
 500  480.6621
 501  591.7187
 502  658.2507
 503  571.3113
 504  584.0356
 505  529.393
 506  560.0853
 507  639.1476
 508  782.7458
 509  840.0403
 510  852.2343
 511  847.2164
