# Input file       =  1197585260.104582_cleaned.dat
# Candidate        =  PSR_0332+5434
# Telescope        =  AR
# Epoch_topo       =  58104.940302136369
# Epoch_bary       =  N/A
# T_sample         =  0.002
# Data Folded      =  7340032
# Data Avg         =  0.0344429887381379
# Data StdDev      =  1.00007888970481 
# Profile Bins     =  512
# Profile Avg      =  493.770264471613 
# Profile StdDev   =  119.742482080662 
# Reduced chi-sqr  =  0.981
# Prob(Noise)      <  0.613   (~0.0 sigma)
# P_topo (ms)      =  714.543192588784  +/- 0.00017
# P'_topo (s/s)    =  -0                +/- 8.95e-11
# P''_topo (s/s^2) =  0                 +/- 3.95e-14
# P_bary (ms)      =  N/A
# P'_bary (s/s)    =  N/A
# P''_bary (s/s^2) =  N/A
# P_orb (s)        =  N/A
# asin(i)/c (s)    =  N/A
# eccentricity     =  N/A
# w (rad)          =  N/A
# T_peri           =  N/A
######################################################
   0  883.8845
   1  841.7811
   2  752.394
   3  614.0468
   4  529.8022
   5  455.7663
   6  481.2326
   7  613.9199
   8  524.2716
   9  442.5164
  10  372.9496
  11  346.3461
  12  394.3152
  13  436.8804
  14  386.8876
  15  453.3928
  16  468.4086
  17  468.2907
  18  513.58
  19  415.6967
  20  454.1066
  21  490.0457
  22  616.3453
  23  567.713
  24  487.291
  25  500.3944
  26  502.0725
  27  562.2378
  28  538.7232
  29  510.0101
  30  507.9025
  31  531.1898
  32  404.8587
  33  393.7054
  34  414.2324
  35  499.5938
  36  510.0519
  37  359.1894
  38  516.6114
  39  469.2612
  40  340.2415
  41  500.5194
  42  459.9947
  43  452.9858
  44  399.3539
  45  392.5456
  46  442.8466
  47  496.5298
  48  428.8922
  49  461.9998
  50  482.2013
  51  508.7847
  52  454.3625
  53  371.332
  54  428.4577
  55  496.0124
  56  453.239
  57  497.4214
  58  481.8727
  59  399.4711
  60  337.8911
  61  349.1154
  62  485.8849
  63  425.2062
  64  384.6704
  65  495.7285
  66  559.5335
  67  451.9976
  68  424.9227
  69  557.9448
  70  598.5128
  71  555.5654
  72  483.8246
  73  559.8143
  74  495.0336
  75  396.9491
  76  395.807
  77  312.7215
  78  427.9819
  79  584.2465
  80  565.7142
  81  488.4445
  82  483.5064
  83  476.2283
  84  350.8502
  85  339.7378
  86  434.1912
  87  468.9914
  88  422.3688
  89  526.3441
  90  476.5047
  91  430.3149
  92  424.3158
  93  368.0307
  94  364.6538
  95  446.1786
  96  435.9516
  97  418.8449
  98  505.9348
  99  503.8942
 100  369.2551
 101  351.7505
 102  482.8745
 103  440.6249
 104  365.4826
 105  259.1566
 106  402.6073
 107  494.9015
 108  474.3244
 109  481.1592
 110  449.4073
 111  481.8812
 112  455.5606
 113  464.516
 114  570.8834
 115  466.35
 116  490.5696
 117  584.3432
 118  613.53
 119  451.8436
 120  397.1263
 121  404.7283
 122  357.3605
 123  383.2435
 124  457.2294
 125  591.7692
 126  566.8033
 127  437.4797
 128  415.3486
 129  419.8117
 130  462.7558
 131  386.1302
 132  357.5077
 133  348.0392
 134  352.0583
 135  495.1604
 136  455.1122
 137  351.4994
 138  443.3026
 139  409.9071
 140  392.0085
 141  419.7705
 142  447.1272
 143  428.3563
 144  464.958
 145  499.3357
 146  455.0106
 147  494.4901
 148  588.0743
 149  512.097
 150  343.144
 151  452.5694
 152  405.1685
 153  443.6953
 154  383.6683
 155  392.8157
 156  555.4734
 157  471.5782
 158  341.5537
 159  393.5402
 160  566.0685
 161  576.8346
 162  556.5911
 163  560.1313
 164  439.009
 165  496.8534
 166  459.4693
 167  485.2963
 168  437.8753
 169  494.9712
 170  532.4939
 171  559.1362
 172  466.0886
 173  432.3249
 174  467.3348
 175  419.94
 176  399.2751
 177  546.7951
 178  601.2836
 179  470.0706
 180  551.6885
 181  650.2769
 182  607.4597
 183  587.1789
 184  616.0042
 185  606.6829
 186  605.2719
 187  739.015
 188  699.5963
 189  637.6109
 190  533.2649
 191  510.2309
 192  477.2492
 193  591.1331
 194  605.5493
 195  612.7165
 196  526.8063
 197  397.5126
 198  422.4611
 199  522.2009
 200  562.9937
 201  507.3501
 202  384.1519
 203  616.0151
 204  556.2689
 205  469.5674
 206  425.9833
 207  434.2305
 208  459.477
 209  480.9547
 210  475.3111
 211  471.7186
 212  616.2979
 213  551.8719
 214  639.0271
 215  719.4977
 216  643.3972
 217  584.8262
 218  550.9075
 219  573.4514
 220  581.68
 221  596.6844
 222  627.755
 223  524.5962
 224  575.933
 225  648.0646
 226  469.8742
 227  488.5666
 228  546.0219
 229  438.407
 230  472.0481
 231  480.7058
 232  463.3894
 233  406.3883
 234  423.1866
 235  408.7031
 236  406.2218
 237  453.6258
 238  500.3743
 239  411.4241
 240  430.7332
 241  374.8723
 242  342.1909
 243  526.2845
 244  546.1395
 245  526.2435
 246  416.4549
 247  449.4649
 248  444.4709
 249  411.2906
 250  476.3069
 251  552.8439
 252  537.2491
 253  530.0514
 254  482.3238
 255  502.7042
 256  619.7217
 257  580.2061
 258  514.5403
 259  505.1121
 260  502.9075
 261  422.2452
 262  500.9118
 263  559.0013
 264  446.2221
 265  406.98
 266  391.6394
 267  460.9606
 268  553.9794
 269  556.1621
 270  492.5561
 271  472.3314
 272  547.5762
 273  500.7303
 274  357.6323
 275  473.0959
 276  594.2863
 277  459.3262
 278  473.088
 279  468.8199
 280  497.4174
 281  532.7008
 282  612.6774
 283  472.4438
 284  394.5155
 285  506.5711
 286  539.4988
 287  528.9113
 288  613.4011
 289  474.6743
 290  423.8551
 291  377.8309
 292  417.845
 293  480.0491
 294  407.7502
 295  438.1948
 296  512.2233
 297  475.4025
 298  415.3574
 299  353.9464
 300  308.8246
 301  414.5275
 302  412.6303
 303  346.3289
 304  360.0944
 305  499.5168
 306  565.879
 307  504.4435
 308  434.207
 309  435.1233
 310  373.2027
 311  290.3668
 312  378.017
 313  533.3379
 314  537.648
 315  491.1421
 316  404.989
 317  565.2493
 318  532.9777
 319  551.721
 320  542.5588
 321  478.4087
 322  462.948
 323  458.0328
 324  482.2815
 325  396.0923
 326  429.6705
 327  483.2887
 328  471.5288
 329  483.8941
 330  420.7287
 331  488.3279
 332  489.9712
 333  539.4365
 334  543.9342
 335  404.1957
 336  375.2883
 337  447.1444
 338  531.8732
 339  509.8141
 340  482.463
 341  520.4954
 342  547.4485
 343  486.0273
 344  521.2222
 345  466.5422
 346  486.8259
 347  509.5661
 348  516.041
 349  586.3328
 350  551.201
 351  422.9307
 352  466.5783
 353  467.4427
 354  452.7919
 355  565.8037
 356  626.3422
 357  506.8469
 358  432.0085
 359  532.2824
 360  520.2291
 361  430.485
 362  455.3366
 363  561.196
 364  536.6093
 365  540.225
 366  517.8753
 367  497.6035
 368  490.4343
 369  534.7487
 370  493.8963
 371  583.2482
 372  508.1935
 373  493.2288
 374  448.252
 375  403.4746
 376  566.2103
 377  606.2197
 378  515.7173
 379  487.9595
 380  470.9862
 381  566.376
 382  481.5787
 383  416.9729
 384  499.1402
 385  589.7673
 386  510.8345
 387  520.9919
 388  566.2486
 389  539.7621
 390  434.6546
 391  474.825
 392  598.3637
 393  575.206
 394  537.0076
 395  550.0756
 396  611.2796
 397  694.1848
 398  648.5063
 399  528.4106
 400  429.2049
 401  498.25
 402  442.6078
 403  414.2953
 404  417.1034
 405  556.4349
 406  588.16
 407  549.6974
 408  603.9732
 409  529.107
 410  611.7787
 411  435.9833
 412  523.567
 413  597.1216
 414  472.6572
 415  489.5471
 416  567.7342
 417  500.1548
 418  412.8042
 419  412.9843
 420  429.3263
 421  453.5451
 422  496.5416
 423  445.934
 424  519.7368
 425  623.9108
 426  578.8099
 427  475.1057
 428  380.8119
 429  473.8365
 430  556.9053
 431  451.2431
 432  455.9334
 433  458.1485
 434  394.9985
 435  446.1219
 436  555.7316
 437  550.3452
 438  489.1227
 439  591.045
 440  681.801
 441  663.2934
 442  533.8664
 443  508.0564
 444  412.9788
 445  484.1691
 446  570.946
 447  506.5784
 448  517.2985
 449  541.7813
 450  478.4801
 451  501.5815
 452  466.8876
 453  481.1471
 454  538.7737
 455  498.4107
 456  482.3
 457  338.8486
 458  457.269
 459  547.4189
 460  620.4623
 461  633.111
 462  516.8414
 463  529.808
 464  457.5583
 465  549.788
 466  541.6613
 467  527.2832
 468  490.7289
 469  470.9664
 470  493.3291
 471  422.5986
 472  364.9092
 473  404.234
 474  445.7051
 475  583.9982
 476  501.4867
 477  565.9475
 478  594.2863
 479  511.7723
 480  564.3026
 481  547.0966
 482  462.203
 483  462.5906
 484  479.0787
 485  499.0601
 486  393.5651
 487  476.6765
 488  480.1127
 489  582.0654
 490  565.5615
 491  543.8207
 492  548.5552
 493  558.6984
 494  559.5656
 495  554.0653
 496  663.4874
 497  622.6887
 498  506.8021
 499  453.749
 500  383.2431
 501  325.0454
 502  466.785
 503  609.7102
 504  713.8593
 505  665.6676
 506  612.4267
 507  607.0069
 508  563.144
 509  701.0383
 510  930.4867
 511  933.6104
