# Input file       =  1197900169.093376_cleaned.dat
# Candidate        =  PSR_0332+5434
# Telescope        =  AR
# Epoch_topo       =  58108.585082099256
# Epoch_bary       =  N/A
# T_sample         =  0.002
# Data Folded      =  7208960
# Data Avg         =  0.0330197361502628
# Data StdDev      =  1.00038300142245 
# Profile Bins     =  512
# Profile Avg      =  464.931646558901 
# Profile StdDev   =  118.704622426646 
# Reduced chi-sqr  =  1.144
# Prob(Noise)      <  0.0131   (~2.2 sigma)
# P_topo (ms)      =  714.546346854647  +/- 9.37e-05
# P'_topo (s/s)    =  -0                +/- 5.03e-11
# P''_topo (s/s^2) =  0                 +/- 2.26e-14
# P_bary (ms)      =  N/A
# P'_bary (s/s)    =  N/A
# P''_bary (s/s^2) =  N/A
# P_orb (s)        =  N/A
# asin(i)/c (s)    =  N/A
# eccentricity     =  N/A
# w (rad)          =  N/A
# T_peri           =  N/A
######################################################
   0  965.0684
   1  998.2382
   2  922.1432
   3  745.1501
   4  551.6053
   5  465.1571
   6  520.1038
   7  502.8601
   8  366.0723
   9  355.9723
  10  477.0208
  11  473.0699
  12  514.8959
  13  452.9998
  14  360.0635
  15  435.6454
  16  429.9923
  17  503.3179
  18  482.2087
  19  492.3102
  20  567.8876
  21  592.0965
  22  559.47
  23  554.207
  24  607.4879
  25  489.0919
  26  351.2563
  27  527.0426
  28  505.224
  29  466.4343
  30  590.5027
  31  529.4341
  32  427.5045
  33  451.9986
  34  568.8911
  35  436.7673
  36  336.3221
  37  434.3792
  38  568.653
  39  430.147
  40  486.3808
  41  525.149
  42  526.128
  43  414.6844
  44  439.0173
  45  495.7621
  46  535.134
  47  506.9341
  48  474.8634
  49  469.2147
  50  421.0664
  51  436.1356
  52  482.3348
  53  620.8729
  54  492.8347
  55  403.815
  56  471.0743
  57  571.9272
  58  454.9899
  59  536.01
  60  563.2375
  61  478.7058
  62  579.7036
  63  559.6855
  64  426.6574
  65  420.9967
  66  655.4665
  67  641.1755
  68  562.4751
  69  559.2862
  70  513.8193
  71  491.2592
  72  552.3972
  73  554.874
  74  536.9722
  75  480.1479
  76  440.3488
  77  411.1765
  78  450.7445
  79  511.343
  80  496.755
  81  522.3311
  82  433.1896
  83  416.8451
  84  578.9754
  85  553.6888
  86  503.511
  87  503.8395
  88  402.4726
  89  405.3103
  90  423.5399
  91  451.5926
  92  562.0414
  93  579.6845
  94  519.5739
  95  462.7104
  96  290.8205
  97  273.0975
  98  436.673
  99  505.5363
 100  544.1709
 101  431.8479
 102  316.6198
 103  442.1486
 104  559.3533
 105  470.0329
 106  372.9946
 107  387.3366
 108  465.8221
 109  531.642
 110  455.4807
 111  410.7366
 112  437.6202
 113  406.0434
 114  431.6535
 115  408.9871
 116  389.8504
 117  440.9384
 118  535.2883
 119  535.284
 120  551.5692
 121  472.6483
 122  492.3427
 123  391.4239
 124  352.1626
 125  288.4363
 126  364.5451
 127  469.625
 128  476.3244
 129  477.6225
 130  434.7072
 131  432.5519
 132  432.2842
 133  434.0713
 134  366.7136
 135  416.7887
 136  453.2321
 137  385.8844
 138  456.1058
 139  453.1227
 140  464.7021
 141  383.2272
 142  468.2543
 143  477.1449
 144  367.0998
 145  443.3851
 146  463.627
 147  261.6088
 148  296.9091
 149  488.2404
 150  511.0811
 151  380.6528
 152  437.6632
 153  486.7565
 154  408.3372
 155  376.5461
 156  427.5624
 157  517.7631
 158  490.4504
 159  422.6291
 160  510.0001
 161  451.7697
 162  322.6594
 163  306.4074
 164  462.4255
 165  452.6019
 166  371.5227
 167  343.171
 168  285.5721
 169  319.567
 170  311.3418
 171  417.0447
 172  501.8214
 173  444.6212
 174  396.3163
 175  439.6309
 176  415.5927
 177  404.506
 178  508.7135
 179  502.8181
 180  409.2537
 181  411.9177
 182  384.3551
 183  412.7925
 184  465.8669
 185  394.1151
 186  302.7234
 187  281.3021
 188  464.4401
 189  398.3272
 190  274.7296
 191  409.5281
 192  338.3061
 193  375.3268
 194  284.8593
 195  318.1854
 196  423.5135
 197  472.4092
 198  562.3204
 199  523.2329
 200  552.2746
 201  574.7942
 202  486.1863
 203  436.0931
 204  501.6914
 205  469.7259
 206  483.6463
 207  423.0562
 208  420.4774
 209  421.7061
 210  452.6368
 211  382.0259
 212  377.4426
 213  445.0036
 214  542.0345
 215  527.5253
 216  467.5799
 217  532.48
 218  453.4295
 219  394.9331
 220  332.5793
 221  244.7512
 222  349.8097
 223  488.7634
 224  431.1662
 225  398.2171
 226  340.8749
 227  426.8063
 228  479.0209
 229  350.5923
 230  349.8785
 231  507.3512
 232  519.767
 233  490.0432
 234  431.9714
 235  331.0017
 236  351.2778
 237  384.2401
 238  357.9853
 239  386.7249
 240  283.9132
 241  327.1867
 242  415.1054
 243  490.1259
 244  442.512
 245  377.6859
 246  492.9894
 247  510.6165
 248  439.9667
 249  445.5387
 250  527.08
 251  531.3719
 252  474.126
 253  521.702
 254  406.1562
 255  390.9344
 256  480.489
 257  548.0773
 258  491.5464
 259  447.5358
 260  462.1935
 261  448.5344
 262  357.5965
 263  383.0939
 264  567.5129
 265  541.3147
 266  531.673
 267  558.0853
 268  538.0848
 269  409.6025
 270  411.6819
 271  454.2397
 272  462.0254
 273  498.7942
 274  494.6042
 275  430.524
 276  368.7082
 277  423.587
 278  431.3631
 279  313.0534
 280  430.3925
 281  374.0027
 282  439.1302
 283  522.2792
 284  456.2455
 285  361.27
 286  476.4787
 287  366.2227
 288  441.2928
 289  353.1957
 290  449.1383
 291  449.7084
 292  325.0573
 293  396.8406
 294  535.7256
 295  487.2126
 296  400.8385
 297  394.135
 298  371.8964
 299  488.5523
 300  545.723
 301  571.0087
 302  616.0706
 303  578.1519
 304  576.1696
 305  540.4655
 306  517.2917
 307  605.2905
 308  488.6407
 309  442.7293
 310  495.7079
 311  479.1998
 312  500.805
 313  539.272
 314  715.1447
 315  603.0541
 316  416.2922
 317  491.2898
 318  427.3596
 319  506.0859
 320  523.2115
 321  511.8176
 322  482.6887
 323  434.0346
 324  505.4384
 325  524.223
 326  422.9473
 327  400.9576
 328  479.0932
 329  542.2721
 330  401.8539
 331  423.1652
 332  402.9754
 333  470.6889
 334  362.9443
 335  405.744
 336  385.002
 337  334.0803
 338  449.9705
 339  510.8391
 340  571.4127
 341  483.3149
 342  393.0567
 343  423.2165
 344  478.2509
 345  345.6245
 346  297.4235
 347  393.0595
 348  401.0153
 349  520.4598
 350  496.8287
 351  433.7072
 352  379.0526
 353  384.6505
 354  434.6973
 355  277.5845
 356  336.1398
 357  417.5465
 358  337.1679
 359  307.4734
 360  263.7239
 361  367.0215
 362  391.7672
 363  492.3012
 364  434.3753
 365  408.7176
 366  400.7184
 367  485.223
 368  461.9214
 369  405.0804
 370  405.7604
 371  445.3486
 372  321.9709
 373  355.7502
 374  399.2056
 375  507.4166
 376  453.0554
 377  402.1404
 378  511.9243
 379  460.772
 380  357.2213
 381  352.2237
 382  270.5703
 383  438.1786
 384  521.5884
 385  640.9783
 386  455.7498
 387  301.4829
 388  451.0488
 389  593.1355
 390  453.2796
 391  323.29
 392  376.2684
 393  397.8794
 394  435.8023
 395  435.8701
 396  464.8976
 397  447.9896
 398  439.6159
 399  490.6005
 400  435.1091
 401  441.104
 402  556.5857
 403  473.3985
 404  481.0065
 405  435.5895
 406  447.3137
 407  386.2319
 408  419.2912
 409  360.45
 410  493.1567
 411  526.0721
 412  446.0325
 413  400.5438
 414  475.4323
 415  498.371
 416  432.1604
 417  454.2311
 418  399.7487
 419  567.0631
 420  567.5648
 421  538.1989
 422  497.5526
 423  486.0607
 424  449.9514
 425  488.9892
 426  402.7454
 427  308.995
 428  462.2458
 429  528.7349
 430  560.2888
 431  429.5349
 432  377.4695
 433  391.6474
 434  414.4041
 435  496.4077
 436  515.545
 437  516.5094
 438  599.1972
 439  535.614
 440  523.5331
 441  497.4213
 442  419.6561
 443  494.1948
 444  474.8837
 445  485.0571
 446  593.0764
 447  489.593
 448  526.0358
 449  560.113
 450  573.4387
 451  556.7485
 452  478.8929
 453  543.77
 454  581.3835
 455  438.73
 456  364.7823
 457  592.373
 458  546.2836
 459  442.2483
 460  427.7946
 461  547.1317
 462  506.9552
 463  385.9789
 464  517.813
 465  503.5331
 466  550.0441
 467  607.2644
 468  615.5309
 469  610.6544
 470  537.8976
 471  586.0146
 472  541.9404
 473  447.65
 474  527.6791
 475  563.2995
 476  565.9874
 477  457.8437
 478  453.3157
 479  595.6911
 480  636.4658
 481  584.9765
 482  595.3534
 483  544.6537
 484  620.5847
 485  443.8726
 486  458.0656
 487  447.9007
 488  438.661
 489  492.4296
 490  519.2665
 491  430.9171
 492  427.1019
 493  520.6011
 494  552.088
 495  444.1596
 496  442.222
 497  415.4195
 498  362.428
 499  468.5378
 500  522.8745
 501  399.154
 502  483.5523
 503  492.299
 504  526.241
 505  522.8533
 506  649.9913
 507  811.9374
 508  624.2143
 509  726.3047
 510  767.3879
 511  821.3992
