# Input file       =  1197484280.100448_cleaned.dat
# Candidate        =  PSR_0332+5434
# Telescope        =  AR
# Epoch_topo       =  58103.771552088518
# Epoch_bary       =  N/A
# T_sample         =  0.002
# Data Folded      =  7340032
# Data Avg         =  0.0571061034877985
# Data StdDev      =  1.00003353875265 
# Profile Bins     =  512
# Profile Avg      =  818.383557608925 
# Profile StdDev   =  119.737052073457 
# Reduced chi-sqr  =  0.835
# Prob(Noise)      <  0.997   (~0.0 sigma)
# P_topo (ms)      =  714.541703734545  +/- 0.000393
# P'_topo (s/s)    =  -0                +/- 2.07e-10
# P''_topo (s/s^2) =  0                 +/- 9.15e-14
# P_bary (ms)      =  N/A
# P'_bary (s/s)    =  N/A
# P''_bary (s/s^2) =  N/A
# P_orb (s)        =  N/A
# asin(i)/c (s)    =  N/A
# eccentricity     =  N/A
# w (rad)          =  N/A
# T_peri           =  N/A
######################################################
   0  1190.56
   1  1219.456
   2  1183.318
   3  1008.464
   4  941.1106
   5  921.3276
   6  945.6351
   7  859.9147
   8  807.4058
   9  708.7951
  10  712.5042
  11  761.9009
  12  753.309
  13  829.2554
  14  832.0149
  15  877.0246
  16  917.3796
  17  931.3687
  18  955.6468
  19  839.519
  20  768.3269
  21  794.8032
  22  677.7708
  23  780.3044
  24  892.6557
  25  870.03
  26  830.394
  27  811.5193
  28  779.1433
  29  782.5415
  30  738.999
  31  708.1006
  32  734.5674
  33  830.5928
  34  885.2516
  35  770.9244
  36  771.2886
  37  844.2115
  38  887.9323
  39  846.879
  40  817.3011
  41  801.8292
  42  726.3558
  43  787.6008
  44  909.2277
  45  896.6708
  46  884.3577
  47  839.2554
  48  930.0651
  49  961.5643
  50  943.2178
  51  887.8464
  52  866.5349
  53  908.6918
  54  852.344
  55  806.4062
  56  774.4648
  57  896.4734
  58  872.7714
  59  846.8329
  60  787.1185
  61  657.9188
  62  662.756
  63  733.1617
  64  799.0558
  65  847.2335
  66  836.5167
  67  699.7198
  68  665.1118
  69  769.3345
  70  807.8864
  71  938.1158
  72  879.4174
  73  908.5741
  74  865.9755
  75  800.2975
  76  856.7158
  77  932.9493
  78  911.5447
  79  773.0574
  80  731.3356
  81  706.8562
  82  790.0132
  83  767.0109
  84  748.7805
  85  814.8054
  86  815.4615
  87  862.2114
  88  887.8073
  89  848.6956
  90  819.0127
  91  881.6705
  92  906.2387
  93  920.795
  94  879.1575
  95  767.9786
  96  803.3653
  97  838.3357
  98  899.8188
  99  992.2617
 100  876.4794
 101  798.1268
 102  841.6908
 103  798.3317
 104  754.8469
 105  803.4736
 106  733.7833
 107  709.5793
 108  763.9408
 109  669.1223
 110  743.8825
 111  750.9246
 112  745.8943
 113  748.6383
 114  767.4293
 115  773.9733
 116  793.9163
 117  916.7607
 118  764.6664
 119  856.6245
 120  860.7025
 121  889.7844
 122  855.7703
 123  742.4103
 124  744.3536
 125  795.8374
 126  785.9832
 127  813.4128
 128  794.2321
 129  772.9583
 130  799.5984
 131  737.2443
 132  766.0561
 133  819.6522
 134  939.1417
 135  783.4759
 136  696.329
 137  781.8651
 138  783.4078
 139  727.3503
 140  730.4828
 141  753.6987
 142  777.9113
 143  796.3088
 144  897.2087
 145  896.5733
 146  947.18
 147  904.8405
 148  786.3066
 149  821.05
 150  898.5554
 151  919.9599
 152  869.2975
 153  826.8464
 154  860.7464
 155  864.8477
 156  816.2107
 157  816.2204
 158  872.3069
 159  960.3555
 160  852.5023
 161  897.6715
 162  896.843
 163  808.9991
 164  726.4312
 165  755.2847
 166  859.0635
 167  816.7223
 168  812.3109
 169  916.1346
 170  904.7704
 171  824.4026
 172  817.28
 173  718.4012
 174  733.1055
 175  832.596
 176  873.7913
 177  835.2443
 178  750.4732
 179  840.8928
 180  807.6188
 181  830.6318
 182  850.1372
 183  820.7122
 184  735.6819
 185  777.0785
 186  731.819
 187  877.3373
 188  914.8118
 189  850.6448
 190  825.0835
 191  773.6525
 192  762.462
 193  891.6172
 194  853.3541
 195  811.5458
 196  730.9489
 197  750.2266
 198  707.9477
 199  704.1208
 200  854.6483
 201  736.2443
 202  727.8578
 203  750.4788
 204  679.047
 205  700.3821
 206  666.731
 207  693.0694
 208  749.4661
 209  720.1439
 210  720.1461
 211  703.4515
 212  678.1729
 213  723.2329
 214  655.7208
 215  719.2549
 216  745.0146
 217  867.1483
 218  862.7979
 219  940.7031
 220  844.4241
 221  724.0289
 222  725.3506
 223  786.8224
 224  828.7678
 225  780.8123
 226  837.7218
 227  881.2074
 228  790.8515
 229  752.1436
 230  822.7197
 231  892.8725
 232  727.5078
 233  851.273
 234  777.1118
 235  915.7121
 236  887.2068
 237  842.8766
 238  751.0132
 239  771.0783
 240  909.2708
 241  946.7999
 242  770.4999
 243  700.7735
 244  782.0163
 245  808.3528
 246  795.7134
 247  761.6788
 248  672.7212
 249  705.2877
 250  790.8841
 251  807.5046
 252  739.9695
 253  851.5436
 254  806.6413
 255  764.8279
 256  708.533
 257  764.8561
 258  784.2637
 259  871.2189
 260  808.8008
 261  768.2768
 262  810.9864
 263  858.321
 264  861.7676
 265  795.2775
 266  830.5145
 267  732.3529
 268  833.5461
 269  846.3116
 270  837.5367
 271  862.9321
 272  768.5334
 273  737.3271
 274  785.1056
 275  725.1206
 276  819.1038
 277  835.7225
 278  844.2966
 279  853.6379
 280  884.9526
 281  808.5187
 282  794.5519
 283  781.0109
 284  777.0942
 285  866.4369
 286  925.1646
 287  895.2185
 288  804.7567
 289  909.5784
 290  824.9597
 291  761.3273
 292  691.9794
 293  745.5513
 294  770.6783
 295  745.1413
 296  854.5662
 297  829.7937
 298  830.9007
 299  801.343
 300  772.0812
 301  757.9596
 302  918.5094
 303  836.8672
 304  813.4333
 305  711.9127
 306  775.1978
 307  802.4402
 308  822.3242
 309  862.1177
 310  741.3978
 311  719.1705
 312  829.4979
 313  813.8632
 314  781.3621
 315  781.347
 316  829.1947
 317  860.1081
 318  880.0974
 319  902.7058
 320  748.4704
 321  764.5986
 322  835.8245
 323  820.975
 324  774.6296
 325  779.464
 326  670.3342
 327  690.5184
 328  745.8929
 329  747.4412
 330  757.3503
 331  739.2523
 332  840.4779
 333  759.802
 334  793.7922
 335  787.8248
 336  847.0761
 337  840.8057
 338  828.3
 339  686.3822
 340  773.0626
 341  926.6883
 342  902.4258
 343  785.585
 344  812.4858
 345  773.7169
 346  737.363
 347  783.4134
 348  719.6606
 349  723.0079
 350  715.1573
 351  752.9097
 352  761.0281
 353  758.3831
 354  706.8895
 355  741.1016
 356  754.4715
 357  726.5295
 358  736.9404
 359  867.1201
 360  833.9091
 361  771.3216
 362  728.2119
 363  656.407
 364  717.8918
 365  759.5453
 366  752.1345
 367  700.465
 368  739.2812
 369  817.5549
 370  905.9656
 371  949.6387
 372  888.2086
 373  783.598
 374  803.0746
 375  893.3482
 376  832.0568
 377  855.7214
 378  843.8758
 379  908.1421
 380  751.7191
 381  720.5538
 382  833.6374
 383  806.5919
 384  817.4711
 385  804.4029
 386  657.8052
 387  714.5493
 388  791.7936
 389  854.0494
 390  859.7576
 391  762.7086
 392  814.5825
 393  846.3967
 394  751.7949
 395  757.3198
 396  804.0139
 397  775.0612
 398  838.9598
 399  782.0912
 400  760.5641
 401  818.5965
 402  807.7993
 403  798.8174
 404  846.8027
 405  855.2408
 406  795.676
 407  791.9613
 408  881.6113
 409  840.0476
 410  811.087
 411  873.1505
 412  972.097
 413  870.194
 414  868.9951
 415  877.5923
 416  927.3025
 417  895.8476
 418  846.976
 419  829.9332
 420  805.5169
 421  795.8726
 422  816.6286
 423  851.5214
 424  804.3302
 425  767.24
 426  843.7313
 427  857.4996
 428  823.499
 429  900.6587
 430  935.9061
 431  1038.676
 432  863.9053
 433  750.7757
 434  830.6432
 435  836.1859
 436  882.5419
 437  888.8741
 438  938.1598
 439  957.1853
 440  836.9102
 441  807.5377
 442  893.8788
 443  866.3749
 444  926.0498
 445  862.0571
 446  705.4214
 447  643.2755
 448  714.9171
 449  874.6716
 450  848.6101
 451  803.3698
 452  825.7356
 453  767.5147
 454  856.782
 455  847.5569
 456  876.7603
 457  853.7021
 458  821.2759
 459  933.2798
 460  781.2306
 461  671.6512
 462  770.3516
 463  760.7404
 464  794.9498
 465  843.6364
 466  903.6884
 467  908.8884
 468  855.3445
 469  742.8587
 470  797.0494
 471  783.6814
 472  721.0158
 473  821.9464
 474  850.0606
 475  897.5275
 476  883.8041
 477  857.2036
 478  770.5003
 479  750.3582
 480  754.1521
 481  880.1614
 482  727.4764
 483  842.46
 484  928.2202
 485  934.598
 486  761.3684
 487  767.0535
 488  808.5523
 489  910.1194
 490  956.8853
 491  946.5105
 492  866.6137
 493  817.6085
 494  842.7479
 495  1097.223
 496  1005.437
 497  922.8505
 498  861.2236
 499  837.8689
 500  888.1697
 501  905.6481
 502  927.2444
 503  876.0381
 504  842.8722
 505  860.6362
 506  931.409
 507  802.037
 508  846.676
 509  967.5151
 510  1085.348
 511  1130.984
