# Input file       =  1197499180.084148_cleaned.dat
# Candidate        =  PSR_0332+5434
# Telescope        =  AR
# Epoch_topo       =  58103.944005603567
# Epoch_bary       =  N/A
# T_sample         =  0.002
# Data Folded      =  7340032
# Data Avg         =  0.0492249471367914
# Data StdDev      =  1.00005261894729 
# Profile Bins     =  512
# Profile Avg      =  705.697442308038 
# Profile StdDev   =  119.739336603097 
# Reduced chi-sqr  =  0.936
# Prob(Noise)      <  0.847   (~0.0 sigma)
# P_topo (ms)      =  714.542215712384  +/- 0.00013
# P'_topo (s/s)    =  -0                +/- 6.87e-11
# P''_topo (s/s^2) =  0                 +/- 3.03e-14
# P_bary (ms)      =  N/A
# P'_bary (s/s)    =  N/A
# P''_bary (s/s^2) =  N/A
# P_orb (s)        =  N/A
# asin(i)/c (s)    =  N/A
# eccentricity     =  N/A
# w (rad)          =  N/A
# T_peri           =  N/A
######################################################
   0  1139.107
   1  1080.077
   2  957.7685
   3  915.6317
   4  762.5795
   5  714.3853
   6  706.5466
   7  731.9362
   8  675.2117
   9  735.8713
  10  679.9279
  11  662.6561
  12  761.3102
  13  803.5905
  14  776.3839
  15  757.7906
  16  653.0676
  17  624.6291
  18  673.1011
  19  694.8417
  20  630.4067
  21  603.437
  22  596.674
  23  699.6649
  24  771.5339
  25  764.8944
  26  771.1109
  27  619.8529
  28  576.3713
  29  541.8705
  30  525.2775
  31  533.869
  32  581.9583
  33  730.3834
  34  783.1061
  35  606.9542
  36  618.0004
  37  682.9284
  38  668.2602
  39  759.0486
  40  762.7565
  41  833.5916
  42  735.5414
  43  730.1113
  44  682.5376
  45  683.0928
  46  729.2921
  47  677.7449
  48  658.6238
  49  577.5909
  50  692.8788
  51  660.6675
  52  793.2549
  53  689.7302
  54  617.733
  55  658.0448
  56  648.8231
  57  718.4927
  58  795.1771
  59  736.9908
  60  649.2071
  61  632.8849
  62  749.1131
  63  731.2285
  64  824.5533
  65  700.7126
  66  686.292
  67  666.557
  68  683.4135
  69  814.8678
  70  833.2006
  71  824.0507
  72  780.6918
  73  764.0175
  74  698.8971
  75  798.0144
  76  823.9227
  77  808.6045
  78  811.324
  79  709.8734
  80  750.6777
  81  686.7964
  82  664.2761
  83  804.9895
  84  807.7319
  85  677.6911
  86  729.2877
  87  787.1494
  88  769.7922
  89  682.0061
  90  765.3123
  91  784.8402
  92  675.7594
  93  684.443
  94  678.6591
  95  624.4594
  96  635.02
  97  704.0186
  98  643.8028
  99  709.94
 100  707.2946
 101  675.0524
 102  722.6597
 103  700.8087
 104  754.7248
 105  710.808
 106  619.5493
 107  676.0485
 108  720.4554
 109  645.3725
 110  682.5383
 111  774.014
 112  750.6509
 113  879.657
 114  991.4826
 115  958.0716
 116  827.8459
 117  756.4313
 118  724.331
 119  621.6929
 120  597.1831
 121  648.459
 122  759.3223
 123  719.6221
 124  782.131
 125  829.9827
 126  832.259
 127  790.3655
 128  811.6077
 129  719.1434
 130  683.5415
 131  698.4524
 132  702.3651
 133  771.8598
 134  793.2265
 135  700.0819
 136  693.0472
 137  691.0366
 138  670.0948
 139  746.6874
 140  787.7775
 141  716.3752
 142  654.7576
 143  600.6123
 144  641.4651
 145  686.8427
 146  639.029
 147  696.4891
 148  763.666
 149  747.9502
 150  677.0704
 151  702.2546
 152  680.8982
 153  629.1495
 154  654.6973
 155  716.8827
 156  732.4354
 157  615.8007
 158  656.3084
 159  793.5029
 160  738.7513
 161  727.8356
 162  529.0148
 163  574.5077
 164  605.7142
 165  648.1442
 166  747.8372
 167  710.1118
 168  710.0513
 169  783.5433
 170  812.9634
 171  751.3729
 172  689.9366
 173  686.1617
 174  742.9033
 175  724.8171
 176  692.7033
 177  739.2136
 178  672.7645
 179  645.5192
 180  641.1495
 181  616.0667
 182  708.8344
 183  727.8176
 184  778.2358
 185  697.0014
 186  626.2949
 187  581.4902
 188  530.3364
 189  596.4901
 190  552.7658
 191  611.6043
 192  670.6996
 193  610.2147
 194  618.1125
 195  656.9361
 196  688.9496
 197  617.837
 198  632.2927
 199  649.3222
 200  586.0441
 201  566.2834
 202  669.9224
 203  770.9197
 204  667.7252
 205  627.6568
 206  683.3895
 207  696.91
 208  651.7307
 209  595.0871
 210  720.1328
 211  711.9629
 212  644.7309
 213  613.2243
 214  690.5901
 215  753.6016
 216  741.5095
 217  647.6624
 218  674.1205
 219  715.9089
 220  781.8813
 221  720.6671
 222  712.2772
 223  704.4594
 224  636.0676
 225  636.7136
 226  643.0054
 227  820.6749
 228  865.5203
 229  770.293
 230  710.4437
 231  745.2831
 232  667.5474
 233  730.3364
 234  840.6988
 235  739.5963
 236  642.8151
 237  713.5842
 238  800.1645
 239  614.2465
 240  586.5588
 241  759.9188
 242  687.0093
 243  631.9095
 244  629.1176
 245  708.659
 246  758.8973
 247  708.8579
 248  600.5553
 249  683.2078
 250  764.4648
 251  761.9447
 252  728.2899
 253  764.5623
 254  700.6208
 255  706.9117
 256  806.9259
 257  718.4539
 258  653.7208
 259  591.4652
 260  640.5326
 261  724.172
 262  630.8248
 263  662.0593
 264  634.894
 265  723.5759
 266  678.2991
 267  743.8002
 268  773.7718
 269  703.3923
 270  656.1155
 271  710.2504
 272  640.1577
 273  500.8545
 274  601.7107
 275  698.4854
 276  733.6072
 277  726.8502
 278  610.2681
 279  548.6002
 280  668.2203
 281  767.5859
 282  719.2297
 283  675.5986
 284  729.1447
 285  747.3383
 286  789.01
 287  625.7587
 288  722.0565
 289  749.4168
 290  696.2269
 291  725.7457
 292  733.3861
 293  657.3488
 294  580.9231
 295  779.0493
 296  699.0679
 297  677.3541
 298  750.6159
 299  812.4349
 300  713.2851
 301  761.6056
 302  831.592
 303  779.3278
 304  758.0415
 305  775.98
 306  739.9368
 307  688.4481
 308  672.5419
 309  750.1605
 310  753.9846
 311  860.06
 312  751.2339
 313  684.8271
 314  717.5928
 315  716.4943
 316  709.33
 317  773.089
 318  744.0085
 319  640.7869
 320  653.8488
 321  697.5051
 322  706.2107
 323  665.9678
 324  653.4221
 325  545.0773
 326  510.0385
 327  641.9518
 328  669.2244
 329  551.0073
 330  666.6564
 331  742.1794
 332  702.9807
 333  582.3484
 334  715.9282
 335  705.959
 336  696.7531
 337  741.5079
 338  791.8776
 339  636.1063
 340  662.925
 341  689.9
 342  714.7351
 343  677.7178
 344  658.6094
 345  704.5676
 346  732.9274
 347  618.9012
 348  637.1831
 349  708.0856
 350  630.3114
 351  573.3036
 352  615.491
 353  777.009
 354  769.2814
 355  771.4049
 356  769.2109
 357  740.1898
 358  652.6904
 359  550.6895
 360  600.4589
 361  628.6166
 362  701.3354
 363  771.2836
 364  826.0881
 365  780.2109
 366  676.1855
 367  639.8468
 368  692.7656
 369  752.7192
 370  780.3087
 371  780.3349
 372  567.8607
 373  650.2176
 374  559.6343
 375  575.7305
 376  593.8008
 377  624.5657
 378  722.4868
 379  679.8304
 380  662.6142
 381  750.4691
 382  632.3276
 383  631.5035
 384  656.7627
 385  699.9522
 386  677.945
 387  641.5366
 388  723.6569
 389  667.4936
 390  652.5569
 391  664.2635
 392  636.7446
 393  748.2124
 394  711.2841
 395  705.7607
 396  728.8915
 397  717.0448
 398  615.5481
 399  526.5659
 400  493.2538
 401  625.3512
 402  606.079
 403  744.36
 404  674.8688
 405  614.9611
 406  591.7221
 407  576.6784
 408  454.9343
 409  618.9227
 410  730.1763
 411  665.7599
 412  661.3799
 413  606.2188
 414  540.9332
 415  688.9877
 416  834.3187
 417  828.2673
 418  743.5081
 419  804.4691
 420  830.0936
 421  737.1676
 422  675.1442
 423  825.1561
 424  771.5054
 425  707.8616
 426  708.02
 427  671.0822
 428  645.283
 429  609.0334
 430  658.8616
 431  742.3904
 432  622.9749
 433  656.6606
 434  653.0063
 435  654.8763
 436  612.2403
 437  732.809
 438  888.0965
 439  785.6124
 440  637.3613
 441  618.4619
 442  633.6523
 443  826.9974
 444  938.2244
 445  760.4195
 446  647.8568
 447  795.1896
 448  750.2453
 449  764.1916
 450  771.7072
 451  851.5778
 452  803.2221
 453  820.6987
 454  790.2958
 455  877.7439
 456  895.0469
 457  747.9764
 458  642.2875
 459  696.9965
 460  814.3199
 461  803.0258
 462  742.8745
 463  789.967
 464  754.675
 465  688.6097
 466  794.0565
 467  867.9542
 468  718.7764
 469  567.6248
 470  589.2231
 471  617.1609
 472  645.2393
 473  706.1083
 474  877.838
 475  834.4399
 476  644.6941
 477  535.5692
 478  649.8695
 479  720.1172
 480  759.1666
 481  789.5346
 482  768.533
 483  714.8148
 484  669.0994
 485  711.5813
 486  705.5478
 487  659.5845
 488  659.0629
 489  634.4216
 490  656.9229
 491  769.1513
 492  826.8376
 493  760.3116
 494  767.9762
 495  697.0258
 496  707.1466
 497  728.4296
 498  816.8338
 499  812.3875
 500  635.1505
 501  752.1979
 502  739.564
 503  719.6163
 504  722.119
 505  731.8588
 506  787.1933
 507  825.5513
 508  774.4457
 509  749.1617
 510  910.8595
 511  1102.069
