# Input file       =  1197067746.109697_cleaned.dat
# Candidate        =  PSR_0332+5434
# Telescope        =  AR
# Epoch_topo       =  58098.950556825199
# Epoch_bary       =  N/A
# T_sample         =  0.002
# Data Folded      =  7340032
# Data Avg         =  0.0513963236712931
# Data StdDev      =  1.00012614130438 
# Profile Bins     =  512
# Profile Avg      =  736.840260949531 
# Profile StdDev   =  119.748139658153 
# Reduced chi-sqr  =  0.814
# Prob(Noise)      <  0.999   (~0.0 sigma)
# P_topo (ms)      =  714.537210718288  +/- 0.000276
# P'_topo (s/s)    =  -0                +/- 1.45e-10
# P''_topo (s/s^2) =  0                 +/- 6.42e-14
# P_bary (ms)      =  N/A
# P'_bary (s/s)    =  N/A
# P''_bary (s/s^2) =  N/A
# P_orb (s)        =  N/A
# asin(i)/c (s)    =  N/A
# eccentricity     =  N/A
# w (rad)          =  N/A
# T_peri           =  N/A
######################################################
   0  993.5229
   1  1065.094
   2  1022.192
   3  776.0898
   4  695.3471
   5  738.0479
   6  697.3417
   7  578.6815
   8  614.663
   9  676.5753
  10  718.2631
  11  669.754
  12  733.8885
  13  728.6405
  14  745.1406
  15  659.7615
  16  742.3726
  17  780.9767
  18  804.917
  19  806.4912
  20  819.6307
  21  750.6922
  22  794.7526
  23  869.207
  24  762.5472
  25  599.4186
  26  702.4799
  27  729.4037
  28  794.7349
  29  743.4834
  30  777.8535
  31  844.1897
  32  824.2284
  33  780.7925
  34  736.6749
  35  845.3798
  36  944.2186
  37  785.7995
  38  710.1591
  39  645.6946
  40  727.6998
  41  678.556
  42  682.0434
  43  699.7635
  44  792.619
  45  755.5541
  46  722.3521
  47  713.3586
  48  568.1381
  49  552.2709
  50  824.1761
  51  768.1055
  52  695.5696
  53  666.4296
  54  755.3265
  55  802.8505
  56  735.819
  57  777.9077
  58  899.6859
  59  854.0046
  60  752.2178
  61  821.8159
  62  884.9896
  63  832.6016
  64  698.8975
  65  850.8008
  66  781.3804
  67  762.0093
  68  840.8724
  69  684.0105
  70  684.5239
  71  720.8179
  72  763.4014
  73  775.117
  74  698.4491
  75  747.5095
  76  734.0245
  77  745.1815
  78  718.6586
  79  743.6163
  80  763.184
  81  580.4898
  82  546.6593
  83  660.4446
  84  726.545
  85  790.7148
  86  832.9025
  87  815.5486
  88  787.0848
  89  753.5228
  90  693.5133
  91  591.2691
  92  746.9181
  93  815.3317
  94  796.7482
  95  767.4762
  96  782.0399
  97  679.2778
  98  612.7184
  99  701.9003
 100  719.3525
 101  767.3814
 102  721.115
 103  796.6295
 104  769.5824
 105  645.9908
 106  738.308
 107  809.5185
 108  852.4641
 109  664.9626
 110  748.4877
 111  736.5118
 112  631.6974
 113  748.222
 114  872.5145
 115  785.5063
 116  801.5385
 117  757.6379
 118  713.1058
 119  694.0953
 120  743.992
 121  663.6564
 122  734.4568
 123  736.4272
 124  665.0151
 125  786.3107
 126  758.828
 127  781.5845
 128  794.4108
 129  865.3318
 130  836.113
 131  773.1583
 132  797.2683
 133  783.0154
 134  716.3991
 135  779.4546
 136  749.719
 137  735.7161
 138  740.5506
 139  685.788
 140  685.5712
 141  720.2059
 142  785.8104
 143  745.5021
 144  680.3243
 145  716.4304
 146  652.2935
 147  634.3732
 148  760.7549
 149  725.561
 150  729.2477
 151  750.0656
 152  785.8156
 153  718.6801
 154  824.0624
 155  880.7734
 156  626.8329
 157  643.7388
 158  725.1848
 159  701.1353
 160  733.1472
 161  750.3917
 162  696.717
 163  699.8766
 164  724.2062
 165  777.3665
 166  768.8127
 167  807.0513
 168  830.1135
 169  804.0606
 170  686.8287
 171  696.8087
 172  690.48
 173  590.0161
 174  533.9749
 175  631.3051
 176  791.1777
 177  679.8879
 178  649.0176
 179  676.7833
 180  768.955
 181  773.3558
 182  820.9608
 183  876
 184  830.9528
 185  800.6856
 186  753.0369
 187  569.1491
 188  664.2743
 189  791.5709
 190  714.8121
 191  695.9108
 192  760.6202
 193  821.7153
 194  800.2535
 195  822.9945
 196  725.9732
 197  740.6708
 198  693.7803
 199  755.8196
 200  773.9933
 201  886.6482
 202  940.3842
 203  807.1528
 204  840.5524
 205  834.7696
 206  750.1375
 207  798.4103
 208  784.7585
 209  755.9816
 210  761.8937
 211  719.8359
 212  607.6194
 213  682.1603
 214  677.7856
 215  690.2369
 216  675.0806
 217  717.313
 218  719.5267
 219  691.5732
 220  537.5604
 221  636.7039
 222  681.5397
 223  628.2624
 224  713.0582
 225  676.8589
 226  789.5403
 227  791.6027
 228  661.9122
 229  644.8268
 230  717.8253
 231  758.3895
 232  664.2269
 233  686.2156
 234  771.6345
 235  721.5782
 236  768.5682
 237  848.4377
 238  776.7217
 239  829.4785
 240  763.6816
 241  735.8583
 242  730.7498
 243  726.1284
 244  772.6169
 245  739.5562
 246  723.298
 247  753.7722
 248  817.3875
 249  809.857
 250  618.4468
 251  702.8005
 252  808.7438
 253  704.9655
 254  705.0957
 255  773.1442
 256  703.3546
 257  775.2534
 258  841.7018
 259  863.476
 260  795.6526
 261  842.9763
 262  741.3771
 263  738.9687
 264  702.6775
 265  700.4443
 266  761.7691
 267  767.0314
 268  796.9655
 269  698.8738
 270  707.7273
 271  673.0912
 272  820.969
 273  872.0931
 274  883.5841
 275  789.3012
 276  812.2008
 277  695.1228
 278  621.0666
 279  625.4485
 280  709.9476
 281  644.7478
 282  590.6785
 283  675.3975
 284  672.3535
 285  599.5518
 286  656.295
 287  563.9734
 288  545.9059
 289  768.1672
 290  718.9366
 291  715.0693
 292  749.197
 293  742.5383
 294  722.6396
 295  719.4551
 296  773.9905
 297  803.3547
 298  665.6376
 299  708.5411
 300  699.2471
 301  765.1211
 302  771.8525
 303  679.1706
 304  667.0878
 305  664.8222
 306  684.4467
 307  603.7665
 308  647.3154
 309  754.4062
 310  718.6053
 311  788.988
 312  684.4084
 313  743.316
 314  800.3743
 315  646.2791
 316  579.0809
 317  640.7725
 318  742.0264
 319  716.6202
 320  695.2136
 321  671.5854
 322  634.8937
 323  641.3352
 324  700.0886
 325  659.3804
 326  713.762
 327  708.2806
 328  765.5561
 329  773.0849
 330  752.488
 331  780.381
 332  799.3102
 333  810.7794
 334  719.9338
 335  740.6545
 336  794.3326
 337  840.1703
 338  715.0065
 339  745.7811
 340  803.0939
 341  729.9243
 342  678.6557
 343  811.1287
 344  748.8604
 345  694.5629
 346  739.1231
 347  887.6934
 348  941.545
 349  818.5204
 350  762.9737
 351  697.6847
 352  721.996
 353  741.5305
 354  661.3011
 355  741.0178
 356  844.3775
 357  746.3066
 358  731.0939
 359  768.1487
 360  778.6472
 361  738.3441
 362  830.1831
 363  898.2764
 364  860.8593
 365  759.1732
 366  812.9845
 367  794.8747
 368  785.0225
 369  812.5961
 370  833.4028
 371  772.6998
 372  810.3095
 373  766.3773
 374  826.3311
 375  813.0291
 376  645.7872
 377  731.5364
 378  810.7108
 379  891.1613
 380  827.1625
 381  759.569
 382  803.8432
 383  751.9628
 384  831.3394
 385  919.3581
 386  819.4255
 387  794.5748
 388  744.3137
 389  668.7154
 390  656.095
 391  638.9052
 392  792.1981
 393  810.1641
 394  845.7104
 395  855.1409
 396  791.9196
 397  902.3691
 398  775.9034
 399  707.5022
 400  708.2383
 401  688.3775
 402  562.9791
 403  608.2441
 404  768.7806
 405  755.1003
 406  826.6672
 407  799.1365
 408  741.3803
 409  626.4422
 410  696.469
 411  677.728
 412  698.847
 413  786.1315
 414  811.6508
 415  757.0214
 416  569.7976
 417  622.9822
 418  689.1957
 419  728.4079
 420  654.0737
 421  591.3931
 422  622.0131
 423  721.9584
 424  730.215
 425  629.632
 426  730.5937
 427  767.0611
 428  719.4174
 429  681.9485
 430  706.9298
 431  690.0336
 432  669.0989
 433  689.9764
 434  726.7529
 435  634.2491
 436  688.9983
 437  757.6038
 438  729.3572
 439  671.6642
 440  671.6134
 441  631.6266
 442  687.2381
 443  708.5378
 444  782.6984
 445  774.7995
 446  729.1936
 447  634.7411
 448  551.3452
 449  540.9666
 450  659.8114
 451  786.4574
 452  766.5316
 453  764.951
 454  913.7107
 455  871.3521
 456  753.6205
 457  779.2165
 458  672.9216
 459  685.4088
 460  660.4733
 461  728.814
 462  873.0831
 463  767.563
 464  677.5333
 465  721.7567
 466  600.7561
 467  704.978
 468  877.5393
 469  725.1602
 470  646.5347
 471  747.1185
 472  794.2343
 473  693.1936
 474  574.7094
 475  770.9684
 476  859.6986
 477  711.0114
 478  682.7119
 479  772.3918
 480  653.6095
 481  681.7712
 482  635.264
 483  691.5521
 484  701.4561
 485  750.3353
 486  656.7555
 487  645.7817
 488  556.0156
 489  617.3912
 490  626.3839
 491  613.2305
 492  723.3989
 493  735.4142
 494  731.8837
 495  703.4274
 496  676.9124
 497  661.9393
 498  665.7384
 499  667.5077
 500  661.7343
 501  576.9255
 502  681.405
 503  740.8452
 504  756.7917
 505  761.6718
 506  828.4927
 507  662.9199
 508  778.7863
 509  847.3928
 510  783.5159
 511  950.1285
