# Input file       =  1198244740.110395_cleaned.dat
# Candidate        =  PSR_0332+5434
# Telescope        =  AR
# Epoch_topo       =  58112.573172574019
# Epoch_bary       =  N/A
# T_sample         =  0.002
# Data Folded      =  7208960
# Data Avg         =  0.0606745655931505
# Data StdDev      =  1.00047477923389 
# Profile Bins     =  512
# Profile Avg      =  854.164198741462 
# Profile StdDev   =  118.715512706108 
# Reduced chi-sqr  =  1.057
# Prob(Noise)      <  0.181   (~0.9 sigma)
# P_topo (ms)      =  714.550073362326  +/- 0.000216
# P'_topo (s/s)    =  -0                +/- 1.16e-10
# P''_topo (s/s^2) =  0                 +/- 5.22e-14
# P_bary (ms)      =  N/A
# P'_bary (s/s)    =  N/A
# P''_bary (s/s^2) =  N/A
# P_orb (s)        =  N/A
# asin(i)/c (s)    =  N/A
# eccentricity     =  N/A
# w (rad)          =  N/A
# T_peri           =  N/A
######################################################
   0  1487.693
   1  1398.248
   2  1113.26
   3  1025.625
   4  956.8483
   5  908.4187
   6  845.5967
   7  910.5602
   8  955.3895
   9  864.1384
  10  884.517
  11  961.8862
  12  956.2292
  13  853.1238
  14  878.6682
  15  844.2962
  16  1005.134
  17  958.9045
  18  885.5936
  19  802.3049
  20  796.4945
  21  1039.422
  22  868.4481
  23  775.98
  24  789.1541
  25  786.8911
  26  804.2526
  27  755.2623
  28  853.8745
  29  859.049
  30  763.842
  31  755.1455
  32  863.8388
  33  880.9442
  34  865.1107
  35  851.0498
  36  868.528
  37  857.5084
  38  875.2074
  39  938.6298
  40  810.0658
  41  880.8561
  42  869.9413
  43  916.4066
  44  1035.7
  45  915.35
  46  783.8023
  47  856.9543
  48  971.8618
  49  1009.147
  50  854.4436
  51  879.2175
  52  840.1207
  53  882.9589
  54  904.1154
  55  863.9622
  56  793.4053
  57  822.8892
  58  721.6118
  59  751.3723
  60  758.3442
  61  802.1727
  62  856.0781
  63  858.3766
  64  962.1411
  65  856.9694
  66  802.58
  67  694.0717
  68  803.9607
  69  825.2996
  70  830.1929
  71  906.1477
  72  1002.543
  73  938.1254
  74  881.3403
  75  894.5153
  76  971.5398
  77  890.5717
  78  843.4473
  79  793.4174
  80  768.9338
  81  826.8539
  82  857.967
  83  801.8826
  84  806.0959
  85  942.3972
  86  1005.446
  87  855
  88  743.1354
  89  934.1217
  90  865.501
  91  936.7896
  92  919.1769
  93  861.0394
  94  818.0819
  95  885.9797
  96  916.8676
  97  892.7074
  98  781.9302
  99  839.7579
 100  922.4763
 101  906.8991
 102  890.7408
 103  881.4629
 104  859.2661
 105  821.3374
 106  784.2454
 107  815.3464
 108  852.9672
 109  761.4479
 110  750.7789
 111  867.3532
 112  932.069
 113  832.3532
 114  887.9513
 115  706.8966
 116  810.3047
 117  758.962
 118  788.0784
 119  953.5085
 120  843.7623
 121  791.8511
 122  898.2051
 123  998.4828
 124  890.5004
 125  772.5952
 126  764.4485
 127  737.8804
 128  831.2322
 129  758.6371
 130  737.7937
 131  799.8157
 132  992.4432
 133  935.2267
 134  719.6522
 135  702.7625
 136  689.3747
 137  813.6692
 138  892.8155
 139  873.652
 140  757.4336
 141  837.3931
 142  851.4095
 143  895.3336
 144  897.7214
 145  763.2244
 146  833.9418
 147  873.7768
 148  853.5115
 149  672.22
 150  662.6946
 151  777.4177
 152  819.6207
 153  889.2987
 154  860.9294
 155  842.1159
 156  899.3542
 157  875.8088
 158  746.3916
 159  708.0441
 160  657.2489
 161  718.3223
 162  737.7579
 163  817.0539
 164  854.7389
 165  791.5499
 166  765.4022
 167  823.9451
 168  772.1538
 169  816.2034
 170  853.7133
 171  855.7881
 172  805.5502
 173  809.6167
 174  839.1421
 175  845.651
 176  754.9933
 177  682.2059
 178  694.5276
 179  750.5166
 180  751.9626
 181  732.5486
 182  797.4319
 183  905.8875
 184  830.6614
 185  718.5192
 186  802.7137
 187  844.4964
 188  806.8058
 189  856.8358
 190  866.1727
 191  887.8988
 192  896.7501
 193  843.3737
 194  770.1652
 195  812.3299
 196  814.187
 197  978.4648
 198  857.6198
 199  913.3096
 200  734.64
 201  736.5009
 202  816.0072
 203  815.1747
 204  872.5266
 205  812.0812
 206  844.7026
 207  884.9659
 208  817.82
 209  769.0137
 210  735.175
 211  767.2335
 212  711.1394
 213  787.9676
 214  823.0832
 215  729.1143
 216  714.7506
 217  759.3408
 218  836.1379
 219  803.2015
 220  769.0158
 221  788.7158
 222  774.9992
 223  841.8622
 224  824.9843
 225  823.3945
 226  730.0772
 227  856.3825
 228  966.7178
 229  842.275
 230  740.0957
 231  772.433
 232  690.3098
 233  662.0449
 234  805.1722
 235  856.9742
 236  803.2562
 237  798.048
 238  938.9594
 239  909.3574
 240  941.1641
 241  965.7385
 242  1003.393
 243  845.428
 244  718.5005
 245  690.4839
 246  782.987
 247  757.1269
 248  852.2147
 249  892.7639
 250  873.9997
 251  768.5847
 252  866.9334
 253  663.6194
 254  573.3445
 255  699.1167
 256  776.153
 257  750.699
 258  754.1249
 259  878.2426
 260  890.4246
 261  775.1708
 262  859.7192
 263  841.8595
 264  828.8219
 265  943.925
 266  976.5582
 267  910.2413
 268  837.8261
 269  856.5974
 270  1001.164
 271  927.6434
 272  890.1113
 273  815.9146
 274  757.2877
 275  900.7621
 276  814.7238
 277  910.3947
 278  902.4002
 279  888.0437
 280  810.1494
 281  838.168
 282  881.4554
 283  790.2611
 284  735.6024
 285  755.4907
 286  859.2875
 287  856.7047
 288  957.3265
 289  882.4922
 290  930.3051
 291  954.472
 292  915.5836
 293  953.1058
 294  848.6331
 295  855.9984
 296  901.2338
 297  852.661
 298  748.535
 299  777.6828
 300  876.1876
 301  939.0193
 302  900.5228
 303  846.3513
 304  811.3339
 305  891.403
 306  949.8387
 307  822.7066
 308  789.1349
 309  792.4207
 310  820.5999
 311  891.7785
 312  883.4922
 313  918.3356
 314  890.706
 315  876.3085
 316  759.0513
 317  768.8568
 318  890.3829
 319  817.3536
 320  898.864
 321  922.4425
 322  910.4112
 323  909.7756
 324  865.1312
 325  907.5087
 326  873.3148
 327  863.9077
 328  887.9296
 329  951.7261
 330  1011.86
 331  946.2296
 332  809.9624
 333  807.5068
 334  857.7394
 335  989.8821
 336  893.2137
 337  889.2036
 338  890.1111
 339  787.7468
 340  805.9002
 341  862.5954
 342  831.6315
 343  854.0142
 344  789.1918
 345  844.0771
 346  897.8861
 347  877.9233
 348  776.6072
 349  865.937
 350  878.2559
 351  961.0563
 352  956.9031
 353  911.2505
 354  851.128
 355  838.4788
 356  818.6962
 357  791.8466
 358  801.9901
 359  815.3755
 360  805.9004
 361  823.3488
 362  789.235
 363  796.1049
 364  798.0632
 365  839.6942
 366  727.2786
 367  762.3589
 368  816.0762
 369  833.5951
 370  902.9738
 371  874.8397
 372  841.7263
 373  865.2002
 374  860.0059
 375  901.0006
 376  835.5742
 377  915.4246
 378  877.1119
 379  855.1022
 380  893.4712
 381  804.334
 382  831.9929
 383  860.9742
 384  778.1172
 385  857.7336
 386  969.1947
 387  1023.024
 388  982.5069
 389  960.1343
 390  884.2197
 391  837.7639
 392  895.2377
 393  930.0515
 394  826.3961
 395  836.299
 396  905.8226
 397  932.0311
 398  875.3633
 399  898.6328
 400  959.244
 401  907.9059
 402  908.2934
 403  883.6993
 404  929.3467
 405  885.4014
 406  912.5314
 407  837.3104
 408  836.4576
 409  911.2918
 410  990.9611
 411  887.2726
 412  879.9446
 413  826.3694
 414  818.3925
 415  872.6019
 416  801.3566
 417  798.8525
 418  832.7538
 419  923.6708
 420  999.7595
 421  907.3969
 422  912.6437
 423  901.5099
 424  998.5117
 425  850.3261
 426  762.6639
 427  788.4778
 428  812.4122
 429  877.6559
 430  716.9108
 431  734.4506
 432  814.772
 433  775.4738
 434  874.2723
 435  897.4907
 436  810.3068
 437  816.4905
 438  838.207
 439  890.0031
 440  875.3369
 441  840.7644
 442  992.9496
 443  886.6318
 444  914.6017
 445  992.9124
 446  869.8282
 447  854.1545
 448  967.1018
 449  946.8971
 450  846.0359
 451  826.988
 452  949.3215
 453  1004.582
 454  1004.788
 455  819.5591
 456  888.5645
 457  949.789
 458  977.2798
 459  893.9001
 460  899.9423
 461  1027.527
 462  1066.486
 463  970.5898
 464  872.6057
 465  803.8387
 466  792.0799
 467  757.9583
 468  896.9844
 469  947.0155
 470  848.0867
 471  878.2554
 472  852.2669
 473  807.3822
 474  749.2175
 475  740.3628
 476  830.8976
 477  792.5307
 478  815.291
 479  842.1028
 480  837.8049
 481  837.4858
 482  803.9483
 483  806.4536
 484  849.044
 485  840.0277
 486  802.1987
 487  885.9753
 488  942.0046
 489  900.3954
 490  806.0491
 491  712.3187
 492  775.3713
 493  808.8258
 494  847.8775
 495  875.2073
 496  869.168
 497  857.9544
 498  756.0588
 499  701.9429
 500  786.1984
 501  806.2095
 502  878.8786
 503  959.4731
 504  972.4632
 505  925.941
 506  832.7687
 507  884.5635
 508  912.8362
 509  1035.98
 510  1168.072
 511  1354
