# Input file       =  1198259396.105565_cleaned.dat
# Candidate        =  PSR_0332+5434
# Telescope        =  AR
# Epoch_topo       =  58112.742802147746
# Epoch_bary       =  N/A
# T_sample         =  0.002
# Data Folded      =  7340032
# Data Avg         =  0.0565921973290945
# Data StdDev      =  1.00007870841925 
# Profile Bins     =  512
# Profile Avg      =  811.517681681707 
# Profile StdDev   =  119.742460374792 
# Reduced chi-sqr  =  0.785
# Prob(Noise)      <  1   (~0.0 sigma)
# P_topo (ms)      =  714.550249768428  +/- 6.29e-05
# P'_topo (s/s)    =  -0                +/- 3.32e-11
# P''_topo (s/s^2) =  0                 +/- 1.47e-14
# P_bary (ms)      =  N/A
# P'_bary (s/s)    =  N/A
# P''_bary (s/s^2) =  N/A
# P_orb (s)        =  N/A
# asin(i)/c (s)    =  N/A
# eccentricity     =  N/A
# w (rad)          =  N/A
# T_peri           =  N/A
######################################################
   0  1243.332
   1  1182.098
   2  1013.069
   3  1042.668
   4  936.9808
   5  985.8873
   6  894.7501
   7  905.0665
   8  866.6705
   9  824.6602
  10  818.58
  11  882.6474
  12  822.7039
  13  790.6487
  14  808.8544
  15  802.5365
  16  837.681
  17  792.0642
  18  814.2836
  19  760.3922
  20  697.3691
  21  741.0112
  22  774.4727
  23  778.6306
  24  770.5815
  25  848.3446
  26  827.6153
  27  784.9539
  28  743.819
  29  660.3581
  30  684.8469
  31  783.9023
  32  780.8764
  33  764.5474
  34  812.2645
  35  895.3062
  36  851.3865
  37  736.886
  38  715.8495
  39  813.1115
  40  824.2452
  41  864.5646
  42  743.7286
  43  785.9499
  44  827.2646
  45  839.2785
  46  775.3363
  47  834.6779
  48  880.3411
  49  879.9132
  50  928.6943
  51  836.6992
  52  768.0197
  53  746.0056
  54  875.8755
  55  972.9771
  56  891.4748
  57  852.6102
  58  878.6199
  59  840.9755
  60  827.9674
  61  719.4435
  62  698.4174
  63  737.9969
  64  806.0079
  65  824.5568
  66  699.6756
  67  684.8475
  68  796.4619
  69  876.1008
  70  875.8509
  71  804.7188
  72  735.5775
  73  730.2512
  74  737.892
  75  719.981
  76  678.8241
  77  647.0101
  78  801.4026
  79  909.9481
  80  830.5173
  81  690.7137
  82  702.9749
  83  802.379
  84  799.3997
  85  664.1611
  86  694.2931
  87  823.973
  88  781.8513
  89  791.911
  90  826.5776
  91  811.657
  92  836.3495
  93  773.478
  94  828.0388
  95  702.7887
  96  793.5052
  97  920.6733
  98  861.9697
  99  831.7902
 100  929.6774
 101  864.3433
 102  821.4343
 103  757.7255
 104  772.0555
 105  836.8801
 106  831.5334
 107  770.8168
 108  696.9891
 109  692.2233
 110  795.4677
 111  788.9691
 112  851.6049
 113  860.4138
 114  827.5623
 115  782.9595
 116  868.0283
 117  825.7332
 118  803.8973
 119  865.685
 120  791.1724
 121  853.4487
 122  805.1167
 123  734.9077
 124  740.2045
 125  799.6397
 126  797.7228
 127  798.5334
 128  775.9408
 129  717.0627
 130  800.3913
 131  746.9205
 132  723.0553
 133  763.6498
 134  679.5876
 135  824.2688
 136  1008.185
 137  938.2265
 138  864.0262
 139  913.316
 140  955.9642
 141  885.8802
 142  796.9315
 143  892.3785
 144  951.1464
 145  829.6896
 146  877.8685
 147  837.5865
 148  872.4363
 149  882.6209
 150  899.996
 151  827.2441
 152  806.1912
 153  778.9498
 154  774.8073
 155  877.9169
 156  792.7966
 157  684.5577
 158  737.2398
 159  734.4763
 160  841.3348
 161  764.0711
 162  749.5829
 163  734.4709
 164  728.0081
 165  804.6791
 166  803.864
 167  723.3425
 168  822.0174
 169  872.8836
 170  816.9522
 171  757.9008
 172  831.7072
 173  884.057
 174  873.648
 175  834.5469
 176  810.9712
 177  821.7272
 178  818.9537
 179  913.8094
 180  832.6511
 181  868.7145
 182  759.4041
 183  891.3289
 184  888.6789
 185  771.3777
 186  734.9697
 187  780.6547
 188  871.7505
 189  856.3817
 190  818.3055
 191  836.3098
 192  816.0115
 193  777.1031
 194  809.0637
 195  820.3035
 196  787.1371
 197  771.8428
 198  824.062
 199  841.3843
 200  791.2739
 201  831.3318
 202  874.431
 203  941.1365
 204  807.616
 205  799.9417
 206  768.6403
 207  743.0052
 208  797.097
 209  793.5859
 210  743.009
 211  804.5317
 212  814.9238
 213  807.5792
 214  809.4167
 215  750.4708
 216  769.6045
 217  799.2051
 218  801.0927
 219  785.7692
 220  769.9848
 221  838.7712
 222  829.4693
 223  814.0226
 224  740.212
 225  815.6624
 226  852.2829
 227  870.5954
 228  848.905
 229  820.1376
 230  881.8569
 231  679.765
 232  717.7955
 233  813.0994
 234  776.4885
 235  817.4915
 236  796.1394
 237  773.5261
 238  723.826
 239  695.1285
 240  834.8828
 241  795.1064
 242  818.3521
 243  803.1359
 244  684.2632
 245  737.3978
 246  844.6863
 247  800.6548
 248  733.8469
 249  789.8502
 250  879.6501
 251  801.7198
 252  772.6395
 253  692.2922
 254  673.3407
 255  825.8553
 256  900.7131
 257  821.1833
 258  686.1068
 259  698.0944
 260  717.8665
 261  857.6096
 262  906.656
 263  760.4785
 264  696.7325
 265  832.8423
 266  892.3464
 267  775.3757
 268  631.6072
 269  697.5378
 270  805.5175
 271  797.47
 272  739.619
 273  664.2125
 274  753.4646
 275  801.5388
 276  690.5027
 277  577.6829
 278  685.2617
 279  846.7684
 280  876.1232
 281  778.0383
 282  713.618
 283  741.8149
 284  901.0834
 285  862.9282
 286  843.6315
 287  768.1458
 288  685.7656
 289  724.7538
 290  732.9683
 291  703.1623
 292  751.6031
 293  753.4775
 294  744.2652
 295  702.1008
 296  728.8772
 297  887.7524
 298  822.6544
 299  817.3514
 300  873.5487
 301  794.1396
 302  777.9601
 303  826.6635
 304  788.0977
 305  804.428
 306  762.0486
 307  788.995
 308  978.9634
 309  904.5653
 310  783.1685
 311  762.035
 312  735.5833
 313  771.9734
 314  814.3805
 315  848.022
 316  755.4648
 317  684.9633
 318  812.4482
 319  820.0746
 320  769.0919
 321  789.6002
 322  836.3843
 323  853.9247
 324  842.1758
 325  809.1401
 326  849.7308
 327  907.8172
 328  934.0244
 329  828.1181
 330  895.9945
 331  884.1902
 332  889.9816
 333  868.1254
 334  807.6709
 335  781.459
 336  858.9576
 337  881.6107
 338  810.7485
 339  770.7567
 340  751.2064
 341  817.5791
 342  836.436
 343  853.7968
 344  863.7214
 345  923.1334
 346  893.6876
 347  869.9492
 348  873.16
 349  830.932
 350  820.5501
 351  861.2576
 352  891.5792
 353  850.6945
 354  773.0448
 355  889.1797
 356  942.2769
 357  885.2651
 358  905.6193
 359  875.1171
 360  851.5363
 361  832.9454
 362  893.341
 363  855.4796
 364  842.1249
 365  854.7269
 366  869.5211
 367  847.7725
 368  917.2861
 369  947.4058
 370  896.158
 371  840.255
 372  821.6772
 373  907.1972
 374  869.054
 375  951.5746
 376  885.236
 377  840.0363
 378  878.7568
 379  802.0704
 380  743.8415
 381  744.9341
 382  643.4988
 383  740.2031
 384  762.6671
 385  720.5677
 386  742.4348
 387  748.9148
 388  739.077
 389  754.7123
 390  741.9352
 391  753.1455
 392  708.3137
 393  732.9913
 394  799.107
 395  913.5358
 396  866.8448
 397  705.5105
 398  699.3345
 399  758.5851
 400  752.3244
 401  728.8411
 402  868.0001
 403  906.1479
 404  883.6486
 405  839.3079
 406  777.956
 407  794.6296
 408  781.0242
 409  792.8821
 410  777.7128
 411  755.5717
 412  829.1971
 413  946.9902
 414  874.8442
 415  940.8559
 416  837.1057
 417  756.0541
 418  745.3882
 419  761.9925
 420  810.9497
 421  782.5301
 422  897.1731
 423  864.7474
 424  888.9027
 425  827.5214
 426  792.2379
 427  782.6143
 428  772.6224
 429  802.5719
 430  741.7315
 431  781.6365
 432  905.6686
 433  904.0417
 434  845.3647
 435  821.9618
 436  949.938
 437  1100.026
 438  1032.125
 439  947.5222
 440  905.7207
 441  801.7452
 442  759.8054
 443  827.8252
 444  858.3571
 445  883.0115
 446  992.1049
 447  886.2858
 448  809.1152
 449  855.5325
 450  793.2552
 451  938.1265
 452  936.4514
 453  836.2383
 454  815.8381
 455  727.2095
 456  803.8527
 457  799.9136
 458  741.9308
 459  792.6525
 460  867.162
 461  897.4429
 462  777.069
 463  807.2958
 464  752.5287
 465  765.0251
 466  713.9451
 467  804.8225
 468  703.8691
 469  650.1893
 470  660.9071
 471  653.4479
 472  693.4421
 473  773.3949
 474  841.2146
 475  801.4478
 476  832.5013
 477  766.1919
 478  717.0546
 479  707.4471
 480  689.9672
 481  793.0781
 482  767.1868
 483  711.3506
 484  785.5089
 485  802.0909
 486  780.5923
 487  810.5507
 488  768.1937
 489  712.6083
 490  754.8157
 491  839.0722
 492  811.3085
 493  796.3762
 494  834.723
 495  798.6606
 496  856.7031
 497  884.9852
 498  889.6244
 499  772.7172
 500  771.061
 501  869.6417
 502  830.7207
 503  809.3356
 504  875.0256
 505  755.21
 506  781.2349
 507  812.9606
 508  821.1064
 509  920.0504
 510  948.9828
 511  1121.644
