# Input file       =  1198244740.110395_cleaned.dat
# Candidate        =  PSR_0332+5434
# Telescope        =  AR
# Epoch_topo       =  58112.573172574019
# Epoch_bary       =  N/A
# T_sample         =  0.002
# Data Folded      =  7208960
# Data Avg         =  0.0606745655931505
# Data StdDev      =  1.00047477923389 
# Profile Bins     =  512
# Profile Avg      =  854.164198733444 
# Profile StdDev   =  118.715512706108 
# Reduced chi-sqr  =  1.054
# Prob(Noise)      <  0.193   (~0.9 sigma)
# P_topo (ms)      =  714.550073402402  +/- 0.000229
# P'_topo (s/s)    =  -0                +/- 1.23e-10
# P''_topo (s/s^2) =  0                 +/- 5.53e-14
# P_bary (ms)      =  N/A
# P'_bary (s/s)    =  N/A
# P''_bary (s/s^2) =  N/A
# P_orb (s)        =  N/A
# asin(i)/c (s)    =  N/A
# eccentricity     =  N/A
# w (rad)          =  N/A
# T_peri           =  N/A
######################################################
   0  1444.089
   1  1463.7
   2  1284.838
   3  1044.688
   4  1015.629
   5  928.3954
   6  846.7164
   7  869.8293
   8  954.4245
   9  936.6321
  10  831.5841
  11  917.1182
  12  997.3388
  13  904.2534
  14  869.3409
  15  827.6862
  16  919.2568
  17  1011.591
  18  940.2928
  19  849.9468
  20  757.2798
  21  899.1626
  22  1006.541
  23  815.6753
  24  777.9023
  25  792.5465
  26  778.8922
  27  792.7349
  28  793.7424
  29  883.1819
  30  810.3143
  31  726.2373
  32  821.7473
  33  871.4902
  34  894.3837
  35  820.8962
  36  856.7032
  37  880.0205
  38  852.3143
  39  942.536
  40  858.816
  41  826.9774
  42  883.8661
  43  896.1322
  44  965.4837
  45  1011.841
  46  816.4315
  47  823.9406
  48  918.6231
  49  984.4899
  50  954.4281
  51  817.6606
  52  915.2123
  53  822.7471
  54  917.5891
  55  886.6659
  56  808.4143
  57  828.5753
  58  773.5193
  59  741.0638
  60  723.8118
  61  787.6536
  62  837.4324
  63  865.1048
  64  901.7273
  65  899.7664
  66  846.4058
  67  749.3043
  68  747.0963
  69  798.683
  70  830.9084
  71  840.3469
  72  986.4523
  73  990.7664
  74  888.3484
  75  871.0848
  76  930.3132
  77  978.1827
  78  854.4507
  79  820.978
  80  752.3812
  81  790.5735
  82  888.7677
  83  820.1958
  84  799.4763
  85  816.0591
  86  1020.794
  87  961.4971
  88  769.9763
  89  813.3922
  90  926.6443
  91  882.6509
  92  943.6298
  93  925.4839
  94  805.1378
  95  849.4255
  96  898.2282
  97  928.7918
  98  850.8063
  99  762.4837
 100  882.1215
 101  927.8659
 102  903.7952
 103  879.7923
 104  873.8953
 105  831.1899
 106  819.1361
 107  790.6984
 108  845.6324
 109  818.2369
 110  713.0784
 111  806.5448
 112  922.9476
 113  892.24
 114  852.9299
 115  810.2456
 116  730.0417
 117  828.8928
 118  738.1629
 119  862.0166
 120  923.6393
 121  796.4761
 122  845.8259
 123  940.8888
 124  977.4604
 125  807.711
 126  799.4996
 127  733.0706
 128  766.5629
 129  821.7695
 130  721.7694
 131  765.3769
 132  895.3317
 133  1009.09
 134  825.2052
 135  671.3475
 136  717.9655
 137  725.5997
 138  878.8201
 139  878.5309
 140  816.7276
 141  776.3464
 142  870.3074
 143  851.0861
 144  917.8374
 145  848.1997
 146  769.86
 147  866.2701
 148  863.5944
 149  776.0402
 150  651.4026
 151  704.7318
 152  833.8558
 153  813.2212
 154  891.2679
 155  831.5583
 156  885.4924
 157  911.6863
 158  798.2771
 159  715.5646
 160  692.891
 161  699.8628
 162  708.6215
 163  771.8743
 164  827.2715
 165  853.1163
 166  775.6514
 167  787.1151
 168  804.6936
 169  747.4471
 170  865.0965
 171  851.7679
 172  865.5218
 173  776.4738
 174  819.2197
 175  852.8329
 176  820.1286
 177  726.5359
 178  646.6682
 179  734.929
 180  764.783
 181  742.0658
 182  750.1417
 183  817.7471
 184  931.8002
 185  752.8518
 186  750.6742
 187  834.5251
 188  817.9112
 189  831.4337
 190  871.2748
 191  867.9987
 192  891.7124
 193  878.3415
 194  796.2198
 195  802.3215
 196  801.2021
 197  890.2827
 198  930.6476
 199  875.2703
 200  874.414
 201  685.1209
 202  788.0316
 203  795.704
 204  852.168
 205  855.4098
 206  819.4303
 207  869.3348
 208  852.1846
 209  783.2115
 210  757.0945
 211  775.0313
 212  722.2226
 213  735.3468
 214  812.5947
 215  815.7122
 216  686.5681
 217  732.6296
 218  779.6058
 219  852.5422
 220  789.6143
 221  761.882
 222  791.9526
 223  773.9016
 224  866.5941
 225  827.6102
 226  791.1092
 227  747.3045
 228  929.1488
 229  933.4535
 230  770.7658
 231  764.8882
 232  741.069
 233  644.5883
 234  729.1979
 235  842.6177
 236  864.1138
 237  742.7695
 238  877.059
 239  938.2591
 240  918.7911
 241  958.7534
 242  963.8918
 243  976.6674
 244  777.0313
 245  708.8994
 246  723.3453
 247  757.3002
 248  781.2938
 249  893.9436
 250  910.2637
 251  801.7115
 252  800.7511
 253  799.4622
 254  613.1841
 255  625.2608
 256  752.309
 257  738.8954
 258  754.7877
 259  784.3749
 260  940.993
 261  818.3512
 262  791.0515
 263  884.458
 264  797.6232
 265  902.6425
 266  958.8404
 267  959.3978
 268  862.0549
 269  841.1153
 270  932.1685
 271  984.3806
 272  889.0659
 273  864.6879
 274  786.4802
 275  817.9032
 276  861.7786
 277  845.6332
 278  906.4218
 279  937.2459
 280  820.5753
 281  825.9772
 282  855.3763
 283  868.0566
 284  752.6898
 285  736.1379
 286  797.1262
 287  832.9453
 288  922.0373
 289  931.902
 290  893.8345
 291  930.1922
 292  937.8216
 293  940.5944
 294  952.5187
 295  813.8788
 296  887.2728
 297  878.994
 298  798.8162
 299  762.7071
 300  805.5059
 301  924.8038
 302  905.4267
 303  883.7447
 304  848.459
 305  817.0403
 306  954.4556
 307  864.3508
 308  829.1994
 309  789.1964
 310  808.1385
 311  822.5994
 312  889.3881
 313  909.4459
 314  924.9894
 315  884.8547
 316  815.0213
 317  732.2171
 318  833.4388
 319  885.4432
 320  808.976
 321  945.6755
 322  896.1237
 323  934.107
 324  888.9263
 325  873.3029
 326  897.1786
 327  858.7761
 328  891.7282
 329  916.0923
 330  973.3485
 331  990.0302
 332  877.9205
 333  816.8712
 334  810.0203
 335  927.6039
 336  950.7773
 337  872.9234
 338  920.3663
 339  848.9195
 340  771.5716
 341  812.6638
 342  875.4088
 343  832.5087
 344  873.5782
 345  745.2247
 346  890.9393
 347  891.5664
 348  843.7634
 349  803.0801
 350  858.4153
 351  901.072
 352  987.2332
 353  944.9208
 354  894.2437
 355  817.9272
 356  830.1209
 357  815.9218
 358  798.9043
 359  811.3646
 360  809.6309
 361  799.2629
 362  813.1334
 363  798.8492
 364  786.806
 365  838.1378
 366  769.6028
 367  738.3314
 368  794.1934
 369  835.3879
 370  838.7828
 371  917.0485
 372  839.4504
 373  877.9822
 374  855.116
 375  857.5242
 376  880.912
 377  853.6744
 378  949.2823
 379  841.9197
 380  860.3879
 381  862.9351
 382  790.312
 383  890.4492
 384  801.2793
 385  796.143
 386  888.0175
 387  1038.94
 388  1005.286
 389  971.868
 390  927.6008
 391  850.8666
 392  873.3464
 393  915.4985
 394  893.0624
 395  803.8147
 396  864.835
 397  938.0333
 398  900.4577
 399  884.3403
 400  904.6631
 401  946.8167
 402  903.4775
 403  915.6698
 404  900.0184
 405  906.2449
 406  908.3782
 407  886.5331
 408  836.8881
 409  815.04
 410  976.7545
 411  940.7599
 412  910.1856
 413  864.1879
 414  791.8735
 415  857.6572
 416  831.7298
 417  815.4061
 418  798.4263
 419  865.8885
 420  952.7861
 421  978.4119
 422  923.9171
 423  891.477
 424  940.4207
 425  945.357
 426  807.9974
 427  769.818
 428  796.4133
 429  833.8555
 430  824.2032
 431  708.5696
 432  770.0208
 433  824.6653
 434  757.2167
 435  947.2213
 436  831.1279
 437  821.1404
 438  827.3174
 439  835.9702
 440  917.1143
 441  824.5602
 442  946.8376
 443  949.1625
 444  869.4526
 445  943.5768
 446  989.7861
 447  828.5284
 448  902.1435
 449  969.6214
 450  886.1858
 451  842.2127
 452  863.5105
 453  990.1467
 454  1007.468
 455  927.6674
 456  834.2477
 457  922.9265
 458  976.5281
 459  919.702
 460  891.6703
 461  945.6987
 462  1084.89
 463  1002.491
 464  939.7127
 465  834.5469
 466  811.936
 467  769.9256
 468  780.6539
 469  962.3688
 470  890.857
 471  867.1711
 472  873.5744
 473  819.6328
 474  786.2138
 475  716.3765
 476  824.6525
 477  820.0992
 478  784.1928
 479  816.8287
 480  846.7944
 481  848.6668
 482  834.8074
 483  775.4559
 484  813.3284
 485  872.4391
 486  819.6113
 487  831.8279
 488  906.4928
 489  927.9169
 490  873.3616
 491  767.764
 492  733.512
 493  787.7107
 494  807.6379
 495  868.0872
 496  886.4541
 497  869.0335
 498  804.5495
 499  716.5955
 500  728.8831
 501  834.8176
 502  791.5272
 503  936.1015
 504  932.0278
 505  1018.333
 506  862.315
 507  855.6963
 508  882.0198
 509  952.2933
 510  1109.964
 511  1230.429
