# Input file       =  1198087057.13162_cleaned.dat
# Candidate        =  PSR_0332+5434
# Telescope        =  AR
# Epoch_topo       =  58110.748138097450
# Epoch_bary       =  N/A
# T_sample         =  0.002
# Data Folded      =  7340032
# Data Avg         =  0.0463957416518211
# Data StdDev      =  0.999918613067283
# Profile Bins     =  512
# Profile Avg      =  665.129284467762 
# Profile StdDev   =  119.723291672191 
# Reduced chi-sqr  =  0.753
# Prob(Noise)      <  1   (~0.0 sigma)
# P_topo (ms)      =  714.548407799469  +/- 0.000504
# P'_topo (s/s)    =  -0                +/- 2.66e-10
# P''_topo (s/s^2) =  0                 +/- 1.17e-13
# P_bary (ms)      =  N/A
# P'_bary (s/s)    =  N/A
# P''_bary (s/s^2) =  N/A
# P_orb (s)        =  N/A
# asin(i)/c (s)    =  N/A
# eccentricity     =  N/A
# w (rad)          =  N/A
# T_peri           =  N/A
######################################################
   0  977.9825
   1  1009.193
   2  981.0703
   3  848.3322
   4  778.7225
   5  682.6185
   6  655.8237
   7  683.229
   8  706.8991
   9  794.5941
  10  716.287
  11  807.7194
  12  746.441
  13  666.5377
  14  661.8629
  15  700.1058
  16  720.2327
  17  666.85
  18  765.2307
  19  845.7379
  20  789.748
  21  657.8052
  22  702.9608
  23  688.1036
  24  607.4773
  25  618.3434
  26  688.6548
  27  681.5431
  28  725.8918
  29  849.2349
  30  631.8771
  31  568.7742
  32  704.1969
  33  600.2694
  34  663.5737
  35  646.2939
  36  718.6478
  37  778.8372
  38  835.0388
  39  730.7098
  40  768.5131
  41  833.1736
  42  698.4297
  43  679.3365
  44  703.6895
  45  713.4453
  46  679.7393
  47  707.9498
  48  718.409
  49  708.0311
  50  759.3012
  51  734.9675
  52  682.0387
  53  692.4566
  54  764.7149
  55  761.9078
  56  752.7781
  57  760.2945
  58  606.7064
  59  650.8129
  60  704.4843
  61  652.1175
  62  708.3927
  63  660.8185
  64  694.6007
  65  700.4458
  66  739.6224
  67  688.6951
  68  701.9058
  69  804.7292
  70  645.9161
  71  619.8669
  72  653.2708
  73  639.0766
  74  743.2941
  75  752.5177
  76  713.2739
  77  606.2808
  78  596.4721
  79  712.481
  80  713.5988
  81  721.4029
  82  712.4694
  83  630.9806
  84  717.5306
  85  671.0992
  86  655.2267
  87  612.3563
  88  652.2665
  89  607.8547
  90  739.6774
  91  636.0947
  92  712.0187
  93  781.0127
  94  766.5408
  95  656.4659
  96  696.5328
  97  668.6022
  98  542.1106
  99  577.2875
 100  699.0172
 101  697.5046
 102  719.1719
 103  597.4286
 104  551.2084
 105  598.4131
 106  612.0396
 107  549.9471
 108  588.57
 109  761.0723
 110  752.7098
 111  728.7623
 112  737.9395
 113  633.5815
 114  548.1061
 115  682.9629
 116  626.5481
 117  658.6685
 118  743.8732
 119  662.804
 120  589.0527
 121  612.5355
 122  609.627
 123  556.6118
 124  543.407
 125  604.488
 126  608.5052
 127  587.2986
 128  489.0217
 129  511.3877
 130  603.4202
 131  715.3242
 132  628.6913
 133  659.8876
 134  697.8934
 135  676.395
 136  685.0751
 137  666.0541
 138  618.7277
 139  600.1392
 140  598.1602
 141  602.6161
 142  643.8813
 143  597.4682
 144  574.5527
 145  572.6553
 146  707.3365
 147  636.5862
 148  497.9624
 149  603.4484
 150  588.3013
 151  652.1771
 152  669.6191
 153  578.6147
 154  608.377
 155  607.6008
 156  619.9913
 157  541.4918
 158  615.619
 159  622.249
 160  574.8802
 161  625.7825
 162  697.7806
 163  665.4051
 164  701.0898
 165  653.7672
 166  719.2865
 167  700.4463
 168  776.665
 169  813.8099
 170  689.8156
 171  613.7395
 172  616.1208
 173  625.7452
 174  624.5457
 175  630.1
 176  757.1288
 177  741.7924
 178  700.9305
 179  673.4724
 180  621.9382
 181  715.6094
 182  643.6034
 183  616.4279
 184  561.2726
 185  634.1376
 186  654.3371
 187  655.0854
 188  643.1351
 189  589.7131
 190  736.306
 191  779.9482
 192  654.3113
 193  622.8182
 194  580.0189
 195  595.4694
 196  613.8878
 197  638.8532
 198  611.2557
 199  523.6967
 200  700.7307
 201  787.5026
 202  669.5238
 203  650.0642
 204  619.9626
 205  514.7487
 206  499.0977
 207  661.9185
 208  690.6121
 209  572.6385
 210  541.6705
 211  618.7601
 212  602.0987
 213  572.9899
 214  537.9171
 215  599.3475
 216  632.1671
 217  638.8751
 218  589.0355
 219  587.2466
 220  642.2678
 221  594.5926
 222  578.0645
 223  594.0023
 224  504.9039
 225  462.4868
 226  529.1791
 227  476.7762
 228  479.3711
 229  626.7338
 230  668.8398
 231  560.5018
 232  597.3983
 233  606.2084
 234  669.6771
 235  633.5374
 236  656.0852
 237  760.1624
 238  645.4705
 239  637.1466
 240  670.1172
 241  709.4565
 242  706.4135
 243  745.2316
 244  765.7648
 245  667.8942
 246  588.0955
 247  734.1095
 248  736.6413
 249  668.7261
 250  619.2809
 251  634.7716
 252  666.9172
 253  709.0202
 254  717.9754
 255  744.4212
 256  763.7841
 257  655.396
 258  625.5327
 259  654.3067
 260  549.047
 261  599.2331
 262  628.6286
 263  738.821
 264  719.4748
 265  606.5707
 266  609.1089
 267  615.9342
 268  617.6406
 269  681.0338
 270  618.4446
 271  702.9419
 272  681.4789
 273  670.7769
 274  691.7111
 275  628.3867
 276  628.5745
 277  669.5278
 278  689.4418
 279  699.4503
 280  581.2673
 281  590.6368
 282  542.4689
 283  509.7314
 284  637.3116
 285  664.6295
 286  547.1951
 287  679.8251
 288  722.5587
 289  736.2152
 290  648.9141
 291  669.5771
 292  650.6097
 293  601.4492
 294  651.1533
 295  751.2756
 296  756.1717
 297  695.7186
 298  649.7058
 299  600.4747
 300  593.6999
 301  602.3234
 302  585.998
 303  539.6529
 304  602.1255
 305  609.4774
 306  690.8212
 307  696.4335
 308  690.7719
 309  574.5771
 310  696.1623
 311  716.328
 312  699.7376
 313  659.1225
 314  681.8891
 315  715.9296
 316  742.8495
 317  710.1015
 318  773.4218
 319  781.8339
 320  675.2789
 321  651.6039
 322  692.2739
 323  719.4374
 324  654.1831
 325  670.0707
 326  645.4904
 327  604.137
 328  646.6185
 329  683.2144
 330  734.0203
 331  700.3582
 332  625.1266
 333  647.6932
 334  571.7112
 335  562.4606
 336  617.0203
 337  618.1313
 338  536.6835
 339  671.1936
 340  663.9717
 341  683.0827
 342  650.2156
 343  719.0093
 344  654.3262
 345  613.8933
 346  648.204
 347  548.4548
 348  616.2999
 349  644.7542
 350  726.9307
 351  723.3518
 352  651.2126
 353  658.3649
 354  572.6938
 355  630.8825
 356  577.5937
 357  604.2056
 358  656.3442
 359  710.717
 360  712.9008
 361  662.694
 362  654.4054
 363  654.7966
 364  606.8496
 365  679.2502
 366  648.1423
 367  588.3442
 368  635.184
 369  774.4352
 370  629.9931
 371  645.5071
 372  742.5227
 373  824.3636
 374  772.8729
 375  685.8854
 376  723.1689
 377  746.0159
 378  739.2795
 379  792.0851
 380  761.7949
 381  736.6377
 382  768.5223
 383  727.4062
 384  687.2217
 385  744.3868
 386  721.7757
 387  688.6606
 388  772.0156
 389  770.5576
 390  753.4785
 391  799.5526
 392  721.9685
 393  612.6716
 394  650.5558
 395  677.4651
 396  730.0147
 397  685.4907
 398  649.8887
 399  667.632
 400  680.5157
 401  720.2101
 402  655.0338
 403  611.7177
 404  524.1333
 405  657.34
 406  636.5671
 407  685.4401
 408  760.9836
 409  709.4843
 410  666.2178
 411  645.5093
 412  684.4232
 413  632.6401
 414  612.0188
 415  716.6713
 416  769.5672
 417  813.2692
 418  750.5428
 419  640.2192
 420  693.2342
 421  608.5791
 422  701.1362
 423  742.439
 424  687.0383
 425  671.1794
 426  640.8088
 427  650.0144
 428  650.6186
 429  613.3121
 430  616.0795
 431  574.0806
 432  559.4039
 433  649.3292
 434  547.6904
 435  566.2904
 436  622.6221
 437  683.8354
 438  639.2847
 439  589.106
 440  438.7397
 441  500.6663
 442  523.8727
 443  621.0942
 444  693.2008
 445  645.1875
 446  611.6978
 447  702.7747
 448  672.9113
 449  656.3438
 450  668.8792
 451  688.9771
 452  722.3895
 453  639.3582
 454  592.9719
 455  637.5669
 456  658.9935
 457  693.231
 458  702.5361
 459  694.7755
 460  726.399
 461  663.2263
 462  644.9899
 463  688.8356
 464  596.9259
 465  516.9456
 466  637.9798
 467  741.2466
 468  699.0281
 469  653.4644
 470  676.9346
 471  631.4734
 472  580.7728
 473  638.4941
 474  664.6516
 475  621.3326
 476  728.9121
 477  684.2319
 478  591.1564
 479  609.45
 480  734.0056
 481  698.9478
 482  576.7815
 483  578.5177
 484  757.8652
 485  747.7797
 486  649.4556
 487  667.6827
 488  726.6666
 489  683.1636
 490  685.8012
 491  688.0392
 492  696.0498
 493  669.3333
 494  681.5743
 495  711.1573
 496  648.9061
 497  598.0332
 498  649.1107
 499  617.2656
 500  590.2524
 501  643.6484
 502  651.4549
 503  649.6811
 504  653.4355
 505  704.9958
 506  649.2668
 507  783.6559
 508  773.6929
 509  803.4933
 510  977.1523
 511  1003.722
