# Input file       =  1198360408.106056_cleaned.dat
# Candidate        =  PSR_0332+5434
# Telescope        =  AR
# Epoch_topo       =  58113.911922523796
# Epoch_bary       =  N/A
# T_sample         =  0.002
# Data Folded      =  7340032
# Data Avg         =  0.0445592170250597
# Data StdDev      =  0.999755625975602
# Profile Bins     =  512
# Profile Avg      =  638.643439803937 
# Profile StdDev   =  119.703776732813 
# Reduced chi-sqr  =  0.888
# Prob(Noise)      <  0.967   (~0.0 sigma)
# P_topo (ms)      =  714.551647782228  +/- 0.000159
# P'_topo (s/s)    =  -0                +/- 8.36e-11
# P''_topo (s/s^2) =  0                 +/- 3.69e-14
# P_bary (ms)      =  N/A
# P'_bary (s/s)    =  N/A
# P''_bary (s/s^2) =  N/A
# P_orb (s)        =  N/A
# asin(i)/c (s)    =  N/A
# eccentricity     =  N/A
# w (rad)          =  N/A
# T_peri           =  N/A
######################################################
   0  1095.416
   1  1006.612
   2  795.5538
   3  700.8815
   4  642.1025
   5  551.9588
   6  584.3514
   7  635.6011
   8  567.8408
   9  583.3436
  10  670.0164
  11  560.2886
  12  583.7195
  13  624.1857
  14  597.3577
  15  637.3953
  16  539.3101
  17  451.8762
  18  527.5073
  19  663.6812
  20  600.9197
  21  630.3624
  22  605.132
  23  549.1283
  24  558.8127
  25  647.7453
  26  583.9577
  27  607.7924
  28  613.7175
  29  636.1571
  30  458.355
  31  542.2993
  32  696.1164
  33  643.5464
  34  732.813
  35  667.8333
  36  633.8583
  37  592.3554
  38  635.8138
  39  733.5811
  40  655.6989
  41  670.8654
  42  746.1951
  43  777.9644
  44  708.0385
  45  626.3102
  46  594.3713
  47  580.4031
  48  731.709
  49  685.2012
  50  626.6299
  51  607.0825
  52  631.5815
  53  639.45
  54  608.2138
  55  678.0042
  56  799.0126
  57  779.9962
  58  756.5563
  59  731.9638
  60  779.0785
  61  702.8186
  62  647.7461
  63  598.2669
  64  636.8013
  65  662.9962
  66  672.1884
  67  538.754
  68  630.6426
  69  566.2971
  70  625.7155
  71  696.5995
  72  647.924
  73  607.5884
  74  639.5573
  75  616.6356
  76  590.3849
  77  748.686
  78  737.1431
  79  664.6777
  80  663.2058
  81  658.5132
  82  628.9323
  83  544.2687
  84  670.2457
  85  710.6259
  86  654.7897
  87  574.5222
  88  517.2796
  89  573.7078
  90  655.8938
  91  715.6778
  92  678.1119
  93  620.149
  94  592.306
  95  633.9175
  96  613.9126
  97  609.7126
  98  671.2947
  99  755.8151
 100  661.7022
 101  689.8954
 102  752.248
 103  526.7906
 104  580.5925
 105  574.0726
 106  585.4028
 107  601.0353
 108  632.0234
 109  741.0439
 110  646.5386
 111  588.3126
 112  636.4769
 113  677.6089
 114  630.1616
 115  602.4863
 116  557.5906
 117  529.8818
 118  571.8564
 119  606.2334
 120  716.8992
 121  626.8675
 122  573.7793
 123  605.9904
 124  643.8832
 125  694.0931
 126  610.806
 127  741.7598
 128  711.0541
 129  536.7999
 130  634.3375
 131  605.9604
 132  658.9586
 133  685.9818
 134  660.7871
 135  701.2882
 136  662.1978
 137  611.6092
 138  601.9333
 139  630.5099
 140  732.9907
 141  692.9601
 142  713.3798
 143  695.7733
 144  702.7781
 145  698.8068
 146  601.749
 147  639.6342
 148  727.7798
 149  727.6713
 150  626.6964
 151  627.1392
 152  737.4329
 153  756.1193
 154  734.7703
 155  625.281
 156  684.2758
 157  604.1394
 158  717.5404
 159  703.0944
 160  738.2507
 161  733.6059
 162  695.8461
 163  710.5626
 164  789.2003
 165  726.2014
 166  687.6169
 167  700.5686
 168  765.0712
 169  661.659
 170  709.365
 171  734.8654
 172  713.915
 173  608.0727
 174  585.18
 175  582.9103
 176  642.0367
 177  788.1123
 178  706.7377
 179  543.7236
 180  561.6505
 181  612.6652
 182  681.7909
 183  585.2701
 184  562.2917
 185  681.3611
 186  682.5257
 187  627.8796
 188  708.8053
 189  719.7968
 190  721.0802
 191  578.9056
 192  450.754
 193  559.8203
 194  621.2596
 195  567.0681
 196  601.8632
 197  730.2867
 198  733.5906
 199  678.5774
 200  650.1957
 201  757.7375
 202  722.4914
 203  694.9227
 204  640.3906
 205  663.4221
 206  768.6552
 207  699.9844
 208  560.0055
 209  731.0848
 210  728.5804
 211  580.761
 212  645.0701
 213  755.4442
 214  683.1768
 215  560.5132
 216  665.3633
 217  729.2125
 218  730.2188
 219  621.6378
 220  564.5005
 221  594.8617
 222  580.3047
 223  529.5043
 224  504.4443
 225  585.4697
 226  668.6587
 227  598.6407
 228  641.9502
 229  614.6587
 230  590.1691
 231  682.1105
 232  723.2845
 233  745.9662
 234  713.8045
 235  726.3564
 236  602.2532
 237  583.8185
 238  629.8839
 239  621.3684
 240  673.2625
 241  581.1487
 242  690.8866
 243  634.3233
 244  630.6449
 245  501.9204
 246  655.3381
 247  552.4229
 248  508.7323
 249  652.3995
 250  687.7736
 251  538.15
 252  509.0308
 253  642.6027
 254  640.8038
 255  686.2613
 256  576.6722
 257  592.9352
 258  546.6567
 259  670.8979
 260  678.4405
 261  647.8912
 262  557.9975
 263  540.8094
 264  492.6352
 265  500.3484
 266  497.4464
 267  518.8753
 268  516.1805
 269  509.1884
 270  586.7563
 271  716.3233
 272  642.3821
 273  641.9694
 274  629.8506
 275  730.0031
 276  718.3733
 277  665.4884
 278  622.8065
 279  532.6937
 280  486.1055
 281  634.724
 282  634.8211
 283  575.5542
 284  569.5198
 285  564.9441
 286  508.2334
 287  487.2358
 288  528.6084
 289  615.8232
 290  642.4315
 291  662.9563
 292  650.4647
 293  567.1012
 294  521.7095
 295  612.2864
 296  605.8904
 297  586.051
 298  617.1366
 299  551.7904
 300  581.5659
 301  562.3492
 302  483.2228
 303  448.4247
 304  565.6229
 305  645.8592
 306  641.9195
 307  585.7178
 308  781.2136
 309  761.1703
 310  662.1344
 311  487.5773
 312  481.0847
 313  498.6771
 314  601.5571
 315  628.9384
 316  524.7094
 317  626.0164
 318  595.2769
 319  477.1567
 320  519.3033
 321  552.7268
 322  477.4495
 323  437.602
 324  534.9575
 325  575.9412
 326  555.2451
 327  556.726
 328  613.2974
 329  586.6153
 330  625.5248
 331  593.8013
 332  601.6982
 333  635.2581
 334  575.2516
 335  621.7458
 336  604.7994
 337  548.822
 338  611.0603
 339  711.5158
 340  810.687
 341  781.3583
 342  670.5413
 343  625.0405
 344  463.5827
 345  624.6065
 346  569.3502
 347  583.1534
 348  668.4865
 349  584.9459
 350  642.6201
 351  662.4367
 352  614.0419
 353  753.0739
 354  624.4083
 355  618.3768
 356  676.9611
 357  697.3286
 358  766.6029
 359  685.2362
 360  605.5207
 361  611.1635
 362  664.4714
 363  681.4612
 364  603.3596
 365  594.9488
 366  621.7466
 367  651.2792
 368  584.1421
 369  609.2202
 370  734.0566
 371  770.1203
 372  645.4105
 373  680.9249
 374  732.704
 375  690.9446
 376  583.5364
 377  586.6776
 378  581.8597
 379  584.0165
 380  590.8271
 381  771.7891
 382  770.1473
 383  668.8822
 384  696.1144
 385  590.4634
 386  526.7073
 387  513.067
 388  673.3447
 389  724.0243
 390  769.6064
 391  819.5812
 392  708.8375
 393  596.0317
 394  629.2305
 395  704.3036
 396  805.1241
 397  805.0366
 398  806.5696
 399  675.816
 400  632.7573
 401  610.1597
 402  565.6626
 403  621.9392
 404  633.5975
 405  547.6707
 406  550.3669
 407  594.4356
 408  662.4944
 409  575.0343
 410  616.1876
 411  619.9133
 412  528.8338
 413  519.7318
 414  494.2344
 415  476.3151
 416  596.1166
 417  601.4368
 418  597.2249
 419  702.0214
 420  660.6235
 421  630.7223
 422  553.9958
 423  581.1606
 424  567.0269
 425  627.4775
 426  616.1371
 427  607.7056
 428  543.7455
 429  652.0552
 430  603.3481
 431  563.9566
 432  670.405
 433  621.2656
 434  527.3527
 435  620.3276
 436  687.5664
 437  660.932
 438  698.6346
 439  728.397
 440  628.8608
 441  578.6804
 442  603.6703
 443  788.1512
 444  807.507
 445  667.4127
 446  717.3183
 447  681.1494
 448  700.8477
 449  751.4956
 450  674.2328
 451  622.6053
 452  591.6693
 453  559.2881
 454  608.4942
 455  671.7698
 456  640.1486
 457  635.6008
 458  582.4542
 459  578.741
 460  650.1729
 461  656.9822
 462  633.1385
 463  623.9971
 464  607.8638
 465  720.7661
 466  598.4644
 467  540.7995
 468  629.7206
 469  557.605
 470  533.5325
 471  624.1758
 472  648.9133
 473  625.2874
 474  640.9341
 475  700.5316
 476  651.5349
 477  713.2277
 478  697.8912
 479  659.4698
 480  672.7355
 481  613.0583
 482  684.8123
 483  632.8651
 484  614.5837
 485  554.7416
 486  605.2855
 487  654.8264
 488  684.9934
 489  680.241
 490  589.5948
 491  567.3835
 492  639.8066
 493  504.9773
 494  546.9719
 495  514.8055
 496  614.2122
 497  572.8913
 498  730.0864
 499  793.1932
 500  731.2623
 501  639.1923
 502  673.9321
 503  820.2172
 504  796.2823
 505  769.6288
 506  788.9993
 507  754.2197
 508  719.4554
 509  793.3214
 510  934.2949
 511  993.3307
