# Input file       =  1198087057.13162_cleaned.dat
# Candidate        =  PSR_0332+5434
# Telescope        =  AR
# Epoch_topo       =  58110.748138097450
# Epoch_bary       =  N/A
# T_sample         =  0.002
# Data Folded      =  7340032
# Data Avg         =  0.0463957416518211
# Data StdDev      =  0.999918613067283
# Profile Bins     =  512
# Profile Avg      =  665.12928446359  
# Profile StdDev   =  119.723291672191 
# Reduced chi-sqr  =  0.760
# Prob(Noise)      <  1   (~0.0 sigma)
# P_topo (ms)      =  714.54840766346   +/- 0.000503
# P'_topo (s/s)    =  -0                +/- 2.65e-10
# P''_topo (s/s^2) =  0                 +/- 1.17e-13
# P_bary (ms)      =  N/A
# P'_bary (s/s)    =  N/A
# P''_bary (s/s^2) =  N/A
# P_orb (s)        =  N/A
# asin(i)/c (s)    =  N/A
# eccentricity     =  N/A
# w (rad)          =  N/A
# T_peri           =  N/A
######################################################
   0  979.2253
   1  981.5818
   2  1022.958
   3  929.7267
   4  820.0466
   5  721.7448
   6  672.3182
   7  648.7084
   8  714.6442
   9  731.1842
  10  775.5608
  11  733.6455
  12  806.6268
  13  709.7678
  14  647.1544
  15  691.5349
  16  708.7772
  17  706.3373
  18  678.6965
  19  812.3819
  20  854.7683
  21  694.6097
  22  686.4368
  23  691.6375
  24  669.7336
  25  583.9778
  26  661.2299
  27  690.0272
  28  692.616
  29  798.8438
  30  780.7293
  31  554.0793
  32  643.7067
  33  663.6965
  34  611.1323
  35  664.3415
  36  661.0438
  37  749.1412
  38  822.4576
  39  792.6887
  40  729.7927
  41  813.2115
  42  793.0251
  43  653.373
  44  694.5033
  45  707.665
  46  705.9706
  47  689.5226
  48  710.6622
  49  716.264
  50  723.3708
  51  775.9802
  52  698.465
  53  681.0176
  54  718.049
  55  777.6653
  56  743.9371
  57  764.2017
  58  706.8336
  59  589.2534
  60  707.4669
  61  664.6472
  62  670.2389
  63  704.8039
  64  663.8627
  65  709.9905
  66  697.1119
  67  748.4778
  68  636.673
  69  800.686
  70  733.2725
  71  624.9722
  72  636.4948
  73  631.7163
  74  686.3256
  75  754.6687
  76  757.3664
  77  650.2565
  78  594.4448
  79  633.9528
  80  739.1562
  81  697.1193
  82  738.3029
  83  667.6389
  84  656.0549
  85  726.0295
  86  641.521
  87  643.0346
  88  626.2957
  89  622.6528
  90  663.2922
  91  710.133
  92  647.1062
  93  762.9575
  94  794.1351
  95  701.4048
  96  675.8001
  97  690.4373
  98  628.2279
  99  505.8857
 100  649.8174
 101  693.6237
 102  727.7109
 103  676.8298
 104  541.2676
 105  582.2397
 106  614.2019
 107  589.3847
 108  544.4003
 109  654.6965
 110  798.28
 111  724.4192
 112  733.5527
 113  707.8256
 114  562.9326
 115  611.5901
 116  678.6795
 117  613.6358
 118  717.2639
 119  727.543
 120  610.4997
 121  591.5948
 122  625.1211
 123  585.2103
 124  538.0554
 125  566.4435
 126  618.1854
 127  599.2114
 128  563.5355
 129  463.3108
 130  554.1646
 131  657.3562
 132  700.3478
 133  609.8491
 134  694.9753
 135  685.2796
 136  674.7013
 137  695.4434
 138  628.1901
 139  626.6607
 140  571.8659
 141  618.055
 142  603.3401
 143  640.1127
 144  591.8615
 145  558.6872
 146  633.5311
 147  701.6322
 148  563.9947
 149  519.2787
 150  633.0308
 151  587.6412
 152  688.459
 153  618.353
 154  581.9863
 155  598.355
 156  639.3129
 157  572.2367
 158  567.4265
 159  624.4642
 160  606.5104
 161  573.1684
 162  692.8379
 163  659.8459
 164  686.5218
 165  673.9988
 166  684.8798
 167  740.9858
 168  691.8592
 169  832.1411
 170  744.204
 171  656.8137
 172  611.0818
 173  614.033
 174  627.3913
 175  608.3397
 176  695.4095
 177  764.4772
 178  712.6213
 179  700.5165
 180  647.7537
 181  655.6175
 182  700.769
 183  631.7409
 184  588.0432
 185  582.2805
 186  640.2634
 187  654.9461
 188  655.8273
 189  622.7209
 190  630.1954
 191  799.0016
 192  717.4821
 193  625.45
 194  614.892
 195  565.5024
 196  622.2832
 197  609.046
 198  648.3295
 199  561.2294
 200  571.1323
 201  785.5828
 202  730.8434
 203  653.6949
 204  635.2404
 205  591.9759
 206  467.8121
 207  572.05
 208  699.2496
 209  648.1022
 210  537.7441
 211  576.6358
 212  636.2263
 213  571.8418
 214  562.2823
 215  536.9272
 216  637.128
 217  629.048
 218  632.5269
 219  576.854
 220  608.5021
 221  629.7071
 222  574.3102
 223  598.466
 224  565.7944
 225  456.9562
 226  502.456
 227  500.2935
 228  484.2271
 229  504.7522
 230  710.5146
 231  592.2384
 232  573.2264
 233  607.8653
 234  611.1002
 235  714.0422
 236  577.7791
 237  744.0346
 238  693.0132
 239  638.1096
 240  653.0186
 241  687.8418
 242  705.5611
 243  724.7073
 244  771.1462
 245  725.3021
 246  613.6138
 247  630.7695
 248  780.0402
 249  688.682
 250  651.3779
 251  601.8428
 252  667.855
 253  680.926
 254  714.4755
 255  734.181
 256  755.025
 257  740.2729
 258  605.0783
 259  651.0592
 260  603.6097
 261  562.4556
 262  625.9069
 263  654.9106
 264  759.9504
 265  658.0673
 266  607.7632
 267  612.0064
 268  609.5306
 269  660.0135
 270  656.0547
 271  650.4828
 272  703.9073
 273  652.8661
 274  695.0735
 275  658.5636
 276  632.6575
 277  642.2785
 278  681.9633
 279  705.9109
 280  646.8799
 281  558.644
 282  600.2488
 283  504.0674
 284  553.4026
 285  675.8054
 286  596.0367
 287  606.3715
 288  690.9475
 289  750.4669
 290  681.2762
 291  674.1923
 292  655.8815
 293  635.7084
 294  597.5555
 295  706.4961
 296  774.1248
 297  719.9835
 298  680.3307
 299  611.1697
 300  606.4347
 301  596.1818
 302  591.476
 303  563.6942
 304  566.7299
 305  618.7535
 306  634.2197
 307  689.4846
 308  719.4603
 309  624.0763
 310  615.5298
 311  716.5032
 312  710.843
 313  687.1033
 314  669.4501
 315  678.1816
 316  743.5036
 317  724.116
 318  724.689
 319  810.0949
 320  721.8877
 321  668.8298
 322  650.3527
 323  725.9909
 324  682.4515
 325  659.2822
 326  669.2899
 327  603.87
 328  630.0185
 329  649.3693
 330  720.2901
 331  727.9047
 332  663.8447
 333  632.7261
 334  631.3528
 335  541.7484
 336  586.5268
 337  633.2974
 338  565.6627
 339  590.7946
 340  672.0604
 341  685.096
 342  643.3806
 343  702.6987
 344  696.5263
 345  619.194
 346  637.1476
 347  613.1371
 348  551.2305
 349  641.9363
 350  665.3627
 351  755.1022
 352  680.8032
 353  670.9711
 354  593.5862
 355  616.0057
 356  595.3908
 357  592.9581
 358  616.5704
 359  691.1913
 360  719.7324
 361  687.969
 362  654.923
 363  656.6578
 364  651.1813
 365  601.9482
 366  696.0204
 367  595.0378
 368  603.6351
 369  708.6486
 370  731.3137
 371  620.2969
 372  675.603
 373  809.3499
 374  786.9495
 375  751.8483
 376  664.061
 377  775.8141
 378  718.0281
 379  765.8066
 380  790.4914
 381  724.8419
 382  779.1689
 383  742.6249
 384  714.417
 385  688.9249
 386  773.4017
 387  679.6722
 388  724.7347
 389  786.6314
 390  744.9952
 391  789.4979
 392  771.5182
 393  658.3837
 394  624.5822
 395  659.0453
 396  717.0166
 397  710.299
 398  670.112
 399  647.1345
 400  679.3332
 401  688.2992
 402  716.6072
 403  617.346
 404  563.8922
 405  570.7878
 406  669.4662
 407  637.1688
 408  733.0706
 409  750.0125
 410  682.7542
 411  666.4977
 412  646.0588
 413  681.7023
 414  592.4647
 415  661.9523
 416  754.6836
 417  779.5741
 418  807.5153
 419  698.8021
 420  645.0543
 421  687.4022
 422  601.644
 423  760.1971
 424  700.9201
 425  678.265
 426  668.1005
 427  640.7688
 428  659.041
 429  628.746
 430  606.6172
 431  611.1692
 432  540.0485
 433  630.8974
 434  610.28
 435  526.2665
 436  593.5143
 437  647.7842
 438  687.2706
 439  616.8086
 440  525.9842
 441  441.133
 442  526.1782
 443  537.1269
 444  660.566
 445  683.7475
 446  628.8434
 447  642.3534
 448  715.6805
 449  644.2924
 450  684.3996
 451  660.8998
 452  710.2056
 453  694.9394
 454  602.6674
 455  622.1198
 456  630.9905
 457  681.7855
 458  702.2359
 459  699.7087
 460  708.3995
 461  709.5728
 462  636.415
 463  673.7998
 464  661.9552
 465  553.8013
 466  551.0602
 467  689.733
 468  732.8054
 469  665.0535
 470  677.9373
 471  654.2341
 472  608.9257
 473  588.0641
 474  678.892
 475  623.5585
 476  669.2265
 477  724.2313
 478  648.4887
 479  565.8069
 480  684.1555
 481  724.2651
 482  644.6481
 483  538.0947
 484  664.0595
 485  800.2635
 486  696.8663
 487  631.2139
 488  706.2161
 489  717.366
 490  671.812
 491  695.9637
 492  679.3691
 493  701.8688
 494  654.4965
 495  696.1194
 496  707.3771
 497  601.4412
 498  633.3626
 499  623.9734
 500  607.8228
 501  604.8624
 502  667.5273
 503  644.132
 504  647.5049
 505  673.758
 506  689.0662
 507  687.6202
 508  802.3143
 509  758.0021
 510  877.5083
 511  1021.667
