# Input file       =  1198173788.111938_cleaned.dat
# Candidate        =  PSR_0332+5434
# Telescope        =  AR
# Epoch_topo       =  58111.751968888173
# Epoch_bary       =  N/A
# T_sample         =  0.002
# Data Folded      =  7340032
# Data Avg         =  0.0383930130058831
# Data StdDev      =  1.00005859779703 
# Profile Bins     =  512
# Profile Avg      =  550.393031544175 
# Profile StdDev   =  119.74005246893  
# Reduced chi-sqr  =  0.772
# Prob(Noise)      <  1   (~0.0 sigma)
# P_topo (ms)      =  714.549348025781  +/- 0.000528
# P'_topo (s/s)    =  -0                +/- 2.78e-10
# P''_topo (s/s^2) =  0                 +/- 1.23e-13
# P_bary (ms)      =  N/A
# P'_bary (s/s)    =  N/A
# P''_bary (s/s^2) =  N/A
# P_orb (s)        =  N/A
# asin(i)/c (s)    =  N/A
# eccentricity     =  N/A
# w (rad)          =  N/A
# T_peri           =  N/A
######################################################
   0  966.1629
   1  796.3304
   2  681.7748
   3  652.4321
   4  644.2325
   5  638.0259
   6  670.8624
   7  589.501
   8  519.8473
   9  387.5762
  10  499.551
  11  589.6323
  12  649.9845
  13  537.5401
  14  443.0751
  15  434.4636
  16  447.3633
  17  492.1981
  18  515.7072
  19  468.5659
  20  388.5539
  21  510.7098
  22  608.9066
  23  553.6525
  24  410.2542
  25  518.52
  26  570.2088
  27  617.8608
  28  638.9938
  29  580.692
  30  513.4987
  31  524.9294
  32  582.6628
  33  577.2658
  34  568.4281
  35  572.9208
  36  504.8096
  37  463.3304
  38  461.4396
  39  471.5777
  40  422.0744
  41  411.6504
  42  422.6373
  43  488.9651
  44  476.0766
  45  365.3547
  46  488.064
  47  562.5748
  48  533.5236
  49  498.6328
  50  490.7275
  51  429.0546
  52  361.4387
  53  412.3619
  54  503.5927
  55  575.124
  56  560.8533
  57  499.29
  58  454.8242
  59  424.8983
  60  590.1006
  61  705.4545
  62  678.1781
  63  621.6765
  64  620.6121
  65  695.2431
  66  616.732
  67  489.481
  68  530.9509
  69  577.4161
  70  565.3467
  71  581.9658
  72  602.9766
  73  541.7421
  74  567.4468
  75  656.8375
  76  573.6702
  77  581.4899
  78  536.0321
  79  540.1734
  80  546.7784
  81  503.7511
  82  578.3228
  83  541.4982
  84  564.1046
  85  501.1288
  86  590.4525
  87  643.5855
  88  614.6782
  89  570.2149
  90  588.4349
  91  629.4425
  92  603.1375
  93  662.7919
  94  533.5988
  95  534.0273
  96  577.5779
  97  476.2492
  98  504.0443
  99  519.4953
 100  531.952
 101  596.9034
 102  595.6332
 103  620.6019
 104  529.2759
 105  534.8716
 106  497.6957
 107  504.0792
 108  514.5508
 109  624.7814
 110  590.1228
 111  665.9642
 112  624.7698
 113  602.9373
 114  524.0286
 115  532.1015
 116  586.1691
 117  572.7581
 118  687.5803
 119  595.3099
 120  507.205
 121  584.5302
 122  597.1545
 123  573.3256
 124  567.6103
 125  544.9749
 126  676.8455
 127  637.3013
 128  634.6577
 129  630.4644
 130  607.6134
 131  606.5096
 132  516.9321
 133  416.6977
 134  527.3342
 135  641.4066
 136  676.7203
 137  604.8721
 138  565.2035
 139  703.29
 140  689.7604
 141  543.4019
 142  546.1649
 143  552.4418
 144  539.4751
 145  496.0321
 146  466.1517
 147  469.6598
 148  513.5175
 149  549.8311
 150  581.8512
 151  589.7365
 152  554.0913
 153  527.3768
 154  581.7
 155  559.2172
 156  536.8076
 157  461.914
 158  507.3145
 159  459.7469
 160  491.3069
 161  610.6657
 162  579.1734
 163  561.3467
 164  602.55
 165  579.2449
 166  430.536
 167  408.7718
 168  510.6452
 169  601.9278
 170  564.9894
 171  409.7662
 172  470.6418
 173  507.3202
 174  554.9656
 175  535.595
 176  490.6222
 177  444.6829
 178  523.2882
 179  627.328
 180  672.3029
 181  638.1974
 182  554.7068
 183  576.1536
 184  544.8554
 185  692.8167
 186  692.9682
 187  572.747
 188  464.2533
 189  528.3876
 190  618.7136
 191  570.4617
 192  662.7319
 193  560.3061
 194  571.1154
 195  543.7225
 196  458.3104
 197  520.988
 198  486.2158
 199  557.3689
 200  532.6238
 201  553.9942
 202  611.1304
 203  553.4141
 204  499.745
 205  477.0985
 206  511.4394
 207  581.9349
 208  704.7254
 209  541.306
 210  522.5904
 211  561.3482
 212  573.8477
 213  533.4875
 214  692.7287
 215  749.0741
 216  499.2175
 217  451.8947
 218  616.0925
 219  680.8983
 220  480.8047
 221  570.9211
 222  474.2564
 223  500.3074
 224  536.4103
 225  505.8234
 226  497.3686
 227  575.1425
 228  625.173
 229  566.0521
 230  503.8792
 231  459.4562
 232  605.4176
 233  612.9471
 234  586.3004
 235  508.8262
 236  575.5773
 237  630.0064
 238  573.9113
 239  466.1262
 240  582.6157
 241  599.4459
 242  529.6185
 243  484.6571
 244  434.0009
 245  560.5701
 246  491.8068
 247  540.5698
 248  520.4988
 249  512.5178
 250  558.7854
 251  648.9918
 252  505.4678
 253  509.1443
 254  550.4664
 255  640.8227
 256  639.8952
 257  535.4354
 258  493.7803
 259  567.6663
 260  514.3978
 261  476.9686
 262  507.5021
 263  492.7413
 264  503.1724
 265  457.9745
 266  435.0444
 267  476.6988
 268  513.3063
 269  645.1992
 270  527.7437
 271  549.6078
 272  578.3113
 273  609.1719
 274  539.3938
 275  521.1106
 276  666.3535
 277  741.3515
 278  712.5539
 279  604.8065
 280  576.9711
 281  506.6055
 282  558.0013
 283  605.6184
 284  602.3999
 285  584.5651
 286  617.802
 287  685.4436
 288  688.9598
 289  626.9985
 290  623.7344
 291  590.1323
 292  551.8209
 293  579.0432
 294  632.7698
 295  577.8785
 296  550.3397
 297  531.5405
 298  505.9968
 299  513.9339
 300  598.9855
 301  547.2584
 302  533.6967
 303  520.1808
 304  584.4323
 305  577.1621
 306  520.9529
 307  568.3765
 308  570.4395
 309  547.572
 310  617.6245
 311  575.6782
 312  508.3069
 313  454.1468
 314  474.0866
 315  530.3137
 316  598.9468
 317  648.9686
 318  613.3229
 319  692.6082
 320  639.6014
 321  594.2618
 322  648.481
 323  519.8509
 324  554.3876
 325  539.4693
 326  543.1942
 327  595.606
 328  594.2454
 329  559.5331
 330  522.2875
 331  507.5759
 332  584.2558
 333  599.6264
 334  637.4943
 335  601.7679
 336  531.669
 337  617.9097
 338  640.0765
 339  498.1285
 340  466.4067
 341  498.5903
 342  611.2518
 343  636.0321
 344  634.017
 345  593.8281
 346  480.3506
 347  521.6547
 348  538.7216
 349  616.2733
 350  676.654
 351  692.6478
 352  621.6649
 353  455.8447
 354  510.2963
 355  508.124
 356  568.6085
 357  598.6095
 358  466.9965
 359  436.32
 360  474.4371
 361  505.856
 362  598.2377
 363  492.2242
 364  437.2756
 365  505.1852
 366  540.0353
 367  521.4001
 368  485.1247
 369  395.6581
 370  390.5896
 371  435.2266
 372  467.3748
 373  431.6487
 374  425.5579
 375  490.9547
 376  557.3119
 377  559.4428
 378  515.6691
 379  569.48
 380  488.0891
 381  395.2689
 382  394.8517
 383  502.7124
 384  584.0591
 385  560.0845
 386  545.0583
 387  630.1307
 388  694.115
 389  570.1402
 390  463.289
 391  473.2509
 392  478.1122
 393  432.7691
 394  468.7633
 395  565.1807
 396  486.5928
 397  546.2123
 398  569.12
 399  471.2572
 400  489.6963
 401  567.9174
 402  503.9086
 403  479.8793
 404  462.6165
 405  566.1581
 406  566.0886
 407  497.7724
 408  527.2117
 409  507.5307
 410  536.9921
 411  556.8402
 412  553.3105
 413  489.2801
 414  473.2324
 415  524.9466
 416  552.4503
 417  579.1359
 418  621.3474
 419  623.5178
 420  480.3839
 421  479.4737
 422  575.3025
 423  551.5648
 424  614.4119
 425  599.7982
 426  635.429
 427  692.8516
 428  537.5228
 429  473.3829
 430  489.7029
 431  536.2715
 432  596.828
 433  587.2667
 434  571.6259
 435  486.8009
 436  493.6071
 437  612.5009
 438  506.5962
 439  543.5043
 440  486.5129
 441  497.9164
 442  452.0666
 443  484.9387
 444  564.8425
 445  621.696
 446  573.9128
 447  547.6347
 448  569.2935
 449  684.8267
 450  635.3127
 451  581.923
 452  512.8209
 453  527.3245
 454  564.7014
 455  526.7349
 456  524.0795
 457  579.8511
 458  646.8365
 459  531.2244
 460  485.9883
 461  463.3011
 462  473.6903
 463  514.2155
 464  448.4783
 465  494.2176
 466  478.4149
 467  531.6404
 468  513.7714
 469  458.9638
 470  470.9883
 471  452.3231
 472  513.3348
 473  457.3648
 474  556.2754
 475  571.5109
 476  613.9163
 477  609.8321
 478  416.1033
 479  408.8885
 480  458.7817
 481  471.5317
 482  467.1769
 483  502.8154
 484  628.2004
 485  476.6478
 486  471.9084
 487  576.8143
 488  498.0367
 489  401.0541
 490  352.8739
 491  484.7311
 492  556.5039
 493  609.5197
 494  664.894
 495  588.605
 496  567.548
 497  569.5849
 498  499.0237
 499  489.1882
 500  537.4265
 501  650.1061
 502  664.2136
 503  569.5709
 504  601.7029
 505  545.7974
 506  499.7454
 507  520.1971
 508  649.7851
 509  740.3808
 510  838.7957
 511  924.3812
