# Input file       =  1198330917.113058_cleaned.dat
# Candidate        =  PSR_0332+5434
# Telescope        =  AR
# Epoch_topo       =  58113.570591586322
# Epoch_bary       =  N/A
# T_sample         =  0.002
# Data Folded      =  7143424
# Data Avg         =  0.0760017913471294
# Data StdDev      =  1.00031765667259 
# Profile Bins     =  512
# Profile Avg      =  1060.33443885665 
# Profile StdDev   =  118.156105638385 
# Reduced chi-sqr  =  1.202
# Prob(Noise)      <  0.00115   (~3.0 sigma)
# P_topo (ms)      =  714.550981344772  +/- 0.00024
# P'_topo (s/s)    =  -0                +/- 1.3e-10
# P''_topo (s/s^2) =  0                 +/- 5.91e-14
# P_bary (ms)      =  N/A
# P'_bary (s/s)    =  N/A
# P''_bary (s/s^2) =  N/A
# P_orb (s)        =  N/A
# asin(i)/c (s)    =  N/A
# eccentricity     =  N/A
# w (rad)          =  N/A
# T_peri           =  N/A
######################################################
   0  1542.462
   1  1548.309
   2  1502.678
   3  1325.781
   4  1248.618
   5  1170.568
   6  1097.82
   7  996.0824
   8  982.1038
   9  1028.033
  10  927.3704
  11  987.8502
  12  1111.724
  13  1027.903
  14  1029.213
  15  1072.079
  16  963.5768
  17  1148.926
  18  1086.4
  19  1107.94
  20  1048.383
  21  1028.039
  22  1015.05
  23  1010.942
  24  1072.856
  25  994.005
  26  1009.33
  27  1125.418
  28  1059.467
  29  1178.717
  30  1133.323
  31  1051.962
  32  1113.577
  33  1065.537
  34  1050.57
  35  1004.251
  36  1183.467
  37  1176.761
  38  972.2885
  39  972.2534
  40  1056.693
  41  1214.221
  42  1204.799
  43  1112.397
  44  1025.483
  45  1133.848
  46  1127.602
  47  924.4882
  48  993.0832
  49  1131.364
  50  1115.34
  51  1173.219
  52  1230.112
  53  1141.583
  54  1025.074
  55  1012.428
  56  948.3601
  57  1077.984
  58  1049.155
  59  996.6906
  60  1061.921
  61  1001.934
  62  1025.47
  63  1059.931
  64  1090.347
  65  1025.552
  66  1066.763
  67  1103.837
  68  977.0249
  69  990.1187
  70  942.195
  71  1090.888
  72  1144.644
  73  1147.533
  74  1160.466
  75  1012.914
  76  1056.019
  77  1035.665
  78  1099.787
  79  1098.198
  80  1201.827
  81  1162.618
  82  1167.268
  83  1122.62
  84  1105.328
  85  1098.832
  86  1074.716
  87  1159.936
  88  1057.665
  89  1008.168
  90  984.7858
  91  1098.521
  92  1107.683
  93  1042.121
  94  1073.335
  95  1015.665
  96  932.0552
  97  1044.239
  98  1029.678
  99  1051.76
 100  1138.492
 101  1230.899
 102  1275.249
 103  1220.228
 104  1131.164
 105  1100.012
 106  999.5228
 107  1029.379
 108  1115.284
 109  1145.683
 110  1030.85
 111  1112.605
 112  1151.342
 113  1114.892
 114  1153.991
 115  1120.727
 116  1202.221
 117  1257.23
 118  1092.706
 119  1001.732
 120  1120.784
 121  1146.887
 122  1020.765
 123  1002.915
 124  1129.947
 125  1071.005
 126  1087.97
 127  1052.824
 128  1024.59
 129  1000.062
 130  1150.411
 131  1077.918
 132  995.9942
 133  1099.553
 134  1161.546
 135  1160.952
 136  1017.512
 137  1073.345
 138  1116.667
 139  940.4545
 140  980.4999
 141  1046.264
 142  1062.207
 143  1083.214
 144  1042.971
 145  1078.141
 146  1088.468
 147  946.1169
 148  943.7348
 149  1083.705
 150  1117.175
 151  1039.172
 152  1139.621
 153  1156.062
 154  1065.392
 155  1130.292
 156  1138.369
 157  1029.308
 158  1174.245
 159  1250.892
 160  1149.657
 161  1126.909
 162  1129.515
 163  1191.947
 164  1167.037
 165  1051.531
 166  1041.628
 167  1110.654
 168  1145.091
 169  1018.608
 170  949.0942
 171  1003.405
 172  1009.616
 173  970.3729
 174  1106.012
 175  1178.733
 176  1109.635
 177  1080.106
 178  1156.55
 179  1217.422
 180  1047.318
 181  1112.026
 182  1204.396
 183  1222.925
 184  1133.366
 185  1160.147
 186  1112.914
 187  1039.29
 188  1073.734
 189  1031.463
 190  1015.433
 191  1073.51
 192  1085.381
 193  1086.579
 194  957.1364
 195  918.1207
 196  1018.872
 197  985.2487
 198  1039.806
 199  1155.62
 200  1041.755
 201  1041.146
 202  978.0368
 203  896.1014
 204  908.4446
 205  934.6973
 206  1038.759
 207  996.2759
 208  1047.136
 209  1096.737
 210  1019.84
 211  970.7714
 212  1073.828
 213  1028.118
 214  1035.134
 215  1029.804
 216  993.7419
 217  999.8215
 218  1040.62
 219  1095.742
 220  988.36
 221  951.1419
 222  976.1644
 223  981.7583
 224  1037.672
 225  1085.83
 226  1078.953
 227  953.105
 228  967.5266
 229  1132.885
 230  1197.268
 231  1114.395
 232  988.6282
 233  1040.693
 234  1099.382
 235  1053.02
 236  1071.173
 237  978.7767
 238  1037.28
 239  943.2482
 240  960.3228
 241  1101.413
 242  1035.341
 243  951.9776
 244  1062.836
 245  1122.538
 246  1082.484
 247  932.36
 248  1072.798
 249  1128.842
 250  1102.293
 251  1038.646
 252  960.4669
 253  940.5482
 254  970.0635
 255  1027.104
 256  1036.931
 257  986.3553
 258  1115.397
 259  1099.91
 260  936.2031
 261  932.3179
 262  954.3493
 263  1048.502
 264  1067.3
 265  934.2017
 266  983.4882
 267  1101.381
 268  1002.509
 269  956.0863
 270  1028.384
 271  1042.671
 272  1024.775
 273  1082.436
 274  1086.656
 275  1116.229
 276  1170.924
 277  1177.704
 278  1190.968
 279  1127.779
 280  1049.912
 281  1067.47
 282  1093.169
 283  1030.81
 284  1079.703
 285  1047.181
 286  942.5655
 287  1066.737
 288  1055.194
 289  1205.568
 290  1098.874
 291  1034.562
 292  1045.695
 293  1041.219
 294  1033.98
 295  1024.24
 296  963.8489
 297  1032.887
 298  1132.951
 299  1073.365
 300  1077.069
 301  1045.201
 302  1140.328
 303  1031.277
 304  1054.69
 305  1217.274
 306  1221.635
 307  1103.975
 308  976.1077
 309  962.4625
 310  860.1807
 311  856.8297
 312  936.9474
 313  1197.181
 314  1204.708
 315  1205.041
 316  1072.854
 317  1136.929
 318  1134.866
 319  1063.317
 320  1092.489
 321  1061.746
 322  941.6565
 323  1056.351
 324  986.1887
 325  1068.979
 326  1066.512
 327  952.6512
 328  1029.913
 329  1052.853
 330  1128.586
 331  1131.895
 332  1123.639
 333  1089.724
 334  1063.012
 335  974.1303
 336  1008.689
 337  1008.652
 338  935.7305
 339  1031.651
 340  954.8038
 341  927.9396
 342  1024.571
 343  1032.8
 344  1129.677
 345  1134.406
 346  1011.479
 347  1038.348
 348  855.291
 349  888.7807
 350  1092.394
 351  1145.298
 352  1016.616
 353  976.9692
 354  966.2317
 355  1041.117
 356  1031.116
 357  910.1188
 358  1058.473
 359  1066.632
 360  1108.187
 361  1005.913
 362  926.218
 363  1056.723
 364  1207.598
 365  1167.736
 366  1084.747
 367  1096.625
 368  1038.574
 369  979.4703
 370  1059.661
 371  1197.116
 372  1030.494
 373  992.4781
 374  1023.013
 375  1080.125
 376  1012.356
 377  964.3268
 378  1017.182
 379  1116.066
 380  1109.364
 381  1031.465
 382  1052.826
 383  1022.519
 384  1087.558
 385  1080.92
 386  1013.86
 387  1102.979
 388  1013.348
 389  997.1613
 390  1069.416
 391  1023.31
 392  912.3085
 393  974.1841
 394  871.5784
 395  884.0275
 396  941.955
 397  949.3013
 398  997.2161
 399  1047.481
 400  1016.423
 401  1053.754
 402  965.1724
 403  1044.936
 404  1020.733
 405  910.1134
 406  979.8573
 407  1149.936
 408  1095.58
 409  1059.958
 410  1011.836
 411  929.0617
 412  859.4023
 413  946.58
 414  1071.859
 415  907.2999
 416  936.4005
 417  1006.004
 418  1033.771
 419  985.4937
 420  965.5208
 421  915.1922
 422  861.0382
 423  970.6454
 424  1022.506
 425  1021.546
 426  1038.864
 427  914.6069
 428  899.3641
 429  966.3748
 430  1071.764
 431  1067.021
 432  1059.151
 433  939.657
 434  1035.378
 435  1103.589
 436  1171.328
 437  1175.199
 438  1204.578
 439  1106.404
 440  1022.265
 441  1091.845
 442  1162.135
 443  1061.544
 444  1033.179
 445  1126.469
 446  1240.618
 447  1288.67
 448  1243.235
 449  1185.708
 450  1187.003
 451  1161.185
 452  990.0443
 453  973.3376
 454  994.2406
 455  1036.608
 456  1070.499
 457  1029.792
 458  1011.91
 459  1006.89
 460  933.1635
 461  946.3626
 462  1056.583
 463  975.2471
 464  1135.129
 465  1123.537
 466  1027.22
 467  872.3248
 468  975.786
 469  1108.029
 470  1077.611
 471  1153.603
 472  1091.124
 473  969.1039
 474  1006.255
 475  1111.795
 476  1049.524
 477  980.6207
 478  1001.631
 479  1059.29
 480  1003.127
 481  943.7906
 482  870.6468
 483  890.4823
 484  956.4828
 485  913.1107
 486  992.7181
 487  1088.36
 488  1023.655
 489  974.4791
 490  1019.332
 491  912.0055
 492  1005.141
 493  1074.192
 494  1105.543
 495  1060.276
 496  1005.965
 497  964.2022
 498  1102.308
 499  1016.586
 500  993.4797
 501  1090.062
 502  1109.04
 503  1251.533
 504  1247.326
 505  1162.878
 506  1112.892
 507  1222.852
 508  1193.069
 509  1194.739
 510  1413.02
 511  1546.808
