# Input file       =  1199997843.109079_cleaned.dat
# Candidate        =  PSR_0332+5434
# Telescope        =  AR
# Epoch_topo       =  58132.863716540262
# Epoch_bary       =  N/A
# T_sample         =  0.002
# Data Folded      =  7340032
# Data Avg         =  0.066820470808378
# Data StdDev      =  1.00032629970881 
# Profile Bins     =  512
# Profile Avg      =  957.810068691252 
# Profile StdDev   =  119.772105231671 
# Reduced chi-sqr  =  0.787
# Prob(Noise)      <  1   (~0.0 sigma)
# P_topo (ms)      =  714.566831423924  +/- 0.000323
# P'_topo (s/s)    =  -0                +/- 1.71e-10
# P''_topo (s/s^2) =  0                 +/- 7.53e-14
# P_bary (ms)      =  N/A
# P'_bary (s/s)    =  N/A
# P''_bary (s/s^2) =  N/A
# P_orb (s)        =  N/A
# asin(i)/c (s)    =  N/A
# eccentricity     =  N/A
# w (rad)          =  N/A
# T_peri           =  N/A
######################################################
   0  1310.797
   1  1351.618
   2  1346.43
   3  1235.609
   4  1074.378
   5  986.9891
   6  886.4801
   7  856.9105
   8  995.4121
   9  985.8032
  10  875.5543
  11  893.6716
  12  953.6901
  13  889.2492
  14  979.1572
  15  1046.062
  16  1060.776
  17  995.3948
  18  1051.54
  19  967.7659
  20  994.9639
  21  980.1623
  22  1000.459
  23  898.0956
  24  903.6375
  25  729.1507
  26  814.9474
  27  857.1117
  28  918.2636
  29  966.607
  30  955.8035
  31  920.012
  32  1003.01
  33  966.6118
  34  1001.324
  35  969.6763
  36  998.1709
  37  959.5098
  38  996.4944
  39  864.6668
  40  876.177
  41  921.7627
  42  860.5001
  43  911.4085
  44  874.8969
  45  867.1385
  46  976.8456
  47  892.205
  48  873.9467
  49  914.2709
  50  920.1802
  51  917.1439
  52  895.3781
  53  953.1304
  54  986.7898
  55  946.4442
  56  916.7949
  57  1027.686
  58  1024.138
  59  1060.628
  60  1016.442
  61  1008.927
  62  905.4124
  63  890.0718
  64  932.4839
  65  922.8171
  66  999.5151
  67  892.0949
  68  912.468
  69  888.6883
  70  868.9225
  71  983.0462
  72  916.8731
  73  858.3334
  74  910.3511
  75  1072.549
  76  1046.162
  77  857.8698
  78  900.4646
  79  1026.702
  80  964.8176
  81  829.5539
  82  904.609
  83  1012.316
  84  914.51
  85  873.0735
  86  996.497
  87  1050.168
  88  969.1551
  89  914.4586
  90  989.739
  91  970.232
  92  967.9029
  93  962.5085
  94  965.824
  95  915.727
  96  932.3207
  97  889.049
  98  897.0707
  99  793.9048
 100  894.2365
 101  929.0411
 102  1037.234
 103  911.5056
 104  982.6736
 105  1000.55
 106  978.1262
 107  926.0486
 108  893.0115
 109  871.0515
 110  781.1509
 111  902.9435
 112  973.2944
 113  918.1194
 114  942.0048
 115  892.9465
 116  895.6792
 117  845.0125
 118  872.0535
 119  951.4571
 120  931.7007
 121  963.6789
 122  935.7713
 123  912.3547
 124  929.2634
 125  990.6575
 126  1104.897
 127  1000.523
 128  936.7867
 129  897.7554
 130  962.1169
 131  968.2682
 132  936.4641
 133  1005.206
 134  933.5471
 135  966.4298
 136  919.3722
 137  928.5182
 138  895.904
 139  964.3208
 140  1016.878
 141  972.892
 142  940.191
 143  1083.754
 144  1024.343
 145  963.2653
 146  983.6896
 147  1011.371
 148  924.8402
 149  905.2541
 150  898.7562
 151  857.5639
 152  790.5981
 153  928.1671
 154  1041.07
 155  958.6447
 156  962.054
 157  952.4437
 158  906.54
 159  891.6899
 160  995.6393
 161  997.3911
 162  1001.464
 163  970.081
 164  968.5371
 165  924.5049
 166  975.455
 167  1023.863
 168  956.5205
 169  1015.651
 170  1013.228
 171  881.8877
 172  908.8904
 173  953.0795
 174  971.424
 175  1012.14
 176  1021.451
 177  952.7836
 178  926.5726
 179  1075.162
 180  1127.444
 181  1082.055
 182  1069.647
 183  931.4688
 184  1023.259
 185  974.093
 186  906.9042
 187  885.2641
 188  904.7014
 189  930.6529
 190  959.483
 191  983.2618
 192  959.7356
 193  931.3508
 194  921.2429
 195  1011.004
 196  1022.108
 197  996.3703
 198  1039.415
 199  970.4136
 200  943.7012
 201  961.3753
 202  999.2511
 203  1010.634
 204  992.9909
 205  994.6898
 206  1023.126
 207  1002.154
 208  979.6206
 209  1012.336
 210  842.0951
 211  857.7202
 212  905.5665
 213  957.1707
 214  997.1767
 215  862.3396
 216  964.9026
 217  1002.43
 218  896.6382
 219  1052.298
 220  982.481
 221  1003.942
 222  929.0928
 223  992.4897
 224  983.0758
 225  946.7797
 226  1071.746
 227  1064.758
 228  877.7711
 229  976.7652
 230  1061.842
 231  1077.732
 232  1034.843
 233  1113.173
 234  1083.551
 235  923.5318
 236  908.59
 237  885.9915
 238  898.8326
 239  866.5536
 240  869.015
 241  906.7985
 242  944.2062
 243  972.3848
 244  919.6332
 245  923.0629
 246  1003.365
 247  1040.714
 248  1089.172
 249  1030.482
 250  940.3176
 251  971.2539
 252  1016.103
 253  915.8309
 254  936.3517
 255  949.4056
 256  993.6725
 257  993.99
 258  1042.459
 259  1084.745
 260  1023.465
 261  1033.059
 262  978.2704
 263  974.8172
 264  1037.828
 265  957.8221
 266  957.5967
 267  913.1938
 268  1063.332
 269  1043.204
 270  993.879
 271  941.8181
 272  1070.056
 273  1009.035
 274  949.2554
 275  896.1589
 276  965.1148
 277  879.1896
 278  897.616
 279  859.3297
 280  805.8992
 281  883.2078
 282  882.0008
 283  925.4253
 284  847.9697
 285  877.0833
 286  943.5904
 287  910.8157
 288  886.6129
 289  911.7888
 290  1016.797
 291  966.7966
 292  854.7025
 293  829.798
 294  834.3544
 295  918.3447
 296  953.424
 297  910.4905
 298  926.2915
 299  897.0264
 300  894.0959
 301  956.5002
 302  990.9706
 303  971.5959
 304  960.2277
 305  978.7993
 306  1029.757
 307  882.7869
 308  987.1142
 309  964.5504
 310  887.7703
 311  921.9423
 312  944.397
 313  1019.335
 314  877.0685
 315  958.1196
 316  906.983
 317  919.8919
 318  954.3823
 319  1045.718
 320  1007.345
 321  903.9271
 322  867.7205
 323  976.7484
 324  954.5319
 325  1005.278
 326  998.7781
 327  906.8248
 328  902.6469
 329  1076.646
 330  1122.548
 331  1037.516
 332  1049.605
 333  1058.323
 334  950.1493
 335  954.5272
 336  1020.565
 337  971.8838
 338  999.4459
 339  1033.779
 340  947.6085
 341  972.1263
 342  1012.266
 343  960.6756
 344  925.277
 345  982.124
 346  935.6094
 347  916.208
 348  896.4103
 349  925.5665
 350  888.4424
 351  894.2088
 352  907.6259
 353  888.2676
 354  942.3914
 355  1006.383
 356  1072.271
 357  906.5667
 358  1066.924
 359  1070.022
 360  998.5634
 361  918.1259
 362  939.9302
 363  971.766
 364  984.191
 365  876.817
 366  937.6108
 367  891.9158
 368  881.3633
 369  952.7022
 370  995.9614
 371  974.9553
 372  925.6539
 373  978.7657
 374  1006.826
 375  1014.981
 376  977.704
 377  943.4438
 378  955.1859
 379  1040.734
 380  996.4225
 381  936.3101
 382  869.6851
 383  888.0657
 384  944.7128
 385  910.4193
 386  867.9289
 387  882.6626
 388  935.8334
 389  893.9547
 390  936.0567
 391  932.0825
 392  873.4186
 393  966.7767
 394  823.274
 395  887.4308
 396  908.8093
 397  902.873
 398  918.603
 399  897.9147
 400  925.269
 401  969.5558
 402  914.7638
 403  898.5641
 404  847.8725
 405  906.5557
 406  819.6063
 407  900.0051
 408  883.1978
 409  958.8093
 410  850.3986
 411  864.2339
 412  1041.989
 413  1056.11
 414  994.928
 415  943.1843
 416  941.4651
 417  832.6592
 418  819.3269
 419  998.7747
 420  1040.78
 421  1015.679
 422  843.491
 423  850.7114
 424  965.2454
 425  977.5228
 426  905.6985
 427  927.6807
 428  977.6564
 429  885.7781
 430  923.3075
 431  921.4959
 432  924.9186
 433  962.2975
 434  1024.996
 435  883.7032
 436  942.6585
 437  1014.203
 438  925.233
 439  890.2562
 440  944.2243
 441  1027.528
 442  1041.254
 443  855.5255
 444  837.9329
 445  885.3467
 446  943.8261
 447  939.3453
 448  877.5395
 449  893.1147
 450  933.2736
 451  858.5466
 452  899.7157
 453  864.2611
 454  980.3755
 455  1120.909
 456  955.403
 457  848.7553
 458  932.6163
 459  922.4454
 460  996.6982
 461  1035.305
 462  1044.046
 463  1031.072
 464  851.3983
 465  798.6557
 466  996.2923
 467  943.0334
 468  1005.548
 469  1005.642
 470  1109.625
 471  983.163
 472  951.5319
 473  964.8176
 474  984.429
 475  1010.418
 476  927.1305
 477  962.9403
 478  1001.592
 479  924.4694
 480  874.8309
 481  872.9275
 482  932.8595
 483  925.0101
 484  882.2151
 485  943.1753
 486  941.1697
 487  1032.085
 488  1093.718
 489  1088.909
 490  1002.031
 491  905.4299
 492  998.9865
 493  1011.405
 494  981.7042
 495  992.9673
 496  918.602
 497  910.7196
 498  1003.516
 499  963.0506
 500  870.7639
 501  942.6675
 502  1109.777
 503  1054.016
 504  1117.215
 505  1086.355
 506  1141.787
 507  1108.297
 508  1168.758
 509  1218.095
 510  1245.508
 511  1326.14
