# Input file       =  1199997843.109079_cleaned.dat
# Candidate        =  PSR_0332+5434
# Telescope        =  AR
# Epoch_topo       =  58132.863716540262
# Epoch_bary       =  N/A
# T_sample         =  0.002
# Data Folded      =  7340032
# Data Avg         =  0.066820470808378
# Data StdDev      =  1.00032629970881 
# Profile Bins     =  512
# Profile Avg      =  957.810068707753 
# Profile StdDev   =  119.772105231671 
# Reduced chi-sqr  =  0.780
# Prob(Noise)      <  1   (~0.0 sigma)
# P_topo (ms)      =  714.566831433704  +/- 0.00032
# P'_topo (s/s)    =  -0                +/- 1.69e-10
# P''_topo (s/s^2) =  0                 +/- 7.46e-14
# P_bary (ms)      =  N/A
# P'_bary (s/s)    =  N/A
# P''_bary (s/s^2) =  N/A
# P_orb (s)        =  N/A
# asin(i)/c (s)    =  N/A
# eccentricity     =  N/A
# w (rad)          =  N/A
# T_peri           =  N/A
######################################################
   0  1343.866
   1  1346.337
   2  1305.949
   3  1136.562
   4  1026.735
   5  937.8583
   6  824.7518
   7  954.8967
   8  998.1284
   9  938.5839
  10  845.878
  11  950.0741
  12  905.8089
  13  936.9033
  14  1015.236
  15  1078.691
  16  1006.056
  17  1033.288
  18  1012.955
  19  957.2735
  20  1020.18
  21  979.5471
  22  956.4762
  23  881.9625
  24  824.8622
  25  732.2811
  26  875.9707
  27  854.8389
  28  970.9218
  29  966.2964
  30  926.5218
  31  971.4507
  32  983.7347
  33  991.609
  34  977.4949
  35  992.9297
  36  975.1145
  37  967.0586
  38  958.3766
  39  818.2538
  40  941.6041
  41  858.1618
  42  897.0015
  43  912.9459
  44  843.3456
  45  942.7499
  46  929.2861
  47  881.9734
  48  886.1832
  49  925.8744
  50  916.8615
  51  914.7858
  52  910.7346
  53  978.149
  54  973.3571
  55  908.5522
  56  985.8134
  57  1021.228
  58  1049.698
  59  1053.132
  60  1003.898
  61  962.9807
  62  859.3431
  63  947.2608
  64  892.3249
  65  1001.622
  66  921.0873
  67  903.6854
  68  904.8939
  69  874.476
  70  935.1056
  71  977.0505
  72  854.5197
  73  876.5547
  74  992.2043
  75  1106.245
  76  917.4362
  77  867.4888
  78  980.6799
  79  1016.612
  80  869.791
  81  847.1821
  82  987.702
  83  974.7043
  84  846.8624
  85  959.2874
  86  1025.731
  87  1038.593
  88  885.8693
  89  982.0665
  90  979.5386
  91  978.9637
  92  952.2464
  93  975.796
  94  932.8917
  95  930.2718
  96  891.0965
  97  895.9044
  98  843.2599
  99  854.4573
 100  908.6436
 101  988.8781
 102  973.6042
 103  923.1989
 104  1021.227
 105  972.7675
 106  968.3925
 107  902.0327
 108  892.8446
 109  806.9633
 110  822.1572
 111  975.8125
 112  930.5809
 113  933.5552
 114  927.6431
 115  892.5269
 116  861.43
 117  841.1119
 118  929.7961
 119  940.1556
 120  948.4124
 121  950.9338
 122  913.0947
 123  929.606
 124  936.8277
 125  1094.516
 126  1049.614
 127  959.4523
 128  907.654
 129  923.293
 130  984.9492
 131  920.9316
 132  1002.14
 133  958.3953
 134  959.9348
 135  933.394
 136  924.4788
 137  912.0101
 138  925.6195
 139  1003.798
 140  993.9783
 141  938.1098
 142  1015.215
 143  1069.687
 144  973.332
 145  981.0475
 146  998.9645
 147  987.6169
 148  869.035
 149  941.1499
 150  864.1429
 151  821.7368
 152  824.0507
 153  1029.664
 154  994.5167
 155  953.8486
 156  968.288
 157  923.7747
 158  894.0366
 159  939.9283
 160  1022.948
 161  995.1838
 162  979.6809
 163  978.2851
 164  929.5909
 165  952.0519
 166  1011.817
 167  986.9293
 168  969.6622
 169  1042.192
 170  932.8702
 171  884.3653
 172  948.6506
 173  946.9166
 174  993.058
 175  1026.939
 176  998.7921
 177  913.793
 178  991.0942
 179  1136.545
 180  1084.699
 181  1112.933
 182  954.6995
 183  981.1815
 184  1014.788
 185  929.4177
 186  888.4109
 187  893.0234
 188  933.0616
 189  940.1359
 190  983.2571
 191  957.1356
 192  954.1267
 193  924.7543
 194  962.8181
 195  1038.267
 196  990.6483
 197  1026.836
 198  1006.358
 199  936.2383
 200  953.5289
 201  978.7096
 202  1022.591
 203  1001.301
 204  982.7526
 205  1018.901
 206  1017.887
 207  971.4283
 208  1003.675
 209  925.8185
 210  827.182
 211  905.0783
 212  923.2856
 213  986.878
 214  937.0571
 215  877.0652
 216  1026.768
 217  912.8245
 218  987.5981
 219  1052.722
 220  976.5947
 221  965.5023
 222  946.11
 223  1011.965
 224  943.1677
 225  1001.121
 226  1108.154
 227  940.401
 228  916.782
 229  1041.234
 230  1073.85
 231  1057.946
 232  1055.765
 233  1135.634
 234  974.9471
 235  901.0335
 236  902.5997
 237  887.3776
 238  891.2258
 239  864.7351
 240  889.8295
 241  922.0302
 242  959.529
 243  951.6012
 244  903.5995
 245  975.6434
 246  1029.931
 247  1066.275
 248  1065.45
 249  978.3443
 250  926.0146
 251  1028.375
 252  952.9772
 253  931.3
 254  937.5177
 255  981.3527
 256  982.45
 257  1025.207
 258  1070.372
 259  1073.524
 260  989.6121
 261  1038.468
 262  937.7147
 263  1038.781
 264  976.542
 265  965.1506
 266  915.8839
 267  1000.2
 268  1069.486
 269  1012.321
 270  949.8111
 271  1019.702
 272  1045.997
 273  985.6412
 274  887.9243
 275  961.7258
 276  903.5527
 277  896.1487
 278  879.2333
 279  823.1648
 280  842.8704
 281  880.115
 282  919.5071
 283  891.1727
 284  847.2162
 285  918.3229
 286  937.0131
 287  880.5665
 288  907.2036
 289  961.772
 290  1020.47
 291  879.7349
 292  851.7231
 293  816.5759
 294  876.356
 295  953.6479
 296  930.9495
 297  918.6509
 298  922.7845
 299  870.4261
 300  943.9671
 301  968.4133
 302  991.8243
 303  949.6091
 304  958.6283
 305  1042.236
 306  934.6718
 307  922.9141
 308  999.6195
 309  906.6219
 310  910.7291
 311  912.0967
 312  1017.308
 313  936.5525
 314  906.1793
 315  943.3921
 316  901.1405
 317  943.3199
 318  1007.772
 319  1030.37
 320  953.8442
 321  853.5982
 322  947.4042
 323  959.8337
 324  991.4236
 325  1010.135
 326  954.5533
 327  863.0118
 328  998.6611
 329  1121.527
 330  1086.339
 331  1023.366
 332  1074.826
 333  1007.442
 334  923.4101
 335  1009.646
 336  997.0719
 337  962.0972
 338  1044.106
 339  977.619
 340  951.3969
 341  1002.369
 342  988.2883
 343  934.8362
 344  957.6022
 345  979.6712
 346  888.2377
 347  921.0516
 348  903.5658
 349  929.2401
 350  861.0716
 351  914.0441
 352  892.2782
 353  930.8786
 354  952.1091
 355  1081.681
 356  954.1714
 357  988.9266
 358  1089
 359  1032.624
 360  950.2156
 361  927.6092
 362  954.2252
 363  995.8461
 364  903.4023
 365  909.5431
 366  936.2061
 367  866.5121
 368  922.6268
 369  966.7652
 370  1003.556
 371  947.4519
 372  944.0297
 373  1003.221
 374  1002.512
 375  1006.15
 376  949.927
 377  934.5609
 378  1016.309
 379  1026.129
 380  971.1142
 381  875.0399
 382  878.1874
 383  919.7296
 384  938.5485
 385  872.8321
 386  871.5729
 387  923.5188
 388  921.0609
 389  889.7933
 390  966.7846
 391  871.7565
 392  959.515
 393  869.337
 394  844.5676
 395  912.0015
 396  903.2047
 397  904.7415
 398  917.4249
 399  900.3083
 400  970.0167
 401  938.6621
 402  904.123
 403  869.3276
 404  879.3235
 405  853.8693
 406  852.472
 407  892.64
 408  941.6993
 409  919.5815
 410  809.2686
 411  976.1608
 412  1061.283
 413  1034.953
 414  954.86
 415  945.3448
 416  891.6019
 417  795.368
 418  907.7029
 419  1047.646
 420  1032
 421  934.9939
 422  817.9765
 423  916.9252
 424  984.0679
 425  941.2038
 426  890.5728
 427  980.4149
 428  907.7136
 429  919.7073
 430  924.8475
 431  918.5634
 432  916.0539
 433  1029.062
 434  955.348
 435  891.0776
 436  1017.489
 437  943.616
 438  916.9651
 439  899.7496
 440  1000.37
 441  1043.394
 442  952.6633
 443  815.8073
 444  867.7434
 445  911.8695
 446  964.5619
 447  903.311
 448  868.7397
 449  915.6486
 450  888.982
 451  874.4144
 452  895.0145
 453  885.776
 454  1104.962
 455  1044.472
 456  869.6219
 457  898.9022
 458  927.1869
 459  957.6765
 460  1032.776
 461  1038.782
 462  1037.999
 463  953.8773
 464  758.058
 465  949.4715
 466  949.1815
 467  995.4777
 468  992.5154
 469  1079.825
 470  1051.602
 471  927.6456
 472  979.8599
 473  963.5515
 474  1009.717
 475  968.5703
 476  935.5432
 477  1001.457
 478  967.6094
 479  873.175
 480  876.996
 481  904.2159
 482  954.4557
 483  872.7122
 484  923.1412
 485  938.351
 486  973.072
 487  1079.283
 488  1090.859
 489  1071.046
 490  920.1248
 491  963.1429
 492  999.027
 493  994.5545
 494  993.1081
 495  956.4184
 496  897.7818
 497  968.3824
 498  1004.075
 499  917.0942
 500  855.4023
 501  1074.215
 502  1063.53
 503  1099.136
 504  1099.507
 505  1115.906
 506  1122.184
 507  1142.613
 508  1199.791
 509  1225.632
 510  1296.592
 511  1312.03
