# Input file       =  1199723963.108346_cleaned.dat
# Candidate        =  PSR_0332+5434
# Telescope        =  AR
# Epoch_topo       =  58129.693809124372
# Epoch_bary       =  N/A
# T_sample         =  0.002
# Data Folded      =  7340032
# Data Avg         =  0.0796965344603772
# Data StdDev      =  1.00017608694005 
# Profile Bins     =  512
# Profile Avg      =  1142.49693031054 
# Profile StdDev   =  119.754119800765 
# Reduced chi-sqr  =  0.785
# Prob(Noise)      <  1   (~0.0 sigma)
# P_topo (ms)      =  714.564237340555  +/- 0.000347
# P'_topo (s/s)    =  -0                +/- 1.83e-10
# P''_topo (s/s^2) =  0                 +/- 8.08e-14
# P_bary (ms)      =  N/A
# P'_bary (s/s)    =  N/A
# P''_bary (s/s^2) =  N/A
# P_orb (s)        =  N/A
# asin(i)/c (s)    =  N/A
# eccentricity     =  N/A
# w (rad)          =  N/A
# T_peri           =  N/A
######################################################
   0  1476.499
   1  1564.752
   2  1478.421
   3  1380.698
   4  1187.146
   5  1239.006
   6  1140.859
   7  1099.799
   8  1148.409
   9  1177.838
  10  1136.838
  11  1180.48
  12  1115.697
  13  1119.488
  14  1121.274
  15  1013.486
  16  1045.969
  17  1023.411
  18  1083.571
  19  987.6924
  20  986.7028
  21  1039.89
  22  1109.583
  23  1080.314
  24  1106.284
  25  1137.679
  26  1112.313
  27  1135.757
  28  1142.414
  29  1118.987
  30  1089.533
  31  1084.945
  32  1070.049
  33  1037.422
  34  1049.163
  35  1172.777
  36  1141.474
  37  1183.298
  38  1129.86
  39  1049.818
  40  1123.713
  41  1132.319
  42  1149.248
  43  1179.49
  44  1157.527
  45  1100.975
  46  1135.924
  47  1088.143
  48  1046.345
  49  1086.248
  50  1102.706
  51  1112.367
  52  1083.804
  53  1110.888
  54  1033.147
  55  1085.476
  56  1095.504
  57  1094.23
  58  1104.781
  59  1238.661
  60  1237.446
  61  1196.856
  62  1029.321
  63  1082.977
  64  1133.256
  65  1105.734
  66  1146.991
  67  1126.326
  68  1081.264
  69  1080.312
  70  1187.271
  71  1181.708
  72  1185.073
  73  1160.229
  74  1020.907
  75  1087.083
  76  1077.032
  77  1029.129
  78  1086.23
  79  1125.269
  80  1155.383
  81  1102.841
  82  1138.921
  83  1132.594
  84  1116.413
  85  1120.185
  86  1073.368
  87  1117.205
  88  1216.088
  89  1070.317
  90  1122.509
  91  1074.323
  92  1055.423
  93  1097.775
  94  1106.003
  95  1110.771
  96  1130.426
  97  1099.121
  98  1062.324
  99  1110.728
 100  1077.066
 101  1079.888
 102  1151.356
 103  1100.488
 104  1056.433
 105  979.519
 106  1103.113
 107  1136.045
 108  1111.423
 109  1098.666
 110  1079.015
 111  1071.028
 112  1054.134
 113  1025.513
 114  1090.69
 115  1067.957
 116  1011.682
 117  1075.263
 118  1061.72
 119  1015.178
 120  1072.399
 121  1122.046
 122  1137.639
 123  1127.568
 124  1080.409
 125  1184.668
 126  1136.988
 127  1034.895
 128  1029.587
 129  1116.536
 130  1164.008
 131  1204.859
 132  1154.329
 133  1150.678
 134  1169.15
 135  1124.942
 136  1216.916
 137  1116.587
 138  1185.625
 139  1128.312
 140  1050.524
 141  1088.965
 142  1025.968
 143  1163.946
 144  1182.016
 145  1157.226
 146  1154.508
 147  1042.688
 148  1068.27
 149  1114.062
 150  1116.669
 151  1069.535
 152  1170.867
 153  1204.217
 154  1114.98
 155  1018.606
 156  1163.667
 157  1253.789
 158  1156.346
 159  1122.583
 160  1077.453
 161  1078.645
 162  1174.986
 163  1169.478
 164  1251.269
 165  1194.145
 166  1072.378
 167  1035.233
 168  1056.42
 169  1130.565
 170  1102.854
 171  1177.865
 172  1164.019
 173  1120.954
 174  1128.525
 175  1082.18
 176  1113.693
 177  1150.001
 178  1165.275
 179  1114.986
 180  1174.149
 181  1141.764
 182  1178.811
 183  1145.506
 184  1118.282
 185  1111.946
 186  1091.408
 187  986.8045
 188  1100.33
 189  1098.806
 190  1121.181
 191  1004.459
 192  1070.148
 193  1229.944
 194  1187.966
 195  1186.391
 196  1231.527
 197  1133.244
 198  1132.919
 199  1089.064
 200  1097.611
 201  1107.975
 202  1132.523
 203  1167.084
 204  1028.589
 205  1000.744
 206  1063.453
 207  1095.066
 208  1126.604
 209  1217.363
 210  1191.136
 211  1222.884
 212  1129.83
 213  1041.329
 214  1153.134
 215  1120.573
 216  1051.313
 217  1177.2
 218  1140.414
 219  1125.464
 220  1062.549
 221  1096.812
 222  1081.465
 223  1173.215
 224  1160.239
 225  1058.991
 226  1081.573
 227  1077.48
 228  1072.977
 229  1168.211
 230  1098.198
 231  1090.81
 232  1102.58
 233  1196.993
 234  1039.978
 235  1073.02
 236  1089.738
 237  1078.046
 238  1139.516
 239  1161.193
 240  1139.309
 241  1180.379
 242  1267.689
 243  1183.846
 244  1098.51
 245  1158.258
 246  1120.903
 247  1122.412
 248  1185.314
 249  1217.724
 250  1215.734
 251  1160.51
 252  1113.914
 253  1064.85
 254  1084.225
 255  1100.049
 256  1156.871
 257  1187.301
 258  1145.886
 259  1096.09
 260  1053.56
 261  1038.917
 262  1112.458
 263  1189.575
 264  1097.494
 265  1129.262
 266  1273.028
 267  1113.465
 268  1091.272
 269  1087.532
 270  1267.871
 271  1296.787
 272  1277.819
 273  1239.939
 274  1166.546
 275  1136.392
 276  1135.835
 277  1182.537
 278  1255.474
 279  1196.958
 280  1151.418
 281  1164.334
 282  1320.803
 283  1360.697
 284  1321.617
 285  1226.934
 286  1188.227
 287  1154.264
 288  1123.797
 289  1109.104
 290  1164.824
 291  1122.968
 292  1014.209
 293  1153.677
 294  1166.369
 295  1169.75
 296  1203.95
 297  1084.233
 298  1138.12
 299  1244.069
 300  1291.144
 301  1213.568
 302  1153.271
 303  1218.292
 304  1134.963
 305  1186.081
 306  1212.016
 307  1198.708
 308  1187.617
 309  1108.315
 310  1107.782
 311  1328.516
 312  1300.685
 313  1304.277
 314  1222.277
 315  1330.847
 316  1235.335
 317  1164.237
 318  1128.629
 319  1171.988
 320  1273.434
 321  1234.278
 322  1224.776
 323  1279.804
 324  1324.211
 325  1253.027
 326  1230.87
 327  1209.046
 328  1213.037
 329  1190.077
 330  1099.186
 331  1095.133
 332  1061.026
 333  1031.113
 334  1037.489
 335  1065.128
 336  1096.626
 337  1070.393
 338  1156.896
 339  1087.57
 340  1136.964
 341  1215.802
 342  1207.14
 343  1182.087
 344  1148.766
 345  1149.105
 346  1205.216
 347  1205.048
 348  1169.532
 349  1168.428
 350  1150.608
 351  1181.68
 352  1185.871
 353  1223.402
 354  1202.03
 355  1194.972
 356  1256.15
 357  1194.734
 358  1231.16
 359  1183.358
 360  1188.225
 361  1147.182
 362  1138.975
 363  1224.483
 364  1287.169
 365  1292.143
 366  1245.906
 367  1205.479
 368  1162.841
 369  1089.284
 370  1048.713
 371  1136.509
 372  1134.391
 373  1168.995
 374  1140.275
 375  1184.949
 376  1161.881
 377  1147.661
 378  1174.745
 379  1172.864
 380  1147.668
 381  1113.472
 382  1202.878
 383  1254.513
 384  1149.896
 385  1265.515
 386  1222.631
 387  1148.048
 388  1131.115
 389  1125.862
 390  1203.516
 391  1263.075
 392  1255.035
 393  1183.524
 394  1218.373
 395  1308.272
 396  1274.625
 397  1156.317
 398  1143.614
 399  1227.431
 400  1228.902
 401  1206.056
 402  1145.024
 403  1203.133
 404  1214.138
 405  1242.926
 406  1242.048
 407  1263.559
 408  1266.448
 409  1252.12
 410  1226.616
 411  1242.493
 412  1135.804
 413  1145.213
 414  1197.432
 415  1125.985
 416  1089.063
 417  1130.385
 418  1164.92
 419  1130.639
 420  1117.452
 421  1121.101
 422  1119.898
 423  1135.333
 424  1126.026
 425  1101.589
 426  1143.644
 427  1143.532
 428  1160.376
 429  1000.088
 430  983.8644
 431  1077.226
 432  1169.336
 433  1126.756
 434  1088.85
 435  1066.76
 436  1028.47
 437  1067.543
 438  1080.671
 439  1169.143
 440  1140.343
 441  1071.402
 442  1048.198
 443  1038.79
 444  1061.353
 445  1071.067
 446  1158.839
 447  1179.58
 448  1141.177
 449  1162.756
 450  1217.658
 451  1301.305
 452  1222.026
 453  1171.018
 454  1267.395
 455  1189.962
 456  1155.687
 457  1075.099
 458  1083.014
 459  1090.224
 460  1175.229
 461  1177.645
 462  1147.807
 463  1107.828
 464  1068.73
 465  1057.256
 466  1146.023
 467  1077.859
 468  1034.455
 469  962.6596
 470  1035.386
 471  1121.485
 472  1050.763
 473  1068.859
 474  1069.857
 475  983.2208
 476  1087.316
 477  1153.141
 478  1141.695
 479  1157.942
 480  1155.275
 481  1172.833
 482  1108.544
 483  1200.506
 484  1059.305
 485  1071.096
 486  1045.44
 487  1074.711
 488  1042.929
 489  1132.699
 490  1162.724
 491  1261.537
 492  1224.475
 493  1171.953
 494  1134.224
 495  1056.529
 496  1057.13
 497  1200.913
 498  1178.338
 499  1169.715
 500  1079.936
 501  1100.727
 502  1112.377
 503  1095.157
 504  1056.376
 505  1242.387
 506  1217.847
 507  1203.698
 508  1209.925
 509  1379.263
 510  1414.946
 511  1347.261
