# Input file       =  1199982936.105925_cleaned.dat
# Candidate        =  PSR_0332+5434
# Telescope        =  AR
# Epoch_topo       =  58132.691181781542
# Epoch_bary       =  N/A
# T_sample         =  0.002
# Data Folded      =  7340032
# Data Avg         =  0.0511820499820702
# Data StdDev      =  0.999886487972926
# Profile Bins     =  512
# Profile Avg      =  733.741552357688 
# Profile StdDev   =  119.719445237099 
# Reduced chi-sqr  =  1.226
# Prob(Noise)      <  0.000339   (~3.4 sigma)
# P_topo (ms)      =  714.56637181743   +/- 0.000178
# P'_topo (s/s)    =  -0                +/- 9.39e-11
# P''_topo (s/s^2) =  0                 +/- 4.15e-14
# P_bary (ms)      =  N/A
# P'_bary (s/s)    =  N/A
# P''_bary (s/s^2) =  N/A
# P_orb (s)        =  N/A
# asin(i)/c (s)    =  N/A
# eccentricity     =  N/A
# w (rad)          =  N/A
# T_peri           =  N/A
######################################################
   0  1354.851
   1  1342.762
   2  1278.294
   3  1013.253
   4  826.2735
   5  738.2012
   6  758.892
   7  674.9008
   8  672.139
   9  637.2653
  10  629.5668
  11  835.3152
  12  825.4912
  13  721.1206
  14  717.1299
  15  787.7534
  16  669.6423
  17  651.2551
  18  733.7266
  19  665.2347
  20  661.5341
  21  679.8165
  22  789.6357
  23  737.8048
  24  680.6558
  25  700.3896
  26  726.8073
  27  672.4687
  28  648.8535
  29  749.6705
  30  831.3261
  31  728.7224
  32  665.9479
  33  712.2744
  34  711.4354
  35  614.191
  36  666.1423
  37  679.1038
  38  601.459
  39  575.8574
  40  733.4861
  41  763.3231
  42  743.3265
  43  721.0374
  44  703.3773
  45  722.149
  46  778.4389
  47  855.0289
  48  744.1026
  49  679.725
  50  737.6907
  51  753.3919
  52  664.926
  53  636.2845
  54  785.7606
  55  800.4125
  56  803.2264
  57  715.4617
  58  713.9394
  59  652.0112
  60  662.5707
  61  745.3826
  62  799.1518
  63  762.6592
  64  732.1842
  65  739.5222
  66  765.7742
  67  823.4941
  68  823.7404
  69  890.2149
  70  950.4832
  71  883.6441
  72  808.2572
  73  726.6958
  74  664.7952
  75  753.1075
  76  797.2414
  77  796.4394
  78  682.8011
  79  657.3413
  80  629.437
  81  728.2504
  82  788.2624
  83  803.2031
  84  806.1208
  85  710.8589
  86  756.4789
  87  793.5766
  88  835.7491
  89  767.7982
  90  759.6411
  91  758.6968
  92  802.7024
  93  716.3348
  94  651.7378
  95  614.537
  96  663.798
  97  724.1584
  98  824.1411
  99  827.7016
 100  785.6776
 101  709.6982
 102  745.0947
 103  702.8945
 104  639.7629
 105  605.3222
 106  791.4039
 107  849.152
 108  670.5611
 109  713.6062
 110  743.2417
 111  741.4272
 112  752.7899
 113  775.4801
 114  781.1758
 115  779.9045
 116  669.2328
 117  620.195
 118  638.2737
 119  783.9565
 120  840.9933
 121  768.7567
 122  595.6079
 123  546.0474
 124  589.7581
 125  603.9789
 126  620.0387
 127  753.0403
 128  817.3586
 129  759.393
 130  779.5605
 131  751.9911
 132  727.7548
 133  673.3763
 134  725.8646
 135  678.7018
 136  689.1887
 137  796.4786
 138  770.7895
 139  661.1937
 140  517.4844
 141  613.6133
 142  611.4454
 143  604.1735
 144  747.5891
 145  774.233
 146  798.2902
 147  800.3907
 148  825.0728
 149  862.3696
 150  714.6092
 151  656.4147
 152  638.0704
 153  685.7258
 154  753.5871
 155  764.7124
 156  748.4091
 157  705.4892
 158  712.9285
 159  716.7457
 160  713.4814
 161  666.2321
 162  698.2593
 163  757.1744
 164  778.8668
 165  785.3928
 166  831.4917
 167  787.1129
 168  801.2997
 169  809.6572
 170  843.2247
 171  797.0594
 172  771.6795
 173  741.0632
 174  757.9792
 175  698.6544
 176  587.8648
 177  604.5311
 178  733.4116
 179  680.8644
 180  602.3045
 181  680.1822
 182  844.1832
 183  821.3644
 184  710.2751
 185  745.443
 186  719.6367
 187  685.3776
 188  662.7542
 189  609.487
 190  769.0386
 191  712.1909
 192  679.641
 193  683.7937
 194  755.4504
 195  879.4946
 196  741.5993
 197  747.0322
 198  762.847
 199  748.5422
 200  729.8847
 201  701.1357
 202  758.2667
 203  758.4035
 204  725.2603
 205  676.2261
 206  656.9927
 207  607.8734
 208  676.4614
 209  545.4985
 210  666.7897
 211  736.9541
 212  695.8507
 213  747.4626
 214  593.0432
 215  552.804
 216  735.2849
 217  674.2292
 218  583.1161
 219  588.8236
 220  659.4359
 221  737.6351
 222  715.8614
 223  660.7587
 224  609.758
 225  722.9151
 226  713.8844
 227  715.7982
 228  628.4172
 229  704.7084
 230  711.1756
 231  648.3024
 232  666.7804
 233  724.5647
 234  653.8976
 235  740.4781
 236  748.4117
 237  737.5591
 238  807.6848
 239  788.5919
 240  741.1243
 241  749.4639
 242  658.4708
 243  506.9609
 244  598.3187
 245  749.9537
 246  723.7958
 247  780.2352
 248  651.4312
 249  738.7438
 250  688.4455
 251  514.0076
 252  608.9003
 253  766.6487
 254  739.2259
 255  660.4
 256  558.1321
 257  775.1708
 258  772.5903
 259  615.6736
 260  561.2114
 261  659.6819
 262  640.3616
 263  789.6512
 264  845.2894
 265  766.7601
 266  683.614
 267  609.2532
 268  702.9808
 269  763.5844
 270  721.0891
 271  607.0679
 272  616.3491
 273  576.5272
 274  607.3594
 275  575.5974
 276  601.2344
 277  655.5649
 278  601.7051
 279  679.6675
 280  608.5966
 281  592.832
 282  696.6437
 283  807.5792
 284  762.9791
 285  729.1218
 286  753.7774
 287  756.0607
 288  688.2924
 289  602.3564
 290  732.0323
 291  714.5692
 292  813.9118
 293  817.1649
 294  673.6461
 295  770.8323
 296  728.2363
 297  623.2936
 298  559.4628
 299  622.1047
 300  643.9086
 301  700.7587
 302  739.4329
 303  759.5198
 304  605.7444
 305  628.7432
 306  699.623
 307  641.7346
 308  702.3813
 309  760.526
 310  814.224
 311  703.0021
 312  692.2863
 313  578.5667
 314  566.0653
 315  706.629
 316  655.7815
 317  566.5118
 318  669.3972
 319  734.2021
 320  725.5887
 321  706.4761
 322  679.9487
 323  642.689
 324  631.1609
 325  615.9133
 326  657.71
 327  750.5573
 328  718.0198
 329  757.2704
 330  753.4626
 331  751.7669
 332  823.0038
 333  840.3123
 334  879.1953
 335  768.6611
 336  737.1581
 337  788.8301
 338  804.9896
 339  773.262
 340  702.3382
 341  651.3731
 342  698.514
 343  624.8346
 344  659.2288
 345  683.383
 346  696.2968
 347  699.1118
 348  682.2629
 349  676.1711
 350  753.4783
 351  755.4603
 352  673.3878
 353  762.8553
 354  805.2648
 355  686.5861
 356  655.5709
 357  726.4305
 358  630.5974
 359  632.5377
 360  759.0656
 361  728.9292
 362  742.4745
 363  868.6208
 364  953.8948
 365  760.8053
 366  744.2354
 367  759.2394
 368  680.1464
 369  561.7034
 370  695.1427
 371  786.4884
 372  710.8965
 373  760.4908
 374  792.7244
 375  719.722
 376  687.7238
 377  727.9973
 378  728.4631
 379  598.2593
 380  728.7929
 381  799.3171
 382  754.9476
 383  666.9313
 384  652.0782
 385  759.8571
 386  787.3813
 387  741.1509
 388  675.9628
 389  703.8014
 390  734.9989
 391  635.4641
 392  768.2352
 393  862.8309
 394  776.5367
 395  737.3264
 396  806.7545
 397  730.0492
 398  832.4945
 399  863.6378
 400  794.7244
 401  688.7395
 402  652.2646
 403  726.7389
 404  718.0812
 405  800.5414
 406  670.7546
 407  651.101
 408  667.0066
 409  701.6849
 410  791.7639
 411  755.4068
 412  704.6722
 413  802.5986
 414  822.2976
 415  647.9089
 416  704.1631
 417  953.0542
 418  925.7062
 419  829.9031
 420  699.0878
 421  697.8313
 422  683.9313
 423  593.8845
 424  718.5409
 425  791.1631
 426  802.1512
 427  860.1313
 428  803.0614
 429  781.8044
 430  777.1415
 431  785.1749
 432  803.6669
 433  840.2866
 434  784.2336
 435  769.1425
 436  737.11
 437  719.4954
 438  824.0977
 439  858.3055
 440  827.2651
 441  840.7331
 442  821.6996
 443  817.264
 444  836.4346
 445  740.7974
 446  777.6726
 447  777.7828
 448  778.3181
 449  779.0932
 450  823.9731
 451  723.6675
 452  709.3593
 453  745.9431
 454  817.4828
 455  813.7242
 456  842.2385
 457  853.4628
 458  852.0986
 459  821.6024
 460  873.0706
 461  811.2769
 462  793.8463
 463  835.6728
 464  813.2463
 465  870.883
 466  864.8367
 467  789.6176
 468  829.6455
 469  729.5333
 470  729.9089
 471  761.4924
 472  829.2135
 473  680.2376
 474  710.3981
 475  766.7298
 476  854.0522
 477  813.0193
 478  904.7983
 479  801.8068
 480  702.8677
 481  661.5513
 482  710.8386
 483  702.1854
 484  725.4586
 485  821.3458
 486  848.4605
 487  654.6415
 488  689.8945
 489  778.5069
 490  720.7354
 491  665.2883
 492  761.1305
 493  878.0084
 494  848.3766
 495  759.3705
 496  776.5844
 497  743.7512
 498  689.8382
 499  657.045
 500  596.225
 501  693.5147
 502  731.1228
 503  814.6779
 504  751.908
 505  724.2195
 506  699.5548
 507  867.6969
 508  904.525
 509  1017.271
 510  1176.42
 511  1251.456
