# Input file       =  1200484724.120746_cleaned.dat
# Candidate        =  PSR_0332+5434
# Telescope        =  AR
# Epoch_topo       =  58138.498913434560
# Epoch_bary       =  N/A
# T_sample         =  0.002
# Data Folded      =  7143424
# Data Avg         =  0.0105051557342709
# Data StdDev      =  1.00031924300481 
# Profile Bins     =  512
# Profile Avg      =  146.673605546582 
# Profile StdDev   =  118.156293013701 
# Reduced chi-sqr  =  1.526
# Prob(Noise)      <  1.63e-13   (~7.3 sigma)
# P_topo (ms)      =  714.570094211944  +/- 0.000181
# P'_topo (s/s)    =  -0                +/- 9.79e-11
# P''_topo (s/s^2) =  0                 +/- 4.44e-14
# P_bary (ms)      =  N/A
# P'_bary (s/s)    =  N/A
# P''_bary (s/s^2) =  N/A
# P_orb (s)        =  N/A
# asin(i)/c (s)    =  N/A
# eccentricity     =  N/A
# w (rad)          =  N/A
# T_peri           =  N/A
######################################################
   0  872.1856
   1  811.0013
   2  592.2601
   3  428.1382
   4  327.5681
   5  162.4597
   6  107.9285
   7  199.8994
   8  172.0103
   9  103.0538
  10  112.4289
  11  142.522
  12  147.7515
  13  217.7206
  14  208.643
  15  226.3361
  16  183.6777
  17  65.738
  18  298.6638
  19  343.4462
  20  208.0977
  21  320.7292
  22  234.0728
  23  260.3267
  24  232.4886
  25  230.2037
  26  137.412
  27  84.81284
  28  139.8423
  29  151.9611
  30  252.625
  31  258.9454
  32  87.92708
  33  51.53704
  34  109.3586
  35  146.7335
  36  282.406
  37  271.2963
  38  230.5426
  39  63.87673
  40  169.9566
  41  207.1059
  42  153.7224
  43  118.5415
  44  179.847
  45  132.7695
  46  72.81133
  47  54.77427
  48  -25.65179
  49  81.59389
  50  93.46253
  51  137.6982
  52  145.4318
  53  24.04032
  54  43.4328
  55  152.2041
  56  184.5167
  57  208.7375
  58  219.7508
  59  260.9506
  60  198.8315
  61  210.4447
  62  131.3154
  63  42.04994
  64  148.0265
  65  209.7909
  66  85.78602
  67  50.02994
  68  161.4733
  69  145.0689
  70  85.20218
  71  184.1707
  72  192.9808
  73  136.5423
  74  80.35822
  75  47.20932
  76  116.0255
  77  224.5129
  78  263.5518
  79  241.8813
  80  137.5107
  81  166.6649
  82  12.58923
  83  42.83002
  84  41.91729
  85  86.25034
  86  149.9808
  87  208.7977
  88  146.1552
  89  -35.79064
  90  -56.47632
  91  11.16493
  92  37.02356
  93  112.016
  94  165.1681
  95  246.8092
  96  156.9273
  97  38.484
  98  56.24464
  99  66.21848
 100  94.9754
 101  104.4052
 102  154.5306
 103  132.6739
 104  163.8327
 105  92.19474
 106  102.7879
 107  267.8446
 108  109.2764
 109  75.83086
 110  159.1397
 111  68.12712
 112  42.4364
 113  49.91858
 114  83.99366
 115  117.4159
 116  135.3257
 117  55.78605
 118  72.58797
 119  134.4812
 120  125.9829
 121  -79.14433
 122  -116.1882
 123  -7.714814
 124  92.20592
 125  165.8879
 126  215.5959
 127  138.7761
 128  159.7239
 129  243.7324
 130  150.9553
 131  150.5507
 132  7.774281
 133  110.5662
 134  201.6726
 135  351.4117
 136  388.5751
 137  140.5115
 138  197.4836
 139  332.5325
 140  215.7618
 141  228.7132
 142  250.5992
 143  219.7085
 144  148.1585
 145  266.2488
 146  266.4163
 147  164.0537
 148  34.50467
 149  52.36203
 150  93.93553
 151  136.0015
 152  196.7974
 153  181.6906
 154  156.4932
 155  58.61289
 156  272.2009
 157  98.02357
 158  81.66491
 159  144.6537
 160  148.899
 161  247.287
 162  136.9869
 163  79.79301
 164  68.69765
 165  134.3754
 166  79.79092
 167  61.24524
 168  181.4579
 169  304.1204
 170  291.2802
 171  150.8838
 172  95.4561
 173  60.37533
 174  54.28014
 175  146.9833
 176  137.3636
 177  153.3089
 178  245.4444
 179  256.8936
 180  132.8678
 181  123.9974
 182  60.8223
 183  -15.02532
 184  134.8259
 185  173.4254
 186  188.3029
 187  175.604
 188  158.0405
 189  219.2357
 190  157.6709
 191  127.2765
 192  156.5857
 193  102.187
 194  63.01305
 195  185.915
 196  80.80008
 197  167.07
 198  142.8166
 199  35.34804
 200  92.21281
 201  62.18947
 202  91.02142
 203  150.7408
 204  159.7065
 205  205.9581
 206  226.8997
 207  8.893374
 208  140.3788
 209  287.6134
 210  281.8362
 211  240.5017
 212  85.29364
 213  120.4069
 214  155.0031
 215  214.7298
 216  38.93925
 217  56.27966
 218  75.5015
 219  183.7503
 220  147.6098
 221  106.3496
 222  49.63244
 223  105.9623
 224  76.58347
 225  174.3136
 226  252.8561
 227  285.9439
 228  180.9344
 229  49.95119
 230  142.1127
 231  199.4869
 232  116.3993
 233  197.1723
 234  132.9432
 235  45.91161
 236  137.2994
 237  243.5816
 238  171.0675
 239  130.6081
 240  185.0781
 241  131.0443
 242  148.731
 243  174.857
 244  129.6385
 245  130.9331
 246  172.646
 247  149.121
 248  162.7786
 249  149.6232
 250  48.40195
 251  142.9394
 252  161.3101
 253  80.46281
 254  75.48412
 255  109.6582
 256  7.60864
 257  56.38344
 258  13.73242
 259  -46.69151
 260  89.87634
 261  96.52751
 262  153.0277
 263  203.0167
 264  189.1777
 265  116.0536
 266  -127.8067
 267  -116.2624
 268  60.92973
 269  98.17724
 270  41.54133
 271  107.7922
 272  118.8599
 273  8.332326
 274  31.33471
 275  130.0478
 276  219.528
 277  211.8648
 278  140.8547
 279  134.4862
 280  175.3036
 281  59.77026
 282  -35.04723
 283  134.6114
 284  191.3457
 285  197.8014
 286  143.8559
 287  93.04822
 288  115.452
 289  236.1696
 290  175.254
 291  199.2644
 292  199.6353
 293  172.9525
 294  93.00493
 295  -1.376281
 296  168.2795
 297  131.4376
 298  123.7917
 299  94.64425
 300  198.4751
 301  142.8761
 302  282.0656
 303  212.0637
 304  182.3184
 305  193.6834
 306  250.6217
 307  342.778
 308  384.3694
 309  382.633
 310  143.7657
 311  38.13108
 312  79.74792
 313  115.2795
 314  61.98426
 315  158.8442
 316  242.1275
 317  300.5424
 318  122.3596
 319  79.8176
 320  196.4385
 321  91.55644
 322  60.69851
 323  -33.76545
 324  9.335907
 325  149.2828
 326  191.5605
 327  317.4932
 328  174.2594
 329  103.924
 330  51.23262
 331  28.9896
 332  114.8692
 333  43.51289
 334  51.63969
 335  22.05131
 336  -81.68634
 337  -15.58191
 338  86.26505
 339  117.6509
 340  116.5008
 341  199.1943
 342  48.16248
 343  -78.63973
 344  138.3308
 345  170.8918
 346  127.3663
 347  261.4256
 348  131.1978
 349  193.3345
 350  108.3484
 351  108.9628
 352  221.5368
 353  113.6926
 354  74.37118
 355  119.3454
 356  102.0547
 357  107.5215
 358  231.749
 359  300.9668
 360  211.4723
 361  258.1326
 362  187.5103
 363  58.4764
 364  162.3625
 365  163.3957
 366  95.4867
 367  187.2449
 368  156.2101
 369  -68.99656
 370  -9.138406
 371  149.6908
 372  -0.8432092
 373  53.9569
 374  131.7235
 375  219.7076
 376  121.1782
 377  87.81143
 378  45.0015
 379  51.60192
 380  54.66297
 381  98.86671
 382  115.3168
 383  161.2536
 384  148.7498
 385  180.902
 386  106.8025
 387  -37.81096
 388  -36.8223
 389  39.08907
 390  148.5129
 391  124.4081
 392  172.5905
 393  68.51201
 394  192.4508
 395  202.1782
 396  211.117
 397  89.20055
 398  1.181654
 399  93.5012
 400  132.7771
 401  114.9814
 402  -35.05804
 403  18.6121
 404  201.6821
 405  272.3205
 406  258.7179
 407  161.1442
 408  223.3197
 409  136.1678
 410  40.60299
 411  45.23381
 412  163.7681
 413  245.6069
 414  103.0374
 415  43.65231
 416  104.5588
 417  155.6606
 418  84.55937
 419  -78.79354
 420  -10.88835
 421  -40.78917
 422  39.85185
 423  203.0685
 424  168.9599
 425  95.07546
 426  144.0991
 427  150.7733
 428  195.0999
 429  252.5615
 430  113.8897
 431  93.26106
 432  178.0804
 433  202.6968
 434  130.8149
 435  202.5929
 436  -90.35106
 437  -30.41514
 438  131.5442
 439  203.5613
 440  233.2303
 441  266.2521
 442  73.05999
 443  130.3507
 444  143.8728
 445  139.8541
 446  23.72157
 447  116.6633
 448  226.7682
 449  298.4865
 450  281.57
 451  155.0639
 452  27.37111
 453  161.0388
 454  158.2554
 455  70.28486
 456  218.7485
 457  245.294
 458  203.9541
 459  25.41179
 460  231.0978
 461  149.9212
 462  116.5245
 463  155.5224
 464  197.3408
 465  103.2418
 466  105.3532
 467  175.6145
 468  212.3282
 469  234.5425
 470  272.6043
 471  283.1184
 472  262.5524
 473  212.9945
 474  217.6767
 475  278.7912
 476  209.2443
 477  106.9242
 478  189.1282
 479  48.60991
 480  -61.72083
 481  45.33502
 482  271.2523
 483  279.3878
 484  211.4627
 485  138.9935
 486  260.7602
 487  230.1598
 488  45.38326
 489  90.1824
 490  144.7485
 491  183.6519
 492  193.044
 493  216.9085
 494  235.9289
 495  136.4017
 496  259.2879
 497  181.5002
 498  144.3153
 499  210.388
 500  175.3123
 501  143.0164
 502  273.1301
 503  205.7182
 504  257.8396
 505  219.539
 506  142.7156
 507  203.4565
 508  251.5531
 509  418.5741
 510  597.7304
 511  829.6402
