# Input file       =  1200757855.109703_cleaned.dat
# Candidate        =  PSR_0332+5434
# Telescope        =  AR
# Epoch_topo       =  58141.660151732671
# Epoch_bary       =  N/A
# T_sample         =  0.002
# Data Folded      =  7340032
# Data Avg         =  0.0661709039604557
# Data StdDev      =  1.0002259141203  
# Profile Bins     =  512
# Profile Avg      =  948.631016851002 
# Profile StdDev   =  119.760085760351 
# Reduced chi-sqr  =  0.886
# Prob(Noise)      <  0.97   (~0.0 sigma)
# P_topo (ms)      =  714.571918255324  +/- 0.000234
# P'_topo (s/s)    =  -0                +/- 1.24e-10
# P''_topo (s/s^2) =  0                 +/- 5.46e-14
# P_bary (ms)      =  N/A
# P'_bary (s/s)    =  N/A
# P''_bary (s/s^2) =  N/A
# P_orb (s)        =  N/A
# asin(i)/c (s)    =  N/A
# eccentricity     =  N/A
# w (rad)          =  N/A
# T_peri           =  N/A
######################################################
   0  1381.796
   1  1386.526
   2  1123.784
   3  980.8286
   4  1017.567
   5  941.2164
   6  938.6649
   7  946.9153
   8  934.6497
   9  1006.755
  10  1056.091
  11  1018.438
  12  986.7646
  13  1043.705
  14  972.6364
  15  869.8926
  16  939.7452
  17  951.1879
  18  888.5282
  19  834.3957
  20  863.9432
  21  879.0464
  22  844.1503
  23  854.256
  24  978.9902
  25  966.5016
  26  982.5513
  27  923.5181
  28  977.7204
  29  996.1456
  30  997.6334
  31  936.9673
  32  973.4626
  33  941.9534
  34  875.163
  35  773.1689
  36  846.8555
  37  896.6461
  38  849.7883
  39  833.8387
  40  901.0877
  41  919.877
  42  918.51
  43  949.088
  44  838.2943
  45  878.3406
  46  966.1974
  47  942.2371
  48  1001.655
  49  1021.141
  50  1065.906
  51  1034.57
  52  1026.407
  53  965.0776
  54  824.2894
  55  934.2729
  56  1058.842
  57  1075.033
  58  1039.496
  59  1058.197
  60  931.9786
  61  850.3868
  62  887.42
  63  815.0562
  64  787.6133
  65  860.7966
  66  897.0344
  67  935.024
  68  975.8438
  69  950.9065
  70  958.5787
  71  1054.502
  72  999.3223
  73  922.9829
  74  1043.115
  75  1086.996
  76  984.0549
  77  1068.113
  78  915.8802
  79  886.0903
  80  921.0198
  81  978.2493
  82  915.2639
  83  909.0541
  84  942.5177
  85  946.9698
  86  942.2979
  87  932.2628
  88  912.4058
  89  892.6605
  90  910.3907
  91  905.1396
  92  974.0186
  93  1029.029
  94  987.7178
  95  907.1397
  96  967.5591
  97  976.2391
  98  958.7292
  99  969.9008
 100  1001.51
 101  938.9438
 102  893.8107
 103  790.8749
 104  933.1156
 105  879.882
 106  958.1298
 107  871.8521
 108  931.3794
 109  1030.304
 110  1019.262
 111  937.4324
 112  996.7065
 113  1013.044
 114  959.6052
 115  977.1304
 116  915.5016
 117  909.1136
 118  943.9312
 119  1016.232
 120  945.6714
 121  919.4064
 122  1059.476
 123  1081.758
 124  1051.964
 125  991.1121
 126  1018.539
 127  980.5896
 128  939.8895
 129  1037.702
 130  938.0958
 131  912.4705
 132  931.4435
 133  952.6047
 134  1006.754
 135  951.1556
 136  883.2275
 137  891.3224
 138  945.8245
 139  932.8158
 140  941.7145
 141  973.7301
 142  925.2499
 143  980.5106
 144  996.7021
 145  904.0507
 146  807.4468
 147  909.7241
 148  1004.692
 149  988.3683
 150  928.3171
 151  1011.544
 152  1008.795
 153  1039.673
 154  903.9409
 155  943.1487
 156  923.7452
 157  985.7693
 158  899.4038
 159  872.0961
 160  893.9398
 161  957.5483
 162  965.2479
 163  897.1932
 164  864.1709
 165  971.3289
 166  966.1143
 167  980.6447
 168  984.5129
 169  978.1556
 170  1003.579
 171  1001.507
 172  992.6634
 173  991.098
 174  1013.937
 175  952.1361
 176  864.9896
 177  853.3895
 178  898.0478
 179  972.5302
 180  977.6312
 181  1156.146
 182  1144.251
 183  1151.91
 184  1090.654
 185  1012.004
 186  990.9801
 187  967.2396
 188  922.0725
 189  947.739
 190  1011.736
 191  1025.994
 192  989.955
 193  1013.839
 194  1000.284
 195  947.8638
 196  979.1842
 197  994.5954
 198  1093.947
 199  1034.633
 200  981.6882
 201  1032.088
 202  1009.472
 203  1025.645
 204  1046.734
 205  1026.816
 206  951.1697
 207  922.2897
 208  978.861
 209  889.9443
 210  820.0635
 211  943.1205
 212  1011.432
 213  1037.599
 214  1027.411
 215  981.0096
 216  1061.702
 217  1078.216
 218  923.9285
 219  874.8525
 220  839.3602
 221  805.4015
 222  778.5373
 223  836.8118
 224  809.2455
 225  820.6317
 226  966.4907
 227  945.4901
 228  872.6722
 229  864.5555
 230  928.3991
 231  923.2074
 232  949.2488
 233  987.316
 234  961.8365
 235  882.2258
 236  971.9544
 237  951.2636
 238  947.8323
 239  967.8869
 240  917.7554
 241  897.3733
 242  927.7267
 243  983.8049
 244  935.244
 245  932.5428
 246  1010.135
 247  938.2502
 248  892.9991
 249  946.5791
 250  1060.862
 251  1029.591
 252  1033.337
 253  995.3721
 254  1072.068
 255  1035.496
 256  1059.442
 257  1051.049
 258  1048.974
 259  1066.816
 260  1016.119
 261  917.6316
 262  1011.315
 263  1021.332
 264  927.4994
 265  917.0565
 266  954.8074
 267  882.5471
 268  943.6865
 269  1075.331
 270  997.0568
 271  869.1693
 272  949.8987
 273  1007.444
 274  987.7807
 275  1057.396
 276  1083.018
 277  1010.534
 278  1011.567
 279  981.8644
 280  1002.924
 281  1005.249
 282  1049.453
 283  1105.657
 284  1001.354
 285  884.6297
 286  882.9163
 287  1003.44
 288  1142.831
 289  998.6199
 290  960.9432
 291  992.6987
 292  895.551
 293  974.4534
 294  1025.548
 295  1006.455
 296  1053.26
 297  1018.581
 298  953.0709
 299  854.6154
 300  927.3561
 301  936.1541
 302  1039.94
 303  1030.924
 304  964.3418
 305  1043.221
 306  983.5848
 307  1034.922
 308  1090.376
 309  1006.342
 310  975.5887
 311  1015.911
 312  1074.531
 313  1039.87
 314  1003.906
 315  1011.659
 316  1053.696
 317  980.8033
 318  973.0362
 319  942.2755
 320  881.0733
 321  858.9622
 322  951.437
 323  1014.202
 324  1008.556
 325  1005.004
 326  1027.784
 327  1041.623
 328  990.0089
 329  939.7837
 330  935.0855
 331  888.9103
 332  912.229
 333  967.4942
 334  839.7509
 335  858.0215
 336  911.548
 337  1006.047
 338  928.9511
 339  937.9136
 340  997.2065
 341  983.1808
 342  912.09
 343  889.311
 344  855.0792
 345  951.0375
 346  1008.683
 347  1021.524
 348  931.1766
 349  820.4869
 350  948.1041
 351  941.9647
 352  939.36
 353  900.0988
 354  1032.921
 355  1070.478
 356  1007.96
 357  1019.216
 358  971.6779
 359  949.6836
 360  873.5451
 361  992.1408
 362  976.3917
 363  922.0974
 364  900.5577
 365  892.2601
 366  961.5517
 367  912.1005
 368  854.0815
 369  847.2343
 370  856.5265
 371  903.9073
 372  947.8336
 373  904.3513
 374  839.6307
 375  870.1497
 376  936.9036
 377  916.0363
 378  922.4595
 379  929.35
 380  931.1653
 381  885.901
 382  969.5642
 383  1006.254
 384  1077.67
 385  950.1093
 386  926.8461
 387  950.1864
 388  979.4929
 389  962.427
 390  1017.377
 391  977.8904
 392  897.4776
 393  904.2425
 394  817.4031
 395  777.979
 396  841.9484
 397  929.647
 398  885.4968
 399  894.8724
 400  909.8322
 401  966.4881
 402  916.3146
 403  994.7112
 404  916.7109
 405  887.2779
 406  894.2548
 407  821.554
 408  754.776
 409  809.3536
 410  909.5076
 411  976.79
 412  932.7025
 413  924.3387
 414  939.6381
 415  965.4764
 416  845.9412
 417  946.6506
 418  940.601
 419  947.3289
 420  874.7741
 421  847.1981
 422  817.0625
 423  867.6569
 424  841.1508
 425  778.6494
 426  890.0207
 427  949.0798
 428  833.3344
 429  911.5509
 430  916.9448
 431  880.8745
 432  857.7763
 433  801.0008
 434  834.5325
 435  912.316
 436  885.0996
 437  812.9947
 438  813.3367
 439  877.3478
 440  847.4593
 441  941.2052
 442  792.5275
 443  827.9556
 444  993.4086
 445  915.6645
 446  817.1485
 447  854.7909
 448  907.9077
 449  909.2615
 450  820.045
 451  850.1432
 452  924.6212
 453  986.4458
 454  997.6808
 455  864.1982
 456  997.8045
 457  1025.029
 458  925.4769
 459  836.3901
 460  911.9338
 461  844.76
 462  1006.339
 463  974.2797
 464  902.1115
 465  906.4733
 466  971.6265
 467  937.9877
 468  900.1014
 469  929.7986
 470  927.1844
 471  944.3619
 472  884.9727
 473  854.7139
 474  898.4868
 475  844.9689
 476  865.489
 477  917.6215
 478  925.8167
 479  961.5804
 480  971.5552
 481  957.43
 482  755.4964
 483  807.9744
 484  921.0665
 485  1043.043
 486  889.0571
 487  857.8303
 488  894.4415
 489  786.9157
 490  879.7761
 491  821.8416
 492  888.4448
 493  890.5612
 494  879.1635
 495  862.8965
 496  823.1097
 497  819.2559
 498  829.4237
 499  840.3391
 500  859.6728
 501  856.7808
 502  872.8741
 503  906.0137
 504  952.2147
 505  1065.882
 506  995.385
 507  1003.621
 508  1075.807
 509  1218.643
 510  1311.625
 511  1365.197
