# Input file       =  1200686592.122527_cleaned.dat
# Candidate        =  PSR_0332+5434
# Telescope        =  AR
# Epoch_topo       =  58140.835348640358
# Epoch_bary       =  N/A
# T_sample         =  0.002
# Data Folded      =  7340032
# Data Avg         =  0.0753326616214682
# Data StdDev      =  1.00032797008857 
# Profile Bins     =  512
# Profile Avg      =  1079.82922890869 
# Profile StdDev   =  119.772305231311 
# Reduced chi-sqr  =  0.638
# Prob(Noise)      <  1   (~0.0 sigma)
# P_topo (ms)      =  714.571796424326  +/- 0.000271
# P'_topo (s/s)    =  -0                +/- 1.43e-10
# P''_topo (s/s^2) =  0                 +/- 6.31e-14
# P_bary (ms)      =  N/A
# P'_bary (s/s)    =  N/A
# P''_bary (s/s^2) =  N/A
# P_orb (s)        =  N/A
# asin(i)/c (s)    =  N/A
# eccentricity     =  N/A
# w (rad)          =  N/A
# T_peri           =  N/A
######################################################
   0  1327.146
   1  1293.511
   2  1214.682
   3  1175.546
   4  1173.542
   5  1260.148
   6  1214.254
   7  1005.286
   8  1013.25
   9  1031.905
  10  1104.556
  11  1138.132
  12  1192.665
  13  1145.511
  14  1101.814
  15  1022.332
  16  1071.33
  17  1079.239
  18  994.9174
  19  1094.54
  20  1094.123
  21  1046.131
  22  966.9302
  23  932.2521
  24  985.3771
  25  1040.73
  26  1045.744
  27  1022.816
  28  1011.421
  29  1078.428
  30  1076.011
  31  1107.66
  32  1177.538
  33  1101.039
  34  1077.303
  35  1159.071
  36  1124.369
  37  1193.253
  38  1324.113
  39  1241.845
  40  1081.183
  41  1029.266
  42  1118.496
  43  1050.181
  44  1029.584
  45  1148.596
  46  1164.827
  47  1124.859
  48  1089.566
  49  1018.373
  50  978.137
  51  1061.182
  52  1140.041
  53  1189.462
  54  1163.258
  55  1101.862
  56  1012.908
  57  995.2025
  58  1031.758
  59  1031.463
  60  1123.751
  61  1135.026
  62  1058.918
  63  1001.646
  64  932.8749
  65  988.1428
  66  1113.245
  67  1131.807
  68  1128.331
  69  1016.374
  70  917.0404
  71  1029.289
  72  1119.903
  73  1163.868
  74  1167.786
  75  1157.329
  76  1153.733
  77  1178.113
  78  1156.107
  79  1100.833
  80  1127.156
  81  1030.538
  82  1045.093
  83  1076.711
  84  1154.575
  85  1226.482
  86  1174.058
  87  1108.528
  88  1097.37
  89  1073.571
  90  1087.911
  91  1045.672
  92  1046.144
  93  1041.393
  94  1117.717
  95  1126.126
  96  1032.083
  97  1056.501
  98  1089.305
  99  1184.156
 100  1186.095
 101  1114.506
 102  1202.564
 103  1221.02
 104  1153.696
 105  1128.5
 106  1117.635
 107  1072.126
 108  990.9153
 109  962.8213
 110  1076.169
 111  1136.179
 112  1124.52
 113  1096.126
 114  1048.242
 115  1032.457
 116  1079.147
 117  1045.086
 118  1143.716
 119  1193.737
 120  1160.091
 121  1102.459
 122  1149.533
 123  1152.209
 124  1090.19
 125  1120.107
 126  1288.419
 127  1229.224
 128  1172.05
 129  1091.243
 130  1126.951
 131  1084.873
 132  1047.049
 133  1034.869
 134  1037.537
 135  1035.098
 136  1025.995
 137  1112.436
 138  1184.875
 139  1103.317
 140  1137.805
 141  1174.382
 142  1228.287
 143  1188.377
 144  1175.474
 145  1118.245
 146  1038.328
 147  1030.784
 148  1044.728
 149  1055.461
 150  1001.207
 151  947.9051
 152  1116.541
 153  1078.882
 154  1158.124
 155  1153.427
 156  1130.521
 157  1143.948
 158  1054.682
 159  1077.738
 160  1076.29
 161  1068.645
 162  1206.958
 163  1110.806
 164  1082.63
 165  996.2769
 166  1086.165
 167  1057.948
 168  1123.627
 169  1126.633
 170  1046.626
 171  1100.579
 172  1137.618
 173  1156.856
 174  1081.78
 175  1100.241
 176  1117.033
 177  1096.242
 178  1145.269
 179  1118.681
 180  1108.07
 181  1042.218
 182  991.4761
 183  1032.542
 184  1046.139
 185  1087.345
 186  1121.996
 187  1049.998
 188  1039.165
 189  1032.658
 190  1049.574
 191  1054.359
 192  996.4452
 193  1018.49
 194  959.5064
 195  1100.306
 196  1015.144
 197  1044.51
 198  1114.313
 199  1107.701
 200  1130.085
 201  1068.708
 202  1063.442
 203  1179.88
 204  1105.009
 205  1070.349
 206  1064.399
 207  1191.994
 208  1152.926
 209  1104.644
 210  1073.846
 211  1151.65
 212  1083.804
 213  1028.124
 214  950.4191
 215  995.9821
 216  1130.362
 217  1062.913
 218  1034.806
 219  1026.458
 220  1086.896
 221  1095.174
 222  1138.109
 223  1180.589
 224  1147.042
 225  1109.951
 226  1092.042
 227  1125.101
 228  1128.482
 229  1153.738
 230  1080.709
 231  1008.142
 232  997.5693
 233  1032.151
 234  1048.443
 235  1123.896
 236  1126.312
 237  1099.125
 238  1095.677
 239  1091.208
 240  1159.882
 241  1184.544
 242  1164.567
 243  1155.164
 244  1071.422
 245  1105.051
 246  954.2954
 247  966.4834
 248  1015.685
 249  1010.283
 250  951.4891
 251  1081.103
 252  1095.357
 253  1025.561
 254  1028.629
 255  1022.612
 256  944.2995
 257  1043.899
 258  1040.602
 259  1071.931
 260  1010.355
 261  1098.597
 262  1190.762
 263  1141.764
 264  1104.388
 265  1004.122
 266  1056.073
 267  1041.398
 268  1029.783
 269  1106.22
 270  1099.738
 271  1110.824
 272  1116.427
 273  1070.764
 274  1057.165
 275  1037.114
 276  1076.287
 277  1021.701
 278  1055.709
 279  1097.369
 280  1098.296
 281  1109.175
 282  1067.144
 283  1085.583
 284  1092.185
 285  1115.178
 286  1194.949
 287  1085.427
 288  1023.803
 289  1086.054
 290  973.486
 291  1049.243
 292  1046.559
 293  1023.844
 294  1049.06
 295  1097.707
 296  1141.534
 297  1041.735
 298  1068.896
 299  1063
 300  1101.177
 301  1077.926
 302  1071.543
 303  1018.125
 304  1046.905
 305  1131.309
 306  1187.248
 307  1188.335
 308  1064.842
 309  1005.153
 310  1021.168
 311  1027.648
 312  1035.35
 313  1021.273
 314  1012.378
 315  1008.676
 316  1010.701
 317  1050.191
 318  1042.493
 319  975.7934
 320  1166.483
 321  1135.233
 322  1164.477
 323  1170.101
 324  1225.846
 325  1290.474
 326  1171.27
 327  1085.553
 328  1095.988
 329  1070.554
 330  1074.393
 331  1095.146
 332  1037.788
 333  1110.938
 334  1064.273
 335  1098.696
 336  1110.182
 337  1085.143
 338  1099.661
 339  1077.169
 340  1040.229
 341  1069.292
 342  1103.083
 343  1057.147
 344  1028.215
 345  1014.428
 346  974.6747
 347  1023.636
 348  1096.926
 349  1069.551
 350  979.2194
 351  947.8644
 352  1023.4
 353  1054.697
 354  1044.018
 355  1003.453
 356  1067.518
 357  1023.835
 358  1098.627
 359  1048.426
 360  1064.36
 361  1041.68
 362  971.8072
 363  1104.362
 364  1101.7
 365  1153.155
 366  1158.102
 367  1108.431
 368  1148.349
 369  1096.748
 370  1054.526
 371  1034.119
 372  1079.009
 373  1036.502
 374  1074.72
 375  1168.965
 376  1172.015
 377  1097.501
 378  1057.112
 379  1149.341
 380  1158.437
 381  1039.318
 382  1148.23
 383  1152.76
 384  1077.535
 385  1024.432
 386  1051.963
 387  1134.157
 388  1150.106
 389  1065.107
 390  1061.187
 391  1056.813
 392  1042.39
 393  1115.431
 394  1033.714
 395  992.2623
 396  1047.12
 397  1091.941
 398  1069.577
 399  981.3832
 400  1059.62
 401  1015.078
 402  1005.589
 403  1044.772
 404  1091.209
 405  1073.357
 406  1018.348
 407  1042.689
 408  1080.373
 409  1028.905
 410  980.1038
 411  1061.905
 412  1015.758
 413  1039.085
 414  990.6727
 415  998.3762
 416  1001.769
 417  1001.504
 418  1069.526
 419  1037.417
 420  1084.907
 421  1025.543
 422  1028.836
 423  968.588
 424  1049.599
 425  1054.176
 426  977.1813
 427  1083.162
 428  1111.609
 429  1105.006
 430  1170.949
 431  1087.653
 432  1012.591
 433  952.2872
 434  979.1594
 435  1054.074
 436  1056.342
 437  1062.891
 438  1073.604
 439  1084.583
 440  1066.683
 441  1029.566
 442  1086.907
 443  1040.804
 444  990.8909
 445  1043.328
 446  1065.572
 447  1031.712
 448  1102.133
 449  1200.622
 450  1141.623
 451  1123.012
 452  1058.348
 453  1036.109
 454  1054.54
 455  1031.419
 456  1112.066
 457  1067.637
 458  1043.558
 459  978.9123
 460  1023.133
 461  1060.378
 462  1023.719
 463  1036.832
 464  1000.421
 465  900.0478
 466  963.0089
 467  1052.948
 468  1095.876
 469  1021.988
 470  1058.558
 471  1112.53
 472  1144.793
 473  1117.434
 474  1064.34
 475  1065.857
 476  1079.73
 477  1124.925
 478  1099.206
 479  1142.539
 480  1012.654
 481  1007.522
 482  1007.609
 483  939.0886
 484  907.9665
 485  957.5909
 486  929.2249
 487  1023.562
 488  1124.787
 489  1064.271
 490  1037.41
 491  1008.085
 492  1013.669
 493  959.6844
 494  970.6014
 495  1016.047
 496  1094.837
 497  1033.588
 498  1018.721
 499  1018.671
 500  1086.496
 501  1052.485
 502  1016.888
 503  1071.864
 504  1136.403
 505  1061.579
 506  1117.269
 507  1105.133
 508  1111.758
 509  1209.203
 510  1432.923
 511  1414.467
