# Input file       =  1200341954.115353_cleaned.dat
# Candidate        =  PSR_0332+5434
# Telescope        =  AR
# Epoch_topo       =  58136.846482816589
# Epoch_bary       =  N/A
# T_sample         =  0.002
# Data Folded      =  7340032
# Data Avg         =  0.0788358034023903
# Data StdDev      =  1.00036120805444 
# Profile Bins     =  512
# Profile Avg      =  1130.12337020767 
# Profile StdDev   =  119.776284913888 
# Reduced chi-sqr  =  0.869
# Prob(Noise)      <  0.985   (~0.0 sigma)
# P_topo (ms)      =  714.569430926271  +/- 3.65e-05
# P'_topo (s/s)    =  -0                +/- 1.93e-11
# P''_topo (s/s^2) =  0                 +/- 8.5e-15
# P_bary (ms)      =  N/A
# P'_bary (s/s)    =  N/A
# P''_bary (s/s^2) =  N/A
# P_orb (s)        =  N/A
# asin(i)/c (s)    =  N/A
# eccentricity     =  N/A
# w (rad)          =  N/A
# T_peri           =  N/A
######################################################
   0  1675.177
   1  1573.365
   2  1326.686
   3  1225.405
   4  1217.266
   5  1169.678
   6  1051.686
   7  988.1225
   8  1113.729
   9  1231.919
  10  1314.616
  11  1144.675
  12  1087.321
  13  1213.888
  14  1261.158
  15  1138.048
  16  1091.453
  17  1066.735
  18  1079.164
  19  1148.18
  20  1200.629
  21  1139.471
  22  1078.128
  23  1208.107
  24  1246.213
  25  1086.613
  26  1088.988
  27  1116.068
  28  1216.364
  29  1284.249
  30  1203.528
  31  1162.535
  32  1280.163
  33  1278.651
  34  1100.219
  35  1007.735
  36  1156.258
  37  1267.427
  38  1185.555
  39  1124.917
  40  1139.682
  41  1123.5
  42  1076.079
  43  1092.547
  44  1102.854
  45  1040.827
  46  1082.007
  47  1135.446
  48  1199.162
  49  1104.345
  50  1024.344
  51  1200.828
  52  1252.898
  53  1119.724
  54  1058.78
  55  1062.619
  56  1118.863
  57  1231.205
  58  1206.375
  59  1129.026
  60  1058.636
  61  1274.69
  62  1183.698
  63  1043.779
  64  1031.091
  65  1098.645
  66  1139.324
  67  1123.417
  68  1101.131
  69  1129.064
  70  1217.75
  71  1099.132
  72  1073.058
  73  1075.607
  74  1094.622
  75  1121.804
  76  1104.84
  77  1241.222
  78  1124.296
  79  1081.601
  80  1138.036
  81  1210.336
  82  1110.21
  83  1111.045
  84  1148.163
  85  1082.164
  86  1107.253
  87  1080.793
  88  1148.935
  89  1106.877
  90  1220.373
  91  1215.446
  92  1136.67
  93  1111.941
  94  1159.225
  95  1197.308
  96  1220.042
  97  1083.805
  98  1085.792
  99  1183.399
 100  1206.185
 101  1132.968
 102  1056.804
 103  1091.062
 104  1114.336
 105  1078.176
 106  1083.907
 107  1068.747
 108  1089.777
 109  1045.505
 110  1098.369
 111  1104.135
 112  1078.737
 113  1125.006
 114  1181.103
 115  1124.136
 116  1059.547
 117  979.2622
 118  1002.603
 119  1131.268
 120  1036.085
 121  1118.241
 122  1068.541
 123  1052.873
 124  1131.098
 125  1135.05
 126  1036.328
 127  1030.828
 128  1162.664
 129  1222.695
 130  1096.373
 131  1106.599
 132  1047.676
 133  1048.091
 134  997.5066
 135  1095.188
 136  1062.395
 137  1122.035
 138  1182.618
 139  1106.315
 140  994.3089
 141  1130.858
 142  1223.94
 143  1227.53
 144  1025.558
 145  1025.996
 146  1049.484
 147  1108.703
 148  1071.906
 149  1045.242
 150  1052.45
 151  1082.733
 152  1140.259
 153  1146.437
 154  1030.485
 155  944.8
 156  1064.022
 157  1182.727
 158  1239.292
 159  1221.546
 160  1091.141
 161  1039.317
 162  1004.883
 163  1102.771
 164  1105.441
 165  1061.138
 166  1160.315
 167  1192.77
 168  1088.381
 169  1037.826
 170  1141.048
 171  1175.826
 172  1134.502
 173  1066.461
 174  1130.101
 175  1068.759
 176  1197.838
 177  1234.823
 178  1220.28
 179  1102.33
 180  1132.275
 181  1154.095
 182  1159.041
 183  1121.52
 184  1114.504
 185  1085.817
 186  1114.808
 187  1136.113
 188  1240.042
 189  1120.842
 190  1077.939
 191  1014.524
 192  1135.792
 193  1082.97
 194  1165.196
 195  1162.441
 196  1180.411
 197  1175.943
 198  1115.35
 199  1137.331
 200  1098.209
 201  1114.081
 202  1243.569
 203  1154.938
 204  1112.806
 205  1126.802
 206  1182.987
 207  1187.808
 208  1090.059
 209  1042.591
 210  1180.462
 211  1071.138
 212  1045.535
 213  1036.549
 214  1114.911
 215  1202.151
 216  1110.004
 217  1017.505
 218  1031.566
 219  1075.523
 220  1027.909
 221  1098.649
 222  1041.62
 223  1106.734
 224  1141.002
 225  1180.264
 226  1075.174
 227  1048.838
 228  1042.841
 229  1149.305
 230  1239.556
 231  1198.394
 232  1203.947
 233  1189.792
 234  1089.791
 235  1015.557
 236  883.7756
 237  1085.538
 238  1071.991
 239  1127.857
 240  1117.764
 241  1098.152
 242  982.9911
 243  1105.99
 244  1106.603
 245  1127.646
 246  1123.069
 247  1190.559
 248  1227.193
 249  1109.907
 250  1032.073
 251  1018.531
 252  993.9835
 253  1038.37
 254  1097.78
 255  1125.081
 256  1037.598
 257  1086.064
 258  1175.455
 259  1100.393
 260  1127.048
 261  1059.119
 262  1119.652
 263  1060.524
 264  1034.368
 265  1000.141
 266  1157.602
 267  1209.606
 268  1111.834
 269  1060.321
 270  1065.635
 271  980.3903
 272  1093.508
 273  1091.604
 274  1109.536
 275  1035.303
 276  1141.057
 277  1117.816
 278  1044.525
 279  895.7078
 280  954.0435
 281  1132.945
 282  1181.506
 283  1194.573
 284  1164.285
 285  1111.73
 286  1159.45
 287  1231.784
 288  1132.618
 289  1126.883
 290  1144.309
 291  1145.924
 292  1178.887
 293  1139.557
 294  1045.812
 295  1060.998
 296  1193.837
 297  1131.222
 298  960.3438
 299  1016.452
 300  1078.702
 301  1083.731
 302  1159.225
 303  1107.362
 304  1089.713
 305  1144.864
 306  1209.163
 307  1188.551
 308  1119.003
 309  1172.237
 310  1110.776
 311  1156.152
 312  1203.17
 313  1026.62
 314  1061.64
 315  1260.738
 316  1176.824
 317  1082.197
 318  1076.546
 319  1167.923
 320  1197.741
 321  1113.117
 322  1123.821
 323  1225.496
 324  1185.442
 325  1102.709
 326  1133.282
 327  1162.683
 328  1188.596
 329  1198.168
 330  1120.479
 331  1087.029
 332  926.3065
 333  1030.387
 334  1019.023
 335  1063.061
 336  1089.346
 337  1090.956
 338  1076.566
 339  1050.813
 340  1124.345
 341  1176.382
 342  1139.044
 343  1114.161
 344  1179.557
 345  1139.269
 346  1086.238
 347  1093.214
 348  1187.132
 349  1119.823
 350  1169.685
 351  1166.433
 352  1159.069
 353  1109.424
 354  1200.724
 355  1238.721
 356  1197.829
 357  1204.874
 358  1283.986
 359  1171.513
 360  1141.322
 361  1118.963
 362  1118.485
 363  1040.344
 364  1166.069
 365  1142.086
 366  1105.133
 367  1082.056
 368  1124.254
 369  1025.057
 370  1122.333
 371  1122.471
 372  1227.604
 373  1182.308
 374  1077.486
 375  1111.356
 376  1134.713
 377  1072.653
 378  1169.912
 379  1104.114
 380  996.6835
 381  1051.533
 382  1215.141
 383  1248.119
 384  1031.549
 385  1100.331
 386  1178.903
 387  1305.393
 388  1250.547
 389  1103.134
 390  987.9512
 391  1163.115
 392  1219.066
 393  1191.418
 394  1098.557
 395  1108.175
 396  1056.799
 397  1116.585
 398  1020.555
 399  1076.355
 400  1124.931
 401  1224.514
 402  1147.542
 403  1103.723
 404  1036.861
 405  1160.834
 406  1206.745
 407  1257.927
 408  1175.989
 409  1077.187
 410  1170.512
 411  1235.06
 412  1156.68
 413  1110.213
 414  1057.704
 415  1088.219
 416  1094.692
 417  1108.342
 418  1113.405
 419  1083.509
 420  1198.237
 421  1206.109
 422  1093.981
 423  1050.37
 424  1112.621
 425  1216.611
 426  1197.765
 427  1269.835
 428  1155.561
 429  1143.172
 430  1170.385
 431  1099.832
 432  1115.219
 433  1162.997
 434  1155.882
 435  1120.373
 436  1201.328
 437  1196.757
 438  1135.26
 439  987.2175
 440  1142.269
 441  1174.639
 442  1066.639
 443  1081.462
 444  1218.268
 445  1202.099
 446  1164.329
 447  1105.468
 448  1134.518
 449  1144.239
 450  1180.461
 451  1178.981
 452  1079.514
 453  1012.746
 454  1146.125
 455  1165.983
 456  1112.022
 457  1081.743
 458  1113.105
 459  1126.528
 460  1078.077
 461  1080.089
 462  1117.77
 463  1118.852
 464  1013.244
 465  1040.978
 466  1122.946
 467  1115.684
 468  1079.129
 469  1077.719
 470  1042.666
 471  1053.361
 472  1153.698
 473  1259.039
 474  1209.118
 475  1152.449
 476  1120.316
 477  1122.791
 478  1079.306
 479  1211.098
 480  1254.853
 481  1135.015
 482  1165.632
 483  1300.364
 484  1206.411
 485  1153.738
 486  1215.326
 487  1216.056
 488  1192.609
 489  1077.979
 490  1022.11
 491  1243.48
 492  1333.614
 493  1276.465
 494  1239.439
 495  1183.718
 496  1124.184
 497  1200.286
 498  1165.933
 499  1185.521
 500  1071.005
 501  1237.547
 502  1214.38
 503  1136.319
 504  1105.581
 505  1148.529
 506  1258.695
 507  1224.894
 508  1266.011
 509  1284.066
 510  1461.639
 511  1584.158
