# Input file       =  1200772773.113199_cleaned.dat
# Candidate        =  PSR_0332+5434
# Telescope        =  AR
# Epoch_topo       =  58141.832813810172
# Epoch_bary       =  N/A
# T_sample         =  0.002
# Data Folded      =  7340032
# Data Avg         =  0.0661826556405068
# Data StdDev      =  0.99985667560902 
# Profile Bins     =  512
# Profile Avg      =  948.786355414765 
# Profile StdDev   =  119.715875712247 
# Reduced chi-sqr  =  0.793
# Prob(Noise)      <  1   (~0.0 sigma)
# P_topo (ms)      =  714.572347194927  +/- 8.23e-05
# P'_topo (s/s)    =  -0                +/- 4.34e-11
# P''_topo (s/s^2) =  0                 +/- 1.92e-14
# P_bary (ms)      =  N/A
# P'_bary (s/s)    =  N/A
# P''_bary (s/s^2) =  N/A
# P_orb (s)        =  N/A
# asin(i)/c (s)    =  N/A
# eccentricity     =  N/A
# w (rad)          =  N/A
# T_peri           =  N/A
######################################################
   0  1404.153
   1  1340.352
   2  1274.887
   3  1149.378
   4  1007.142
   5  1007.377
   6  1018.945
   7  1080.563
   8  1072.461
   9  919.603
  10  1071.4
  11  1015.21
  12  996.686
  13  1004.802
  14  1010.516
  15  878.9501
  16  945.3646
  17  960.7067
  18  951.8093
  19  1022.404
  20  990.89
  21  943.0076
  22  948.651
  23  910.0447
  24  943.0069
  25  924.4297
  26  914.3598
  27  876.8741
  28  909.5187
  29  965.3229
  30  1010.517
  31  867.279
  32  1011.755
  33  964.1379
  34  939.4186
  35  1020.564
  36  946.8882
  37  908.6017
  38  1004.268
  39  940.9591
  40  855.7109
  41  887.6404
  42  960.0471
  43  981.5739
  44  827.2958
  45  922.3911
  46  920.0009
  47  1079.268
  48  1001.862
  49  923.7371
  50  916.1383
  51  930.5795
  52  861.0361
  53  876.4116
  54  970.4653
  55  942.8018
  56  941.8475
  57  954.0834
  58  988.1581
  59  901.3441
  60  852.7971
  61  962.9183
  62  1024.373
  63  998.4272
  64  985.3636
  65  1056.784
  66  1024.544
  67  958.2447
  68  886.9314
  69  923.6688
  70  896.1687
  71  978.2211
  72  902.962
  73  970.8618
  74  860.441
  75  887.5483
  76  914.1898
  77  954.5469
  78  985.6168
  79  996.5401
  80  1053.091
  81  926.4845
  82  825.742
  83  905.5905
  84  862.2535
  85  971.5471
  86  1132.124
  87  915.2296
  88  813.2204
  89  899.0959
  90  964.2601
  91  816.0237
  92  891.632
  93  1011.169
  94  1102.651
  95  961.1249
  96  940.7355
  97  967.7189
  98  1079.62
  99  1006.387
 100  977.4417
 101  1055.112
 102  1049.081
 103  1058.53
 104  1066.394
 105  878.313
 106  791.4984
 107  875.7466
 108  877.4248
 109  904.2741
 110  962.9034
 111  1032.164
 112  1055.823
 113  1007.058
 114  970.6431
 115  964.4219
 116  1027.189
 117  945.6847
 118  948.6383
 119  978.3547
 120  915.3118
 121  1056.551
 122  1006.188
 123  890.5746
 124  909.7906
 125  936.4894
 126  915.4766
 127  920.026
 128  941.2419
 129  962.0634
 130  951.3244
 131  939.9399
 132  974.7413
 133  950.2899
 134  933.0793
 135  907.076
 136  933.2405
 137  922.3401
 138  951.7007
 139  937.0627
 140  957.9003
 141  928.5732
 142  926.5731
 143  1007.435
 144  836.5333
 145  764.8979
 146  900.8553
 147  871.7289
 148  850.8583
 149  858.9677
 150  921.8284
 151  872.9009
 152  862.7772
 153  872.6985
 154  952.9198
 155  931.4786
 156  892.9947
 157  899.8391
 158  927.8741
 159  952.274
 160  985.0037
 161  1004.503
 162  956.2909
 163  909.5429
 164  876.6296
 165  911.2371
 166  864.1464
 167  902.1191
 168  1032.527
 169  969.3943
 170  979.4831
 171  946.2874
 172  937.7701
 173  983.9488
 174  906.5901
 175  928.4722
 176  914.3197
 177  946.3564
 178  978.2507
 179  935.5925
 180  887.8759
 181  916.1257
 182  1073.926
 183  1081.299
 184  1011.179
 185  989.7134
 186  962.9987
 187  840.5814
 188  869.6205
 189  916.9707
 190  931.9713
 191  956.8651
 192  901.033
 193  860.5475
 194  895.02
 195  959.4261
 196  1007.449
 197  1038.038
 198  1006.401
 199  975.5376
 200  945.949
 201  867.3605
 202  842.4777
 203  846.0455
 204  993.1318
 205  1031.148
 206  971.7411
 207  1022.861
 208  898.4208
 209  921.3278
 210  925.1915
 211  944.3943
 212  991.5723
 213  985.9637
 214  904.5452
 215  891.2305
 216  872.1743
 217  869.1816
 218  889.6785
 219  870.2422
 220  967.6855
 221  1062.775
 222  976.0543
 223  1105.344
 224  991.371
 225  889.5392
 226  923.2217
 227  910.269
 228  896.0779
 229  855.7
 230  828.4359
 231  816.1363
 232  846.9509
 233  852.4694
 234  868.5222
 235  994.7306
 236  996.7937
 237  989.7285
 238  929.5164
 239  992.5995
 240  925.5003
 241  923.752
 242  1041.864
 243  1001.958
 244  1030.901
 245  1013.784
 246  1019.864
 247  1104.369
 248  1077.945
 249  1022.731
 250  875.7061
 251  926.2853
 252  993.5831
 253  1078.021
 254  1080.436
 255  1057.137
 256  969.9633
 257  979.0585
 258  1008.285
 259  916.4394
 260  817.9996
 261  924.7955
 262  1009.207
 263  1017.385
 264  986.665
 265  1026.852
 266  1026.03
 267  977.486
 268  1015.8
 269  1048.128
 270  984.3835
 271  932.0284
 272  917.6458
 273  905.5963
 274  860.7806
 275  880.3385
 276  917.1612
 277  835.1004
 278  850.5292
 279  1020.224
 280  1079.481
 281  911.4626
 282  981.2084
 283  1006.646
 284  1042.062
 285  1024.427
 286  1050.649
 287  978.0002
 288  970.5246
 289  978.5417
 290  1052.183
 291  1034.931
 292  973.7807
 293  1014.412
 294  1069.294
 295  1008.279
 296  980.7093
 297  997.4376
 298  1019.944
 299  912.0604
 300  976.061
 301  965.9156
 302  940.8137
 303  1056.741
 304  1145.861
 305  1100.24
 306  1006.104
 307  1032.935
 308  981.2617
 309  980.3584
 310  993.2282
 311  1069.541
 312  1061.545
 313  917.4987
 314  877.2598
 315  885.1796
 316  837.6649
 317  821.7469
 318  971.9927
 319  988.6639
 320  946.4933
 321  995.4327
 322  919.9745
 323  979.0224
 324  979.1259
 325  1020.634
 326  967.218
 327  928.5746
 328  856.675
 329  915.9677
 330  973.7808
 331  968.1775
 332  994.2645
 333  992.0907
 334  982.0115
 335  1013.6
 336  978.5574
 337  940.6776
 338  977.4197
 339  995.8051
 340  1028.938
 341  916.8086
 342  830.0607
 343  953.1491
 344  1020.663
 345  1002.688
 346  1022.402
 347  953.1093
 348  976.5007
 349  874.8024
 350  913.5815
 351  984.7018
 352  938.9692
 353  861.1321
 354  962.502
 355  929.9255
 356  965.5254
 357  1010.775
 358  874.9018
 359  927.3813
 360  909.1531
 361  1003.724
 362  997.7817
 363  913.869
 364  935.471
 365  993.8952
 366  1018.832
 367  963.7449
 368  957.3931
 369  895.4154
 370  826.0521
 371  927.881
 372  891.0448
 373  896.2583
 374  876.0712
 375  833.6989
 376  918.8192
 377  850.1323
 378  945.8364
 379  913.7566
 380  851.6007
 381  857.9224
 382  807.0805
 383  940.5659
 384  930.6636
 385  958.1342
 386  962.9274
 387  905.4662
 388  900.4091
 389  971.2219
 390  1004.006
 391  923.0883
 392  931.5543
 393  980.9592
 394  929.1489
 395  931.5091
 396  897.1183
 397  964.2733
 398  935.3306
 399  925.3461
 400  865.2188
 401  938.7633
 402  1019.852
 403  901.4918
 404  966.7748
 405  1019.128
 406  919.1812
 407  870.5048
 408  916.178
 409  922.442
 410  932.7393
 411  988.8846
 412  969.8335
 413  814.9682
 414  779.5956
 415  929.9381
 416  1036.556
 417  959.459
 418  904.9512
 419  980.1638
 420  923.1577
 421  890.566
 422  828.6367
 423  913.4354
 424  856.8915
 425  885.1603
 426  900.0168
 427  884.9966
 428  870.5707
 429  903.2554
 430  973.3135
 431  956.9124
 432  944.4106
 433  940.9021
 434  858.8099
 435  976.9701
 436  1034.503
 437  945.1361
 438  953.0434
 439  966.277
 440  876.4663
 441  838.2044
 442  796.9224
 443  848.9899
 444  1011.934
 445  926.3701
 446  805.217
 447  954.173
 448  906.0365
 449  918.5642
 450  846.7227
 451  829.0472
 452  858.3708
 453  870.4943
 454  958.3329
 455  881.7258
 456  877.7718
 457  817.4169
 458  857.6768
 459  900.8776
 460  847.7077
 461  860.4132
 462  926.5033
 463  896.6693
 464  906.1672
 465  913.3729
 466  1005.009
 467  934.888
 468  922.0516
 469  909.4071
 470  843.4592
 471  791.3502
 472  853.3707
 473  877.8281
 474  838.762
 475  778.2277
 476  879.7092
 477  830.6429
 478  875.4775
 479  915.2694
 480  907.1876
 481  911.5311
 482  912.2383
 483  929.7836
 484  919.6282
 485  839.0708
 486  795.7032
 487  871.3022
 488  910.6771
 489  927.951
 490  982.9551
 491  982.2709
 492  966.5799
 493  1072.954
 494  1032.667
 495  1019.95
 496  986.6045
 497  1012.987
 498  936.3091
 499  953.1403
 500  943.8464
 501  929.9174
 502  847.0274
 503  828.4418
 504  1019.588
 505  1105.818
 506  1107.162
 507  1135.713
 508  1056.84
 509  1092.361
 510  1150.317
 511  1324.192
