# Input file       =  1200772773.113199_cleaned.dat
# Candidate        =  PSR_0332+5434
# Telescope        =  AR
# Epoch_topo       =  58141.832813810172
# Epoch_bary       =  N/A
# T_sample         =  0.002
# Data Folded      =  7340032
# Data Avg         =  0.0661826556405068
# Data StdDev      =  0.99985667560902 
# Profile Bins     =  512
# Profile Avg      =  948.786355403751 
# Profile StdDev   =  119.715875712247 
# Reduced chi-sqr  =  0.789
# Prob(Noise)      <  1   (~0.0 sigma)
# P_topo (ms)      =  714.5723472453    +/- 8.31e-05
# P'_topo (s/s)    =  -0                +/- 4.39e-11
# P''_topo (s/s^2) =  0                 +/- 1.94e-14
# P_bary (ms)      =  N/A
# P'_bary (s/s)    =  N/A
# P''_bary (s/s^2) =  N/A
# P_orb (s)        =  N/A
# asin(i)/c (s)    =  N/A
# eccentricity     =  N/A
# w (rad)          =  N/A
# T_peri           =  N/A
######################################################
   0  1357.683
   1  1316.766
   2  1206.045
   3  1064.13
   4  989.5022
   5  1020.374
   6  1033.523
   7  1119.635
   8  956.1769
   9  1014.043
  10  1042.637
  11  1003.052
  12  986.082
  13  1034.006
  14  937.3956
  15  888.2332
  16  978.9586
  17  926.8215
  18  993.8903
  19  1025.599
  20  952.1609
  21  941.2498
  22  926.5284
  23  919.5935
  24  957.2888
  25  902.9443
  26  900.909
  27  878.4376
  28  941.2363
  29  1013.288
  30  922.9538
  31  948.4681
  32  1010.093
  33  913.4009
  34  992.3446
  35  1002.18
  36  910.0225
  37  949.938
  38  1006.568
  39  859.1479
  40  882.9348
  41  905.8973
  42  1010.162
  43  879.739
  44  870.7481
  45  914.8306
  46  1002.44
  47  1073.314
  48  940.8937
  49  912.5857
  50  942.8547
  51  888.0487
  52  851.3375
  53  934.5808
  54  965.4727
  55  928.0311
  56  945.8308
  57  978.0793
  58  957.0025
  59  856.4918
  60  905.3023
  61  1019.463
  62  1016.412
  63  972.4923
  64  1020.963
  65  1045.345
  66  1000.807
  67  905.1002
  68  913.4419
  69  892.5513
  70  955.9968
  71  943.4974
  72  929.3366
  73  923.6779
  74  840.1843
  75  933.7205
  76  917.6542
  77  987.33
  78  978.182
  79  1040.065
  80  996.1061
  81  850.342
  82  868.9259
  83  907.7145
  84  867.2787
  85  1103.247
  86  1028.503
  87  837.3253
  88  836.932
  89  969.1234
  90  869.5561
  91  846.8801
  92  948.8815
  93  1094.986
  94  1029.615
  95  932.0226
  96  947.2438
  97  1040.463
  98  1051.036
  99  967.1707
 100  1028.037
 101  1066.38
 102  1035.761
 103  1081.841
 104  970.685
 105  797.0366
 106  841.5238
 107  871.9987
 108  898.6365
 109  923.4819
 110  1015.929
 111  1038.966
 112  1049.167
 113  985.1976
 114  950.7944
 115  1002.23
 116  984.6228
 117  941.8768
 118  975.5573
 119  927.8194
 120  983.0284
 121  1072.487
 122  934.3553
 123  876.1699
 124  942.8605
 125  911.8793
 126  940.0884
 127  913.3716
 128  960.5496
 129  954.975
 130  937.6888
 131  968.0763
 132  957.3882
 133  947.4141
 134  901.5242
 135  934.0812
 136  921.4655
 137  944.0095
 138  948.4285
 139  931.2539
 140  964.7994
 141  895.5714
 142  1007.323
 143  919.1731
 144  755.6961
 145  849.8544
 146  897.6805
 147  859.0115
 148  836.0422
 149  900.0911
 150  903.092
 151  862.6551
 152  872.7725
 153  901.0925
 154  963.1133
 155  892.021
 156  913.0314
 157  912.9241
 158  933.4809
 159  965.5644
 160  996.025
 161  998.9354
 162  911.409
 163  895.3011
 164  892.6963
 165  901.991
 166  857.0037
 167  981.8253
 168  1015.823
 169  948.47
 170  994.7018
 171  910.8022
 172  988.6996
 173  927.7512
 174  911.2029
 175  924.3809
 176  930.6886
 177  973.2021
 178  958.4504
 179  904.6747
 180  879.84
 181  1015.74
 182  1102.438
 183  1040.466
 184  985.3597
 185  996.4603
 186  888.6252
 187  847.6812
 188  897.4557
 189  920.2773
 190  947.7165
 191  926.9621
 192  875.3265
 193  865.2762
 194  948.5509
 195  980.3766
 196  1027.859
 197  1020.324
 198  983.0518
 199  969.2914
 200  902.8975
 201  849.4867
 202  837.0638
 203  910.9834
 204  1059.877
 205  963.9073
 206  1025.179
 207  952.8273
 208  898.2397
 209  923.6021
 210  934.8559
 211  970.0098
 212  1002.931
 213  928.252
 214  892.2426
 215  884.348
 216  877.1747
 217  879.037
 218  875.1443
 219  889.3342
 220  1059.762
 221  997.9381
 222  1057.205
 223  1074.504
 224  905.1606
 225  912.7273
 226  926.2308
 227  886.8398
 228  886.525
 229  819.514
 230  838.492
 231  816.9263
 232  865.5381
 233  841.6454
 234  950.6296
 235  1001.406
 236  996.4982
 237  946.2733
 238  962.0162
 239  978.4522
 240  895.3004
 241  1002.953
 242  1025.219
 243  1010.175
 244  1025.137
 245  1010.894
 246  1062.343
 247  1105.736
 248  1044.007
 249  946.0022
 250  868.9214
 251  993.6176
 252  1015.217
 253  1108.78
 254  1062.41
 255  1014.873
 256  959.2394
 257  995.3767
 258  987.616
 259  831.1724
 260  873.1091
 261  970.362
 262  1027.362
 263  1011.623
 264  986.6936
 265  1059.02
 266  963.5447
 267  1003.089
 268  1049.649
 269  1030.51
 270  930.7514
 271  928.0245
 272  906.4785
 273  886.1276
 274  854.7722
 275  914.3703
 276  871.8257
 277  832.4734
 278  914.8499
 279  1114.046
 280  959.2683
 281  950.4514
 282  983.2307
 283  1047.66
 284  1008.132
 285  1062.453
 286  995.7946
 287  974.4528
 288  974.0001
 289  1015.216
 290  1074.207
 291  970.0087
 292  1006.549
 293  1035.574
 294  1063.678
 295  962.5405
 296  1001.466
 297  1015.523
 298  980.0721
 299  912.1958
 300  995.4478
 301  923.8824
 302  1009.071
 303  1112.334
 304  1144.241
 305  1029.123
 306  1031.446
 307  1005.064
 308  980.7329
 309  966.7902
 310  1042.391
 311  1075.583
 312  1004.223
 313  862.5804
 314  892.4766
 315  866.9756
 316  800.7607
 317  898.6305
 318  1002.448
 319  943.8545
 320  1002.746
 321  945.1714
 322  948.7316
 323  969.7214
 324  1003.419
 325  994.1848
 326  954.5494
 327  885.2443
 328  887.3626
 329  948.1865
 330  983.4814
 331  966.4633
 332  1006.751
 333  978.8019
 334  986.2422
 335  1019.768
 336  937.6033
 337  976.7841
 338  976.9765
 339  1020.368
 340  986.1452
 341  841.8784
 342  892.1303
 343  1012.771
 344  993.7577
 345  1027.143
 346  965.7257
 347  979.9252
 348  929.4949
 349  871.0173
 350  961.3784
 351  968.2991
 352  882.6727
 353  915.0748
 354  968.3831
 355  915.4521
 356  1026.486
 357  916.5043
 358  904.8752
 359  918.7678
 360  956.159
 361  1020.544
 362  941.3698
 363  926.7378
 364  944.0521
 365  1036.231
 366  971.4015
 367  977.3407
 368  935.412
 369  826.6939
 370  882.9033
 371  919.9348
 372  882.1041
 373  892.8499
 374  844.2869
 375  886.3459
 376  887.2798
 377  879.3615
 378  966.0065
 379  858.3856
 380  864.0901
 381  807.665
 382  872.7955
 383  971.2248
 384  928.5338
 385  986.0225
 386  911.3251
 387  907.0667
 388  924.7872
 389  1006.373
 390  960.0912
 391  914.4608
 392  974.8734
 393  945.0674
 394  936.5303
 395  900.4786
 396  949.0921
 397  939.6918
 398  940.236
 399  875.8368
 400  894.1081
 401  1007.851
 402  953.2983
 403  910.69
 404  1019.827
 405  967.8335
 406  879.4518
 407  893.5884
 408  919.7599
 409  923.1705
 410  962.7772
 411  1005.781
 412  873.905
 413  764.0324
 414  862.7036
 415  1013.51
 416  1012.336
 417  906.9286
 418  944.4515
 419  969.2948
 420  868.3494
 421  877.1629
 422  860.0817
 423  924.3474
 424  832.4894
 425  922.7531
 426  882.6824
 427  883.8225
 428  859.3632
 429  953.5083
 430  977.6837
 431  934.1149
 432  963.4961
 433  869.0883
 434  928.8267
 435  1032.233
 436  985.2508
 437  930.1288
 438  967.5521
 439  920.0762
 440  841.7766
 441  813.5121
 442  820.9719
 443  937.9606
 444  1006.014
 445  812.1451
 446  896.1509
 447  940.842
 448  913.7402
 449  882.1868
 450  823.6392
 451  846.4022
 452  854.8264
 453  930.3994
 454  928.1382
 455  868.2363
 456  853.9937
 457  812.1463
 458  907.1581
 459  858.8663
 460  865.9562
 461  895.0851
 462  927.4771
 463  880.8016
 464  897.7414
 465  977.7496
 466  983.6963
 467  903.7192
 468  936.6819
 469  864.0976
 470  813.9309
 471  812.7495
 472  877.6619
 473  868.9738
 474  784.0681
 475  834.064
 476  861.4868
 477  841.8537
 478  920.1019
 479  912.5664
 480  912.1396
 481  895.0195
 482  926.5784
 483  918.3098
 484  885.0898
 485  798.794
 486  836.4378
 487  912.1327
 488  909.0312
 489  958.6483
 490  992.951
 491  955.7802
 492  1030.644
 493  1057.097
 494  1026.223
 495  989.7931
 496  1020.553
 497  962.5645
 498  935.0629
 499  952.2916
 500  946.8792
 501  888.5356
 502  810.5135
 503  922.3823
 504  1102.371
 505  1099.817
 506  1124.984
 507  1093.857
 508  1060.276
 509  1137.727
 510  1221.592
 511  1412.503
