# Input file       =  1201792005.108639_cleaned.dat
# Candidate        =  PSR_0332+5434
# Telescope        =  AR
# Epoch_topo       =  58153.629480424061
# Epoch_bary       =  N/A
# T_sample         =  0.002
# Data Folded      =  7340032
# Data Avg         =  0.0317760472546822
# Data StdDev      =  1.00006298139653 
# Profile Bins     =  512
# Profile Avg      =  455.785870070516 
# Profile StdDev   =  119.740577330608 
# Reduced chi-sqr  =  1.076
# Prob(Noise)      <  0.115   (~1.2 sigma)
# P_topo (ms)      =  714.57728912471   +/- 0.00043
# P'_topo (s/s)    =  -0                +/- 2.27e-10
# P''_topo (s/s^2) =  0                 +/- 1e-13
# P_bary (ms)      =  N/A
# P'_bary (s/s)    =  N/A
# P''_bary (s/s^2) =  N/A
# P_orb (s)        =  N/A
# asin(i)/c (s)    =  N/A
# eccentricity     =  N/A
# w (rad)          =  N/A
# T_peri           =  N/A
######################################################
   0  1030.316
   1  872.5185
   2  712.342
   3  630.3151
   4  579.659
   5  575.5207
   6  449.263
   7  472.6862
   8  432.6265
   9  416.3581
  10  422.8827
  11  481.1209
  12  454.5317
  13  426.5615
  14  517.7191
  15  467.2047
  16  402.9111
  17  393.7411
  18  488.7436
  19  548.8116
  20  491.1105
  21  397.5399
  22  327.5749
  23  356.5754
  24  451.1394
  25  413.2703
  26  361.6032
  27  366.9486
  28  457.2268
  29  465.7573
  30  438.1632
  31  568.5411
  32  540.6335
  33  498.6022
  34  562.1967
  35  615.7915
  36  565.4612
  37  548.631
  38  573.6956
  39  529.5842
  40  488.3384
  41  477.0291
  42  448.1099
  43  516.048
  44  504.561
  45  491.089
  46  494.9051
  47  547.3879
  48  496.953
  49  415.6631
  50  333.7444
  51  341.7913
  52  420.1767
  53  427.9473
  54  446.9505
  55  437.043
  56  457.0388
  57  477.614
  58  418.337
  59  487.3491
  60  398.1075
  61  313.2799
  62  319.4561
  63  356.2088
  64  267.0663
  65  337.6679
  66  370.359
  67  430.3546
  68  400.5644
  69  362.2372
  70  428.6317
  71  398.8828
  72  393.209
  73  360.3132
  74  397.1758
  75  490.8905
  76  374.0156
  77  337.6521
  78  398.3879
  79  451.8686
  80  408.1014
  81  361.6231
  82  448.7865
  83  495.9989
  84  371.0941
  85  297.9529
  86  370.0944
  87  379.8325
  88  329.5885
  89  366.3041
  90  426.5345
  91  375.5374
  92  407.2806
  93  466.0671
  94  444.814
  95  352.0361
  96  369.9607
  97  452.7802
  98  439.5771
  99  515.0258
 100  535.9516
 101  470.1678
 102  303.0226
 103  459.176
 104  431.3869
 105  333.5267
 106  320.6478
 107  330.0912
 108  326.0128
 109  307.9005
 110  358.9939
 111  413.8159
 112  344.3618
 113  366.1357
 114  401.5528
 115  423.2481
 116  443.0901
 117  522.5491
 118  464.293
 119  438.7605
 120  491.0286
 121  519.3255
 122  534.1991
 123  429.1976
 124  452.4708
 125  418.9693
 126  419.9781
 127  396.8929
 128  457.4471
 129  532.9473
 130  412.882
 131  439.5048
 132  432.3421
 133  437.6313
 134  443.1749
 135  472.3869
 136  422.8495
 137  414.9483
 138  481.4092
 139  468.8708
 140  423.1623
 141  524.0884
 142  421.0981
 143  441.1389
 144  350.1405
 145  330.5241
 146  447.1425
 147  513.9476
 148  462.9642
 149  485.475
 150  483.8951
 151  449.5106
 152  438.7446
 153  461.648
 154  454.266
 155  528.4813
 156  625.7424
 157  587.2002
 158  536.5073
 159  452.2696
 160  505.3293
 161  454.7525
 162  534.9545
 163  516.8942
 164  443.563
 165  603.5161
 166  486.717
 167  433.8602
 168  480.4747
 169  436.5551
 170  429.5055
 171  392.8042
 172  368.1381
 173  403.3882
 174  415.9788
 175  491.8619
 176  511.4755
 177  461.2373
 178  448.9324
 179  497.8335
 180  449.6365
 181  408.9504
 182  509.9607
 183  561.518
 184  430.3616
 185  400.8243
 186  468.5402
 187  528.1644
 188  574.9573
 189  615.6871
 190  605.9268
 191  696.5249
 192  609.5668
 193  571.3218
 194  572.3549
 195  530.1771
 196  502.9498
 197  610.1073
 198  707.5092
 199  608.0318
 200  595.1927
 201  627.0931
 202  637.9819
 203  634.6993
 204  571.3289
 205  584.5752
 206  558.2512
 207  498.1711
 208  593.201
 209  580.0939
 210  584.271
 211  593.9201
 212  635.7239
 213  581.4006
 214  466.001
 215  457.0524
 216  425.9781
 217  429.3669
 218  551.0585
 219  512.0503
 220  443.1708
 221  453.8496
 222  489.6989
 223  395.0738
 224  448.9964
 225  462.4579
 226  461.0701
 227  416.2892
 228  454.4662
 229  454.2831
 230  570.7636
 231  606.996
 232  472.7034
 233  381.2868
 234  417.5378
 235  472.4658
 236  467.9866
 237  518.1642
 238  474.0571
 239  361.5732
 240  460.0992
 241  502.2229
 242  429.7227
 243  414.5219
 244  399.5064
 245  486.3235
 246  435.7767
 247  347.2361
 248  385.4776
 249  412.9325
 250  378.0292
 251  377.6065
 252  392.0713
 253  331.8222
 254  437.0974
 255  586.3774
 256  493.0614
 257  471.6367
 258  436.96
 259  410.8683
 260  415.5213
 261  491.7093
 262  431.5789
 263  378.9397
 264  408.899
 265  420.6793
 266  345.233
 267  397.3167
 268  449.5348
 269  370.0759
 270  407.1531
 271  480.4573
 272  454.9297
 273  490.1104
 274  354.2464
 275  269.5218
 276  353.9905
 277  444.4388
 278  488.5205
 279  449.9475
 280  354.4619
 281  455.621
 282  462.6191
 283  490.7521
 284  362.7437
 285  363.396
 286  436.8752
 287  479.7356
 288  444.0309
 289  413.0785
 290  358.211
 291  459.2476
 292  461.1201
 293  546.3552
 294  624.0565
 295  465.7948
 296  288.0215
 297  318.4763
 298  372.0479
 299  373.045
 300  430.0552
 301  478.7734
 302  534.8138
 303  571.3267
 304  569.4348
 305  450.8677
 306  498.7298
 307  612.6095
 308  622.8621
 309  584.9107
 310  541.2723
 311  603.6715
 312  512.8463
 313  504.3422
 314  547.3297
 315  502.0848
 316  569.6799
 317  527.825
 318  479.119
 319  415.5309
 320  332.9662
 321  328.5623
 322  414.8313
 323  241.292
 324  308.8067
 325  328.7683
 326  318.2875
 327  319.5276
 328  348.1188
 329  302.8659
 330  426.1233
 331  343.0776
 332  352.0477
 333  454.5728
 334  548.6994
 335  517.8678
 336  372.5856
 337  403.2038
 338  412.3654
 339  486.0844
 340  556.6044
 341  552.8011
 342  541.6755
 343  463.7456
 344  419.588
 345  514.7465
 346  435.4612
 347  455.0866
 348  455.3252
 349  458.9598
 350  446.9927
 351  473.7479
 352  416.8887
 353  390.7593
 354  337.7293
 355  397.0081
 356  452.7788
 357  451.289
 358  484.3784
 359  427.7798
 360  426.4391
 361  476.0721
 362  425.0632
 363  357.7424
 364  409.9747
 365  358.3438
 366  421.4382
 367  441.869
 368  431.8608
 369  448.2322
 370  408.1562
 371  375.3049
 372  397.3298
 373  481.288
 374  496.481
 375  503.3681
 376  361.1448
 377  375.4725
 378  372.049
 379  480.3334
 380  464.6633
 381  478.5692
 382  499.0073
 383  425.4185
 384  467.6766
 385  481.4091
 386  404.8718
 387  450.8185
 388  456.0903
 389  551.0528
 390  485.0956
 391  412.6
 392  490.1728
 393  537.012
 394  467.6318
 395  506.204
 396  476.4239
 397  454.6518
 398  483.7408
 399  420.2125
 400  418.196
 401  406.2046
 402  384.8565
 403  400.3091
 404  480.8966
 405  384.0687
 406  389.9114
 407  557.6903
 408  542.0789
 409  425.2269
 410  471.124
 411  626.3434
 412  545.7453
 413  465.8251
 414  470.653
 415  405.5512
 416  516.6476
 417  510.1633
 418  455.3188
 419  525.0936
 420  512.817
 421  501.8607
 422  449.5996
 423  423.9353
 424  450.9423
 425  507.982
 426  478.1031
 427  388.3882
 428  447.025
 429  467.1554
 430  418.6391
 431  341.3082
 432  391.765
 433  436.9053
 434  500.0397
 435  456.4758
 436  419.5942
 437  429.9926
 438  414.4464
 439  417.6022
 440  422.2079
 441  431.9465
 442  430.5192
 443  369.5791
 444  391.9709
 445  352.0608
 446  511.3876
 447  491.4726
 448  523.7215
 449  479.7974
 450  422.5158
 451  356.6792
 452  433.3296
 453  463.9039
 454  424.5155
 455  422.202
 456  352.2136
 457  428.8611
 458  516.0027
 459  485.2334
 460  462.938
 461  416.9027
 462  405.0657
 463  277.6752
 464  414.8838
 465  430.954
 466  414.6916
 467  369.6387
 468  355.5284
 469  356.7573
 470  413.9748
 471  462.6433
 472  435.1672
 473  399.1637
 474  327.6353
 475  267.6183
 476  228.7146
 477  271.4239
 478  403.7024
 479  458.8944
 480  441.1316
 481  441.5887
 482  409.7837
 483  385.1296
 484  326.6325
 485  502.4445
 486  476.3927
 487  370.6866
 488  415.5949
 489  421.7576
 490  484.2986
 491  519.3205
 492  485.6996
 493  500.2866
 494  621.2687
 495  535.0057
 496  538.1504
 497  463.2004
 498  395.119
 499  396.7745
 500  362.3546
 501  417.2674
 502  437.4184
 503  546.874
 504  582.7736
 505  499.6115
 506  470.3211
 507  447.6236
 508  513.8267
 509  767.4309
 510  913.2975
 511  1006.002
