# Input file       =  1202567454.139856_cleaned.dat
# Candidate        =  PSR_0332+5434
# Telescope        =  AR
# Epoch_topo       =  58162.604584952038
# Epoch_bary       =  N/A
# T_sample         =  0.002
# Data Folded      =  7340032
# Data Avg         =  0.055005163838374
# Data StdDev      =  1.00058035949512 
# Profile Bins     =  512
# Profile Avg      =  788.590873647098 
# Profile StdDev   =  119.802524581307 
# Reduced chi-sqr  =  0.781
# Prob(Noise)      <  1   (~0.0 sigma)
# P_topo (ms)      =  714.579757668121  +/- 0.000498
# P'_topo (s/s)    =  -0                +/- 2.63e-10
# P''_topo (s/s^2) =  0                 +/- 1.16e-13
# P_bary (ms)      =  N/A
# P'_bary (s/s)    =  N/A
# P''_bary (s/s^2) =  N/A
# P_orb (s)        =  N/A
# asin(i)/c (s)    =  N/A
# eccentricity     =  N/A
# w (rad)          =  N/A
# T_peri           =  N/A
######################################################
   0  1023.367
   1  1104.578
   2  1123.401
   3  875.1608
   4  661.9923
   5  724.9367
   6  741.2062
   7  705.7447
   8  744.0215
   9  779.8931
  10  738.9663
  11  744.6191
  12  808.3823
  13  791.0721
  14  820.2429
  15  760.8199
  16  717.448
  17  711.4618
  18  686.0989
  19  655.0327
  20  749.8304
  21  755.1862
  22  574.0692
  23  569.891
  24  651.753
  25  752.236
  26  721.1119
  27  749.9094
  28  782.5378
  29  740.964
  30  697.3207
  31  667.9982
  32  659.1004
  33  601.2171
  34  636.7368
  35  634.9019
  36  566.5939
  37  611.7184
  38  653.1315
  39  630.2044
  40  621.3603
  41  720.382
  42  767.9545
  43  791.0321
  44  758.5287
  45  721.7047
  46  800.539
  47  768.6312
  48  768.7995
  49  750.9586
  50  779.8503
  51  820.5394
  52  853.5781
  53  752.34
  54  742.9066
  55  802.3907
  56  700.1004
  57  787.454
  58  820.4641
  59  809.6249
  60  802.0738
  61  871.8206
  62  851.7466
  63  879.7167
  64  904.4594
  65  835.2316
  66  798.6405
  67  866.9869
  68  762.0593
  69  705.1277
  70  769.7944
  71  790.9797
  72  785.0311
  73  834.6379
  74  826.0272
  75  852.9602
  76  841.377
  77  862.3088
  78  797.5428
  79  843.4899
  80  803.3042
  81  766.6766
  82  809.6503
  83  825.7657
  84  750.4438
  85  821.942
  86  778.6672
  87  749.2636
  88  773.1506
  89  771.8145
  90  771.0016
  91  872.0967
  92  789.5723
  93  860.0343
  94  932.8433
  95  966.3321
  96  921.6396
  97  795.8842
  98  841.4506
  99  809.7161
 100  859.8275
 101  899.3657
 102  929.704
 103  898.0914
 104  883.4608
 105  910.5829
 106  925.6751
 107  929.8547
 108  901.6928
 109  787.4081
 110  834.4498
 111  911.1921
 112  870.7655
 113  829.3636
 114  825.2396
 115  840.8145
 116  871.5438
 117  861.7676
 118  911.0348
 119  832.6253
 120  730.0458
 121  811.5784
 122  940.2454
 123  930.9394
 124  815.9808
 125  851.3344
 126  860.108
 127  840.072
 128  838.5057
 129  863.722
 130  818.925
 131  813.667
 132  801.9594
 133  785.9022
 134  826.0461
 135  836.1363
 136  784.8373
 137  761.3505
 138  788.5744
 139  783.7028
 140  854.2402
 141  864.6609
 142  808.4189
 143  790.1312
 144  852.1998
 145  865.4521
 146  794.8095
 147  769.2492
 148  829.2629
 149  868.7859
 150  785.5248
 151  713.0635
 152  754.3948
 153  850.7537
 154  844.5386
 155  714.3495
 156  855.7772
 157  840.8503
 158  774.1006
 159  845.6432
 160  816.8689
 161  869.8868
 162  870.9753
 163  844.7015
 164  821.8253
 165  833.1063
 166  878.7898
 167  761.3328
 168  755.699
 169  811.6439
 170  784.2101
 171  743.6794
 172  785.0867
 173  785.1059
 174  702.5956
 175  700.4037
 176  772.8159
 177  828.7161
 178  820.1006
 179  894.8144
 180  850.1185
 181  783.7949
 182  850.1493
 183  807.34
 184  873.0023
 185  863.6312
 186  858.9101
 187  857.4379
 188  882.3649
 189  828.1536
 190  841.871
 191  905.1399
 192  906.1913
 193  911.3802
 194  864.8874
 195  861.4334
 196  919.312
 197  930.2068
 198  924.7015
 199  839.0464
 200  846.1769
 201  809.0687
 202  792.7795
 203  824.4865
 204  839.8595
 205  838.1807
 206  794.1163
 207  765.3992
 208  752.5217
 209  772.1227
 210  710.6474
 211  803.7964
 212  819.8384
 213  780.5304
 214  872.4852
 215  808.9515
 216  769.1442
 217  772.0975
 218  784.1606
 219  783.8124
 220  773.3209
 221  783.5452
 222  795.4283
 223  777.2293
 224  749.1662
 225  745.8444
 226  748.2566
 227  717.1595
 228  708.5139
 229  679.4517
 230  733.1926
 231  759.8251
 232  800.8319
 233  789.8248
 234  674.8574
 235  758.2407
 236  781.6612
 237  726.3019
 238  779.7089
 239  750.1038
 240  786.7802
 241  846.3318
 242  813.5843
 243  788.9543
 244  757.0196
 245  762.9446
 246  744.8953
 247  763.2825
 248  727.2225
 249  654.3972
 250  633.2744
 251  605.8643
 252  595.3665
 253  669.0317
 254  684.1779
 255  675.7087
 256  717.4344
 257  759.7521
 258  772.4114
 259  708.1379
 260  756.7955
 261  718.2228
 262  788.6039
 263  794.212
 264  781.9562
 265  756.7799
 266  865.9424
 267  926.613
 268  846.4522
 269  813.0431
 270  806.7841
 271  791.0944
 272  781.4274
 273  788.5295
 274  807.8988
 275  798.2093
 276  765.597
 277  767.77
 278  768.7806
 279  758.7145
 280  819.3599
 281  802.1973
 282  798.598
 283  828.9092
 284  801.3001
 285  799.6467
 286  825.2993
 287  780.1672
 288  739.7838
 289  727.6458
 290  804.9629
 291  883.7771
 292  864.3135
 293  865.4791
 294  917.3677
 295  874.0628
 296  812.2898
 297  748.3481
 298  781.3114
 299  811.4051
 300  781.8495
 301  948.6265
 302  983.6051
 303  907.2311
 304  749.4257
 305  770.1917
 306  800.1418
 307  808.2927
 308  799.4067
 309  821.2911
 310  785.793
 311  756.6982
 312  775.2915
 313  779.9362
 314  771.8267
 315  791.7371
 316  733.3505
 317  642.8928
 318  758.6932
 319  708.7998
 320  659.4263
 321  719.1071
 322  728.4693
 323  790.4297
 324  814.8334
 325  820.4635
 326  686.0887
 327  719.1493
 328  742.8371
 329  784.4742
 330  771.7091
 331  725.3048
 332  737.3246
 333  759.6952
 334  778.8032
 335  730.0748
 336  620.4276
 337  652.89
 338  653.2582
 339  645.9779
 340  734.5424
 341  678.7049
 342  733.5909
 343  729.1138
 344  795.0135
 345  762.1915
 346  750.4015
 347  720.2619
 348  742.9698
 349  710.5518
 350  715.9536
 351  729.8227
 352  754.6675
 353  703.4324
 354  735.9669
 355  849.2155
 356  849.4226
 357  784.7855
 358  719.7617
 359  736.1523
 360  810.4767
 361  839.745
 362  803.2219
 363  824.6533
 364  850.1348
 365  827.5324
 366  805.7405
 367  771.2655
 368  807.8184
 369  773.0726
 370  769.7487
 371  823.9051
 372  849.0849
 373  893.021
 374  821.8259
 375  770.5715
 376  849.9297
 377  833.4576
 378  900.993
 379  904.4078
 380  786.7531
 381  788.663
 382  789.8784
 383  866.9343
 384  839.0049
 385  860.8331
 386  850.3936
 387  880.0165
 388  834.0909
 389  846.0139
 390  835.1935
 391  877.8352
 392  888.7617
 393  889.1462
 394  902.8661
 395  927.2294
 396  909.095
 397  893.2313
 398  926.602
 399  902.3801
 400  895.6062
 401  930.1255
 402  909.9919
 403  852.6236
 404  805.3022
 405  748.0225
 406  841.9147
 407  903.1192
 408  919.8343
 409  882.7752
 410  762.7466
 411  654.4966
 412  737.647
 413  863.2823
 414  872.3113
 415  805.5253
 416  780.0554
 417  748.1606
 418  825.5846
 419  864.4944
 420  774.5565
 421  727.535
 422  721.0418
 423  679.1351
 424  670.5424
 425  746.437
 426  782.1244
 427  691.5267
 428  751.2352
 429  716.6372
 430  778.5882
 431  767.3129
 432  689.421
 433  696.6859
 434  706.926
 435  658.8718
 436  639.8839
 437  709.4354
 438  732.2933
 439  734.8674
 440  783.9621
 441  803.1448
 442  723.2568
 443  709.726
 444  747.8682
 445  773.2133
 446  804.2194
 447  768.2115
 448  634.9302
 449  760.5837
 450  771.5762
 451  662.1928
 452  745.0128
 453  754.5162
 454  771.3384
 455  723.2974
 456  721.1806
 457  758.9444
 458  835.4815
 459  791.1616
 460  772.3662
 461  725.9662
 462  741.6041
 463  703.2949
 464  727.6354
 465  670.5247
 466  679.6236
 467  800.6507
 468  771.6506
 469  718.8198
 470  739.4834
 471  766.5415
 472  738.0982
 473  762.1085
 474  761.3348
 475  688.8914
 476  740.7999
 477  768.0011
 478  724.8379
 479  768.5494
 480  759.9629
 481  780.5662
 482  727.5973
 483  756.0962
 484  744.8871
 485  713.3126
 486  720.3423
 487  683.7462
 488  709.9016
 489  676.5709
 490  696.4659
 491  727.3733
 492  775.0181
 493  793.0464
 494  807.2944
 495  820.3849
 496  780.9904
 497  783.7315
 498  807.9399
 499  667.2173
 500  652.3367
 501  779.0864
 502  780.1829
 503  721.4559
 504  773.9159
 505  759.8776
 506  803.3545
 507  813.4868
 508  837.0502
 509  987.5693
 510  995.6337
 511  1069.129
