# Input file       =  1202151414.114845_cleaned.dat
# Candidate        =  PSR_0332+5434
# Telescope        =  AR
# Epoch_topo       =  58157.789306884777
# Epoch_bary       =  N/A
# T_sample         =  0.002
# Data Folded      =  7340032
# Data Avg         =  0.0142778652009548
# Data StdDev      =  1.00007223698405 
# Profile Bins     =  512
# Profile Avg      =  204.773129277275 
# Profile StdDev   =  119.741685530206 
# Reduced chi-sqr  =  1.148
# Prob(Noise)      <  0.0112   (~2.3 sigma)
# P_topo (ms)      =  714.578944280961  +/- 0.000249
# P'_topo (s/s)    =  -0                +/- 1.32e-10
# P''_topo (s/s^2) =  0                 +/- 5.81e-14
# P_bary (ms)      =  N/A
# P'_bary (s/s)    =  N/A
# P''_bary (s/s^2) =  N/A
# P_orb (s)        =  N/A
# asin(i)/c (s)    =  N/A
# eccentricity     =  N/A
# w (rad)          =  N/A
# T_peri           =  N/A
######################################################
   0  836.2679
   1  857.3742
   2  633.2518
   3  441.9179
   4  238.6525
   5  77.56143
   6  106.1368
   7  203.968
   8  340.2895
   9  239.139
  10  220.5409
  11  297.5519
  12  228.4374
  13  279.7703
  14  310.7664
  15  233.7164
  16  318.7829
  17  401.5968
  18  390.785
  19  289.7432
  20  257.4748
  21  201.7986
  22  238.3491
  23  177.4368
  24  235.0902
  25  255.2689
  26  248.8931
  27  130.2318
  28  185.6723
  29  231.1586
  30  225.5859
  31  165.137
  32  252.5739
  33  238.8586
  34  188.1057
  35  275.0789
  36  260.9348
  37  196.4347
  38  31.36343
  39  146.3599
  40  144.5069
  41  227.7751
  42  183.9738
  43  125.025
  44  155.4339
  45  189.7314
  46  227.6492
  47  274.6642
  48  189.5444
  49  160.4825
  50  175.2393
  51  176.6597
  52  223.5502
  53  214.3369
  54  192.4825
  55  56.179
  56  104.0302
  57  99.15454
  58  91.64586
  59  143.2364
  60  210.0555
  61  106.4951
  62  167.1451
  63  201.857
  64  242.3719
  65  161.7324
  66  144.0628
  67  171.8473
  68  192.5498
  69  194.2462
  70  198.5069
  71  177.4173
  72  166.6823
  73  189.8254
  74  168.5906
  75  129.5474
  76  217.4583
  77  195.2766
  78  133.0845
  79  156.3186
  80  238.8563
  81  159.8225
  82  170.2236
  83  173.6165
  84  165.3421
  85  187.698
  86  231.3936
  87  188.1884
  88  225.2004
  89  375.7128
  90  185.2295
  91  201.4056
  92  149.0068
  93  154.6975
  94  188.257
  95  222.8348
  96  263.8612
  97  241.9717
  98  206.4377
  99  110.6894
 100  -13.68989
 101  157.7021
 102  306.9456
 103  96.75025
 104  133.0924
 105  89.27755
 106  111.5173
 107  203.0841
 108  172.7918
 109  192.8527
 110  199.1303
 111  187.7986
 112  163.6701
 113  -58.74923
 114  108.1417
 115  224.5802
 116  145.1923
 117  243.4135
 118  164.7187
 119  82.02005
 120  135.081
 121  200.116
 122  238.8498
 123  139.2064
 124  189.3352
 125  154.4131
 126  254.5483
 127  260.5467
 128  254.7499
 129  274.6483
 130  201.2407
 131  184.9508
 132  159.7695
 133  75.6727
 134  193.6725
 135  189.6245
 136  127.5522
 137  183.5044
 138  266.5978
 139  193.6427
 140  118.3363
 141  143.5576
 142  242.7505
 143  183.8362
 144  188.2523
 145  157.5646
 146  179.616
 147  130.6013
 148  237.2185
 149  227.162
 150  164.3487
 151  205.8144
 152  246.8185
 153  199.3466
 154  128.2198
 155  240.3079
 156  329.9349
 157  298.6458
 158  259.2143
 159  210.0638
 160  79.77233
 161  66.36849
 162  204.7416
 163  78.14313
 164  67.85413
 165  108.2884
 166  214.355
 167  181.2799
 168  214.3991
 169  212.9972
 170  232.8248
 171  192.0537
 172  93.23756
 173  164.2664
 174  159.1417
 175  191.8316
 176  183.7549
 177  260.4142
 178  271.9973
 179  299.8935
 180  196.8744
 181  113.4975
 182  93.71631
 183  132.1606
 184  137.0472
 185  222.5726
 186  146.277
 187  86.11211
 188  136.6288
 189  363.8206
 190  373.4921
 191  272.5923
 192  247.157
 193  122.2127
 194  231.1441
 195  281.7076
 196  357.8691
 197  261.3128
 198  206.6691
 199  330.4931
 200  276.4384
 201  227.2966
 202  207.9629
 203  257.3869
 204  183.9181
 205  192.5613
 206  197.3608
 207  179.2294
 208  173.3011
 209  180.2981
 210  291.4939
 211  130.7058
 212  158.8599
 213  149.6952
 214  161.6881
 215  241.4825
 216  228.1995
 217  194.6635
 218  142.8878
 219  234.7101
 220  220.1428
 221  222.3978
 222  180.836
 223  171.1247
 224  310.3227
 225  210.6788
 226  247.2567
 227  247.5974
 228  228.9571
 229  224.8418
 230  218.8111
 231  193.8373
 232  209.9794
 233  157.7133
 234  221.7808
 235  154.6628
 236  176.3104
 237  323.0293
 238  265.4886
 239  215.1822
 240  186.0524
 241  180.3138
 242  170.017
 243  202.6168
 244  344.1222
 245  137.3897
 246  37.46604
 247  108.9137
 248  65.60638
 249  48.22703
 250  124.7853
 251  204.8064
 252  192.438
 253  97.84534
 254  214.4505
 255  231.5948
 256  142.4223
 257  20.78131
 258  59.64006
 259  103.6025
 260  84.68489
 261  166.1065
 262  159.1808
 263  252.5647
 264  185.4512
 265  232.2294
 266  138.8798
 267  99.53397
 268  152.8439
 269  234.3426
 270  270.7162
 271  180.6052
 272  165.9306
 273  154.4596
 274  198.3426
 275  291.6795
 276  175.5966
 277  85.30808
 278  67.64828
 279  77.95965
 280  192.8945
 281  199.0321
 282  118.709
 283  136.6186
 284  222.1219
 285  150.714
 286  77.15365
 287  47.11333
 288  84.59859
 289  118.7957
 290  135.2533
 291  144.8664
 292  159.4525
 293  254.7304
 294  189.8792
 295  85.10439
 296  110.1339
 297  97.77907
 298  96.54216
 299  120.2988
 300  209.7259
 301  223.7258
 302  264.7809
 303  214.9752
 304  129.6901
 305  191.3857
 306  260.8089
 307  170.3833
 308  194.0225
 309  169.3244
 310  66.59423
 311  160.9835
 312  224.2844
 313  233.494
 314  262.7125
 315  126.2217
 316  136.7641
 317  113.6006
 318  83.68327
 319  134.0432
 320  114.1168
 321  207.7513
 322  169.744
 323  251.5316
 324  271.5725
 325  237.1531
 326  115.2016
 327  167.2508
 328  107.988
 329  129.2725
 330  151.6845
 331  200.435
 332  260.7264
 333  286.0699
 334  236.7169
 335  273.8669
 336  218.6573
 337  126.4633
 338  76.56163
 339  172.0714
 340  207.855
 341  307.5827
 342  139.7956
 343  60.62526
 344  135.6687
 345  139.0638
 346  217.573
 347  301.4391
 348  290.9765
 349  281.6711
 350  246.1066
 351  184.2233
 352  187.0967
 353  167.5508
 354  279.2589
 355  107.7293
 356  170.6756
 357  159.287
 358  124.2106
 359  147.3016
 360  125.3824
 361  114.859
 362  159.9855
 363  261.0283
 364  136.4824
 365  89.44154
 366  230.0788
 367  197.4941
 368  130.3719
 369  83.11719
 370  201.7197
 371  218.1291
 372  244.3161
 373  178.2562
 374  124.9464
 375  112.8119
 376  166.3059
 377  130.4855
 378  80.70467
 379  100.612
 380  214.0981
 381  138.8856
 382  159.773
 383  201.069
 384  91.686
 385  112.8939
 386  191.5342
 387  118.9783
 388  231.3985
 389  224.3701
 390  279.9252
 391  212.4078
 392  132.163
 393  255.7474
 394  270.6837
 395  261.4315
 396  260.4905
 397  261.5107
 398  230.8433
 399  267.4618
 400  354.2975
 401  208.7449
 402  159.3592
 403  247.1411
 404  263.8726
 405  324.5462
 406  272.4971
 407  169.0283
 408  226.1129
 409  243.968
 410  259.1243
 411  315.8459
 412  211.772
 413  227.7318
 414  246.0214
 415  176.4352
 416  260.3974
 417  194.9405
 418  66.66795
 419  69.83067
 420  97.19484
 421  176.0751
 422  280.5014
 423  213.3636
 424  196.1128
 425  190.2911
 426  176.0794
 427  294.1143
 428  190.9213
 429  351.6409
 430  315.5593
 431  254.4337
 432  196.0927
 433  112.5937
 434  126.2425
 435  158.7092
 436  193.3818
 437  309.8696
 438  259.8267
 439  286.3976
 440  175.8559
 441  77.47727
 442  183.7894
 443  283.8512
 444  166.379
 445  90.30262
 446  277.358
 447  309.0241
 448  264.5437
 449  172.137
 450  284.3829
 451  344.5256
 452  250.0249
 453  230.212
 454  279.1082
 455  244.8791
 456  303.6155
 457  300.3089
 458  277.4942
 459  169.1277
 460  169.437
 461  212.9241
 462  226.6252
 463  171.6971
 464  137.2695
 465  174.2561
 466  131.0154
 467  137.9254
 468  236.4471
 469  196.5069
 470  240.6701
 471  361.8625
 472  291.1055
 473  355.729
 474  219.6899
 475  167.6288
 476  200.7233
 477  223.4246
 478  197.4014
 479  173.7218
 480  343.2529
 481  310.3195
 482  257.8373
 483  216.2452
 484  197.2582
 485  146.5505
 486  115.1641
 487  151.7665
 488  196.1836
 489  248.0598
 490  276.2981
 491  175.8008
 492  406.2868
 493  396.2466
 494  337.953
 495  339.4279
 496  234.1601
 497  288.7175
 498  317.7701
 499  426.2144
 500  329.6813
 501  256.9686
 502  353.5137
 503  432.9344
 504  333.116
 505  426.1725
 506  433.496
 507  450.9629
 508  512.0152
 509  447.822
 510  493.7065
 511  718.6784
