# Input file       =  1202739893.132749_cleaned.dat
# Candidate        =  PSR_0332+5434
# Telescope        =  AR
# Epoch_topo       =  58164.600406629041
# Epoch_bary       =  N/A
# T_sample         =  0.002
# Data Folded      =  7340032
# Data Avg         =  -0.0552390115635634
# Data StdDev      =  1.00014184346377 
# Profile Bins     =  512
# Profile Avg      =  -792.124922298954
# Profile StdDev   =  119.750019725373 
# Reduced chi-sqr  =  0.764
# Prob(Noise)      <  1   (~0.0 sigma)
# P_topo (ms)      =  714.580107805209  +/- 0.000624
# P'_topo (s/s)    =  -0                +/- 3.29e-10
# P''_topo (s/s^2) =  0                 +/- 1.45e-13
# P_bary (ms)      =  N/A
# P'_bary (s/s)    =  N/A
# P''_bary (s/s^2) =  N/A
# P_orb (s)        =  N/A
# asin(i)/c (s)    =  N/A
# eccentricity     =  N/A
# w (rad)          =  N/A
# T_peri           =  N/A
######################################################
   0  -388.0888
   1  -406.253
   2  -491.8483
   3  -738.141
   4  -858.7442
   5  -902.821
   6  -839.2225
   7  -798.9828
   8  -858.174
   9  -853.2997
  10  -798.3509
  11  -774.7968
  12  -741.6019
  13  -689.47
  14  -730.5984
  15  -831.0246
  16  -799.3464
  17  -793.2704
  18  -773.7338
  19  -734.2672
  20  -758.6008
  21  -833.7078
  22  -778.0077
  23  -709.8136
  24  -752.0996
  25  -910.0118
  26  -924.3798
  27  -894.5833
  28  -860.2585
  29  -753.353
  30  -803.5225
  31  -789.9954
  32  -821.6789
  33  -917.0916
  34  -853.8065
  35  -847.6456
  36  -783.5168
  37  -801.6863
  38  -841.7945
  39  -839.4995
  40  -796.8726
  41  -796.09
  42  -783.5487
  43  -750.124
  44  -767.968
  45  -848.9855
  46  -868.8427
  47  -867.3442
  48  -853.2358
  49  -831.7869
  50  -813.1621
  51  -790.36
  52  -842.1829
  53  -894.072
  54  -833.7266
  55  -798.2528
  56  -762.3046
  57  -753.0144
  58  -711.9775
  59  -687.3292
  60  -733.1689
  61  -757.1792
  62  -797.7384
  63  -810.9919
  64  -836.5017
  65  -779.8121
  66  -731.0768
  67  -734.1794
  68  -756.927
  69  -837.2617
  70  -795.6524
  71  -708.1732
  72  -790.8522
  73  -811.6514
  74  -800.0514
  75  -682.4532
  76  -738.2593
  77  -887.3868
  78  -905.3525
  79  -760.1296
  80  -722.338
  81  -794.0792
  82  -839.5882
  83  -809.8505
  84  -798.0722
  85  -797.4451
  86  -717.4803
  87  -661.7609
  88  -651.3615
  89  -658.3367
  90  -706.4954
  91  -768.0211
  92  -722.4312
  93  -712.012
  94  -703.9801
  95  -754.6781
  96  -809.1069
  97  -814.9335
  98  -798.8099
  99  -844.7653
 100  -769.2722
 101  -647.2158
 102  -667.014
 103  -788.2874
 104  -784.7238
 105  -754.5714
 106  -763.2036
 107  -723.1382
 108  -646.9939
 109  -639.1017
 110  -745.5332
 111  -747.5312
 112  -730.9928
 113  -816.8967
 114  -825.5959
 115  -778.1736
 116  -721.3102
 117  -686.6499
 118  -710.8353
 119  -712.6636
 120  -777.032
 121  -767.778
 122  -785.9515
 123  -713.3708
 124  -612.4734
 125  -696.4329
 126  -754.8248
 127  -780.0366
 128  -768.037
 129  -824.9072
 130  -814.1002
 131  -749.0052
 132  -772.0122
 133  -810.8796
 134  -857.6535
 135  -814.2302
 136  -805.6559
 137  -841.212
 138  -749.0571
 139  -734.4133
 140  -825.4808
 141  -886.5984
 142  -853.0698
 143  -827.1132
 144  -834.6655
 145  -719.2924
 146  -734.0528
 147  -728.5901
 148  -797.0665
 149  -792.0474
 150  -841.6597
 151  -766.4942
 152  -807.9615
 153  -852.7006
 154  -823.0447
 155  -869.0809
 156  -792.9342
 157  -772.3374
 158  -770.1371
 159  -783.1066
 160  -828.3064
 161  -831.2146
 162  -758.5044
 163  -790.4288
 164  -764.7186
 165  -815.4225
 166  -866.4952
 167  -781.7958
 168  -721.6746
 169  -762.4095
 170  -851.3149
 171  -758.4218
 172  -661.3198
 173  -720.825
 174  -741.3052
 175  -725.555
 176  -802.5998
 177  -754.8644
 178  -804.6936
 179  -856.8264
 180  -724.181
 181  -694.5625
 182  -717.7519
 183  -715.6376
 184  -776.7109
 185  -799.7999
 186  -744.0632
 187  -744.2923
 188  -743.4388
 189  -774.0312
 190  -772.6209
 191  -762.0246
 192  -737.4261
 193  -719.6584
 194  -747.0478
 195  -796.2052
 196  -853.2177
 197  -849.2993
 198  -899.3616
 199  -868.5499
 200  -808.2109
 201  -775.0833
 202  -789.1374
 203  -727.6905
 204  -801.8777
 205  -791.3572
 206  -672.9252
 207  -704.619
 208  -724.6281
 209  -757.8738
 210  -764.3392
 211  -828.5068
 212  -830.0305
 213  -816.1835
 214  -834.1182
 215  -819.0203
 216  -778.9443
 217  -767.3817
 218  -773.3637
 219  -792.2659
 220  -816.4341
 221  -769.2264
 222  -754.6361
 223  -796.5142
 224  -780.5869
 225  -805.7567
 226  -743.0095
 227  -759.1752
 228  -835.9694
 229  -755.4
 230  -696.0745
 231  -759.7701
 232  -786.245
 233  -926.5272
 234  -922.1157
 235  -902.6458
 236  -932.5927
 237  -930.4765
 238  -836.2192
 239  -771.4954
 240  -818.3175
 241  -835.0861
 242  -903.5497
 243  -899.1326
 244  -823.3179
 245  -929.4255
 246  -874.0536
 247  -772.0513
 248  -815.5203
 249  -807.1926
 250  -791.8622
 251  -771.7941
 252  -901.031
 253  -927.1948
 254  -810.2598
 255  -773.5818
 256  -746.2328
 257  -748.3294
 258  -683.1649
 259  -794.9822
 260  -855.3853
 261  -873.5173
 262  -831.071
 263  -818.9321
 264  -854.4547
 265  -894.0789
 266  -845.6268
 267  -791.8064
 268  -717.008
 269  -757.7577
 270  -799.8157
 271  -711.564
 272  -764.0347
 273  -789.1063
 274  -761.824
 275  -824.3292
 276  -798.5081
 277  -771.3986
 278  -787.6579
 279  -770.0649
 280  -736.943
 281  -770.2718
 282  -741.1235
 283  -763.0605
 284  -842.0792
 285  -777.0114
 286  -838.441
 287  -720.8183
 288  -729.069
 289  -740.7346
 290  -691.3907
 291  -661.6779
 292  -721.8823
 293  -746.6518
 294  -864.996
 295  -768.7996
 296  -759.3312
 297  -853.9186
 298  -764.8041
 299  -801.6895
 300  -815.7689
 301  -859.7437
 302  -912.0729
 303  -815.9148
 304  -751.4028
 305  -809.1444
 306  -809.4863
 307  -796.3372
 308  -775.5338
 309  -839.1614
 310  -830.7775
 311  -812.9223
 312  -856.92
 313  -817.9226
 314  -900.7427
 315  -863.1847
 316  -893.1922
 317  -911.3201
 318  -808.3385
 319  -851.2048
 320  -880.7947
 321  -837.9346
 322  -791.3536
 323  -770.94
 324  -851.095
 325  -832.6694
 326  -875.9885
 327  -988.714
 328  -1023.769
 329  -985.0984
 330  -898.4868
 331  -867.8526
 332  -905.9378
 333  -908.8023
 334  -842.3442
 335  -893.6646
 336  -956.2106
 337  -899.0563
 338  -848.0355
 339  -790.2013
 340  -753.809
 341  -832.5026
 342  -824.7006
 343  -808.9012
 344  -833.137
 345  -861.9498
 346  -841.1785
 347  -753.1486
 348  -777.9188
 349  -832.5258
 350  -883.431
 351  -878.4645
 352  -847.735
 353  -897.8513
 354  -855.9962
 355  -927.6567
 356  -877.1411
 357  -844.2698
 358  -779.3297
 359  -836.3944
 360  -820.1014
 361  -795.8276
 362  -862.0925
 363  -826.9473
 364  -837.7195
 365  -864.101
 366  -833.1381
 367  -824.4291
 368  -806.1096
 369  -825.6482
 370  -840.3378
 371  -801.0097
 372  -878.1985
 373  -862.8524
 374  -855.7663
 375  -837.7267
 376  -813.9166
 377  -853.3801
 378  -820.7148
 379  -891.8113
 380  -839.9525
 381  -814.7936
 382  -821.7627
 383  -866.6102
 384  -920.1703
 385  -885.9583
 386  -855.2408
 387  -876.8495
 388  -863.0258
 389  -827.2372
 390  -852.7439
 391  -807.9265
 392  -809.5219
 393  -828.7613
 394  -870.134
 395  -784.3315
 396  -853.2005
 397  -867.0301
 398  -912.2474
 399  -949.8238
 400  -844.9125
 401  -768.8997
 402  -777.597
 403  -855.4056
 404  -909.6511
 405  -858.1922
 406  -850.511
 407  -812.7156
 408  -847.5245
 409  -877.1005
 410  -885.1553
 411  -805.8748
 412  -830.6455
 413  -867.314
 414  -808.9058
 415  -802.7719
 416  -758.2459
 417  -775.7402
 418  -778.3292
 419  -815.8172
 420  -856.8337
 421  -882.2446
 422  -883.189
 423  -858.8931
 424  -857.382
 425  -813.2086
 426  -833.2464
 427  -823.355
 428  -871.666
 429  -885.6719
 430  -779.27
 431  -755.6606
 432  -804.7176
 433  -873.4666
 434  -770.3205
 435  -706.8136
 436  -749.7831
 437  -861.7262
 438  -811.1851
 439  -729.6666
 440  -687.3495
 441  -738.9952
 442  -702.1863
 443  -770.0299
 444  -768.0579
 445  -812.2447
 446  -786.0039
 447  -770.7144
 448  -717.7123
 449  -712.2376
 450  -731.5287
 451  -643.3622
 452  -673.7245
 453  -674.6024
 454  -746.9947
 455  -730.1642
 456  -704.9375
 457  -625.3536
 458  -624.8373
 459  -655.4255
 460  -660.4008
 461  -660.3076
 462  -686.5557
 463  -652.4952
 464  -607.6479
 465  -701.5981
 466  -739.6327
 467  -707.6132
 468  -730.5411
 469  -734.3083
 470  -766.5107
 471  -742.7898
 472  -696.068
 473  -792.3063
 474  -752.0964
 475  -784.2372
 476  -802.8986
 477  -766.7938
 478  -734.2103
 479  -699.4467
 480  -764.0396
 481  -743.7926
 482  -728.9795
 483  -738.7181
 484  -745.4639
 485  -764.7051
 486  -783.7999
 487  -789.9671
 488  -754.166
 489  -697.6581
 490  -761.5873
 491  -797.4788
 492  -896.694
 493  -842.589
 494  -781.5831
 495  -812.9119
 496  -805.3558
 497  -830.5511
 498  -792.3861
 499  -839.152
 500  -783.831
 501  -863.8699
 502  -840.5374
 503  -786.7057
 504  -806.4713
 505  -764.8782
 506  -809.7546
 507  -729.345
 508  -713.5385
 509  -534.8304
 510  -424.1245
 511  -366.1947
