# Input file       =  1202582396.27699_cleaned.dat
# Candidate        =  PSR_0332+5434
# Telescope        =  AR
# Epoch_topo       =  58162.777526354053
# Epoch_bary       =  N/A
# T_sample         =  0.002
# Data Folded      =  7340032
# Data Avg         =  0.0389359052347041
# Data StdDev      =  1.00003863896858 
# Profile Bins     =  512
# Profile Avg      =  558.067467845875 
# Profile StdDev   =  119.737662737797 
# Reduced chi-sqr  =  1.450
# Prob(Noise)      <  1.07e-10   (~6.4 sigma)
# P_topo (ms)      =  714.580128257372  +/- 0.000361
# P'_topo (s/s)    =  -0                +/- 1.9e-10
# P''_topo (s/s^2) =  0                 +/- 8.41e-14
# P_bary (ms)      =  N/A
# P'_bary (s/s)    =  N/A
# P''_bary (s/s^2) =  N/A
# P_orb (s)        =  N/A
# asin(i)/c (s)    =  N/A
# eccentricity     =  N/A
# w (rad)          =  N/A
# T_peri           =  N/A
######################################################
   0  1238.727
   1  1126.458
   2  1109.123
   3  936.7527
   4  782.6371
   5  700.2103
   6  560.9368
   7  698.4331
   8  664.6351
   9  544.1968
  10  590.0637
  11  615.1463
  12  659.928
  13  690.4367
  14  588.3365
  15  611.0222
  16  606.7698
  17  527.0607
  18  595.7177
  19  518.8773
  20  567.4215
  21  551.5798
  22  698.302
  23  674.757
  24  608.1852
  25  579.7609
  26  610.6013
  27  637.2799
  28  563.2366
  29  486.8473
  30  540.3486
  31  539.6496
  32  637.2307
  33  648.3467
  34  585.1506
  35  558.1278
  36  543.5027
  37  551.1592
  38  499.6419
  39  426.1106
  40  520.9238
  41  387.4367
  42  433.8355
  43  470.3538
  44  432.5283
  45  496.3842
  46  431.6679
  47  540.4318
  48  441.9466
  49  389.461
  50  500.1299
  51  545.908
  52  358.4229
  53  404.3456
  54  558.4138
  55  562.8125
  56  476.0852
  57  526.0678
  58  495.4497
  59  348.624
  60  393.4129
  61  369.8679
  62  424.7469
  63  524.4225
  64  416.3842
  65  428.5578
  66  514.8743
  67  496.4271
  68  468.7878
  69  450.1192
  70  469.5365
  71  480.3826
  72  327.5092
  73  419.2158
  74  458.1139
  75  501.7232
  76  525.892
  77  561.1072
  78  523.8027
  79  493.9296
  80  512.8559
  81  416.8939
  82  361.3277
  83  438.8811
  84  507.2393
  85  481.0335
  86  508.9853
  87  590.7068
  88  546.8527
  89  528.6059
  90  566.5563
  91  528.7686
  92  429.1386
  93  478.2216
  94  546.5382
  95  476.6497
  96  600.6921
  97  598.7889
  98  569.7975
  99  605.905
 100  680.8726
 101  660.1925
 102  580.7179
 103  494.3123
 104  498.9406
 105  505.4677
 106  505.1541
 107  496.6716
 108  477.7012
 109  522.4826
 110  530.4308
 111  716.7857
 112  656.7112
 113  545.1019
 114  653.3759
 115  669.0732
 116  656.6492
 117  657.5659
 118  614.8685
 119  546.7047
 120  562.8293
 121  513.3341
 122  518.323
 123  618.188
 124  563.4749
 125  596.4003
 126  429.4793
 127  497.4309
 128  631.9205
 129  657.4974
 130  618.734
 131  577.1494
 132  615.3616
 133  693.5855
 134  595.8623
 135  575.4775
 136  728.4406
 137  725.2554
 138  518.5768
 139  581.2695
 140  609.7094
 141  579.61
 142  501.7867
 143  531.1572
 144  666.6008
 145  564.9854
 146  514.6012
 147  585.7421
 148  561.2124
 149  507.8916
 150  473.8597
 151  544.2944
 152  641.329
 153  613.7936
 154  666.3836
 155  596.5754
 156  520.5675
 157  472.9908
 158  528.7414
 159  555.758
 160  548.9284
 161  563.2455
 162  638.6711
 163  602.999
 164  509.6421
 165  542.1942
 166  578.918
 167  530.2045
 168  496.6847
 169  477.09
 170  396.7488
 171  535.8613
 172  589.1705
 173  572.7921
 174  547.0845
 175  654.77
 176  585.1121
 177  563.6807
 178  613.1321
 179  640.4631
 180  716.5384
 181  541.567
 182  457.8662
 183  556.7713
 184  611.4426
 185  599.6593
 186  554.4404
 187  532.053
 188  519.9357
 189  501.6007
 190  624.6193
 191  637.9219
 192  550.0078
 193  537.6446
 194  609.1365
 195  637.7431
 196  631.8944
 197  544.7412
 198  566.4924
 199  476.5162
 200  483.0473
 201  527.3798
 202  602.65
 203  596.0181
 204  596.7978
 205  589.8007
 206  527.7288
 207  549.5437
 208  629.6503
 209  654.1508
 210  626.6198
 211  660.8946
 212  608.3618
 213  553.6512
 214  596.8976
 215  680.8491
 216  610.9527
 217  594.7523
 218  598.6273
 219  576.7155
 220  438.9261
 221  461.304
 222  401.7144
 223  523.6118
 224  487.1745
 225  613.9848
 226  652.2394
 227  656.3416
 228  594.9449
 229  577.485
 230  631.7661
 231  620.0475
 232  498.2189
 233  402.4306
 234  539.5818
 235  581.0983
 236  559.9771
 237  553.3032
 238  624.9908
 239  548.9014
 240  631.4605
 241  623.0762
 242  536.1566
 243  531.7604
 244  592.4552
 245  569.4192
 246  539.1449
 247  466.6645
 248  487.2277
 249  375.9511
 250  583.8071
 251  576.1283
 252  549.8462
 253  543.7127
 254  514.0416
 255  619.7042
 256  674.219
 257  647.3079
 258  531.2432
 259  623.6144
 260  643.95
 261  535.4818
 262  629.8055
 263  508.805
 264  505.3433
 265  581.8153
 266  606.0165
 267  500.8216
 268  460.0832
 269  673.2015
 270  593.5205
 271  464.0288
 272  544.274
 273  648.9022
 274  671.4989
 275  685.815
 276  677.2422
 277  598.7272
 278  595.6301
 279  568.7716
 280  564.2111
 281  614.6857
 282  560.9355
 283  594.1528
 284  573.655
 285  544.2951
 286  537.6271
 287  448.7177
 288  353.3854
 289  436.0763
 290  437.316
 291  518.7905
 292  556.7554
 293  486.2564
 294  503.2242
 295  604.1969
 296  544.0601
 297  564.7745
 298  520.1683
 299  602.5439
 300  549.4855
 301  570.0275
 302  482.3201
 303  461.7429
 304  521.5278
 305  535.4332
 306  491.2641
 307  391.2694
 308  391.4286
 309  436.2937
 310  464.618
 311  491.828
 312  542.7556
 313  484.6678
 314  523.5875
 315  581.5134
 316  552.6255
 317  608.3141
 318  536.972
 319  435.2057
 320  545.6286
 321  534.2545
 322  466.1699
 323  430.1585
 324  511.6861
 325  467.9855
 326  497.1909
 327  430.9165
 328  581.2806
 329  612.8974
 330  542.7256
 331  501.3669
 332  581.093
 333  720.7723
 334  567.7415
 335  503.6385
 336  463.7689
 337  519.1199
 338  582.1547
 339  654.6945
 340  537.3907
 341  512.6021
 342  682.6683
 343  632.8707
 344  577.8224
 345  560.3082
 346  538.5873
 347  546.0507
 348  383.8084
 349  458.0991
 350  543.9837
 351  551.9271
 352  635.6247
 353  642.1135
 354  605.6874
 355  622.9232
 356  496.2387
 357  541.0984
 358  536.862
 359  661.392
 360  596.3695
 361  459.0561
 362  505.7821
 363  481.4321
 364  414.1885
 365  534.9633
 366  612.248
 367  564.9631
 368  548.7076
 369  487.2049
 370  560.0892
 371  502.8093
 372  581.1982
 373  567.327
 374  582.9697
 375  673.1544
 376  689.6628
 377  661.1548
 378  639.5306
 379  626.1312
 380  756.3951
 381  703.4462
 382  541.8574
 383  598.5674
 384  709.8669
 385  713.9092
 386  711.7421
 387  619.4319
 388  604.1226
 389  590.1529
 390  634.0905
 391  766.8283
 392  705.9536
 393  556.9045
 394  735.8058
 395  742.3926
 396  728.9752
 397  629.4876
 398  559.1148
 399  656.8564
 400  675.7833
 401  629.3573
 402  591.214
 403  688.1846
 404  714.826
 405  585.4707
 406  463.3519
 407  562.2425
 408  717.343
 409  840.5641
 410  721.6547
 411  518.9109
 412  555.3588
 413  535.8704
 414  625.3186
 415  681.5557
 416  702.6476
 417  644.536
 418  593.4168
 419  646.5825
 420  633.7528
 421  635.5098
 422  659.7838
 423  481.0607
 424  497.0622
 425  593.8904
 426  549.6162
 427  622.2033
 428  691.3546
 429  627.9077
 430  534.4282
 431  529.0145
 432  480.7207
 433  589.4935
 434  488.1945
 435  501.065
 436  416.1166
 437  497.2275
 438  555.9878
 439  554.2397
 440  588.0471
 441  559.502
 442  450.6467
 443  523.3102
 444  441.2505
 445  510.1824
 446  628.2611
 447  454.193
 448  569.4786
 449  626.6297
 450  434.7979
 451  430.0749
 452  350.7818
 453  347.3771
 454  373.7324
 455  407.4274
 456  492.7853
 457  359.9898
 458  335.9712
 459  390.6583
 460  366.992
 461  403.5952
 462  398.1029
 463  489.0479
 464  474.4452
 465  390.0628
 466  492.4539
 467  438.812
 468  394.3934
 469  473.8617
 470  480.3475
 471  473.7192
 472  465.0289
 473  452.9775
 474  486.1197
 475  387.578
 476  451.5719
 477  499.5996
 478  430.8991
 479  476.584
 480  546.0962
 481  520.7055
 482  446.2756
 483  535.7844
 484  456.2565
 485  696.5836
 486  676.2701
 487  488.2842
 488  464.6338
 489  535.2902
 490  489.2492
 491  416.7326
 492  539.0397
 493  568.7586
 494  425.1911
 495  448.459
 496  461.0256
 497  512.6734
 498  541.8001
 499  546.8135
 500  593.344
 501  490.0504
 502  562.3771
 503  605.5451
 504  591.5726
 505  608.9246
 506  565.3365
 507  703.0308
 508  763.3193
 509  798.1057
 510  976.5765
 511  1162.534
