# Input file       =  1202395033.118852_cleaned.dat
# Candidate        =  PSR_0332+5434
# Telescope        =  AR
# Epoch_topo       =  58160.608971283007
# Epoch_bary       =  N/A
# T_sample         =  0.002
# Data Folded      =  7340032
# Data Avg         =  0.0424869302110841
# Data StdDev      =  1.00009295069038 
# Profile Bins     =  512
# Profile Avg      =  609.13767287045  
# Profile StdDev   =  119.744165645159 
# Reduced chi-sqr  =  1.130
# Prob(Noise)      <  0.0222   (~2.0 sigma)
# P_topo (ms)      =  714.579332662957  +/- 0.000456
# P'_topo (s/s)    =  -0                +/- 2.41e-10
# P''_topo (s/s^2) =  0                 +/- 1.06e-13
# P_bary (ms)      =  N/A
# P'_bary (s/s)    =  N/A
# P''_bary (s/s^2) =  N/A
# P_orb (s)        =  N/A
# asin(i)/c (s)    =  N/A
# eccentricity     =  N/A
# w (rad)          =  N/A
# T_peri           =  N/A
######################################################
   0  1186.957
   1  1083.66
   2  940.1824
   3  827.7681
   4  779.2742
   5  790.6976
   6  796.2612
   7  693.5164
   8  590.7419
   9  684.3716
  10  659.5752
  11  701.0667
  12  615.2576
  13  567.2917
  14  650.6211
  15  673.6047
  16  679.77
  17  629.3113
  18  576.968
  19  552.1
  20  574.8958
  21  636.0993
  22  572.6225
  23  456.7594
  24  495.9249
  25  535.8334
  26  635.5159
  27  521.8597
  28  549.583
  29  627.5953
  30  702.2322
  31  596.2203
  32  522.0168
  33  509.2358
  34  622.1253
  35  606.8486
  36  574.9718
  37  615.9282
  38  556.9055
  39  553.2512
  40  535.2278
  41  623.2321
  42  640.3207
  43  597.0695
  44  645.3652
  45  661.1722
  46  696.8285
  47  630.8049
  48  626.3704
  49  592.1146
  50  557.5782
  51  689.7085
  52  666.8084
  53  605.7391
  54  559.8563
  55  479.0343
  56  476.3666
  57  559.5232
  58  520.7923
  59  563.7928
  60  533.002
  61  564.3229
  62  463.8448
  63  490.9987
  64  522.0724
  65  608.457
  66  505.3842
  67  528.4177
  68  509.5393
  69  492.1436
  70  493.6588
  71  589.3149
  72  633.093
  73  662.1185
  74  632.6188
  75  696.4205
  76  714.1954
  77  621.0654
  78  612.5739
  79  674.1276
  80  648.3611
  81  693.4813
  82  654.6024
  83  664.5655
  84  705.3544
  85  687.1743
  86  733.0402
  87  691.7152
  88  693.5857
  89  775.407
  90  786.5381
  91  696.1052
  92  739.5146
  93  648.9183
  94  659.9253
  95  649.7776
  96  669.7072
  97  614.5389
  98  556.5023
  99  552.2802
 100  603.6192
 101  557.2725
 102  714.189
 103  862.7941
 104  666.5521
 105  665.5947
 106  622.4825
 107  556.8521
 108  664.5108
 109  702.5906
 110  672.1867
 111  651.952
 112  584.6251
 113  488.2766
 114  392.7047
 115  585.1233
 116  759.3223
 117  643.2447
 118  611.6329
 119  599.8796
 120  515.4142
 121  530.2537
 122  518.7189
 123  504.6712
 124  476.9066
 125  530.008
 126  507.9099
 127  564.0568
 128  604.8793
 129  696.7
 130  711.3431
 131  645.2562
 132  525.3812
 133  547.8257
 134  497.4724
 135  558.6431
 136  640.6091
 137  652.8294
 138  573.1589
 139  598.0308
 140  608.8859
 141  554.1741
 142  659.04
 143  745.0229
 144  724.3417
 145  535.2888
 146  573.5443
 147  604.3003
 148  622.1972
 149  576.214
 150  590.7939
 151  475.8633
 152  500.0644
 153  580.6523
 154  597.4937
 155  460.2439
 156  383.7236
 157  510.8186
 158  535.1792
 159  613.6061
 160  505.6073
 161  561.4252
 162  537.7195
 163  524.5494
 164  517.4227
 165  467.7695
 166  491.084
 167  500.9448
 168  568.5656
 169  623.0591
 170  634.5953
 171  621.5786
 172  544.8761
 173  549.8051
 174  585.8892
 175  667.8181
 176  633.8145
 177  537.8477
 178  562.8013
 179  616.6477
 180  466.2207
 181  413.6099
 182  490.1038
 183  457.8881
 184  449.5275
 185  554.2527
 186  577.7483
 187  643.5841
 188  552.1263
 189  661.5356
 190  541.0839
 191  424.3682
 192  553.9721
 193  533.1895
 194  584.5483
 195  565.5687
 196  552.3473
 197  566.2853
 198  535.5826
 199  516.5278
 200  509.9427
 201  612.7578
 202  619.068
 203  512.2413
 204  594.026
 205  689.1298
 206  606.3788
 207  666.1658
 208  591.5611
 209  547.5799
 210  636.6031
 211  719.2379
 212  663.4993
 213  647.4092
 214  647.95
 215  618.9592
 216  700.4804
 217  787.2988
 218  702.6049
 219  536.4754
 220  610.3186
 221  692.8284
 222  688.5776
 223  674.3126
 224  529.3267
 225  577.9078
 226  659.9903
 227  636.2703
 228  638.4773
 229  619.0176
 230  567.8991
 231  555.8872
 232  556.8719
 233  655.7469
 234  692.7557
 235  665.1131
 236  709.2707
 237  694.2894
 238  617.3896
 239  615.5665
 240  701.6942
 241  712.7307
 242  670.0462
 243  723.8348
 244  640.7494
 245  656.9573
 246  746.9446
 247  648.8488
 248  640.2311
 249  566.8752
 250  702.9504
 251  791.0903
 252  779.1214
 253  724.3312
 254  657.2727
 255  705.9886
 256  655.9653
 257  664.5529
 258  656.5564
 259  686.1777
 260  670.7709
 261  647.8381
 262  638.7352
 263  599.1351
 264  706.7892
 265  664.0065
 266  599.1816
 267  622.9941
 268  622.3269
 269  599.4125
 270  590.6396
 271  546.0197
 272  564.0094
 273  670.8746
 274  668.0671
 275  535.6033
 276  629.076
 277  652.915
 278  603.4225
 279  623.7177
 280  607.2757
 281  612.7549
 282  742.2547
 283  729.832
 284  616.4935
 285  604.9404
 286  540.6928
 287  577.4841
 288  677.8774
 289  644.7404
 290  621.9211
 291  581.5553
 292  603.4489
 293  627.5825
 294  602.7633
 295  646.8828
 296  518.4175
 297  631.2764
 298  540.4063
 299  563.5401
 300  691.4828
 301  704.9707
 302  732.9986
 303  643.4377
 304  613.747
 305  606.525
 306  560.7891
 307  571.7469
 308  703.0993
 309  753.9307
 310  678.2007
 311  576.5096
 312  560.1648
 313  715.5523
 314  684.6215
 315  644.0856
 316  557.0173
 317  551.7066
 318  487.0719
 319  502.7055
 320  510.2262
 321  510.9886
 322  527.8185
 323  652.0295
 324  712.3793
 325  739.0685
 326  619.9289
 327  624.0635
 328  602.928
 329  635.7014
 330  667.4894
 331  521.2662
 332  525.5212
 333  548.9606
 334  592.9057
 335  617.0884
 336  549.2125
 337  583.0336
 338  622.6743
 339  652.6088
 340  562.11
 341  522.1816
 342  589.9598
 343  670.1699
 344  609.8418
 345  583.941
 346  536.9167
 347  478.8642
 348  490.8127
 349  550.4127
 350  553.2759
 351  563.869
 352  540.35
 353  567.117
 354  441.5839
 355  463.0628
 356  510.232
 357  547.5534
 358  515.9914
 359  477.8205
 360  501.9861
 361  585.6036
 362  545.6212
 363  408.2533
 364  466.7408
 365  489.4772
 366  540.2702
 367  553.0253
 368  603.7643
 369  578.5198
 370  570.169
 371  584.6481
 372  592.5071
 373  534.7032
 374  627.892
 375  727.3008
 376  729.5685
 377  784.6234
 378  728.8826
 379  699.3799
 380  589.4456
 381  631.5611
 382  657.8394
 383  696.942
 384  649.055
 385  649.8631
 386  673.9941
 387  550.4097
 388  557.4167
 389  635.9433
 390  631.7581
 391  563.1279
 392  555.2734
 393  723.3197
 394  665.5154
 395  598.67
 396  633.4882
 397  625.4777
 398  563.2918
 399  546.6615
 400  575.6383
 401  599.4335
 402  600.6161
 403  530.3876
 404  510.5834
 405  616.1177
 406  628.5724
 407  557.7437
 408  555.7205
 409  635.7471
 410  602.4993
 411  569.4212
 412  668.3325
 413  570.8684
 414  462.4067
 415  552.3032
 416  541.7484
 417  593.569
 418  667.9744
 419  693.2753
 420  651.8213
 421  675.871
 422  648.9485
 423  618.4707
 424  720.6718
 425  681.9776
 426  621.8935
 427  599.5149
 428  643.5806
 429  612.6049
 430  641.8815
 431  650.2582
 432  625.1743
 433  678.4637
 434  612.5862
 435  603.6394
 436  734.9561
 437  611.0697
 438  610.3853
 439  634.8738
 440  691.7281
 441  626.4681
 442  644.0471
 443  612.8844
 444  615.6574
 445  642.0004
 446  632.4809
 447  542.5519
 448  520.9409
 449  582.9708
 450  485.865
 451  562.9976
 452  644.8463
 453  533.8098
 454  463.849
 455  592.0613
 456  596.509
 457  547.5623
 458  579.2503
 459  617.9592
 460  656.9273
 461  658.8564
 462  635.3329
 463  554.9045
 464  605.2327
 465  659.1496
 466  586.0384
 467  630.0261
 468  639.3149
 469  567.8921
 470  605.0545
 471  653.5499
 472  446.5383
 473  339.7352
 474  485.5451
 475  535.9704
 476  556.6211
 477  515.9441
 478  460.6898
 479  498.6547
 480  466.0356
 481  518.8197
 482  566.3735
 483  531.6658
 484  412.4678
 485  548.3375
 486  594.6315
 487  419.2318
 488  446.7299
 489  543.8866
 490  645.2352
 491  575.3965
 492  605.9359
 493  583.9834
 494  659.186
 495  614.2858
 496  567.9639
 497  527.2988
 498  515.3444
 499  586.6384
 500  593.5566
 501  719.3468
 502  731.0082
 503  672.5923
 504  691.1605
 505  765.5737
 506  778.4213
 507  663.5593
 508  757.7519
 509  906.8288
 510  1048.367
 511  1156.356
