# Input file       =  1203343110.089843_cleaned.dat
# Candidate        =  PSR_0332+5434
# Telescope        =  AR
# Epoch_topo       =  58171.582084373185
# Epoch_bary       =  N/A
# T_sample         =  0.002
# Data Folded      =  7340032
# Data Avg         =  0.0792051091027943
# Data StdDev      =  1.00041328825954 
# Profile Bins     =  512
# Profile Avg      =  1135.57090669854 
# Profile StdDev   =  119.78252063498  
# Reduced chi-sqr  =  1.522
# Prob(Noise)      <  2.19e-13   (~7.2 sigma)
# P_topo (ms)      =  714.580729002271  +/- 0.000861
# P'_topo (s/s)    =  -0                +/- 4.54e-10
# P''_topo (s/s^2) =  0                 +/- 2.01e-13
# P_bary (ms)      =  N/A
# P'_bary (s/s)    =  N/A
# P''_bary (s/s^2) =  N/A
# P_orb (s)        =  N/A
# asin(i)/c (s)    =  N/A
# eccentricity     =  N/A
# w (rad)          =  N/A
# T_peri           =  N/A
######################################################
   0  1558.834
   1  1572.19
   2  1535.01
   3  1481.774
   4  1460.715
   5  1264.484
   6  1292.005
   7  1338.366
   8  1338.039
   9  1308.647
  10  1229.018
  11  1173.525
  12  1225.626
  13  1208.624
  14  1265.447
  15  1324.402
  16  1256.962
  17  1259.715
  18  1310.219
  19  1274.034
  20  1228.875
  21  1214.748
  22  1195.413
  23  1152.72
  24  1228.47
  25  1169.886
  26  1195.91
  27  1111.089
  28  1144.14
  29  1092.015
  30  1132.585
  31  1187.181
  32  1169.144
  33  1113.788
  34  1193.813
  35  1158.454
  36  1116.299
  37  1199.814
  38  1179.159
  39  1137.129
  40  1189.782
  41  1170.45
  42  1143.488
  43  1130.086
  44  1156.086
  45  1147.842
  46  1107.358
  47  1092.405
  48  1123.465
  49  1088.387
  50  1058.25
  51  1143.668
  52  1159.682
  53  1172.557
  54  1151.926
  55  1153.261
  56  1224.324
  57  1219.659
  58  1159.776
  59  1172.909
  60  1258
  61  1292.511
  62  1245.764
  63  1173.1
  64  1287.392
  65  1259.454
  66  1196.781
  67  1186.346
  68  1249.545
  69  1230.688
  70  1176.642
  71  1201.244
  72  1198.801
  73  1198.069
  74  1167.945
  75  1165.418
  76  1106.883
  77  1085.599
  78  1103.344
  79  1105.109
  80  1108.08
  81  1100.074
  82  1026.305
  83  948.1769
  84  1062.567
  85  1113.108
  86  1074.72
  87  1006.387
  88  985.1047
  89  993.9911
  90  1019.757
  91  973.2451
  92  1023.083
  93  1068.723
  94  1071.162
  95  1024.638
  96  982.0013
  97  1006.145
  98  1031.732
  99  1013.598
 100  1043.961
 101  1062.438
 102  1079.46
 103  1071.926
 104  1074.773
 105  1092.703
 106  1073.85
 107  1086.084
 108  1146.454
 109  1083.111
 110  1091.354
 111  1079.083
 112  1132.136
 113  1143.291
 114  1079.864
 115  1028.67
 116  1019.472
 117  1038.296
 118  1113.845
 119  1038.444
 120  983.272
 121  1080.883
 122  1092.62
 123  1054.435
 124  975.4318
 125  945.1457
 126  954.1184
 127  1007.128
 128  1090.281
 129  1130.318
 130  1102.502
 131  1079.676
 132  995.0928
 133  1029.973
 134  1095.708
 135  1116.618
 136  1101.441
 137  1102.033
 138  999.5775
 139  1012.64
 140  1081.532
 141  1096.124
 142  1079.833
 143  1058.246
 144  1031.521
 145  1023.968
 146  1036.966
 147  1049.875
 148  988.463
 149  1027.102
 150  1084.446
 151  1019.365
 152  1018.973
 153  997.4005
 154  1007.579
 155  1012.721
 156  1031.176
 157  1086.412
 158  1043.8
 159  898.9414
 160  1001.346
 161  1072.492
 162  1038.095
 163  1074.961
 164  1082.83
 165  1013.831
 166  1084.441
 167  1124.494
 168  1135.348
 169  1093.49
 170  1048.304
 171  1163.529
 172  1172.839
 173  1129.721
 174  1115.429
 175  1107.627
 176  1130.12
 177  1121.224
 178  1130.551
 179  1104.062
 180  1057.214
 181  1097.698
 182  1114.644
 183  1147.025
 184  1077.265
 185  1014.621
 186  1016.531
 187  1037.21
 188  1168.426
 189  1142.159
 190  1124.434
 191  1178.668
 192  1119.036
 193  1085.297
 194  1061.981
 195  1037.319
 196  1079.949
 197  1042.128
 198  1035.2
 199  1019.255
 200  1006.026
 201  1003.376
 202  1006.024
 203  1060.531
 204  1148.192
 205  1089.549
 206  1091.367
 207  1053.392
 208  1189.899
 209  1187.734
 210  1151.45
 211  1163.602
 212  1172.032
 213  1129.096
 214  1087.326
 215  1058.75
 216  1020.129
 217  1067.15
 218  922.3792
 219  962.8069
 220  1029.898
 221  1074.396
 222  995.3737
 223  1064.518
 224  1094.195
 225  1112.616
 226  1036.712
 227  1064.09
 228  1046.314
 229  957.1989
 230  994.5952
 231  1076.604
 232  1060.984
 233  1004.988
 234  935.2629
 235  1000.716
 236  1023.177
 237  1043.768
 238  1069.428
 239  997.2248
 240  1048.086
 241  1059.316
 242  1033.321
 243  1087.972
 244  1118.053
 245  1060.572
 246  1020.765
 247  1062.527
 248  1010.714
 249  973.7885
 250  971.3874
 251  1025.531
 252  1077.636
 253  1107.719
 254  1081.322
 255  983.7357
 256  984.9241
 257  1050.147
 258  1021.471
 259  1051.675
 260  1008.782
 261  1085.092
 262  1070.957
 263  1077.203
 264  1093.767
 265  1106.545
 266  1124.548
 267  1103.728
 268  1169.539
 269  1153.86
 270  1159.05
 271  1118.973
 272  1096.032
 273  1057.088
 274  1115.107
 275  1147.093
 276  1115
 277  1086.719
 278  1118.87
 279  1085.681
 280  1115.038
 281  1058.889
 282  1070.244
 283  1145.806
 284  1140.4
 285  1113.846
 286  1123.268
 287  1097.646
 288  1086.535
 289  1083.771
 290  1015.631
 291  1103.071
 292  1167.378
 293  1226.036
 294  1133.335
 295  1073.365
 296  1086.213
 297  1170.358
 298  1131.167
 299  1096.297
 300  1089.127
 301  1101.174
 302  1050.592
 303  1080.054
 304  1110.167
 305  1138.382
 306  1260.278
 307  1246.91
 308  1236.72
 309  1210.948
 310  1209.943
 311  1149.13
 312  1182.509
 313  1264.854
 314  1253.344
 315  1233.114
 316  1235.984
 317  1146.111
 318  1180.987
 319  1208.911
 320  1162.121
 321  1104.498
 322  1105.795
 323  1131.687
 324  1144.513
 325  1221.984
 326  1186.788
 327  1227.442
 328  1128.944
 329  1075.182
 330  1148.404
 331  1113.494
 332  1070.055
 333  1070.843
 334  1127.983
 335  1056.08
 336  1067.727
 337  1045.807
 338  987.4192
 339  949.6179
 340  1000.006
 341  1143.425
 342  1124.487
 343  1087.926
 344  1093.381
 345  1068.716
 346  1034.227
 347  1099.103
 348  1096.865
 349  1131.901
 350  1214.085
 351  1150.279
 352  1103.488
 353  985.6855
 354  1045.56
 355  1153.79
 356  1088.105
 357  1058.651
 358  1093.719
 359  1089.203
 360  1126.079
 361  1049.896
 362  1101.415
 363  1104.984
 364  1155.693
 365  1159.136
 366  1168.208
 367  1145.734
 368  1087.985
 369  1148.574
 370  1170.91
 371  1126.96
 372  1034.493
 373  1128.723
 374  1241.054
 375  1183.844
 376  1177.222
 377  1223.634
 378  1224.22
 379  1210.294
 380  1143.452
 381  1131.58
 382  1181.92
 383  1157.594
 384  1182.793
 385  1149.19
 386  1176.579
 387  1160.436
 388  1143.074
 389  1144.278
 390  1130.487
 391  1085.036
 392  1125.765
 393  1241.012
 394  1235.836
 395  1249.22
 396  1242.654
 397  1187.412
 398  1185.417
 399  1239.668
 400  1246.412
 401  1169.715
 402  1213.604
 403  1292.015
 404  1223.444
 405  1117.715
 406  1153.634
 407  1191.12
 408  1170.048
 409  1096.436
 410  1186.365
 411  1261.388
 412  1260.837
 413  1218.875
 414  1149.682
 415  1153.145
 416  1105.865
 417  1092.165
 418  1110.937
 419  1227.37
 420  1225.417
 421  1176.391
 422  1118.419
 423  1111.052
 424  1067.45
 425  1077.427
 426  1113.849
 427  1091.412
 428  1102.854
 429  1091.683
 430  1108.587
 431  1103.577
 432  1089.069
 433  1068.955
 434  993.4584
 435  971.0538
 436  1045.468
 437  1130.551
 438  1133.24
 439  1024.419
 440  1004.266
 441  1017.522
 442  1100.422
 443  1083.627
 444  1072.49
 445  1153.624
 446  1146.472
 447  1128.147
 448  1035.451
 449  1010.677
 450  1087.384
 451  1113.287
 452  1112.221
 453  1177.552
 454  1207.795
 455  1168.498
 456  1175.952
 457  1130.675
 458  1154.903
 459  1157.633
 460  1219.495
 461  1244.174
 462  1257.812
 463  1224.828
 464  1203.626
 465  1167.301
 466  1135.321
 467  1216.271
 468  1192.134
 469  1136.654
 470  1194.556
 471  1126.468
 472  1175.299
 473  1167.685
 474  1150.307
 475  1194.632
 476  1218.582
 477  1223.381
 478  1213.551
 479  1168.502
 480  1265.381
 481  1328.634
 482  1364.068
 483  1417.601
 484  1430.876
 485  1399.403
 486  1401.07
 487  1340.715
 488  1378.173
 489  1307.814
 490  1359.675
 491  1422.459
 492  1467.176
 493  1470.802
 494  1420.308
 495  1357.116
 496  1363.945
 497  1411.661
 498  1362.174
 499  1279.301
 500  1270.344
 501  1231.991
 502  1270.958
 503  1346.274
 504  1390.418
 505  1416.707
 506  1437.902
 507  1356.844
 508  1323.145
 509  1381.603
 510  1536.756
 511  1602.367
