# Input file       =  1203931188.137021_cleaned.dat
# Candidate        =  PSR_0332+5434
# Telescope        =  AR
# Epoch_topo       =  58178.388543252557
# Epoch_bary       =  N/A
# T_sample         =  0.002
# Data Folded      =  7274496
# Data Avg         =  0.0831664899135389
# Data StdDev      =  0.999977709949656
# Profile Bins     =  512
# Profile Avg      =  1181.62746292597 
# Profile StdDev   =  119.19465849185  
# Reduced chi-sqr  =  1.536
# Prob(Noise)      <  6.54e-14   (~7.4 sigma)
# P_topo (ms)      =  714.580455686734  +/- 2.11e-05
# P'_topo (s/s)    =  -0                +/- 1.12e-11
# P''_topo (s/s^2) =  0                 +/- 5.01e-15
# P_bary (ms)      =  N/A
# P'_bary (s/s)    =  N/A
# P''_bary (s/s^2) =  N/A
# P_orb (s)        =  N/A
# asin(i)/c (s)    =  N/A
# eccentricity     =  N/A
# w (rad)          =  N/A
# T_peri           =  N/A
######################################################
   0  1306.092
   1  1272.283
   2  1410.871
   3  1487.055
   4  1340.264
   5  1204.33
   6  1149.478
   7  1260.519
   8  1232.452
   9  1107.231
  10  1170.2
  11  1313.251
  12  1195.632
  13  1084.757
  14  1042.745
  15  1161.682
  16  1163.285
  17  1156.224
  18  1170.717
  19  1322.122
  20  1354.373
  21  1328.305
  22  1324.696
  23  1280.29
  24  1317.796
  25  1178.612
  26  1184.742
  27  1294.665
  28  1274.863
  29  1144.568
  30  1029.134
  31  1059.958
  32  1170.521
  33  1133.87
  34  1178.759
  35  1243.538
  36  1307.227
  37  1241.611
  38  1186.809
  39  1252.99
  40  1368.775
  41  1429.302
  42  1250.365
  43  1247.933
  44  1358.188
  45  1241.508
  46  1077.103
  47  1000.927
  48  1137.54
  49  1181.934
  50  1091.914
  51  1211.101
  52  1327.663
  53  1390.324
  54  1315.678
  55  1200.055
  56  1259.387
  57  1333.896
  58  1276.506
  59  1187.639
  60  1262.108
  61  1285.666
  62  1075.592
  63  981.8079
  64  1002.819
  65  1096.481
  66  1158.981
  67  1092.452
  68  1212.128
  69  1351.452
  70  1322.529
  71  1205.813
  72  1155.879
  73  1248.883
  74  1247.476
  75  1174.927
  76  1252.008
  77  1288.953
  78  1240.329
  79  982.7359
  80  992.0719
  81  1093.242
  82  1133.446
  83  1126.768
  84  1136.414
  85  1268.207
  86  1333.504
  87  1258.158
  88  1145.599
  89  1225.576
  90  1357.788
  91  1184.429
  92  1124.339
  93  1174.746
  94  1267.495
  95  1123.881
  96  1026.193
  97  1013.121
  98  1207.689
  99  1187.965
 100  1092.699
 101  1181.855
 102  1306.089
 103  1323.01
 104  1178.676
 105  1186.205
 106  1211.458
 107  1250.091
 108  1167.395
 109  1169.358
 110  1188.889
 111  1168.14
 112  1070.916
 113  1049.702
 114  1065.601
 115  1217.173
 116  1154.439
 117  1200.347
 118  1272.025
 119  1306.784
 120  1301.739
 121  1213.965
 122  1233.869
 123  1194.951
 124  1225.969
 125  1099.101
 126  1137.114
 127  1232.4
 128  1080.267
 129  988.6422
 130  952.439
 131  1105.349
 132  1145.325
 133  1103.986
 134  1196.36
 135  1268.771
 136  1298.882
 137  1146.819
 138  1082.159
 139  1215.13
 140  1295.702
 141  1136.804
 142  1122.382
 143  1234.919
 144  1241.381
 145  951.1874
 146  854.1465
 147  983.5932
 148  1140.844
 149  1209.24
 150  1152.139
 151  1269.779
 152  1348.895
 153  1277.964
 154  1216.187
 155  1142.423
 156  1211.558
 157  1175.602
 158  1082.701
 159  1116.993
 160  1154.058
 161  1057.672
 162  925.8516
 163  937.8742
 164  1044.8
 165  1036.864
 166  1075.646
 167  1086.387
 168  1273.213
 169  1306.976
 170  1136.465
 171  1130.842
 172  1220.714
 173  1220.235
 174  1051.177
 175  1054.79
 176  1174.39
 177  1226.605
 178  1115.711
 179  956.4561
 180  1046.851
 181  1135.275
 182  1191.246
 183  1151.677
 184  1193.088
 185  1267.802
 186  1230.821
 187  1239.336
 188  1210.479
 189  1257.044
 190  1285.443
 191  1218.492
 192  1185.906
 193  1275.606
 194  1119.062
 195  1012.939
 196  948.8753
 197  1081.22
 198  1070.68
 199  1046.256
 200  1168.71
 201  1293.211
 202  1302.887
 203  1180.965
 204  1240.752
 205  1266.252
 206  1251.574
 207  1161.286
 208  1100.284
 209  1137.487
 210  1119.423
 211  1019.696
 212  910.8311
 213  1049.139
 214  1177.343
 215  1144.533
 216  1035.67
 217  1163.79
 218  1208.575
 219  1075.922
 220  1110.302
 221  1197.891
 222  1386.222
 223  1301.954
 224  1088.441
 225  1205.986
 226  1223.484
 227  1083.78
 228  910.7736
 229  928.2258
 230  1127.396
 231  1090.486
 232  1143.618
 233  1192.495
 234  1362.458
 235  1296.51
 236  1112.228
 237  1086.419
 238  1258.288
 239  1347.61
 240  1109.073
 241  1050.162
 242  1223.063
 243  1241.118
 244  1098.788
 245  948.4768
 246  1167.158
 247  1189.458
 248  1071.209
 249  1121.042
 250  1224.156
 251  1376.043
 252  1247.77
 253  1106.862
 254  1072.497
 255  1162.423
 256  1129.04
 257  1129.295
 258  1202.675
 259  1164.445
 260  1122.126
 261  929.6356
 262  858.814
 263  975.0858
 264  1051.424
 265  1132.28
 266  1224.689
 267  1330.698
 268  1303.014
 269  1219.007
 270  1208.258
 271  1184.861
 272  1262.514
 273  1196.036
 274  1070.884
 275  1187.583
 276  1312.258
 277  1116.5
 278  1026.201
 279  1140.296
 280  1169.756
 281  1143.072
 282  1034.337
 283  1235.871
 284  1358.642
 285  1338.725
 286  1222.39
 287  1313.755
 288  1387.186
 289  1292
 290  1216.608
 291  1187.815
 292  1312.491
 293  1154.311
 294  966.8256
 295  1026.503
 296  1088.581
 297  1206.096
 298  1212.923
 299  1246.535
 300  1365.99
 301  1328.833
 302  1258.393
 303  1233.751
 304  1294.431
 305  1369.208
 306  1273.485
 307  1169.26
 308  1232.016
 309  1346.488
 310  1083.097
 311  1030.495
 312  1054.445
 313  1081.423
 314  1094.269
 315  1098.071
 316  1220.29
 317  1297.509
 318  1230.399
 319  1160.177
 320  1215.22
 321  1344.644
 322  1261.537
 323  1140.913
 324  1224.822
 325  1240.862
 326  1132.496
 327  942.572
 328  906.1769
 329  1111.194
 330  1172.393
 331  1155.441
 332  1220.682
 333  1324.57
 334  1336.483
 335  1201.336
 336  1204.058
 337  1246.783
 338  1216.91
 339  1172.618
 340  1158.019
 341  1260.86
 342  1278.467
 343  1116
 344  965.0578
 345  1072.222
 346  1134.509
 347  1139.236
 348  1204.522
 349  1257.013
 350  1349.654
 351  1277.85
 352  1184.882
 353  1271.651
 354  1315.974
 355  1250.997
 356  1174.494
 357  1242.38
 358  1252.5
 359  1152.605
 360  956.5349
 361  987.9059
 362  1120.716
 363  1082
 364  1066.769
 365  1169.094
 366  1211.437
 367  1240.76
 368  1226.004
 369  1197.984
 370  1271.92
 371  1367.898
 372  1208.915
 373  1134.481
 374  1195.788
 375  1220.173
 376  1096.012
 377  934.3547
 378  1001.931
 379  1090.531
 380  1194.973
 381  1132.629
 382  1233.719
 383  1391.449
 384  1337.491
 385  1225.014
 386  1262.41
 387  1310.556
 388  1291.509
 389  1172.174
 390  1156.981
 391  1228.81
 392  1167.772
 393  1005.143
 394  992.4596
 395  1105.449
 396  1121.523
 397  1159.468
 398  1212.292
 399  1277.286
 400  1350.483
 401  1263.283
 402  1218.356
 403  1250.96
 404  1246.36
 405  1126.328
 406  1099.79
 407  1191.99
 408  1187.985
 409  969.4585
 410  935.6884
 411  998.6388
 412  1134.821
 413  1135.925
 414  1167.006
 415  1247.569
 416  1348.5
 417  1274.162
 418  1115.387
 419  1154.506
 420  1294.072
 421  1311.306
 422  1182.019
 423  1198.609
 424  1344.483
 425  1224.339
 426  976.9052
 427  923.9347
 428  1058.973
 429  1145.012
 430  1075.813
 431  1077.973
 432  1233.465
 433  1336.534
 434  1293.357
 435  1237.114
 436  1226.896
 437  1285.423
 438  1177.449
 439  1055.121
 440  1234.485
 441  1278.19
 442  1147.057
 443  1042.171
 444  1053.502
 445  1152.25
 446  1218.498
 447  1160.236
 448  1288.837
 449  1381.006
 450  1314.169
 451  1236.844
 452  1222.347
 453  1328.45
 454  1333.663
 455  1229.594
 456  1243.424
 457  1259.908
 458  1265.896
 459  1122.654
 460  976.6159
 461  1157.615
 462  1172.245
 463  1102.313
 464  1097.414
 465  1290.665
 466  1388.191
 467  1204.63
 468  1222.437
 469  1253.03
 470  1301.911
 471  1217.9
 472  1142.358
 473  1244.09
 474  1151.705
 475  1007.649
 476  971.5291
 477  1036.308
 478  1192.953
 479  1247.773
 480  1130.133
 481  1186.099
 482  1278.452
 483  1216.353
 484  1098.472
 485  1167.171
 486  1318.317
 487  1278.941
 488  1153.709
 489  1164.671
 490  1286.082
 491  1272.589
 492  1082.97
 493  973.8861
 494  1072.446
 495  1156.864
 496  1111.89
 497  1155.445
 498  1295.555
 499  1286.374
 500  1229.015
 501  1139.448
 502  1230.11
 503  1249.818
 504  1183.983
 505  1259.224
 506  1303.687
 507  1337.326
 508  1198.312
 509  1136.659
 510  1140.066
 511  1204.243
