# Input file       =  1203931188.137021_cleaned.dat
# Candidate        =  PSR_0332+5434
# Telescope        =  AR
# Epoch_topo       =  58178.388543252557
# Epoch_bary       =  N/A
# T_sample         =  0.002
# Data Folded      =  7274496
# Data Avg         =  0.0831664899135389
# Data StdDev      =  0.999977709949656
# Profile Bins     =  512
# Profile Avg      =  1181.62746301961 
# Profile StdDev   =  119.19465849185  
# Reduced chi-sqr  =  1.538
# Prob(Noise)      <  5.23e-14   (~7.4 sigma)
# P_topo (ms)      =  714.580455754165  +/- 2.11e-05
# P'_topo (s/s)    =  -0                +/- 1.12e-11
# P''_topo (s/s^2) =  0                 +/- 4.99e-15
# P_bary (ms)      =  N/A
# P'_bary (s/s)    =  N/A
# P''_bary (s/s^2) =  N/A
# P_orb (s)        =  N/A
# asin(i)/c (s)    =  N/A
# eccentricity     =  N/A
# w (rad)          =  N/A
# T_peri           =  N/A
######################################################
   0  1286.005
   1  1330.793
   2  1486.963
   3  1409.147
   4  1265.144
   5  1156.803
   6  1205.256
   7  1278.412
   8  1136.317
   9  1120.037
  10  1269.252
  11  1284.536
  12  1105.253
  13  1050.468
  14  1102.267
  15  1188.474
  16  1159.182
  17  1134.665
  18  1250.732
  19  1356.911
  20  1352.514
  21  1322.603
  22  1286.233
  23  1303.105
  24  1268.058
  25  1144.849
  26  1267.284
  27  1281.572
  28  1201.29
  29  1074.578
  30  1032.702
  31  1139.307
  32  1144.612
  33  1142.948
  34  1210.511
  35  1304.831
  36  1278.356
  37  1186.832
  38  1213.654
  39  1320.306
  40  1444.971
  41  1339.324
  42  1201.541
  43  1320.398
  44  1318.91
  45  1149.419
  46  1017.333
  47  1052.765
  48  1195.581
  49  1120.349
  50  1139.366
  51  1296.441
  52  1350.455
  53  1372.065
  54  1230.653
  55  1229.098
  56  1313.008
  57  1305.503
  58  1221.528
  59  1211.649
  60  1316.334
  61  1181.549
  62  977.3722
  63  980.8624
  64  1053.31
  65  1154.573
  66  1133.545
  67  1113.312
  68  1321.822
  69  1342.983
  70  1283.191
  71  1146.142
  72  1202.308
  73  1263.983
  74  1193.338
  75  1219.88
  76  1268.083
  77  1295.548
  78  1081.806
  79  964.814
  80  1064.017
  81  1113.15
  82  1119.326
  83  1129.353
  84  1193.558
  85  1343.376
  86  1298.687
  87  1182.074
  88  1162.158
  89  1326.622
  90  1288.359
  91  1121.017
  92  1134.165
  93  1250.888
  94  1193.487
  95  1076.065
  96  980.5582
  97  1115.639
  98  1229.249
  99  1115.81
 100  1146.41
 101  1239.614
 102  1355.416
 103  1223.241
 104  1181.601
 105  1204.087
 106  1246.225
 107  1194.82
 108  1142.168
 109  1194.511
 110  1192.607
 111  1120.83
 112  1051.666
 113  1025.941
 114  1177.988
 115  1187.316
 116  1173.436
 117  1222.94
 118  1296.328
 119  1317.664
 120  1256.301
 121  1219.61
 122  1202.644
 123  1212.851
 124  1173.072
 125  1099.021
 126  1208.062
 127  1151.364
 128  1004.938
 129  969.9179
 130  1023.445
 131  1169.268
 132  1092.115
 133  1144.583
 134  1256.671
 135  1291.098
 136  1232.569
 137  1064.027
 138  1151.834
 139  1301.804
 140  1213.435
 141  1108.281
 142  1170.143
 143  1276.665
 144  1098.599
 145  849.1487
 146  920.435
 147  1058.854
 148  1206.574
 149  1176.862
 150  1202.275
 151  1337.374
 152  1301.303
 153  1254.917
 154  1165.606
 155  1172.46
 156  1206.912
 157  1106.745
 158  1093.464
 159  1157.078
 160  1122.55
 161  969.6696
 162  890.7422
 163  1013.837
 164  1049.757
 165  1058.691
 166  1076.827
 167  1163.298
 168  1346.267
 169  1213.797
 170  1113.83
 171  1163.958
 172  1250.022
 173  1117.074
 174  1029.273
 175  1141.321
 176  1208.359
 177  1191.177
 178  989.3395
 179  1008.815
 180  1100.324
 181  1171.558
 182  1154.964
 183  1162.392
 184  1251.932
 185  1268.678
 186  1220.322
 187  1216.073
 188  1234.581
 189  1285.118
 190  1275.841
 191  1153.393
 192  1254.307
 193  1186.673
 194  1080.364
 195  947.0123
 196  1026.346
 197  1074.479
 198  1049.562
 199  1106.752
 200  1258.367
 201  1318.699
 202  1213.151
 203  1206.159
 204  1269.882
 205  1272.385
 206  1200.776
 207  1099.562
 208  1120.019
 209  1131.015
 210  1109.519
 211  905.866
 212  980.6987
 213  1130.786
 214  1195.946
 215  1064.742
 216  1075.372
 217  1227.935
 218  1124.133
 219  1088.056
 220  1146.316
 221  1295.594
 222  1395.942
 223  1149.982
 224  1151.25
 225  1229.443
 226  1162.281
 227  964.6129
 228  894.5323
 229  1057.003
 230  1117.842
 231  1102.571
 232  1155.672
 233  1309.583
 234  1352.572
 235  1194.395
 236  1040.341
 237  1183.458
 238  1348.882
 239  1243.388
 240  1030.229
 241  1136.02
 242  1256.446
 243  1182.403
 244  992.3448
 245  1041.522
 246  1229.607
 247  1092.653
 248  1094
 249  1180.077
 250  1313.285
 251  1336.427
 252  1129.665
 253  1094.102
 254  1118.98
 255  1173.249
 256  1095.701
 257  1178.857
 258  1192.473
 259  1149.506
 260  1030.519
 261  838.1863
 262  927.3161
 263  1023.818
 264  1100.434
 265  1173.686
 266  1292.526
 267  1325.814
 268  1258.219
 269  1217.152
 270  1189.953
 271  1221.87
 272  1252.004
 273  1096.516
 274  1124.424
 275  1288.439
 276  1230.147
 277  1013.759
 278  1085.896
 279  1181.9
 280  1153.865
 281  1082.73
 282  1092.268
 283  1355.216
 284  1362.544
 285  1257.505
 286  1248.364
 287  1377.28
 288  1348.942
 289  1243.674
 290  1188.857
 291  1248.053
 292  1267.374
 293  1029.852
 294  990.6301
 295  1059.244
 296  1144.323
 297  1224.455
 298  1217.384
 299  1326.899
 300  1364.931
 301  1268.022
 302  1245.291
 303  1256.867
 304  1356.426
 305  1323.693
 306  1198.381
 307  1167.509
 308  1349.851
 309  1215.217
 310  1014.019
 311  1038.446
 312  1069.156
 313  1115.417
 314  1068.144
 315  1166.238
 316  1266.97
 317  1272.895
 318  1200.483
 319  1164.224
 320  1309.298
 321  1310.33
 322  1172.858
 323  1171.024
 324  1274.114
 325  1179.885
 326  1018.858
 327  883.7015
 328  1031.072
 329  1172.899
 330  1148.254
 331  1170.06
 332  1277.545
 333  1367.732
 334  1261.067
 335  1179.003
 336  1235.256
 337  1227.322
 338  1214.048
 339  1139.862
 340  1219.4
 341  1281.649
 342  1198.882
 343  1019.625
 344  996.4376
 345  1142.382
 346  1107.654
 347  1188.734
 348  1235.418
 349  1320.441
 350  1327.62
 351  1199.33
 352  1213.264
 353  1320.712
 354  1284.311
 355  1198.637
 356  1194.772
 357  1269.889
 358  1209.798
 359  1051.455
 360  922.2935
 361  1076.397
 362  1106.529
 363  1071.928
 364  1121.477
 365  1205.978
 366  1215.627
 367  1245.508
 368  1210.093
 369  1218.989
 370  1352.464
 371  1270.088
 372  1158.587
 373  1165.126
 374  1233.635
 375  1168.19
 376  970.637
 377  975.6148
 378  1048.544
 379  1165.675
 380  1155.704
 381  1150.828
 382  1351.179
 383  1381.792
 384  1269.621
 385  1202.147
 386  1312.949
 387  1303.54
 388  1246.656
 389  1141.097
 390  1187.554
 391  1216.288
 392  1075.476
 393  989.6972
 394  1048.941
 395  1120.007
 396  1119.945
 397  1199.922
 398  1253.925
 399  1320.331
 400  1318.367
 401  1217.796
 402  1246.198
 403  1266.427
 404  1178.83
 405  1087.958
 406  1129.944
 407  1241.596
 408  1054.145
 409  944.3336
 410  943.133
 411  1085.224
 412  1144.928
 413  1150.966
 414  1208.902
 415  1306.985
 416  1324.009
 417  1179.868
 418  1104.409
 419  1251.922
 420  1308.281
 421  1255.877
 422  1140.371
 423  1318.557
 424  1310.963
 425  1065.858
 426  915.7445
 427  991.7078
 428  1139.929
 429  1114.599
 430  1040.831
 431  1158.099
 432  1318.822
 433  1324.617
 434  1252.193
 435  1212.337
 436  1256.148
 437  1273.585
 438  1068.114
 439  1151.213
 440  1289.277
 441  1186.627
 442  1091.665
 443  1025.935
 444  1113.944
 445  1197.561
 446  1188.782
 447  1209.538
 448  1378.542
 449  1347.274
 450  1256.284
 451  1209.265
 452  1290.102
 453  1364.96
 454  1260.639
 455  1215.725
 456  1263.329
 457  1273.488
 458  1224.507
 459  984.2469
 460  1055.65
 461  1194.68
 462  1145.028
 463  1083.037
 464  1188.361
 465  1381.906
 466  1286.421
 467  1192.801
 468  1251.363
 469  1269.726
 470  1272.233
 471  1143.032
 472  1214.52
 473  1225.946
 474  1055.183
 475  973.8998
 476  981.6177
 477  1145.735
 478  1246.315
 479  1179.181
 480  1122.74
 481  1256.353
 482  1269.551
 483  1148.577
 484  1099.305
 485  1262.79
 486  1307.277
 487  1219.97
 488  1133.388
 489  1248.381
 490  1285.064
 491  1179.032
 492  994.9192
 493  1024.174
 494  1133.462
 495  1128.102
 496  1111.295
 497  1253.29
 498  1300.629
 499  1266.648
 500  1157.425
 501  1173.785
 502  1280.108
 503  1194.387
 504  1233.886
 505  1264.547
 506  1346.766
 507  1271.514
 508  1146.591
 509  1137.634
 510  1141.861
 511  1289.774
