# Input file       =  1203698822.10975_cleaned.dat
# Candidate        =  PSR_0332+5434
# Telescope        =  AR
# Epoch_topo       =  58175.699121640624
# Epoch_bary       =  N/A
# T_sample         =  0.002
# Data Folded      =  7340032
# Data Avg         =  0.0444977563047469
# Data StdDev      =  1.00009215113006 
# Profile Bins     =  512
# Profile Avg      =  637.954313172361 
# Profile StdDev   =  119.744069911374 
# Reduced chi-sqr  =  1.333
# Prob(Noise)      <  6.24e-07   (~4.8 sigma)
# P_topo (ms)      =  714.580907040881  +/- 0.000263
# P'_topo (s/s)    =  -0                +/- 1.39e-10
# P''_topo (s/s^2) =  0                 +/- 6.12e-14
# P_bary (ms)      =  N/A
# P'_bary (s/s)    =  N/A
# P''_bary (s/s^2) =  N/A
# P_orb (s)        =  N/A
# asin(i)/c (s)    =  N/A
# eccentricity     =  N/A
# w (rad)          =  N/A
# T_peri           =  N/A
######################################################
   0  1279.34
   1  1134.318
   2  961.7726
   3  832.4167
   4  702.0422
   5  701.7745
   6  710.1215
   7  702.197
   8  754.3181
   9  720.7175
  10  666.1379
  11  661.8338
  12  674.9951
  13  657.0638
  14  616.0726
  15  691.306
  16  660.5156
  17  613.9903
  18  642.3953
  19  589.1305
  20  621.8488
  21  686.6741
  22  643.2732
  23  643.3691
  24  630.2812
  25  657.1771
  26  656.4338
  27  613.5543
  28  529.8907
  29  568.5388
  30  577.602
  31  560.4992
  32  552.6984
  33  633.0731
  34  525.7164
  35  450.732
  36  451.3495
  37  530.004
  38  531.3057
  39  584.9423
  40  602.3997
  41  540.4989
  42  437.5038
  43  431.914
  44  505.2522
  45  567.1136
  46  557.3428
  47  579.0485
  48  471.392
  49  692.3719
  50  650.2052
  51  575.3042
  52  501.6768
  53  547.8737
  54  624.2681
  55  524.5368
  56  567.5734
  57  630.0806
  58  530.4643
  59  543.7168
  60  602.2271
  61  624.3839
  62  609.5688
  63  618.7354
  64  707.614
  65  729.4424
  66  670.044
  67  784.6942
  68  813.2853
  69  739.7658
  70  788.0135
  71  747.1919
  72  693.9398
  73  647.6991
  74  675.8563
  75  762.5659
  76  725.7916
  77  769.7357
  78  636.6346
  79  640.3318
  80  664.4926
  81  682.3442
  82  664.2022
  83  589.14
  84  494.9939
  85  531.3862
  86  593.2094
  87  559.0524
  88  607.3056
  89  626.5796
  90  688.4027
  91  747.1908
  92  610.1595
  93  555.4941
  94  594.1747
  95  634.5132
  96  712.9911
  97  672.6175
  98  675.0022
  99  656.7062
 100  696.8784
 101  641.8038
 102  623.2148
 103  696.7043
 104  617.2834
 105  626.3824
 106  677.7094
 107  697.5464
 108  611.9341
 109  628.0656
 110  582.5568
 111  572.4407
 112  586.0648
 113  660.0452
 114  591.7031
 115  577.6039
 116  600.9104
 117  616.0799
 118  576.6624
 119  682.1026
 120  673.6827
 121  563.0208
 122  573.485
 123  614.4802
 124  533.3044
 125  520.0663
 126  517.4587
 127  656.5549
 128  715.8822
 129  600.2281
 130  521.8296
 131  466.2958
 132  566.544
 133  634.1013
 134  598.9444
 135  657.1026
 136  696.933
 137  698.1899
 138  652.4285
 139  624.5488
 140  607.1592
 141  696.3057
 142  735.8314
 143  720.8619
 144  712.7059
 145  727.6967
 146  775.7092
 147  733.2144
 148  655.8862
 149  712.5822
 150  683.2797
 151  688.0926
 152  691.7377
 153  661.1644
 154  640.9366
 155  597.301
 156  655.9208
 157  630.7172
 158  647.9423
 159  637.1003
 160  620.7862
 161  651.9888
 162  676.127
 163  626.9394
 164  583.2209
 165  684.4438
 166  661.384
 167  717.4755
 168  683.6758
 169  589.667
 170  615.3386
 171  677.2888
 172  635.3409
 173  658.8255
 174  561.226
 175  592.2438
 176  533.3688
 177  503.2991
 178  535.1993
 179  522.1519
 180  530.1933
 181  583.4081
 182  620.1844
 183  564.7103
 184  500.0031
 185  546.298
 186  538.191
 187  501.6925
 188  478.2432
 189  492.939
 190  495.611
 191  537.3535
 192  519.1041
 193  543.8472
 194  517.3833
 195  490.5815
 196  413.9183
 197  534.4232
 198  597.4031
 199  588.686
 200  635.6402
 201  614.6293
 202  657.346
 203  650.5284
 204  664.9939
 205  683.5253
 206  606.171
 207  758.6923
 208  787.6571
 209  745.5563
 210  700.4717
 211  737.4324
 212  679.1505
 213  655.9116
 214  599.687
 215  652.7858
 216  613.2142
 217  645.6351
 218  710.4612
 219  679.6219
 220  599.4125
 221  664.8968
 222  738.1461
 223  792.8115
 224  643.4229
 225  716.7843
 226  714.4749
 227  659.2373
 228  619.3375
 229  569.725
 230  637.3019
 231  665.2085
 232  739.0744
 233  690.1683
 234  706.7581
 235  754.8967
 236  651.8465
 237  632.1428
 238  666.1475
 239  687.1116
 240  609.2067
 241  613.5479
 242  635.9847
 243  624.1556
 244  660.2378
 245  698.9263
 246  674.9233
 247  670.9253
 248  685.967
 249  612.2552
 250  619.7679
 251  613.687
 252  531.0496
 253  625.9785
 254  657.9843
 255  587.6032
 256  546.5626
 257  620.675
 258  668.8516
 259  566.5037
 260  548.6907
 261  625.2228
 262  590.0624
 263  566.4829
 264  525.0259
 265  599.9466
 266  568.791
 267  580.7531
 268  501.25
 269  652.407
 270  657.8614
 271  652.3394
 272  766.5836
 273  765.61
 274  700.0932
 275  645.6588
 276  692.0317
 277  695.7517
 278  654.2298
 279  676.6058
 280  749.6724
 281  743.0996
 282  809.2512
 283  796.6481
 284  788.0115
 285  762.1738
 286  736.9237
 287  730.6171
 288  831.8996
 289  853.0317
 290  858.2651
 291  784.3882
 292  786.9764
 293  805.3884
 294  704.6683
 295  689.9846
 296  783.1396
 297  773.2393
 298  811.6406
 299  842.3308
 300  772.1168
 301  770.3124
 302  756.2569
 303  652.7848
 304  641.2321
 305  710.9665
 306  793.1237
 307  698.51
 308  588.1031
 309  597.8546
 310  643.685
 311  698.2135
 312  659.4254
 313  689.8716
 314  610.171
 315  626.7615
 316  587.2441
 317  646.5361
 318  645.9674
 319  531.5428
 320  540.0621
 321  517.6265
 322  561.6942
 323  546.4549
 324  602.4219
 325  591.4879
 326  553.4484
 327  486.066
 328  492.708
 329  498.2894
 330  478.5197
 331  448.7461
 332  501.5823
 333  618.0541
 334  600.4999
 335  558.9462
 336  518.8651
 337  556.9031
 338  566.164
 339  445.3442
 340  527.6105
 341  492.5248
 342  527.1627
 343  594.1219
 344  567.813
 345  672.4373
 346  610.0005
 347  612.1555
 348  730.087
 349  599.2109
 350  521.4198
 351  558.2016
 352  579.1254
 353  609.6377
 354  595.3
 355  611.0632
 356  762.0001
 357  755.7781
 358  740.4449
 359  745.0153
 360  664.3751
 361  681.2558
 362  789.9121
 363  725.6268
 364  691.9212
 365  860.0154
 366  854.3227
 367  800.1409
 368  758.0206
 369  713.9661
 370  747.5333
 371  715.097
 372  744.2498
 373  714.0106
 374  741.4894
 375  682.7598
 376  670.5506
 377  745.1201
 378  799.8815
 379  720.5172
 380  643.6499
 381  632.1855
 382  677.0724
 383  685.8625
 384  667.1754
 385  669.2654
 386  619.264
 387  550.2949
 388  507.6134
 389  568.6823
 390  592.6658
 391  518.4037
 392  578.8766
 393  611.5848
 394  619.048
 395  676.7114
 396  689.6278
 397  644.4853
 398  574.8068
 399  591.3448
 400  583.0468
 401  539.3686
 402  462.4376
 403  454.9783
 404  450.9828
 405  508.0573
 406  570.21
 407  536.6004
 408  506.6241
 409  573.9045
 410  544.4326
 411  500.2498
 412  562.5521
 413  595.652
 414  616.5961
 415  586.2147
 416  521.5524
 417  517.3509
 418  599.7278
 419  588.1616
 420  622.7523
 421  569.935
 422  568.7142
 423  548.3127
 424  504.1682
 425  553.8992
 426  497.776
 427  546.6856
 428  563.351
 429  705.4449
 430  725.1021
 431  671.7784
 432  645.349
 433  625.3322
 434  631.9733
 435  609.739
 436  616.942
 437  636.345
 438  656.0604
 439  641.3777
 440  654.832
 441  600.8727
 442  571.471
 443  630.6805
 444  630.3671
 445  529.4581
 446  555.4521
 447  612.2212
 448  574.1378
 449  565.2792
 450  582.0002
 451  572.6114
 452  560.853
 453  571.5911
 454  713.3809
 455  685.0942
 456  687.3073
 457  655.6871
 458  638.3113
 459  548.4317
 460  521.7012
 461  645.9861
 462  593.9176
 463  574.3869
 464  506.7679
 465  572.7379
 466  570.1215
 467  536.2004
 468  580.7657
 469  539.0826
 470  487.6362
 471  568.0812
 472  602.2523
 473  542.6606
 474  572.6133
 475  671.6062
 476  705.1149
 477  510.4575
 478  502.0735
 479  572.3531
 480  591.8135
 481  521.7736
 482  496.2153
 483  532.7269
 484  542.3737
 485  565.0073
 486  650.7081
 487  645.8379
 488  659.63
 489  647.5012
 490  617.0149
 491  687.8492
 492  721.7369
 493  717.5446
 494  757.8958
 495  744.5408
 496  783.2861
 497  735.0862
 498  715.1741
 499  725.3504
 500  696.5076
 501  723.7747
 502  853.5318
 503  816.52
 504  805.2936
 505  712.2927
 506  744.384
 507  824.9165
 508  912.243
 509  928.0775
 510  999.5022
 511  1231.063
