# Input file       =  1203611338.104799_cleaned.dat
# Candidate        =  PSR_0332+5434
# Telescope        =  AR
# Epoch_topo       =  58174.686575287029
# Epoch_bary       =  N/A
# T_sample         =  0.002
# Data Folded      =  7340032
# Data Avg         =  0.0553476280502484
# Data StdDev      =  1.00012906774835 
# Profile Bins     =  512
# Profile Avg      =  793.458700506173 
# Profile StdDev   =  119.748490050175 
# Reduced chi-sqr  =  0.776
# Prob(Noise)      <  1   (~0.0 sigma)
# P_topo (ms)      =  714.580915378121  +/- 0.000907
# P'_topo (s/s)    =  -0                +/- 4.78e-10
# P''_topo (s/s^2) =  0                 +/- 2.11e-13
# P_bary (ms)      =  N/A
# P'_bary (s/s)    =  N/A
# P''_bary (s/s^2) =  N/A
# P_orb (s)        =  N/A
# asin(i)/c (s)    =  N/A
# eccentricity     =  N/A
# w (rad)          =  N/A
# T_peri           =  N/A
######################################################
   0  1040.269
   1  1051.624
   2  1000.652
   3  945.8203
   4  913.6551
   5  797.9742
   6  784.5554
   7  803.201
   8  834.9612
   9  833.676
  10  813.937
  11  753.6566
  12  801.0471
  13  782.3965
  14  785.3021
  15  801.6571
  16  790.612
  17  769.1865
  18  810.9442
  19  818.0426
  20  824.4302
  21  791.2858
  22  739.4016
  23  694.2374
  24  660.2326
  25  775.7225
  26  750.3541
  27  752.7577
  28  781.4965
  29  718.866
  30  733.4641
  31  773.9265
  32  727.429
  33  685.4693
  34  709.2295
  35  764.4437
  36  796.0323
  37  880.9407
  38  851.9443
  39  816.3393
  40  877.7472
  41  956.0092
  42  837.0707
  43  813.9332
  44  820.1469
  45  811.457
  46  749.6528
  47  823.9673
  48  873.3467
  49  852.2296
  50  921.5646
  51  878.5626
  52  726.3724
  53  746.6618
  54  732.0732
  55  735.4744
  56  720.9698
  57  754.5798
  58  768.428
  59  741.809
  60  662.1935
  61  717.9252
  62  805.1683
  63  872.6023
  64  846.8757
  65  758.4214
  66  737.7784
  67  730.2775
  68  738.1884
  69  783.7186
  70  783.2551
  71  781.0649
  72  819.9907
  73  776.96
  74  801.6559
  75  705.9541
  76  706.4644
  77  705.8887
  78  716.7211
  79  655.1733
  80  707.193
  81  723.2471
  82  729.9083
  83  862.301
  84  812.3457
  85  732.1893
  86  676.2865
  87  683.5485
  88  620.1305
  89  689.3559
  90  700.4116
  91  733.0161
  92  734.1862
  93  695.9404
  94  743.4571
  95  730.5833
  96  586.6152
  97  577.3094
  98  600.9579
  99  679.7645
 100  770.0952
 101  768.5638
 102  823.6198
 103  731.5349
 104  700.0925
 105  769.7767
 106  740.7309
 107  724.2406
 108  798.1194
 109  800.0466
 110  683.636
 111  630.5546
 112  717.8248
 113  746.8637
 114  708.7205
 115  734.4431
 116  758.6794
 117  708.7305
 118  708.0391
 119  761.5726
 120  781.1396
 121  901.7062
 122  881.0437
 123  803.139
 124  863.6872
 125  844.2517
 126  829.6719
 127  817.9092
 128  784.8157
 129  810.0212
 130  678.8474
 131  768.1517
 132  841.2734
 133  808.9744
 134  760.208
 135  705.647
 136  782.0021
 137  723.8294
 138  760.114
 139  764.5723
 140  729.0103
 141  727.6123
 142  675.6836
 143  696.5159
 144  682.1852
 145  768.7756
 146  822.0955
 147  776.0993
 148  728.4852
 149  741.1784
 150  797.7476
 151  810.1947
 152  720.0927
 153  732.3679
 154  804.3927
 155  832.2716
 156  833.4772
 157  765.7094
 158  757.5947
 159  821.4196
 160  792.5209
 161  806.7432
 162  786.9974
 163  774.3763
 164  742.2003
 165  822.6166
 166  800.3629
 167  763.2497
 168  713.6978
 169  755.3205
 170  784.6671
 171  798.6749
 172  828.9427
 173  709.7026
 174  683.736
 175  766.1877
 176  767.8904
 177  761.7448
 178  727.6983
 179  750.9674
 180  805.9188
 181  699.4296
 182  756.0231
 183  747.5068
 184  779.9435
 185  911.2994
 186  819.8425
 187  755.6423
 188  833.186
 189  764.1091
 190  685.4373
 191  685.9329
 192  661.1081
 193  754.6338
 194  752.7502
 195  754.2564
 196  764.0504
 197  748.188
 198  738.377
 199  756.415
 200  728.7017
 201  787.4116
 202  744.7028
 203  719.0065
 204  780.8346
 205  786.6571
 206  724.308
 207  776.5953
 208  707.265
 209  803.5347
 210  794.5261
 211  762.4304
 212  710.9557
 213  707.8365
 214  817.0626
 215  788.9658
 216  802.4856
 217  812.4727
 218  733.0446
 219  766.9555
 220  743.6221
 221  807.2117
 222  865.0669
 223  866.0352
 224  849.2352
 225  921.8534
 226  889.1207
 227  778.824
 228  730.2599
 229  771.8835
 230  799.1346
 231  704.631
 232  713.2406
 233  735.4072
 234  689.9236
 235  716.6733
 236  819.1675
 237  725.9802
 238  751.7267
 239  713.6188
 240  721.8337
 241  748.3203
 242  764.9424
 243  783.403
 244  689.9524
 245  753.4002
 246  756.973
 247  702.9896
 248  665.4929
 249  668.3473
 250  671.5628
 251  597.3364
 252  607.751
 253  608.4471
 254  661.1478
 255  655.3571
 256  604.554
 257  629.9819
 258  687.9028
 259  764.3503
 260  752.3004
 261  836.0913
 262  883.2473
 263  808.3193
 264  741.4062
 265  711.4821
 266  792.9601
 267  823.9101
 268  804.3104
 269  770.2363
 270  746.9377
 271  778.5346
 272  807.7339
 273  763.2477
 274  792.4145
 275  801.0027
 276  761.6341
 277  689.5274
 278  783.5666
 279  801.1935
 280  772.4723
 281  765.6966
 282  812.6595
 283  747.7913
 284  729.7488
 285  739.9568
 286  819.3989
 287  813.431
 288  813.1758
 289  799.9919
 290  871.0021
 291  781.6306
 292  729.8294
 293  730.5635
 294  813.513
 295  796.9988
 296  818.2006
 297  734.2969
 298  732.0699
 299  753.5269
 300  734.167
 301  823.0906
 302  793.7078
 303  698.8749
 304  663.2559
 305  815.5631
 306  798.912
 307  821.7379
 308  828.984
 309  767.5854
 310  718.8253
 311  808.3944
 312  786.8887
 313  795.9072
 314  832.3925
 315  952.6675
 316  947.0288
 317  854.9316
 318  803.1299
 319  786.5501
 320  778.9498
 321  811.6888
 322  812.0279
 323  868.4783
 324  818.2996
 325  740.144
 326  730.2187
 327  759.9158
 328  849.0519
 329  811.8541
 330  848.6951
 331  829.5434
 332  747.5212
 333  801.634
 334  746.2494
 335  763.309
 336  837.5275
 337  907.5031
 338  897.0935
 339  787.5333
 340  840.123
 341  853.9483
 342  872.2169
 343  846.5326
 344  840.3725
 345  836.4977
 346  857.4506
 347  866.8812
 348  856.1094
 349  854.3584
 350  884.215
 351  832.9104
 352  865.1335
 353  897.26
 354  854.5204
 355  840.3093
 356  772.4941
 357  838.946
 358  829.4084
 359  882.7116
 360  897.7446
 361  842.91
 362  887.0549
 363  832.79
 364  758.8163
 365  816.4426
 366  844.8366
 367  869.6708
 368  847.6615
 369  806.852
 370  831.1508
 371  830.5558
 372  826.7667
 373  776.0778
 374  799.6695
 375  811.1094
 376  773.0169
 377  783.8308
 378  809.5313
 379  725.694
 380  703.5761
 381  818.9828
 382  882.9525
 383  834.9212
 384  883.6757
 385  967.6446
 386  941.3228
 387  925.9437
 388  858.6997
 389  920.665
 390  934.5117
 391  960.2751
 392  821.7028
 393  865.4443
 394  829.5594
 395  957.2192
 396  1038.996
 397  1001.983
 398  1003.683
 399  950.9929
 400  939.3257
 401  891.1116
 402  955.4984
 403  1039.859
 404  948.9008
 405  886.1462
 406  899.1777
 407  896.6324
 408  842.3016
 409  840.9666
 410  917.8287
 411  930.2747
 412  975.5152
 413  945.5681
 414  874.7653
 415  809.308
 416  788.6784
 417  900.2723
 418  897.9545
 419  867.3146
 420  850.4333
 421  898.8105
 422  857.6882
 423  898.4881
 424  871.9404
 425  905.8075
 426  917.1685
 427  882.9161
 428  846.8134
 429  793.8983
 430  762.1303
 431  857.889
 432  864.011
 433  815.8935
 434  833.9225
 435  898.4885
 436  912.8045
 437  810.432
 438  798.3754
 439  858.0925
 440  850.0424
 441  805.9124
 442  911.5228
 443  843.6414
 444  805.3563
 445  818.1682
 446  794.2273
 447  881.5405
 448  889.3691
 449  822.2062
 450  844.7451
 451  779.5697
 452  745.4614
 453  775.1854
 454  828.666
 455  843.3384
 456  752.758
 457  769.5082
 458  718.1718
 459  708.0804
 460  710.2795
 461  784.3506
 462  811.8664
 463  833.1868
 464  842.2877
 465  757.4088
 466  789.8715
 467  791.0195
 468  740.6719
 469  779.2966
 470  822.5786
 471  746.15
 472  795.8589
 473  717.4363
 474  709.4423
 475  742.1708
 476  787.1307
 477  795.0132
 478  792.8604
 479  861.2582
 480  893.3961
 481  893.3796
 482  781.5842
 483  699.6105
 484  730.5255
 485  796.8747
 486  684.7952
 487  724.8557
 488  763.7324
 489  816.0436
 490  819.4652
 491  865.6094
 492  814.0563
 493  777.6948
 494  793.2726
 495  794.1847
 496  857.7004
 497  909.5573
 498  944.0458
 499  770.4197
 500  756.1373
 501  687.9795
 502  699.858
 503  718.8637
 504  753.5426
 505  759.0377
 506  804.5804
 507  820.594
 508  862.7462
 509  877.8668
 510  1004.779
 511  1037.059
