# Input file       =  1203611338.104799_cleaned.dat
# Candidate        =  PSR_0332+5434
# Telescope        =  AR
# Epoch_topo       =  58174.686575287029
# Epoch_bary       =  N/A
# T_sample         =  0.002
# Data Folded      =  7340032
# Data Avg         =  0.0553476280502484
# Data StdDev      =  1.00012906774835 
# Profile Bins     =  512
# Profile Avg      =  793.458700497289 
# Profile StdDev   =  119.748490050175 
# Reduced chi-sqr  =  0.776
# Prob(Noise)      <  1   (~0.0 sigma)
# P_topo (ms)      =  714.580915391865  +/- 0.000904
# P'_topo (s/s)    =  -0                +/- 4.77e-10
# P''_topo (s/s^2) =  0                 +/- 2.11e-13
# P_bary (ms)      =  N/A
# P'_bary (s/s)    =  N/A
# P''_bary (s/s^2) =  N/A
# P_orb (s)        =  N/A
# asin(i)/c (s)    =  N/A
# eccentricity     =  N/A
# w (rad)          =  N/A
# T_peri           =  N/A
######################################################
   0  1045.686
   1  1036.449
   2  958.8572
   3  943.2563
   4  851.3248
   5  766.605
   6  804.5896
   7  814.9245
   8  828.759
   9  836.9728
  10  770.7329
  11  778.9292
  12  787.6175
  13  778.3272
  14  799.4686
  15  797.5232
  16  782.2964
  17  788.884
  18  815.9935
  19  824.254
  20  817.8527
  21  754.4834
  22  725.2076
  23  647.8986
  24  730.0944
  25  771.3643
  26  735.0496
  27  771.9611
  28  747.0519
  29  723.6404
  30  763.9128
  31  764.9749
  32  687.4382
  33  703.0769
  34  733.3597
  35  782.8761
  36  836.9311
  37  880.3409
  38  815.4949
  39  843.7895
  40  946.6797
  41  896.9583
  42  809.644
  43  824.1623
  44  805
  45  794.7008
  46  748.1862
  47  889.3247
  48  841.649
  49  901.4122
  50  917.3544
  51  789.5909
  52  728.8445
  53  745.4411
  54  712.374
  55  735.7849
  56  734.6735
  57  772.3436
  58  760.4808
  59  689.0129
  60  684.1832
  61  768.008
  62  857.7238
  63  856.1367
  64  803.5323
  65  736.4148
  66  734.6292
  67  729.182
  68  759.7325
  69  800.327
  70  767.3716
  71  812.128
  72  793.1755
  73  788.9753
  74  749.0405
  75  707.5474
  76  701.9045
  77  724.5413
  78  667.5978
  79  667.0061
  80  740.9217
  81  706.7586
  82  818.9421
  83  842.1481
  84  773.6895
  85  678.4395
  86  697.2947
  87  635.4791
  88  657.7481
  89  703.1562
  90  704.7402
  91  760.1254
  92  695.9065
  93  723.925
  94  753.458
  95  650.8373
  96  554.7224
  97  596.0552
  98  629.1196
  99  754.0358
 100  760.7773
 101  808.9366
 102  781.3846
 103  685.7614
 104  751.8659
 105  762.5883
 106  730.1985
 107  740.3303
 108  840.3089
 109  719.6826
 110  648.715
 111  659.6299
 112  747.6921
 113  733.2023
 114  711.5614
 115  764.6967
 116  725.5584
 117  698.2226
 118  746.7905
 119  762.2126
 120  850.0912
 121  906.2953
 122  824.0196
 123  830.7384
 124  876.0816
 125  821.834
 126  843.64
 127  776.5029
 128  817.7036
 129  726.9863
 130  701.5262
 131  830.2277
 132  824.727
 133  792.5614
 134  711.551
 135  755.562
 136  745.1172
 137  746.574
 138  762.0234
 139  742.8893
 140  726.8033
 141  702.0848
 142  683.742
 143  696.8416
 144  718.4532
 145  814.2542
 146  798.7787
 147  741.1026
 148  728.1176
 149  766.6877
 150  828.5068
 151  755.1279
 152  709.4802
 153  786.278
 154  811.0961
 155  848.9362
 156  795.3303
 157  748.8091
 158  795.1311
 159  813.6574
 160  792.0921
 161  791.3485
 162  787.8525
 163  737.4031
 164  797.7042
 165  817.0991
 166  792.1938
 167  709.0301
 168  736.3474
 169  778.6059
 170  807.0361
 171  806.394
 172  781.1464
 173  663.1082
 174  744.4848
 175  767.3927
 176  762.2807
 177  748.9149
 178  724.5336
 179  807.7956
 180  737.7632
 181  713.1456
 182  769.3195
 183  750.7389
 184  856.7053
 185  889.2189
 186  750.5128
 187  804.7963
 188  824.3979
 189  698.0392
 190  695.2328
 191  657.9036
 192  708.1857
 193  759.0363
 194  759.2772
 195  747.4939
 196  784.298
 197  703.6191
 198  772.0836
 199  729.5097
 200  761.0931
 201  775.4835
 202  723.2892
 203  745.9109
 204  809.9155
 205  730.1164
 206  761.4576
 207  732.3019
 208  752.3747
 209  822.3561
 210  762.933
 211  744.3809
 212  692.9285
 213  770.2321
 214  813.4147
 215  782.857
 216  821.4359
 217  766.2173
 218  744.1953
 219  758.3809
 220  772.6605
 221  836.0173
 222  885.5508
 223  833.5016
 224  902.1862
 225  918.3315
 226  823.3295
 227  738.2786
 228  750.1968
 229  799.6773
 230  746.6213
 231  691.1598
 232  732.2365
 233  727.202
 234  665.443
 235  815.4335
 236  746.4861
 237  750.5042
 238  734.138
 239  705.1121
 240  745.7247
 241  741.6422
 242  811.5521
 243  714.7294
 244  724.3788
 245  754.1701
 246  725.1429
 247  671.495
 248  673.5822
 249  674.183
 250  631.6292
 251  604.7696
 252  609.01
 253  634.8444
 254  661.7126
 255  616.8395
 256  605.3787
 257  674.4182
 258  723.7477
 259  770.5345
 260  777.9075
 261  883.2716
 262  849.4176
 263  754.4582
 264  735.0831
 265  729.0099
 266  834.671
 267  808.1507
 268  790.6398
 269  751.165
 270  756.0398
 271  813.739
 272  773.5751
 273  784.2524
 274  794.817
 275  785.9986
 276  707.1795
 277  734.6058
 278  816.5706
 279  783.0203
 280  760.2709
 281  787.6646
 282  791.2108
 283  732.0101
 284  735.535
 285  782.8676
 286  812.3884
 287  825.9457
 288  783.479
 289  854.4863
 290  829.2499
 291  745.1506
 292  716.2364
 293  787.2418
 294  813.1909
 295  798.1752
 296  794.1722
 297  705.0204
 298  760.0707
 299  719.6898
 300  785.9188
 301  832.9389
 302  750.8163
 303  642.957
 304  756.9573
 305  807.1003
 306  812.8195
 307  819.9756
 308  819.0398
 309  705.3849
 310  776.2168
 311  806.8685
 312  787.332
 313  813.6174
 314  892.9366
 315  963.9325
 316  909.9102
 317  806.9464
 318  808.007
 319  764.1456
 320  822.4719
 321  790.1729
 322  853.7444
 323  848.3129
 324  762.8182
 325  735.2183
 326  729.5791
 327  818.5507
 328  834.9214
 329  819.4041
 330  870.835
 331  755.0505
 332  796.0721
 333  760.8123
 334  757.4754
 335  782.8017
 336  894.8943
 337  915.8867
 338  834.0203
 339  804.1219
 340  853.9376
 341  862.4802
 342  859.6258
 343  840.6143
 344  836.6506
 345  848.3365
 346  876.5323
 347  857.0832
 348  839.2348
 349  876.6948
 350  859.401
 351  832.4765
 352  901.66
 353  857.9562
 354  862.6173
 355  805.4496
 356  802.3466
 357  836.1667
 358  846.7857
 359  905.6589
 360  860.0355
 361  865.4953
 362  877.1532
 363  771.1187
 364  786.9922
 365  838.4622
 366  863.1227
 367  866.3803
 368  816.4406
 369  821.1257
 370  827.7228
 371  837.4485
 372  791.7161
 373  776.9807
 374  821.7539
 375  784.8335
 376  778.2015
 377  796.5896
 378  785.2441
 379  689.7654
 380  753.9437
 381  875.293
 382  856.4399
 383  849.4495
 384  932.8638
 385  962.8083
 386  930.3475
 387  890.3175
 388  887.5854
 389  918.6275
 390  967.4367
 391  883.1882
 392  839.2975
 393  849.6334
 394  879.1567
 395  1026.047
 396  1013.568
 397  1011.023
 398  975.599
 399  940.6794
 400  906.834
 401  906.8282
 402  1022.841
 403  1002.773
 404  897.0492
 405  899.7279
 406  898.1677
 407  865.0626
 408  826.265
 409  891.4024
 410  919.8019
 411  965.4625
 412  961.546
 413  907.0209
 414  831.7784
 415  791.9572
 416  844.5143
 417  923.9266
 418  875.1147
 419  847.5936
 420  898.3119
 421  862.1306
 422  875.9835
 423  894.8004
 424  870.2612
 425  940.7005
 426  879.39
 427  887.4152
 428  808.8694
 429  765.9434
 430  800.4328
 431  875.6183
 432  823.5025
 433  826.3223
 434  867.7313
 435  926.4092
 436  860.0814
 437  788.4713
 438  824.5563
 439  875.0119
 440  802.6935
 441  882.3464
 442  882.6933
 443  808.9872
 444  809.9991
 445  809.2066
 446  821.5114
 447  928.7212
 448  817.2799
 449  846.6779
 450  816.3469
 451  745.3137
 452  760.8015
 453  796.987
 454  867.1728
 455  769.5596
 456  774.5165
 457  734.1783
 458  708.0041
 459  710.1552
 460  734.5231
 461  829.0118
 462  801.0223
 463  860.817
 464  795.0891
 465  762.2797
 466  811.6119
 467  757.4274
 468  737.4167
 469  834.489
 470  763.4374
 471  779.761
 472  754.3043
 473  694.4088
 474  725.7296
 475  776.2285
 476  805.8871
 477  781.3369
 478  825.3942
 479  893.0169
 480  886.8062
 481  851.4807
 482  708.654
 483  712.5352
 484  782.5736
 485  735.3594
 486  694.8914
 487  749.1547
 488  793.6643
 489  807.9844
 490  853.3414
 491  847.8472
 492  789.9378
 493  786.9294
 494  791.8267
 495  821.9833
 496  887.2198
 497  942.6149
 498  849.3358
 499  758.7221
 500  723.9063
 501  681.9395
 502  717.1348
 503  725.0419
 504  766.0432
 505  770.7994
 506  829.1741
 507  831.3127
 508  870.9072
 509  940.9634
 510  1048.349
 511  1034.87
