# Input file       =  1203328409.099087_cleaned.dat
# Candidate        =  PSR_0332+5434
# Telescope        =  AR
# Epoch_topo       =  58171.411934017211
# Epoch_bary       =  N/A
# T_sample         =  0.002
# Data Folded      =  7208960
# Data Avg         =  0.0942021439975136
# Data StdDev      =  1.00023743866652 
# Profile Bins     =  512
# Profile Avg      =  1326.42323557023 
# Profile StdDev   =  118.687350070001 
# Reduced chi-sqr  =  2.040
# Prob(Noise)      <  1.19e-38   (~12.9 sigma)
# P_topo (ms)      =  714.580703518979  +/- 4.74e-05
# P'_topo (s/s)    =  -0                +/- 2.55e-11
# P''_topo (s/s^2) =  0                 +/- 1.14e-14
# P_bary (ms)      =  N/A
# P'_bary (s/s)    =  N/A
# P''_bary (s/s^2) =  N/A
# P_orb (s)        =  N/A
# asin(i)/c (s)    =  N/A
# eccentricity     =  N/A
# w (rad)          =  N/A
# T_peri           =  N/A
######################################################
   0  1812.579
   1  1682.638
   2  1552.935
   3  1399.151
   4  1417.564
   5  1498.527
   6  1395.03
   7  1295.611
   8  1332.677
   9  1218.714
  10  1299.356
  11  1388.16
  12  1341.876
  13  1476.461
  14  1577.661
  15  1495.939
  16  1388.363
  17  1399.252
  18  1283.367
  19  1213.015
  20  1290.547
  21  1268.899
  22  1311.841
  23  1304.699
  24  1202.404
  25  1141.247
  26  1078.168
  27  1141.291
  28  1212.815
  29  1253.141
  30  1341.933
  31  1405.232
  32  1370.048
  33  1298.787
  34  1169.618
  35  1230.68
  36  1285.773
  37  1270.701
  38  1375.288
  39  1385.051
  40  1322.183
  41  1205.388
  42  1149.459
  43  1162.902
  44  1199.425
  45  1129.929
  46  1271.607
  47  1290.521
  48  1196.287
  49  1291.449
  50  1279.665
  51  1243.355
  52  1119.973
  53  1132.828
  54  1223.36
  55  1248.488
  56  1345.523
  57  1355.173
  58  1201.602
  59  1196.711
  60  1249.459
  61  1164.289
  62  1159.188
  63  1374.148
  64  1444.789
  65  1381.925
  66  1231.891
  67  1336.213
  68  1357.841
  69  1239.316
  70  1144.891
  71  1140.216
  72  1231.626
  73  1193.664
  74  1175.926
  75  1238.672
  76  1209.365
  77  1215.588
  78  1163.817
  79  1193.883
  80  1330.781
  81  1303.334
  82  1236.6
  83  1264.767
  84  1171.897
  85  1245.539
  86  1182.694
  87  1212.205
  88  1302.339
  89  1215.276
  90  1222.553
  91  1232.494
  92  1236.859
  93  1183.768
  94  1193.708
  95  1227.178
  96  1282.133
  97  1292.365
  98  1171.975
  99  1126.183
 100  1157.204
 101  1180.026
 102  1104.073
 103  1049.492
 104  1201.471
 105  1233.411
 106  1112.438
 107  1146.227
 108  1161.666
 109  1237.279
 110  1196.484
 111  1290.598
 112  1452.583
 113  1537.657
 114  1364.522
 115  1249.679
 116  1194.87
 117  1284.004
 118  1323.848
 119  1219.04
 120  1389.343
 121  1334.999
 122  1314.479
 123  1309.546
 124  1202.407
 125  1218.871
 126  1225.385
 127  1352.819
 128  1308.81
 129  1352.897
 130  1527.301
 131  1456.689
 132  1285.871
 133  1272.627
 134  1307.333
 135  1337.798
 136  1215.488
 137  1272.338
 138  1313.521
 139  1250.058
 140  1229.609
 141  1215.973
 142  1143.044
 143  1202.862
 144  1294.974
 145  1391.263
 146  1341.69
 147  1280.961
 148  1319.835
 149  1259.219
 150  1280.967
 151  1182.63
 152  1280.955
 153  1361.814
 154  1357.566
 155  1392.069
 156  1366.183
 157  1267.082
 158  1240.526
 159  1281.071
 160  1221.146
 161  1329.744
 162  1407.479
 163  1470.602
 164  1407.124
 165  1272.683
 166  1210.595
 167  1282.916
 168  1302.224
 169  1303.55
 170  1325.278
 171  1356.737
 172  1270.333
 173  1263.902
 174  1243.857
 175  1277.868
 176  1276.313
 177  1320.602
 178  1390.603
 179  1429.65
 180  1482.762
 181  1422.711
 182  1353.003
 183  1344.418
 184  1302.778
 185  1315.305
 186  1380.96
 187  1305.422
 188  1304.27
 189  1176.707
 190  1175.303
 191  1384.454
 192  1438.491
 193  1410.323
 194  1513.173
 195  1480.455
 196  1456.827
 197  1339.355
 198  1367.641
 199  1303.026
 200  1202.506
 201  1294.267
 202  1377.72
 203  1387.679
 204  1377.112
 205  1267.636
 206  1196.995
 207  1191.457
 208  1222.918
 209  1300.48
 210  1286.248
 211  1409.11
 212  1509.61
 213  1417.814
 214  1302.781
 215  1282.379
 216  1325.249
 217  1232.154
 218  1216.548
 219  1197.828
 220  1215.593
 221  1306.43
 222  1237.225
 223  1200.908
 224  1175.296
 225  1141.162
 226  1181.192
 227  1243.02
 228  1324.314
 229  1347.935
 230  1264.47
 231  1102.631
 232  1123.723
 233  1114.118
 234  1177.296
 235  1224.346
 236  1235.534
 237  1222.719
 238  1193.161
 239  1147.176
 240  1094.219
 241  1010.223
 242  1036.136
 243  1191.292
 244  1333.679
 245  1405.849
 246  1321.494
 247  1218.479
 248  1103.784
 249  1138.723
 250  1181.271
 251  1142.793
 252  1103.329
 253  1185.388
 254  1213.448
 255  1209.656
 256  1132.605
 257  1118.267
 258  1110.7
 259  1130.122
 260  1091.518
 261  1283.065
 262  1335.19
 263  1185.537
 264  1137.233
 265  1084.6
 266  1142.668
 267  1128.976
 268  1221.399
 269  1195.657
 270  1189.557
 271  1244.432
 272  1105.809
 273  1086.39
 274  1209.29
 275  1249.24
 276  1273.697
 277  1332.088
 278  1310.785
 279  1424.899
 280  1314.861
 281  1165.063
 282  1181.147
 283  1091.55
 284  1176.527
 285  1212.849
 286  1382.615
 287  1396.839
 288  1293.11
 289  1227.84
 290  1257.025
 291  1254.471
 292  1362.064
 293  1351.562
 294  1378.25
 295  1417.052
 296  1446.577
 297  1257.919
 298  1312.865
 299  1342.694
 300  1309.752
 301  1279.66
 302  1272.182
 303  1394.245
 304  1408.041
 305  1360.112
 306  1289.117
 307  1328.327
 308  1364.406
 309  1387.201
 310  1450.04
 311  1467.064
 312  1605.95
 313  1463.117
 314  1433.872
 315  1430.373
 316  1404.916
 317  1458.081
 318  1421.182
 319  1413.361
 320  1391.971
 321  1381.511
 322  1253.283
 323  1213.219
 324  1336.21
 325  1402.198
 326  1447.143
 327  1486.278
 328  1552.168
 329  1519.853
 330  1389.951
 331  1362.515
 332  1422.651
 333  1457.537
 334  1487.606
 335  1498.701
 336  1454.944
 337  1504.583
 338  1391.27
 339  1333.594
 340  1405.161
 341  1406.223
 342  1360.627
 343  1475.9
 344  1594.872
 345  1614.092
 346  1551.945
 347  1387.474
 348  1350.105
 349  1458.377
 350  1434.146
 351  1354.217
 352  1322.143
 353  1523.597
 354  1501.553
 355  1364.356
 356  1287.462
 357  1310.437
 358  1425.551
 359  1522.229
 360  1597.9
 361  1570.365
 362  1516.536
 363  1416.824
 364  1332.62
 365  1359.34
 366  1440.639
 367  1468.35
 368  1491.694
 369  1506.468
 370  1442.139
 371  1336.025
 372  1345.291
 373  1475.341
 374  1436.825
 375  1454.791
 376  1474.775
 377  1496.754
 378  1617.745
 379  1536.133
 380  1392.978
 381  1359.395
 382  1422.997
 383  1522.625
 384  1449.863
 385  1414.075
 386  1358.97
 387  1393.826
 388  1394.869
 389  1393.305
 390  1319.372
 391  1274.496
 392  1348.051
 393  1341.978
 394  1373.045
 395  1412.354
 396  1402.001
 397  1390.49
 398  1343.872
 399  1322.625
 400  1274.235
 401  1321.481
 402  1345.235
 403  1272.85
 404  1304.941
 405  1381.864
 406  1348.985
 407  1398.648
 408  1415.98
 409  1502.604
 410  1567.494
 411  1537.467
 412  1428.468
 413  1358.191
 414  1329.005
 415  1311.206
 416  1439.697
 417  1428.965
 418  1428.775
 419  1472.812
 420  1394.131
 421  1328.212
 422  1254.074
 423  1374.777
 424  1426.803
 425  1332.109
 426  1443.599
 427  1564.515
 428  1510.481
 429  1486.458
 430  1317.85
 431  1296.52
 432  1254.461
 433  1286.804
 434  1403.631
 435  1359.099
 436  1311.512
 437  1277.526
 438  1198.32
 439  1250.435
 440  1262.717
 441  1341.923
 442  1465.875
 443  1449.603
 444  1466.227
 445  1321.3
 446  1334.99
 447  1350.257
 448  1309.932
 449  1351.081
 450  1415.009
 451  1317.158
 452  1291.572
 453  1351.82
 454  1380.751
 455  1417.218
 456  1362.694
 457  1395.203
 458  1355.286
 459  1433.693
 460  1528.195
 461  1401.199
 462  1251.675
 463  1379.309
 464  1444.55
 465  1389.298
 466  1414.706
 467  1419.648
 468  1355.345
 469  1393.491
 470  1314.737
 471  1298.453
 472  1290.319
 473  1238.555
 474  1332.757
 475  1435.431
 476  1466.802
 477  1333.13
 478  1428.84
 479  1440.49
 480  1300.769
 481  1234.207
 482  1396.748
 483  1431.408
 484  1425.479
 485  1388.585
 486  1356.34
 487  1341.722
 488  1237.546
 489  1239.059
 490  1409.652
 491  1508.374
 492  1453.191
 493  1470.676
 494  1505.065
 495  1515.374
 496  1475.467
 497  1317.998
 498  1359.211
 499  1337.872
 500  1357.16
 501  1364.102
 502  1369.912
 503  1325.191
 504  1323.324
 505  1302.736
 506  1353.152
 507  1471.21
 508  1653.357
 509  1805.028
 510  1858.921
 511  1818.651
