# Input file       =  1203090916.122294_cleaned.dat
# Candidate        =  PSR_0332+5434
# Telescope        =  AR
# Epoch_topo       =  58168.663172711735
# Epoch_bary       =  N/A
# T_sample         =  0.002
# Data Folded      =  7340032
# Data Avg         =  0.0523240827746529
# Data StdDev      =  1.00009552835795 
# Profile Bins     =  512
# Profile Avg      =  750.256238597775 
# Profile StdDev   =  119.744474277124 
# Reduced chi-sqr  =  1.145
# Prob(Noise)      <  0.0127   (~2.2 sigma)
# P_topo (ms)      =  714.580703730778  +/- 0.000556
# P'_topo (s/s)    =  -0                +/- 2.94e-10
# P''_topo (s/s^2) =  0                 +/- 1.3e-13
# P_bary (ms)      =  N/A
# P'_bary (s/s)    =  N/A
# P''_bary (s/s^2) =  N/A
# P_orb (s)        =  N/A
# asin(i)/c (s)    =  N/A
# eccentricity     =  N/A
# w (rad)          =  N/A
# T_peri           =  N/A
######################################################
   0  1192.421
   1  1214.167
   2  1070.023
   3  941.6736
   4  787.9233
   5  763.1692
   6  808.4476
   7  747.9255
   8  789.2969
   9  805.626
  10  825.4083
  11  818.0404
  12  782.7791
  13  849.9385
  14  875.9915
  15  880.2332
  16  821.4288
  17  862.4033
  18  833.9459
  19  686.3813
  20  683.2838
  21  749.8629
  22  753.3403
  23  773.4992
  24  874.3911
  25  821.2498
  26  773.8418
  27  764.8453
  28  725.3785
  29  773.6241
  30  739.5742
  31  786.2054
  32  864.8348
  33  814.9562
  34  860.5575
  35  803.0479
  36  851.23
  37  914.9531
  38  920.5549
  39  1004.845
  40  878.2855
  41  876.9073
  42  843.2208
  43  848.863
  44  879.2444
  45  963.6567
  46  906.597
  47  817.046
  48  856.1254
  49  859.4839
  50  934.3304
  51  879.2729
  52  924.0992
  53  880.3555
  54  900.0893
  55  846.4286
  56  908.7595
  57  898.1603
  58  860.7972
  59  888.0289
  60  884.5814
  61  933.811
  62  962.6245
  63  843.312
  64  799.0699
  65  827.4789
  66  820.2697
  67  782.675
  68  833.7081
  69  912.0442
  70  927.7059
  71  845.6182
  72  682.8958
  73  689.824
  74  752.2879
  75  838.8409
  76  849.276
  77  713.1098
  78  645.4042
  79  656.9206
  80  678.3085
  81  697.1859
  82  774.3267
  83  795.8149
  84  672.2507
  85  725.4334
  86  756.6377
  87  672.4244
  88  683.3365
  89  774.0605
  90  795.047
  91  725.6286
  92  718.4919
  93  655.4302
  94  705.4788
  95  776.6939
  96  701.0983
  97  761.774
  98  731.2215
  99  633.2877
 100  650.2858
 101  685.1531
 102  679.4034
 103  692.989
 104  678.4045
 105  640.8231
 106  562.9538
 107  660.8333
 108  730.1746
 109  685.0738
 110  689.9286
 111  696.7599
 112  708.8087
 113  693.9011
 114  690.9844
 115  695.672
 116  718.162
 117  770.967
 118  844.2583
 119  758.5289
 120  715.7316
 121  811.7476
 122  767.2397
 123  773.5678
 124  826.6432
 125  774.1066
 126  765.9435
 127  631.4902
 128  689.3715
 129  766.4048
 130  781.2206
 131  758.9249
 132  735.7896
 133  729.1019
 134  768.8646
 135  624.72
 136  547.566
 137  593.345
 138  735.8542
 139  661.8384
 140  553.1622
 141  584.3661
 142  589.4945
 143  605.145
 144  635.1567
 145  673.5048
 146  697.2075
 147  686.9613
 148  658.5674
 149  622.5473
 150  699.8846
 151  677.0965
 152  677.439
 153  675.3711
 154  622.9022
 155  575.4144
 156  659.434
 157  750.2344
 158  643.4086
 159  680.4684
 160  783.6048
 161  771.3116
 162  748.1585
 163  640.5696
 164  619.4346
 165  657.8015
 166  689.3537
 167  724.9702
 168  708.0749
 169  665.7589
 170  629.2033
 171  671.5316
 172  767.7123
 173  733.2731
 174  798.4677
 175  777.9357
 176  749.8301
 177  730.9744
 178  695.3611
 179  687.5068
 180  706.79
 181  729.8897
 182  793.0521
 183  724.2656
 184  747.4029
 185  728.9653
 186  764.6092
 187  667.6646
 188  674.1954
 189  721.1361
 190  737.1466
 191  716.2218
 192  788.7689
 193  748.5499
 194  684.8522
 195  683.3537
 196  652.5515
 197  641.0037
 198  726.6564
 199  804.3521
 200  701.3469
 201  663.354
 202  733.3524
 203  749.7664
 204  687.4025
 205  666.8718
 206  779.6252
 207  837.6335
 208  741.6892
 209  647.8081
 210  768.6649
 211  787.0269
 212  748.6554
 213  789.2852
 214  740.7203
 215  739.5167
 216  865.8738
 217  855.962
 218  742.6905
 219  661.4735
 220  739.301
 221  671.5307
 222  666.9784
 223  816.9124
 224  861.3885
 225  873.0703
 226  834.8147
 227  835.8303
 228  897.6326
 229  829.722
 230  755.4979
 231  788.8627
 232  887.4485
 233  859.5192
 234  873.2998
 235  893.1031
 236  867.1289
 237  865.5742
 238  834.3721
 239  818.9521
 240  818.4548
 241  797.2007
 242  783.4103
 243  720.4149
 244  689.1412
 245  776.2025
 246  654.0363
 247  705.0985
 248  812.5776
 249  880.8836
 250  862.3876
 251  866.4017
 252  762.0485
 253  749.9675
 254  793.3322
 255  737.2191
 256  663.2269
 257  659.4115
 258  707.9819
 259  654.0851
 260  728.0045
 261  688.4522
 262  725.8176
 263  801.1718
 264  742.0812
 265  689.2932
 266  701.3591
 267  754.5485
 268  744.577
 269  790.8504
 270  742.2516
 271  763.2521
 272  767.9504
 273  770.2595
 274  697.6943
 275  788.2268
 276  770.7032
 277  825.1619
 278  716.2971
 279  711.22
 280  775.3169
 281  620.402
 282  708.089
 283  774.7001
 284  778.205
 285  773.4794
 286  823.5202
 287  763.0721
 288  753.5303
 289  774.4698
 290  705.3428
 291  697.5703
 292  673.7728
 293  707.9243
 294  688.2108
 295  635.8744
 296  755.4135
 297  802.5819
 298  737.3446
 299  682.712
 300  644.4444
 301  790.2689
 302  800.4037
 303  702.3613
 304  695.4803
 305  635.9137
 306  591.3969
 307  540.9885
 308  529.8445
 309  619.2723
 310  624.0889
 311  712.9752
 312  584.3429
 313  459.6052
 314  576.8358
 315  631.6362
 316  636.9771
 317  710.3975
 318  721.3409
 319  576.5459
 320  610.4039
 321  721.2816
 322  764.1712
 323  680.8404
 324  621.5583
 325  653.3397
 326  656.5058
 327  665.8457
 328  699.4307
 329  713.2919
 330  685.2136
 331  652.9
 332  615.5561
 333  757.6461
 334  745.1018
 335  738.2589
 336  743.0413
 337  741.0729
 338  703.98
 339  832.1548
 340  762.6608
 341  754.4745
 342  729.4649
 343  726.1695
 344  750.681
 345  644.2657
 346  679.9967
 347  640.8176
 348  750.1311
 349  783.0834
 350  745.3862
 351  701.3815
 352  763.7346
 353  790.3654
 354  674.0719
 355  646.3311
 356  696.5907
 357  803.5695
 358  838.6776
 359  870.991
 360  883.1853
 361  825.9754
 362  788.2806
 363  734.1329
 364  690.4602
 365  662.3992
 366  714.7047
 367  746.5636
 368  824.2913
 369  759.1014
 370  775.5355
 371  687.5126
 372  576.4789
 373  707.134
 374  732.3921
 375  704.9483
 376  761.7765
 377  792.0342
 378  877.7827
 379  775.5656
 380  598.9329
 381  705.4522
 382  747.6258
 383  700.6014
 384  754.8752
 385  745.2729
 386  709.6129
 387  725.0768
 388  757.0675
 389  807.9636
 390  813.6248
 391  928.4474
 392  873.2653
 393  712.7577
 394  758.9951
 395  769.7317
 396  704.8881
 397  765.1476
 398  860.4073
 399  797.3939
 400  734.1619
 401  700.8152
 402  657.8532
 403  715.7375
 404  678.6891
 405  705.8724
 406  679.6019
 407  800.4036
 408  727.8868
 409  686.2747
 410  700.8175
 411  812.5384
 412  708.8456
 413  719.2243
 414  756.7989
 415  793.6052
 416  800.064
 417  749.0757
 418  732.6434
 419  792.6881
 420  684.7241
 421  654.3466
 422  663.1215
 423  779.4001
 424  790.9249
 425  626.7021
 426  597.8984
 427  649.4161
 428  736.6694
 429  660.9227
 430  598.9933
 431  611.6722
 432  628.7268
 433  717.7339
 434  624.3737
 435  599.0746
 436  621.6874
 437  692.7836
 438  770.4449
 439  720.7028
 440  705.6057
 441  704.3244
 442  683.5665
 443  730.4695
 444  768.6446
 445  793.1472
 446  773.0982
 447  779.9731
 448  816.2968
 449  719.2795
 450  741.5119
 451  716.8727
 452  778.5295
 453  750.0704
 454  641.8561
 455  762.8823
 456  896.388
 457  765.2519
 458  590.6692
 459  676.02
 460  676.4818
 461  644.0552
 462  529.796
 463  705.3819
 464  828.2116
 465  829.8196
 466  786.4594
 467  710.366
 468  762.921
 469  812.66
 470  769.0761
 471  862.6869
 472  877.7436
 473  865.3546
 474  826.4071
 475  834.717
 476  739.4753
 477  827.7888
 478  881.6299
 479  773.0306
 480  764.3193
 481  695.0866
 482  708.3152
 483  740.975
 484  653.5867
 485  708.738
 486  662.4377
 487  664.7866
 488  713.1167
 489  716.005
 490  768.4278
 491  764.9142
 492  749.4579
 493  762.1292
 494  750.363
 495  804.6528
 496  786.5216
 497  777.8795
 498  861.3928
 499  826.1232
 500  772.8232
 501  769.5748
 502  828.7543
 503  891.2011
 504  841.1377
 505  845.3064
 506  879.4899
 507  978.7552
 508  1025.863
 509  1025.619
 510  1047.918
 511  1152.28
