# Input file       =  1203414632.110324_cleaned.dat
# Candidate        =  PSR_0332+5434
# Telescope        =  AR
# Epoch_topo       =  58172.409885536159
# Epoch_bary       =  N/A
# T_sample         =  0.002
# Data Folded      =  7208960
# Data Avg         =  0.0936037208944619
# Data StdDev      =  1.0001588998527  
# Profile Bins     =  512
# Profile Avg      =  1317.86101893909 
# Profile StdDev   =  118.678030719085 
# Reduced chi-sqr  =  1.112
# Prob(Noise)      <  0.0405   (~1.7 sigma)
# P_topo (ms)      =  714.580719109121  +/- 0.000269
# P'_topo (s/s)    =  -0                +/- 1.44e-10
# P''_topo (s/s^2) =  0                 +/- 6.49e-14
# P_bary (ms)      =  N/A
# P'_bary (s/s)    =  N/A
# P''_bary (s/s^2) =  N/A
# P_orb (s)        =  N/A
# asin(i)/c (s)    =  N/A
# eccentricity     =  N/A
# w (rad)          =  N/A
# T_peri           =  N/A
######################################################
   0  1739.316
   1  1756.045
   2  1655.047
   3  1535.945
   4  1385.484
   5  1275.074
   6  1275.949
   7  1256.82
   8  1284.889
   9  1326.596
  10  1362.662
  11  1351.023
  12  1294.061
  13  1276.97
  14  1228.221
  15  1197.728
  16  1203.801
  17  1243.075
  18  1273.558
  19  1296.231
  20  1347.862
  21  1287.46
  22  1341
  23  1300.19
  24  1281.96
  25  1327.776
  26  1198.731
  27  1161.99
  28  1187.359
  29  1344.593
  30  1292.123
  31  1248.995
  32  1366.483
  33  1438.998
  34  1415.216
  35  1377.25
  36  1285.534
  37  1224.895
  38  1336.771
  39  1289.504
  40  1321.679
  41  1298.414
  42  1311.242
  43  1300.58
  44  1210.966
  45  1163.56
  46  1164.181
  47  1278.413
  48  1366.793
  49  1395.729
  50  1440.365
  51  1272.493
  52  1316.556
  53  1340.973
  54  1328.512
  55  1332.227
  56  1327.264
  57  1257.207
  58  1297.684
  59  1301.79
  60  1200.136
  61  1229.985
  62  1262.897
  63  1274.851
  64  1229.476
  65  1210.001
  66  1280.617
  67  1333.365
  68  1295.107
  69  1247.569
  70  1320.655
  71  1368.039
  72  1191.899
  73  1207.051
  74  1293.54
  75  1274.969
  76  1343.536
  77  1368.943
  78  1361.652
  79  1224.038
  80  1249.933
  81  1222.808
  82  1225.086
  83  1267.587
  84  1323.714
  85  1319.698
  86  1301.213
  87  1378.842
  88  1389.289
  89  1430.761
  90  1279.418
  91  1244.536
  92  1188.431
  93  1183.795
  94  1270.381
  95  1230.702
  96  1251.422
  97  1260.112
  98  1287.784
  99  1296.613
 100  1175.007
 101  1113.897
 102  1167.999
 103  1151.824
 104  1224.335
 105  1322.926
 106  1298.84
 107  1341.969
 108  1330.621
 109  1234.196
 110  1314.095
 111  1249.34
 112  1304.692
 113  1341.054
 114  1273.078
 115  1367.881
 116  1404.122
 117  1353.344
 118  1401.245
 119  1318.977
 120  1358.054
 121  1471.855
 122  1422.294
 123  1328.655
 124  1302.793
 125  1325.607
 126  1376.043
 127  1389.557
 128  1293.202
 129  1309.694
 130  1339.421
 131  1309.796
 132  1301.557
 133  1315.403
 134  1281.091
 135  1434.793
 136  1405.972
 137  1389.59
 138  1351.558
 139  1392.038
 140  1410.411
 141  1342.064
 142  1311.36
 143  1226.184
 144  1140.741
 145  1183.866
 146  1289.199
 147  1311.642
 148  1270.443
 149  1285.848
 150  1320.344
 151  1338.161
 152  1302.724
 153  1311.778
 154  1412.768
 155  1346.67
 156  1272.565
 157  1428.302
 158  1389.372
 159  1321.589
 160  1294.879
 161  1416.153
 162  1356.32
 163  1230.839
 164  1275.025
 165  1341.652
 166  1410.269
 167  1453.053
 168  1335.095
 169  1302.926
 170  1376.912
 171  1402.732
 172  1313.277
 173  1353.787
 174  1296.429
 175  1216.355
 176  1250.146
 177  1291.825
 178  1278.549
 179  1259.311
 180  1295.647
 181  1289.048
 182  1330.704
 183  1216.392
 184  1229.454
 185  1219.301
 186  1249.662
 187  1297.384
 188  1274.818
 189  1330.997
 190  1434.15
 191  1370.576
 192  1144.807
 193  1144.127
 194  1213.888
 195  1193.173
 196  1151.536
 197  1247.743
 198  1255.601
 199  1256.857
 200  1236.936
 201  1213.013
 202  1190.319
 203  1242.393
 204  1174.248
 205  1264.424
 206  1248.944
 207  1156.172
 208  1145.871
 209  1099.45
 210  1126.177
 211  1199.182
 212  1222.971
 213  1158.078
 214  1176.272
 215  1226.237
 216  1202.684
 217  1347.63
 218  1237.103
 219  1227.475
 220  1192.18
 221  1191.674
 222  1141.831
 223  1263.115
 224  1405.645
 225  1367.576
 226  1315.427
 227  1342.155
 228  1270.382
 229  1350.924
 230  1320.175
 231  1289.677
 232  1216.365
 233  1184.613
 234  1109.078
 235  1157.265
 236  1173.561
 237  1204.858
 238  1271.786
 239  1257.443
 240  1273.138
 241  1362.314
 242  1319.756
 243  1255.206
 244  1248.865
 245  1369.669
 246  1417.329
 247  1289.87
 248  1314.444
 249  1183.781
 250  1197.936
 251  1249.369
 252  1306.417
 253  1272.565
 254  1254.405
 255  1334.221
 256  1361.266
 257  1353.544
 258  1293.528
 259  1294.404
 260  1322.41
 261  1300.833
 262  1412.638
 263  1358.999
 264  1396.78
 265  1271.982
 266  1308.191
 267  1370.179
 268  1457.407
 269  1460.451
 270  1394.802
 271  1307.098
 272  1358.9
 273  1259.842
 274  1266.355
 275  1318.843
 276  1260.962
 277  1346.237
 278  1375.914
 279  1310.68
 280  1342.344
 281  1429.39
 282  1391.141
 283  1287.507
 284  1322.441
 285  1400.406
 286  1366.401
 287  1358.024
 288  1375.919
 289  1414.292
 290  1354.464
 291  1284.52
 292  1182.593
 293  1187.208
 294  1256.297
 295  1315.347
 296  1330.181
 297  1323.985
 298  1382.053
 299  1350.628
 300  1373.053
 301  1348.551
 302  1338.68
 303  1318.169
 304  1307.803
 305  1204.744
 306  1294.737
 307  1338.739
 308  1296.448
 309  1283.637
 310  1267.374
 311  1187.866
 312  1264.926
 313  1279.388
 314  1302.839
 315  1281.976
 316  1359.051
 317  1269.114
 318  1166.876
 319  1088.878
 320  1228.961
 321  1413.426
 322  1376.627
 323  1267.012
 324  1213.252
 325  1249.593
 326  1312.038
 327  1331.495
 328  1385.6
 329  1378.486
 330  1404.755
 331  1426.13
 332  1321.22
 333  1279.418
 334  1347.437
 335  1262.425
 336  1315.664
 337  1279.497
 338  1188.17
 339  1309.328
 340  1276.081
 341  1264.724
 342  1259.274
 343  1223.249
 344  1247.839
 345  1161.848
 346  1244.64
 347  1282.561
 348  1181.123
 349  1229.419
 350  1235.625
 351  1223.969
 352  1221.536
 353  1313.596
 354  1312.236
 355  1306.582
 356  1254.928
 357  1261.651
 358  1265.992
 359  1280.095
 360  1293.448
 361  1258.166
 362  1279.048
 363  1324.008
 364  1349.946
 365  1241.242
 366  1327.979
 367  1416.472
 368  1328.281
 369  1242.813
 370  1221.369
 371  1257.47
 372  1284.02
 373  1415.489
 374  1414.758
 375  1336.843
 376  1396.243
 377  1401.793
 378  1296.542
 379  1273.574
 380  1375.998
 381  1388.877
 382  1302.474
 383  1328.15
 384  1376.96
 385  1366.921
 386  1316.032
 387  1348.443
 388  1368.321
 389  1391.656
 390  1356.279
 391  1365.406
 392  1335.807
 393  1389.949
 394  1412.786
 395  1406.718
 396  1385.396
 397  1438.457
 398  1513.987
 399  1474.598
 400  1338.899
 401  1410.354
 402  1469.826
 403  1403.774
 404  1446.172
 405  1522.964
 406  1436.953
 407  1426.93
 408  1455.912
 409  1454.115
 410  1521.157
 411  1493.316
 412  1500.565
 413  1514.201
 414  1512.999
 415  1481.281
 416  1479.077
 417  1488.678
 418  1433.596
 419  1415.259
 420  1382.791
 421  1421.292
 422  1495.569
 423  1463.227
 424  1356.658
 425  1360.627
 426  1416.972
 427  1342.919
 428  1453.571
 429  1482.816
 430  1428.565
 431  1365.928
 432  1290.102
 433  1259.987
 434  1251.18
 435  1384.73
 436  1415.995
 437  1376.289
 438  1371.543
 439  1394.666
 440  1355.739
 441  1379.914
 442  1283.905
 443  1317.358
 444  1329.977
 445  1311.275
 446  1376.124
 447  1445.777
 448  1395.356
 449  1397.474
 450  1332.546
 451  1317.736
 452  1289.626
 453  1285.914
 454  1251.008
 455  1177.846
 456  1157.893
 457  1288.45
 458  1363.132
 459  1261.934
 460  1415.726
 461  1418.725
 462  1317.784
 463  1318.578
 464  1386.025
 465  1406.659
 466  1379.26
 467  1402.838
 468  1350.646
 469  1383.015
 470  1438.641
 471  1345.912
 472  1270.704
 473  1273.908
 474  1255.594
 475  1187.72
 476  1204.957
 477  1309.926
 478  1352.767
 479  1447.23
 480  1376.462
 481  1295.783
 482  1302.093
 483  1426.839
 484  1479.188
 485  1321.879
 486  1207.851
 487  1309.374
 488  1315.817
 489  1252.132
 490  1260.707
 491  1320.679
 492  1277.576
 493  1279.648
 494  1313.158
 495  1354.975
 496  1433.324
 497  1440.352
 498  1475.593
 499  1311.812
 500  1330.381
 501  1255.526
 502  1339.483
 503  1426.901
 504  1417.872
 505  1470.136
 506  1464.331
 507  1402.821
 508  1441.919
 509  1473.477
 510  1588.042
 511  1744.495
