# Input file       =  1203414632.110324_cleaned.dat
# Candidate        =  PSR_0332+5434
# Telescope        =  AR
# Epoch_topo       =  58172.409885536159
# Epoch_bary       =  N/A
# T_sample         =  0.002
# Data Folded      =  7208960
# Data Avg         =  0.0936037208944619
# Data StdDev      =  1.0001588998527  
# Profile Bins     =  512
# Profile Avg      =  1317.86101886666 
# Profile StdDev   =  118.678030719085 
# Reduced chi-sqr  =  1.111
# Prob(Noise)      <  0.0411   (~1.7 sigma)
# P_topo (ms)      =  714.580719182438  +/- 0.000266
# P'_topo (s/s)    =  -0                +/- 1.43e-10
# P''_topo (s/s^2) =  0                 +/- 6.43e-14
# P_bary (ms)      =  N/A
# P'_bary (s/s)    =  N/A
# P''_bary (s/s^2) =  N/A
# P_orb (s)        =  N/A
# asin(i)/c (s)    =  N/A
# eccentricity     =  N/A
# w (rad)          =  N/A
# T_peri           =  N/A
######################################################
   0  1764.552
   1  1695.882
   2  1594.069
   3  1450.991
   4  1311.984
   5  1267.48
   6  1266.545
   7  1258.106
   8  1331.82
   9  1330.992
  10  1389.731
  11  1295.763
  12  1293.307
  13  1249.403
  14  1213.086
  15  1201.319
  16  1210.126
  17  1272.931
  18  1277.17
  19  1335.366
  20  1319.146
  21  1301.932
  22  1333.689
  23  1276.475
  24  1320.514
  25  1269.796
  26  1155.45
  27  1171.612
  28  1269.021
  29  1358.477
  30  1217.541
  31  1314.096
  32  1412.666
  33  1449.327
  34  1395.37
  35  1352.238
  36  1208.399
  37  1290.989
  38  1317.261
  39  1291.624
  40  1324.77
  41  1274.709
  42  1342.646
  43  1230.298
  44  1202.79
  45  1134.891
  46  1240.773
  47  1327.658
  48  1382.799
  49  1434.278
  50  1350.56
  51  1270.678
  52  1344.979
  53  1331.763
  54  1322.35
  55  1354.662
  56  1277.584
  57  1271.395
  58  1320.832
  59  1246.561
  60  1187.442
  61  1265.195
  62  1253.18
  63  1278.216
  64  1189.069
  65  1263.498
  66  1286.572
  67  1347.991
  68  1243.462
  69  1298.034
  70  1360.289
  71  1285.011
  72  1155.814
  73  1275.612
  74  1279.224
  75  1315.814
  76  1362.986
  77  1379.657
  78  1272.05
  79  1222.194
  80  1254.974
  81  1194.2
  82  1259.984
  83  1283.997
  84  1350.265
  85  1295.322
  86  1351.808
  87  1373.657
  88  1427.029
  89  1347.689
  90  1248.331
  91  1225.01
  92  1156.332
  93  1243.152
  94  1257.693
  95  1238.959
  96  1260.66
  97  1265.824
  98  1303.748
  99  1248.393
 100  1103.135
 101  1165.636
 102  1142.26
 103  1190.362
 104  1286.505
 105  1323.518
 106  1302.963
 107  1370.763
 108  1244.148
 109  1283.183
 110  1288.916
 111  1262
 112  1358.66
 113  1278.431
 114  1324.495
 115  1385.022
 116  1389.152
 117  1365.374
 118  1380.808
 119  1308.491
 120  1446.11
 121  1460.588
 122  1355.642
 123  1304.668
 124  1301.955
 125  1357.277
 126  1398.479
 127  1335.615
 128  1289.268
 129  1319.729
 130  1347.74
 131  1274.55
 132  1345.131
 133  1259.465
 134  1376.764
 135  1441.208
 136  1388.975
 137  1378.312
 138  1357.896
 139  1403.312
 140  1380.863
 141  1308.916
 142  1291.39
 143  1157.339
 144  1165.61
 145  1231.306
 146  1330.672
 147  1272.708
 148  1277.111
 149  1303.823
 150  1337.796
 151  1314.61
 152  1303.884
 153  1361.819
 154  1418.423
 155  1254.85
 156  1369.511
 157  1418.701
 158  1364.353
 159  1286.137
 160  1367.978
 161  1399.328
 162  1261.213
 163  1252.162
 164  1315.617
 165  1387.174
 166  1452.135
 167  1390.943
 168  1298.34
 169  1332.546
 170  1415.47
 171  1348.475
 172  1327.181
 173  1340.482
 174  1236.092
 175  1224.418
 176  1274.441
 177  1292.901
 178  1251.018
 179  1300.635
 180  1272.62
 181  1336.175
 182  1255.66
 183  1215.493
 184  1241.058
 185  1221.371
 186  1277.348
 187  1288.651
 188  1288.703
 189  1402.021
 190  1435.18
 191  1224.085
 192  1110.076
 193  1192.058
 194  1228.7
 195  1154.084
 196  1216.118
 197  1242.067
 198  1262.26
 199  1236.544
 200  1227.611
 201  1195.736
 202  1230.675
 203  1207.452
 204  1209.033
 205  1275.738
 206  1179.768
 207  1156.276
 208  1124.604
 209  1092.893
 210  1162.63
 211  1235.909
 212  1193.239
 213  1148.487
 214  1219.79
 215  1191.274
 216  1289.244
 217  1315.61
 218  1203.104
 219  1231.538
 220  1168.878
 221  1168.581
 222  1180.234
 223  1376.833
 224  1383.461
 225  1338.264
 226  1321.019
 227  1326.333
 228  1289.985
 229  1364.51
 230  1274.855
 231  1258.391
 232  1186.074
 233  1158.234
 234  1110.808
 235  1189.362
 236  1175.64
 237  1248.206
 238  1274.312
 239  1249.422
 240  1328.908
 241  1355.229
 242  1280.759
 243  1239.712
 244  1306.274
 245  1435.676
 246  1326.849
 247  1304.633
 248  1244.2
 249  1166.119
 250  1235.467
 251  1274.977
 252  1316.037
 253  1230.441
 254  1313.365
 255  1339.231
 256  1379.808
 257  1310.242
 258  1291.56
 259  1314.8
 260  1297.759
 261  1369.208
 262  1388.963
 263  1383.104
 264  1322.573
 265  1284.958
 266  1339.78
 267  1424.885
 268  1465.131
 269  1435.494
 270  1330.994
 271  1336.757
 272  1312.823
 273  1236.58
 274  1324.129
 275  1281.09
 276  1288.161
 277  1384.585
 278  1337.078
 279  1306.523
 280  1406.14
 281  1418.072
 282  1324.448
 283  1294.425
 284  1375.149
 285  1385.964
 286  1377.296
 287  1355.421
 288  1406.623
 289  1383.373
 290  1313.263
 291  1222.894
 292  1168.637
 293  1214.486
 294  1295.427
 295  1338.036
 296  1316.696
 297  1361.329
 298  1368.6
 299  1358.022
 300  1373.427
 301  1346.053
 302  1317.979
 303  1316.704
 304  1248.361
 305  1223.335
 306  1347.516
 307  1324.353
 308  1266.609
 309  1311.887
 310  1188.628
 311  1241.076
 312  1264.872
 313  1287.948
 314  1293.868
 315  1320.187
 316  1335.94
 317  1203.279
 318  1110.814
 319  1151.12
 320  1341.445
 321  1430.268
 322  1294.573
 323  1241.997
 324  1221.462
 325  1294.485
 326  1310.493
 327  1370.077
 328  1382.838
 329  1379.67
 330  1428.941
 331  1382.271
 332  1272.852
 333  1335.266
 334  1312.203
 335  1268.247
 336  1327.165
 337  1208.608
 338  1239.449
 339  1313.518
 340  1239.595
 341  1279.677
 342  1215.213
 343  1262.041
 344  1190.613
 345  1204.702
 346  1284.21
 347  1220.112
 348  1193.036
 349  1249.545
 350  1235.742
 351  1209.277
 352  1263.007
 353  1319.788
 354  1306.993
 355  1294.385
 356  1255.392
 357  1269.974
 358  1248.469
 359  1300.444
 360  1275.214
 361  1273.188
 362  1298.046
 363  1348.942
 364  1281.248
 365  1263.356
 366  1394.199
 367  1390.859
 368  1263.391
 369  1217.022
 370  1243.509
 371  1266.951
 372  1365.107
 373  1431.506
 374  1375.161
 375  1342.485
 376  1438.789
 377  1322.139
 378  1287.927
 379  1304.729
 380  1424.181
 381  1321.403
 382  1312.514
 383  1362.174
 384  1373.955
 385  1335.84
 386  1328.572
 387  1364.226
 388  1384.605
 389  1363.388
 390  1365.13
 391  1344.886
 392  1356.325
 393  1414.602
 394  1403.999
 395  1400.078
 396  1399.268
 397  1490.648
 398  1510.917
 399  1393.81
 400  1355.27
 401  1471.132
 402  1421.606
 403  1414.714
 404  1508.436
 405  1483.565
 406  1397.522
 407  1458.538
 408  1455.057
 409  1490.506
 410  1518.742
 411  1491.333
 412  1502.629
 413  1523.669
 414  1488.174
 415  1480.393
 416  1483.566
 417  1453.698
 418  1425.829
 419  1387.822
 420  1412.108
 421  1461.197
 422  1501.566
 423  1400.785
 424  1336.889
 425  1406.032
 426  1366.591
 427  1388.752
 428  1491.375
 429  1455.134
 430  1389.316
 431  1325.309
 432  1275.47
 433  1240.203
 434  1326.209
 435  1415.446
 436  1398.711
 437  1346.399
 438  1412.063
 439  1349.056
 440  1393.376
 441  1317.824
 442  1293.351
 443  1334.524
 444  1311.621
 445  1336.99
 446  1434.052
 447  1424.639
 448  1393.438
 449  1365.508
 450  1304.843
 451  1321.179
 452  1282.266
 453  1275.219
 454  1206.944
 455  1143.917
 456  1225.068
 457  1348.436
 458  1310.668
 459  1319.385
 460  1461.83
 461  1351.86
 462  1296.262
 463  1372.854
 464  1387.27
 465  1400.926
 466  1379.685
 467  1373.177
 468  1371.392
 469  1413.052
 470  1415.769
 471  1263.451
 472  1297.982
 473  1262.325
 474  1228.609
 475  1158.636
 476  1285.713
 477  1310.277
 478  1433.1
 479  1407.213
 480  1339.055
 481  1274.762
 482  1364.017
 483  1478.478
 484  1412.134
 485  1222.871
 486  1273.833
 487  1316.711
 488  1292.859
 489  1223.496
 490  1325.064
 491  1282.642
 492  1281.898
 493  1298.237
 494  1329.999
 495  1409.444
 496  1420.188
 497  1482.089
 498  1384.25
 499  1313.124
 500  1294.484
 501  1274.068
 502  1411.069
 503  1414.656
 504  1450.633
 505  1475.343
 506  1423.531
 507  1407.845
 508  1477.438
 509  1513.884
 510  1703.854
 511  1731.265
