# Input file       =  1203672702.105511_cleaned.dat
# Candidate        =  PSR_0332+5434
# Telescope        =  AR
# Epoch_topo       =  58175.396806776749
# Epoch_bary       =  N/A
# T_sample         =  0.002
# Data Folded      =  7405568
# Data Avg         =  0.0762812522318712
# Data StdDev      =  1.00013041619635 
# Profile Bins     =  512
# Profile Avg      =  1103.34820372638 
# Profile StdDev   =  120.282055709641 
# Reduced chi-sqr  =  1.226
# Prob(Noise)      <  0.000355   (~3.4 sigma)
# P_topo (ms)      =  714.580666608259  +/- 0.000304
# P'_topo (s/s)    =  -0                +/- 1.59e-10
# P''_topo (s/s^2) =  0                 +/- 6.95e-14
# P_bary (ms)      =  N/A
# P'_bary (s/s)    =  N/A
# P''_bary (s/s^2) =  N/A
# P_orb (s)        =  N/A
# asin(i)/c (s)    =  N/A
# eccentricity     =  N/A
# w (rad)          =  N/A
# T_peri           =  N/A
######################################################
   0  1403.854
   1  1367.146
   2  1313.068
   3  1236.761
   4  1190.509
   5  1110.543
   6  1055.305
   7  1084.319
   8  1090.284
   9  1118.5
  10  1081.99
  11  1018.65
  12  984.9811
  13  1073.97
  14  1077.728
  15  1053.959
  16  1014.131
  17  1023.442
  18  1076.871
  19  1043.13
  20  1109.93
  21  1060.57
  22  953.322
  23  905.8012
  24  940.4476
  25  936.3876
  26  901.551
  27  835.1251
  28  919.8218
  29  924.9252
  30  960.6178
  31  924.7411
  32  987.8404
  33  1072.348
  34  1006.511
  35  1031.835
  36  1112.554
  37  1081.899
  38  971.0933
  39  954.3004
  40  1067.762
  41  1105.493
  42  1008.277
  43  951.5699
  44  1070.654
  45  1030.199
  46  1020.842
  47  1113.234
  48  1126.655
  49  962.4854
  50  1026.561
  51  1081.142
  52  1038.703
  53  1051.779
  54  1073.579
  55  1062.683
  56  1128.327
  57  1077.158
  58  1055.568
  59  904.342
  60  930.059
  61  887.7764
  62  994.3609
  63  1081.927
  64  916.3215
  65  919.7375
  66  1007.106
  67  917.373
  68  927.0009
  69  974.67
  70  919.5542
  71  957.2791
  72  1020.742
  73  1004.546
  74  1002.14
  75  869.6965
  76  1002.188
  77  933.7524
  78  933.7662
  79  897.2712
  80  851.985
  81  933.6827
  82  812.3412
  83  847.0331
  84  993.8809
  85  886.5712
  86  919.9344
  87  945.8452
  88  963.1623
  89  1008.581
  90  997.8347
  91  942.203
  92  926.0781
  93  923.9822
  94  966.3566
  95  920.0563
  96  994.1914
  97  1028.068
  98  1038.335
  99  1004.569
 100  1048.329
 101  1102.313
 102  1073.647
 103  1134.752
 104  1184.256
 105  1109.867
 106  1121.535
 107  1149.205
 108  1076.152
 109  1067.851
 110  965.5622
 111  1057.568
 112  1104.026
 113  1066.268
 114  1079.799
 115  1105.493
 116  1146.123
 117  1128.702
 118  1166.406
 119  1183.026
 120  1153.663
 121  1129.023
 122  1076.498
 123  1006.304
 124  952.0587
 125  1041.428
 126  1104.748
 127  1096.348
 128  1134.911
 129  1056.07
 130  1054.488
 131  1099.166
 132  1136.203
 133  1084.489
 134  1050.738
 135  1094.896
 136  1109.911
 137  1139.461
 138  1071.889
 139  1080.83
 140  1068.51
 141  1045.345
 142  1179.731
 143  1157.675
 144  1078.085
 145  1084.767
 146  1014.18
 147  1006.176
 148  1164.808
 149  1124.172
 150  1112.38
 151  1180.34
 152  1170.096
 153  1123.429
 154  1158.747
 155  1183.389
 156  1170.246
 157  1149.884
 158  1166.587
 159  1077.168
 160  1166.672
 161  1107.603
 162  1030.542
 163  1066.303
 164  1136.714
 165  1096.374
 166  1019.081
 167  1020.093
 168  1089.265
 169  1086.184
 170  1159.482
 171  1234.451
 172  1251.558
 173  1226.873
 174  1179.492
 175  1191.87
 176  1181.153
 177  1110.554
 178  1148.255
 179  1203.531
 180  1195.032
 181  1232.287
 182  1301.818
 183  1244.201
 184  1315.987
 185  1308.868
 186  1358.416
 187  1286.407
 188  1233.491
 189  1284.42
 190  1280.787
 191  1237.83
 192  1271.828
 193  1365.392
 194  1322.609
 195  1252.61
 196  1133.657
 197  1224.979
 198  1244.193
 199  1313.013
 200  1233.263
 201  1182.505
 202  1173.336
 203  1080.563
 204  1145.132
 205  1209.242
 206  1216.122
 207  1141.132
 208  1147.123
 209  1049.411
 210  1020.104
 211  1058.666
 212  1082.014
 213  1125.753
 214  1130.11
 215  1120.695
 216  1164.161
 217  1168.422
 218  1064.924
 219  937.7454
 220  1037.534
 221  1038.95
 222  1011.106
 223  905.9633
 224  1107.333
 225  1120.309
 226  1094.648
 227  972.6642
 228  962.4841
 229  1002.272
 230  1005.431
 231  1141.629
 232  1073.753
 233  1032.629
 234  1098.244
 235  1141.486
 236  1063.324
 237  1024.324
 238  931.1629
 239  947.5685
 240  1024.1
 241  1026.91
 242  990.0068
 243  996.0649
 244  986.8938
 245  985.1757
 246  979.2613
 247  1060.172
 248  980.8301
 249  945.3102
 250  991.4243
 251  1073.395
 252  1044.756
 253  1129.601
 254  1147.427
 255  1177.853
 256  1054.325
 257  1172.119
 258  1162.69
 259  1103.441
 260  1077.814
 261  1145.51
 262  1199.603
 263  1199.239
 264  1228.707
 265  1231.297
 266  1220.63
 267  1214.731
 268  1137.821
 269  1232.724
 270  1231.875
 271  1088.936
 272  1080.29
 273  1188.937
 274  1179.724
 275  1136.919
 276  1258.864
 277  1233.636
 278  1140.574
 279  1088.546
 280  1109.964
 281  1100.576
 282  1200.723
 283  1229.228
 284  1129.288
 285  1236.522
 286  1198.814
 287  1234.284
 288  1148.481
 289  1023.221
 290  1086.054
 291  1069.309
 292  1019.494
 293  987.4651
 294  1056.492
 295  1173.181
 296  1156.526
 297  1182.238
 298  1153.965
 299  1256.708
 300  1210.199
 301  1204.343
 302  1131.223
 303  1097.396
 304  1091.64
 305  1011.98
 306  1029.748
 307  1021.894
 308  1164.37
 309  1179.635
 310  1074.435
 311  1022.458
 312  1042.988
 313  1099.448
 314  1068.274
 315  1003.805
 316  1032.979
 317  1132.874
 318  1094.841
 319  1158.978
 320  1163.192
 321  1117.443
 322  1124.683
 323  1142.555
 324  1144.774
 325  1099.016
 326  1055.834
 327  1079.051
 328  1080.398
 329  1039
 330  1011.352
 331  1029.317
 332  1009.999
 333  1151.493
 334  1092.593
 335  1127.128
 336  1151.228
 337  1156.052
 338  1026.801
 339  956.6884
 340  1075.038
 341  1096.832
 342  1128.877
 343  1128.198
 344  1198.008
 345  1213.71
 346  1151.136
 347  1063.306
 348  1055.8
 349  1068.484
 350  1067.834
 351  1057.814
 352  1104.433
 353  1162.614
 354  1159.979
 355  1095.827
 356  1194.13
 357  1184.001
 358  1071.755
 359  1147.067
 360  1046.928
 361  1134.354
 362  1055.353
 363  1023.012
 364  1113.961
 365  1091.48
 366  1143.191
 367  1115.06
 368  1157.862
 369  1050.613
 370  1055.091
 371  998.0335
 372  1025.382
 373  1019.04
 374  1075.609
 375  1054.56
 376  1033.744
 377  1118.288
 378  1073.546
 379  1026.942
 380  1010.889
 381  1015.357
 382  1106.823
 383  1113.139
 384  1114.638
 385  1162.606
 386  1178.053
 387  1121.643
 388  1047.625
 389  1043.362
 390  1062.881
 391  1062.827
 392  1149.478
 393  1243.708
 394  1242.49
 395  1187.762
 396  1247.978
 397  1224.884
 398  1257.295
 399  1171.915
 400  1120.822
 401  1137.058
 402  1141.128
 403  1207.608
 404  1234.791
 405  1246.996
 406  1227.191
 407  1137.821
 408  1136.432
 409  1197.609
 410  1241.474
 411  1208
 412  1180.873
 413  1168.311
 414  1148.597
 415  1241.026
 416  1299.73
 417  1203.321
 418  1196.173
 419  1284.528
 420  1235.458
 421  1094.665
 422  1175.048
 423  1255.874
 424  1117.111
 425  1068.334
 426  1160.65
 427  1136.999
 428  1199.297
 429  1260.332
 430  1212.258
 431  1077.34
 432  1054.258
 433  917.9818
 434  1050.792
 435  1133.246
 436  1162.193
 437  1109.62
 438  1124.723
 439  1114.805
 440  1073.071
 441  1098.384
 442  1125.177
 443  1137.536
 444  1060.735
 445  1129.335
 446  1128.186
 447  1165.608
 448  1193.09
 449  1200.238
 450  1203.493
 451  1237.978
 452  1165.245
 453  1173.491
 454  1071.767
 455  1103.939
 456  1098.673
 457  1150.307
 458  1243.855
 459  1172.322
 460  1124.265
 461  1079.659
 462  1108.958
 463  1171.245
 464  1082.427
 465  1070.183
 466  1142.218
 467  1111.804
 468  1140.668
 469  1108.163
 470  1110.94
 471  1199.741
 472  1147.304
 473  1156.959
 474  1032.842
 475  1139.429
 476  1085.28
 477  1052.954
 478  1098.998
 479  1129.846
 480  1189.515
 481  1284.686
 482  1324.393
 483  1245.701
 484  1248.764
 485  1248.822
 486  1228.122
 487  1167.109
 488  1220.632
 489  1194.833
 490  1145.268
 491  1157.553
 492  1179.28
 493  1228.402
 494  1175.419
 495  1178.7
 496  1135.085
 497  1134.486
 498  1153.804
 499  1077.99
 500  1069.692
 501  1176.866
 502  1076.95
 503  1023.64
 504  999.3108
 505  1033.667
 506  1012.908
 507  1065.532
 508  1091.414
 509  1143.53
 510  1198.339
 511  1315.5
