# Input file       =  1203155681.096231_cleaned.dat
# Candidate        =  PSR_0332+5434
# Telescope        =  AR
# Epoch_topo       =  58169.412767317488
# Epoch_bary       =  N/A
# T_sample         =  0.002
# Data Folded      =  7405568
# Data Avg         =  0.0538645934112956
# Data StdDev      =  1.00018365564726 
# Profile Bins     =  512
# Profile Avg      =  779.08259619417  
# Profile StdDev   =  120.288458625197 
# Reduced chi-sqr  =  0.779
# Prob(Noise)      <  1   (~0.0 sigma)
# P_topo (ms)      =  714.580619445967  +/- 0.000449
# P'_topo (s/s)    =  -0                +/- 2.35e-10
# P''_topo (s/s^2) =  0                 +/- 1.03e-13
# P_bary (ms)      =  N/A
# P'_bary (s/s)    =  N/A
# P''_bary (s/s^2) =  N/A
# P_orb (s)        =  N/A
# asin(i)/c (s)    =  N/A
# eccentricity     =  N/A
# w (rad)          =  N/A
# T_peri           =  N/A
######################################################
   0  1095.882
   1  1073.675
   2  968.5847
   3  865.9866
   4  842.4511
   5  869.6522
   6  823.4844
   7  760.2595
   8  784.4651
   9  822.9014
  10  772.4272
  11  766.4728
  12  794.8962
  13  831.4769
  14  876.4904
  15  863.8591
  16  909.2137
  17  801.8717
  18  741.8279
  19  718.6597
  20  726.2312
  21  802.6562
  22  800.7077
  23  801.1428
  24  767.1816
  25  838.7379
  26  761.2806
  27  806.0505
  28  724.4633
  29  750.8729
  30  745.0331
  31  686.5712
  32  737.7802
  33  738.0908
  34  826.5131
  35  806.1036
  36  820.9365
  37  795.9522
  38  785.1862
  39  761.6993
  40  773.0897
  41  823.0171
  42  774.8419
  43  779.7441
  44  793.8005
  45  823.4197
  46  782.2839
  47  661.8928
  48  681.1318
  49  650.0749
  50  584.5039
  51  614.6782
  52  576.6064
  53  636.4309
  54  840.5809
  55  845.5556
  56  850.4796
  57  813.9914
  58  787.3835
  59  840.6783
  60  707.4428
  61  695.2848
  62  751.4064
  63  728.5416
  64  718.2364
  65  745.6173
  66  650.1017
  67  596.3571
  68  652.8738
  69  732.3187
  70  788.5043
  71  748.5254
  72  766.2359
  73  680.5454
  74  701.612
  75  632.0698
  76  631.7042
  77  817.8425
  78  826.3124
  79  632.597
  80  674.0229
  81  789.3992
  82  712.4863
  83  753.9804
  84  834.1449
  85  789.1375
  86  752.7159
  87  727.5834
  88  760.8854
  89  807.124
  90  868.1216
  91  845.6257
  92  794.7528
  93  774.3031
  94  708.1358
  95  759.6933
  96  807.0378
  97  839.9639
  98  946.0955
  99  848.5925
 100  778.3935
 101  799.7695
 102  674.8035
 103  721.0956
 104  766.4543
 105  711.5932
 106  828.1458
 107  812.0015
 108  794.5244
 109  722.212
 110  630.7592
 111  766.7912
 112  779.4666
 113  770.0032
 114  812.0954
 115  862.5182
 116  708.2615
 117  723.6808
 118  884.9133
 119  805.3776
 120  748.011
 121  856.2214
 122  879.3826
 123  814.6397
 124  840.285
 125  800.5413
 126  782.5629
 127  750.4127
 128  862.4912
 129  864.2709
 130  713.643
 131  760.3299
 132  767.1835
 133  714.7241
 134  817.6763
 135  826.7822
 136  835.0807
 137  763.06
 138  710.8853
 139  731.1575
 140  795.288
 141  805.2393
 142  859.8494
 143  832.9692
 144  744.5844
 145  769.4735
 146  798.8353
 147  800.3151
 148  707.3019
 149  708.1719
 150  835.4304
 151  816.6857
 152  747.9615
 153  731.7336
 154  801.402
 155  876.8381
 156  844.3167
 157  816.4211
 158  763.8365
 159  798.9259
 160  804.777
 161  863.481
 162  855.306
 163  747.3979
 164  691.4539
 165  751.1332
 166  824.783
 167  799.0626
 168  817.8233
 169  883.0945
 170  859.2445
 171  856.9808
 172  855.5112
 173  784.0323
 174  875.9324
 175  925.8862
 176  720.1303
 177  773.1653
 178  898.1282
 179  773.8087
 180  792.9326
 181  721.03
 182  760.5602
 183  703.4957
 184  704.738
 185  671.722
 186  593.2278
 187  827.2056
 188  951.2856
 189  913.4886
 190  794.2202
 191  811.5565
 192  816.2029
 193  725.5765
 194  696.4334
 195  873.3816
 196  923.7787
 197  901.659
 198  825.597
 199  903.8093
 200  832.3751
 201  738.1886
 202  742.1652
 203  799.7422
 204  832.3906
 205  799.2358
 206  844.5899
 207  855.7459
 208  809.9387
 209  814.3102
 210  838.5507
 211  787.2104
 212  777.5196
 213  745.9634
 214  635.2662
 215  772.0027
 216  733.3829
 217  739.5778
 218  722.6864
 219  720.0535
 220  785.644
 221  816.6966
 222  819.855
 223  711.6302
 224  769.0712
 225  781.459
 226  742.4501
 227  726.1993
 228  758.7413
 229  681.1042
 230  672.1359
 231  722.2736
 232  706.0915
 233  682.4321
 234  753.267
 235  798.7324
 236  783.4499
 237  747.3613
 238  748.1489
 239  814.0648
 240  809.0184
 241  856.8091
 242  792.923
 243  772.6194
 244  731.9936
 245  688.6224
 246  753.5135
 247  807.9655
 248  859.1331
 249  776.2931
 250  843.5363
 251  823.915
 252  763.2534
 253  873.4928
 254  894.6792
 255  893.5164
 256  859.7524
 257  870.2403
 258  783.9634
 259  692.5184
 260  764.935
 261  819.3303
 262  714.4309
 263  808.0932
 264  856.277
 265  809.2912
 266  688.809
 267  680.6189
 268  691.9424
 269  679.5676
 270  670.7051
 271  660.3421
 272  683.4795
 273  752.9174
 274  784.0374
 275  762.2197
 276  802.4884
 277  815.9897
 278  812.9806
 279  651.0831
 280  652.5156
 281  716.939
 282  771.7233
 283  697.6958
 284  716.4108
 285  792.4766
 286  896.4789
 287  839.98
 288  814.0139
 289  721.9555
 290  798.8569
 291  734.6039
 292  672.6512
 293  790.8136
 294  724.9314
 295  687.9829
 296  798.895
 297  722.6564
 298  675.2895
 299  710.9116
 300  694.8218
 301  757.869
 302  773.4399
 303  733.1106
 304  730.144
 305  808.1998
 306  844.5952
 307  818.1009
 308  820.0579
 309  712.0066
 310  677.7881
 311  771.86
 312  698.4437
 313  705.2505
 314  777.173
 315  740.7114
 316  763.9454
 317  815.1051
 318  772.0655
 319  662.1531
 320  725.9303
 321  797.1208
 322  802.539
 323  665.548
 324  723.674
 325  670.7462
 326  608.8459
 327  611.4171
 328  729.2307
 329  671.5118
 330  576.3557
 331  645.6248
 332  704.2474
 333  687.7042
 334  664.4455
 335  751.2455
 336  749.9526
 337  719.886
 338  740.9337
 339  728.769
 340  677.5992
 341  646.7704
 342  698.1844
 343  760.0286
 344  724.6768
 345  725.1146
 346  786.6613
 347  794.633
 348  723.8264
 349  666.1108
 350  701.2814
 351  723.5234
 352  694.9916
 353  723.337
 354  768.2438
 355  713.5507
 356  873.8298
 357  827.0533
 358  762.6841
 359  769.4032
 360  707.5825
 361  677.8074
 362  698.1136
 363  730.5612
 364  734.782
 365  739.7022
 366  724.0331
 367  756.8398
 368  732.7248
 369  767.1703
 370  702.816
 371  671.5428
 372  679.0286
 373  742.0212
 374  697.279
 375  686.0509
 376  657.9131
 377  586.964
 378  677.9026
 379  685.4821
 380  698.6316
 381  763.4374
 382  712.8862
 383  684.373
 384  657.8903
 385  732.8802
 386  834.8767
 387  747.1637
 388  821.538
 389  821.9518
 390  789.4705
 391  824.3829
 392  771.4742
 393  787.8798
 394  797.2538
 395  781.0359
 396  803.4148
 397  808.559
 398  818.6101
 399  816.8735
 400  849.897
 401  847.9224
 402  813.5902
 403  860.209
 404  957.2044
 405  912.2386
 406  770.1299
 407  778.828
 408  798.1685
 409  756.0413
 410  696.0728
 411  691.9825
 412  739.6224
 413  748.7743
 414  834.5789
 415  843.9386
 416  890.4395
 417  891.6789
 418  844.8943
 419  813.7803
 420  879.0547
 421  802.1846
 422  867.0059
 423  877.4992
 424  847.2877
 425  829.2169
 426  819.1888
 427  824.986
 428  898.6704
 429  807.9008
 430  815.1614
 431  841.1425
 432  920.591
 433  886.4439
 434  824.6708
 435  830.6819
 436  858.6092
 437  973.2065
 438  891.1679
 439  846.2407
 440  763.7057
 441  805.1595
 442  864.2601
 443  840.8234
 444  839.1635
 445  849.7509
 446  804.6981
 447  736.998
 448  798.6235
 449  790.4292
 450  833.2876
 451  803.6241
 452  749.7163
 453  805.1818
 454  768.0336
 455  770.27
 456  801.2791
 457  817.3809
 458  693.3759
 459  703.6695
 460  806.5634
 461  803.7537
 462  766.075
 463  844.4007
 464  819.8945
 465  819.1793
 466  766.0397
 467  836.4753
 468  888.0172
 469  851.6663
 470  810.9745
 471  777.9784
 472  883.6379
 473  776.3923
 474  710.4134
 475  822.4244
 476  811.8199
 477  798.593
 478  801.5571
 479  830.2204
 480  725.7087
 481  668.95
 482  705.2411
 483  821.3376
 484  786.7588
 485  888.8649
 486  874.9306
 487  849.6387
 488  793.4105
 489  740.6479
 490  789.5789
 491  801.5179
 492  837.0479
 493  763.0078
 494  679.2554
 495  735.3589
 496  742.5793
 497  694.2827
 498  800.23
 499  856.1144
 500  880.6169
 501  889.6993
 502  879.3073
 503  889.814
 504  968.8286
 505  1012.27
 506  867.6442
 507  777.955
 508  826.6322
 509  924.2187
 510  1113.353
 511  1136.662
