# Input file       =  1203271799.102448_cleaned.dat
# Candidate        =  PSR_0332+5434
# Telescope        =  AR
# Epoch_topo       =  58170.756725722778
# Epoch_bary       =  N/A
# T_sample         =  0.002
# Data Folded      =  7340032
# Data Avg         =  0.0341817145160741
# Data StdDev      =  1.00006748676947 
# Profile Bins     =  512
# Profile Avg      =  490.075035471154 
# Profile StdDev   =  119.74111677259  
# Reduced chi-sqr  =  1.239
# Prob(Noise)      <  0.000172   (~3.6 sigma)
# P_topo (ms)      =  714.581041492804  +/- 0.000212
# P'_topo (s/s)    =  -0                +/- 1.12e-10
# P''_topo (s/s^2) =  0                 +/- 4.94e-14
# P_bary (ms)      =  N/A
# P'_bary (s/s)    =  N/A
# P''_bary (s/s^2) =  N/A
# P_orb (s)        =  N/A
# asin(i)/c (s)    =  N/A
# eccentricity     =  N/A
# w (rad)          =  N/A
# T_peri           =  N/A
######################################################
   0  977.2881
   1  1067.755
   2  970.7885
   3  757.5546
   4  626.9753
   5  463.162
   6  419.9248
   7  384.4151
   8  430.9531
   9  471.4694
  10  392.3674
  11  483.5245
  12  475.8847
  13  414.8757
  14  396.3175
  15  441.6852
  16  497.6107
  17  675.6723
  18  691.0329
  19  475.5324
  20  425.4457
  21  377.0337
  22  505.2784
  23  685.345
  24  499.622
  25  434.2171
  26  423.0991
  27  384.8099
  28  388.7506
  29  397.2834
  30  390.0818
  31  389.1238
  32  428.7278
  33  413.3873
  34  310.8027
  35  356.8728
  36  368.8698
  37  359.3034
  38  403.2635
  39  355.4959
  40  429.1626
  41  506.4289
  42  566.5383
  43  475.6278
  44  486.5113
  45  389.2508
  46  325.0802
  47  456.0735
  48  530.4943
  49  438.3008
  50  430.7614
  51  484.5284
  52  429.5422
  53  477.4253
  54  485.421
  55  392.8346
  56  525.5421
  57  565.3867
  58  432.6745
  59  397.0753
  60  393.8413
  61  379.6174
  62  437.7136
  63  493.8489
  64  450.4202
  65  454.5851
  66  405.5245
  67  401.1169
  68  356.8929
  69  468.0547
  70  525.4894
  71  453.5302
  72  473.0143
  73  536.2163
  74  511.692
  75  495.263
  76  463.4856
  77  577.9053
  78  566.1169
  79  702.0158
  80  569.0606
  81  452.8684
  82  383.6576
  83  405.5285
  84  554.43
  85  612.8201
  86  573.8214
  87  571.2053
  88  405.0989
  89  491.7931
  90  545.7913
  91  499.4537
  92  433.5957
  93  531.4365
  94  597.2609
  95  551.0369
  96  479.4231
  97  465.895
  98  441.2805
  99  516.552
 100  383.6738
 101  429.5667
 102  410.0043
 103  391.9486
 104  490.7938
 105  579.0209
 106  659.438
 107  586.4964
 108  540.6539
 109  468.8398
 110  487.4117
 111  402.0325
 112  521.193
 113  589.6516
 114  414.9904
 115  397.1936
 116  342.7546
 117  269.4478
 118  431.4927
 119  579.59
 120  565.0442
 121  588.824
 122  538.54
 123  476.2968
 124  486.5568
 125  516.0579
 126  576.518
 127  560.1619
 128  500.1963
 129  462.3839
 130  475.4126
 131  532.7553
 132  543.8569
 133  493.0561
 134  484.7159
 135  438.6869
 136  414.4319
 137  618.8863
 138  626.6423
 139  567.2479
 140  433.5087
 141  377.1595
 142  382.9408
 143  452.4221
 144  561.2711
 145  592.2599
 146  533.5317
 147  521.364
 148  609.8185
 149  582.6996
 150  561.1305
 151  525.9572
 152  523.7551
 153  553.3914
 154  563.5413
 155  582.3431
 156  642.7232
 157  586.8737
 158  523.1683
 159  466.0917
 160  513.0858
 161  541.9415
 162  533.9914
 163  628.8108
 164  644.6552
 165  467.0312
 166  476.4388
 167  548.8567
 168  431.8714
 169  415.5689
 170  523.5316
 171  564.6123
 172  564.7728
 173  494.7678
 174  413.4035
 175  419.3232
 176  459.6036
 177  549.2388
 178  640.3962
 179  527.4612
 180  526.4208
 181  501.2459
 182  507.8572
 183  586.9967
 184  476.194
 185  386.7868
 186  476.5602
 187  507.3255
 188  479.7585
 189  461.3392
 190  602.0162
 191  603.89
 192  568.4386
 193  630.2654
 194  563.1313
 195  569.937
 196  600.0272
 197  570.2072
 198  571.5532
 199  396.7577
 200  471.1295
 201  650.9549
 202  610.4156
 203  485.1197
 204  499.1619
 205  669.9448
 206  543.7789
 207  395.9378
 208  526.0435
 209  518.6636
 210  501.9948
 211  591.1315
 212  363.2529
 213  411.3759
 214  609.6857
 215  657.6592
 216  638.6214
 217  625.2432
 218  482.8295
 219  446.8558
 220  475.4326
 221  511.5288
 222  470.1975
 223  402.7352
 224  340.9008
 225  457.8403
 226  458.4426
 227  549.3679
 228  485.963
 229  429.8443
 230  434.2355
 231  335.1778
 232  337.169
 233  433.2802
 234  487.7133
 235  572.7164
 236  544.8762
 237  621.7526
 238  542.9648
 239  512.7635
 240  649.5594
 241  691.0983
 242  434.9406
 243  418.5183
 244  424.5138
 245  404.3896
 246  395.9886
 247  472.8798
 248  459.2711
 249  399.5825
 250  406.7734
 251  456.7661
 252  412.6046
 253  348.8106
 254  451.4257
 255  459.5173
 256  378.2959
 257  333.9595
 258  356.2141
 259  600.5101
 260  474.7144
 261  482.0378
 262  469.9337
 263  343.5735
 264  340.5881
 265  503.194
 266  452.1133
 267  420.4313
 268  385.5165
 269  503.1018
 270  531.2685
 271  361.7763
 272  400.5847
 273  424.3635
 274  446.2849
 275  342.5481
 276  441.0923
 277  488.4913
 278  529.348
 279  461.3614
 280  432.6418
 281  386.8524
 282  315.4514
 283  370.3677
 284  423.0667
 285  488.4781
 286  400.0598
 287  293.1563
 288  342.0991
 289  408.5551
 290  509.9522
 291  428.1544
 292  523.3585
 293  662.3272
 294  623.0369
 295  484.2565
 296  426.068
 297  351.4633
 298  287.4038
 299  432.0965
 300  543.869
 301  584.1367
 302  605.8956
 303  480.3523
 304  433.8442
 305  491.6644
 306  560.1948
 307  485.5483
 308  481.9504
 309  523.5106
 310  571.7792
 311  553.5059
 312  547.5685
 313  556.8863
 314  549.9957
 315  567.2999
 316  527.6724
 317  427.0249
 318  615.2538
 319  608.265
 320  568.0819
 321  674.1985
 322  561.7614
 323  511.9105
 324  435.6333
 325  455.7268
 326  563.4319
 327  479.2962
 328  388.1756
 329  476.8835
 330  587.3304
 331  651.5319
 332  663.0529
 333  557.0582
 334  643.501
 335  668.2097
 336  511.4507
 337  472.951
 338  509.6587
 339  522.3858
 340  490.3926
 341  434.8538
 342  358.5174
 343  450.669
 344  415.2985
 345  456.4026
 346  567.8115
 347  601.5892
 348  534.6761
 349  650.5776
 350  600.0038
 351  692.8328
 352  642.8832
 353  455.7077
 354  456.9584
 355  516.0779
 356  471.7851
 357  549.4586
 358  580.4843
 359  564.2744
 360  455.0599
 361  445.2501
 362  564.9542
 363  478.2233
 364  428.0786
 365  455.8832
 366  452.3985
 367  443.2062
 368  438.645
 369  417.1204
 370  502.4853
 371  491.4464
 372  429.0898
 373  495.6536
 374  407.7432
 375  297.0561
 376  395.2312
 377  498.2923
 378  445.9597
 379  397.3672
 380  429.4404
 381  414.2017
 382  446.2343
 383  511.3385
 384  480.2492
 385  302.886
 386  283.5038
 387  414.812
 388  401.953
 389  324.8523
 390  529.6639
 391  482.3117
 392  510.3965
 393  459.4737
 394  433.9929
 395  513.33
 396  469.3046
 397  404.7721
 398  371
 399  445.2169
 400  426.6395
 401  245.3804
 402  322.4887
 403  456.5331
 404  377.6571
 405  334.1826
 406  354.9539
 407  356.7332
 408  374.0459
 409  355.6259
 410  403.6604
 411  428.6718
 412  483.8691
 413  478.3345
 414  460.8515
 415  501.2085
 416  453.5357
 417  386.6778
 418  326.6895
 419  390.6779
 420  431.0298
 421  474.0629
 422  499.9738
 423  522.6456
 424  459.4261
 425  474.9376
 426  416.084
 427  410.3062
 428  500.3879
 429  501.4033
 430  471.2913
 431  350.5128
 432  395.6541
 433  508.1532
 434  412.8266
 435  439.5654
 436  434.4599
 437  472.8798
 438  493.7383
 439  494.4231
 440  603.2309
 441  621.588
 442  575.6454
 443  553.9758
 444  591.6944
 445  628.4135
 446  648.8702
 447  467.8254
 448  600.1693
 449  626.2795
 450  485.0599
 451  553.4132
 452  528.8718
 453  519.6895
 454  488.3956
 455  428.265
 456  398.0904
 457  485.2362
 458  579.6506
 459  431.6771
 460  443.0858
 461  475.296
 462  487.5941
 463  412.7782
 464  327.3417
 465  515.1617
 466  516.0323
 467  537.501
 468  522.7831
 469  544.6724
 470  546.5017
 471  517.0572
 472  448.9568
 473  355.856
 474  364.5433
 475  454.9395
 476  436.81
 477  493.7985
 478  524.1077
 479  506.9156
 480  459.8718
 481  531.174
 482  464.4238
 483  566.8402
 484  626.5035
 485  563.7469
 486  633.356
 487  543.9457
 488  396.6486
 489  354.7613
 490  377.672
 491  355.0432
 492  537.592
 493  608.3762
 494  579.1548
 495  440.4073
 496  529.8933
 497  562.205
 498  541.6571
 499  470.6481
 500  542.178
 501  545.7149
 502  503.2423
 503  540.3302
 504  548.6752
 505  527.127
 506  536.559
 507  624.4808
 508  661.5969
 509  702.3047
 510  723.4498
 511  830.5101
