# Input file       =  1204032628.106903_cleaned.dat
# Candidate        =  PSR_0332+5434
# Telescope        =  AR
# Epoch_topo       =  58179.562616978044
# Epoch_bary       =  N/A
# T_sample         =  0.002
# Data Folded      =  7340032
# Data Avg         =  0.0456113259293825
# Data StdDev      =  0.999973484115207
# Profile Bins     =  512
# Profile Avg      =  652.995142868156 
# Profile StdDev   =  119.729861549368 
# Reduced chi-sqr  =  1.308
# Prob(Noise)      <  3.14e-06   (~4.5 sigma)
# P_topo (ms)      =  714.58035287933   +/- 0.000449
# P'_topo (s/s)    =  -0                +/- 2.37e-10
# P''_topo (s/s^2) =  0                 +/- 1.05e-13
# P_bary (ms)      =  N/A
# P'_bary (s/s)    =  N/A
# P''_bary (s/s^2) =  N/A
# P_orb (s)        =  N/A
# asin(i)/c (s)    =  N/A
# eccentricity     =  N/A
# w (rad)          =  N/A
# T_peri           =  N/A
######################################################
   0  1133.213
   1  1056.304
   2  1048.559
   3  944.4922
   4  820.1295
   5  775.5158
   6  797.7488
   7  869.4239
   8  829.018
   9  784.7945
  10  775.4626
  11  740.2334
  12  832.5481
  13  832.0678
  14  813.0908
  15  812.4559
  16  800.369
  17  780.1732
  18  762.6108
  19  762.3693
  20  817.7772
  21  785.8218
  22  770.8429
  23  717.8305
  24  660.7408
  25  751.1957
  26  727.517
  27  737.6376
  28  802.9517
  29  809.8938
  30  729.4281
  31  722.6276
  32  725.713
  33  771.0388
  34  746.7997
  35  675.7414
  36  734.3627
  37  704.9089
  38  593.0614
  39  561.2468
  40  587.73
  41  582.4337
  42  578.3345
  43  623.6705
  44  655.4625
  45  657.9363
  46  640.752
  47  633.4075
  48  703.4994
  49  714.6124
  50  750.7532
  51  683.236
  52  641.5723
  53  719.3264
  54  741.5604
  55  667.3445
  56  638.9959
  57  640.101
  58  679.5632
  59  628.5352
  60  578.9277
  61  623.782
  62  673.2906
  63  655.4327
  64  589.0726
  65  590.434
  66  694.0202
  67  683.6802
  68  709.1715
  69  725.0626
  70  715.4404
  71  631.8284
  72  662.2795
  73  666.567
  74  675.0446
  75  640.0742
  76  651.6316
  77  686.8512
  78  688.3691
  79  782.1166
  80  736.2209
  81  729.5274
  82  758.7418
  83  767.7497
  84  721.0831
  85  720.6598
  86  679.168
  87  726.0777
  88  747.6238
  89  724.5453
  90  783.145
  91  749.5607
  92  723.3295
  93  747.5515
  94  733.3447
  95  719.9677
  96  811.6128
  97  749.7537
  98  707.5346
  99  702.297
 100  683.063
 101  680.9945
 102  650.7122
 103  699.0843
 104  623.3097
 105  607.9453
 106  615.0311
 107  713.8885
 108  681.109
 109  570.3312
 110  563.2961
 111  586.6147
 112  596.5276
 113  598.3448
 114  633.1422
 115  631.1928
 116  597.3893
 117  628.9553
 118  525.7615
 119  508.805
 120  531.5848
 121  522.2281
 122  546.3329
 123  578.8961
 124  720.9633
 125  651.9939
 126  594.1697
 127  716.8374
 128  735.5971
 129  743.9576
 130  749.6418
 131  696.1262
 132  670.4313
 133  697.9001
 134  736.2642
 135  742.1921
 136  769.8769
 137  750.1443
 138  760.1697
 139  747.097
 140  669.2213
 141  662.5723
 142  725.6787
 143  681.4789
 144  620.4072
 145  708.1942
 146  714.3631
 147  717.1749
 148  729.5308
 149  805.9542
 150  795.5181
 151  793.2222
 152  783.4635
 153  687.731
 154  674.7115
 155  703.3191
 156  708.0156
 157  700.4408
 158  734.2994
 159  745.4244
 160  735.7759
 161  708.5872
 162  681.3114
 163  757.2399
 164  799.8481
 165  769.4136
 166  753.5088
 167  787.4075
 168  740.0645
 169  760.0081
 170  733.1979
 171  606.3742
 172  742.5562
 173  721.8195
 174  755.3148
 175  736.7262
 176  751.5369
 177  698.6149
 178  678.8466
 179  675.4759
 180  629.6651
 181  653.7881
 182  706.1785
 183  710.9772
 184  713.6136
 185  757.2974
 186  666.989
 187  589.7776
 188  684.7838
 189  656.7962
 190  640.4588
 191  595.7706
 192  475.7905
 193  573.877
 194  611.6429
 195  581.0415
 196  580.1918
 197  628.9075
 198  559.1963
 199  582.9019
 200  591.2564
 201  637.9114
 202  625.6161
 203  595.5236
 204  592.8928
 205  583.2888
 206  707.239
 207  656.5162
 208  574.9515
 209  585.203
 210  664.7873
 211  619.7367
 212  671.8857
 213  666.0581
 214  733.5675
 215  716.4014
 216  656.1469
 217  607.1487
 218  667.7145
 219  601.6495
 220  601.3505
 221  671.3857
 222  708.8167
 223  739.0293
 224  767.9194
 225  748.655
 226  745.0392
 227  800.9108
 228  804.2991
 229  739.4539
 230  693.8322
 231  789.9474
 232  783.34
 233  773.669
 234  670.1547
 235  640.4852
 236  678.2324
 237  683.3833
 238  738.1323
 239  746.4164
 240  658.593
 241  606.7338
 242  655.5881
 243  597.9409
 244  564.7187
 245  552.8064
 246  548.953
 247  624.7291
 248  588.2781
 249  552.1541
 250  552.2448
 251  488.9305
 252  480.8708
 253  424.6845
 254  436.2177
 255  495.6721
 256  525.8334
 257  477.7085
 258  458.5177
 259  396.4127
 260  414.9739
 261  429.7246
 262  436.1579
 263  470.0796
 264  439.9143
 265  437.6524
 266  524.4935
 267  567.5696
 268  570.8813
 269  453.1374
 270  499.3488
 271  520.4974
 272  514.9979
 273  511.965
 274  520.9052
 275  577.2987
 276  516.7283
 277  480.1276
 278  636.8145
 279  663.5231
 280  635.0988
 281  697.8685
 282  750.1119
 283  712.8418
 284  641.7451
 285  668.0893
 286  694.5474
 287  581.4985
 288  542.9537
 289  602.89
 290  671.7496
 291  544.7711
 292  573.0713
 293  635.1164
 294  593.7518
 295  580.476
 296  618.7753
 297  638.2766
 298  523.8358
 299  556.5039
 300  604.0361
 301  597.4358
 302  606.8448
 303  633.6873
 304  593.2549
 305  619.0043
 306  650.2687
 307  607.6315
 308  599.4935
 309  541.167
 310  610.6805
 311  612.3036
 312  564.2105
 313  650.8854
 314  633.8588
 315  637.0514
 316  663.9321
 317  662.5946
 318  754.7195
 319  724.0148
 320  684.7246
 321  708.3145
 322  667.7384
 323  670.3669
 324  632.651
 325  623.7795
 326  602.6849
 327  520.3679
 328  571.7857
 329  526.5218
 330  487.152
 331  579.713
 332  594.5145
 333  559.5673
 334  512.0825
 335  552.0093
 336  543.7595
 337  464.6657
 338  500.7056
 339  552.9417
 340  548.4291
 341  566.5023
 342  532.4836
 343  567.2996
 344  517.0409
 345  420.3911
 346  446.799
 347  533.2087
 348  528.2892
 349  505.1082
 350  571.5648
 351  590.133
 352  556.0516
 353  554.0124
 354  561.5846
 355  600.077
 356  578.2554
 357  566.465
 358  603.5521
 359  545.5344
 360  541.3497
 361  577.102
 362  519.8781
 363  662.2179
 364  700.3919
 365  652.1144
 366  630.0119
 367  602.6411
 368  613.0515
 369  610.6764
 370  682.951
 371  667.3739
 372  665.2111
 373  667.0071
 374  679.9805
 375  607.4672
 376  612.9125
 377  686.0417
 378  731.5887
 379  724.5123
 380  650.7185
 381  605.3862
 382  645.0975
 383  620.0698
 384  654.4436
 385  603.1884
 386  630.2083
 387  620.6212
 388  653.2739
 389  704.651
 390  688.3746
 391  698.7244
 392  714.4691
 393  722.8652
 394  631.1426
 395  661.813
 396  681.7625
 397  625.4203
 398  608.2903
 399  606.5212
 400  641.0692
 401  575.6296
 402  556.3409
 403  610.0663
 404  575.2456
 405  596.9692
 406  620.558
 407  541.096
 408  490.6649
 409  556.3939
 410  549.2049
 411  517.5223
 412  484.9301
 413  547.0751
 414  507.9972
 415  519.2316
 416  602.5135
 417  657.8486
 418  631.9041
 419  672.053
 420  696.2954
 421  657.6348
 422  591.6296
 423  516.0594
 424  563.6168
 425  634.9546
 426  626.0156
 427  677.2952
 428  663.1906
 429  697.2068
 430  671.2527
 431  660.3878
 432  599.7148
 433  653.9834
 434  619.4814
 435  633.0449
 436  645.438
 437  662.9154
 438  620.9814
 439  552.2144
 440  561.364
 441  604.0896
 442  555.0401
 443  615.5583
 444  590.9966
 445  619.8385
 446  581.8988
 447  621.617
 448  683.0817
 449  729.7678
 450  684.3069
 451  645.2669
 452  653.6242
 453  705.2104
 454  663.2437
 455  677.2345
 456  620.9529
 457  640.326
 458  593.116
 459  566.0853
 460  606.1633
 461  571.2095
 462  608.8262
 463  486.1958
 464  452.2158
 465  512.0585
 466  542.6638
 467  561.7116
 468  503.8065
 469  488.3622
 470  563.96
 471  497.2203
 472  539.588
 473  625.1741
 474  613.5464
 475  601.5029
 476  540.7062
 477  576.6628
 478  608.6263
 479  639.1616
 480  714.5367
 481  726.2922
 482  665.2143
 483  653.0259
 484  595.2111
 485  606.3716
 486  676.4442
 487  749.4059
 488  763.1232
 489  703.432
 490  751.3259
 491  786.476
 492  808.4564
 493  781.1051
 494  786.3186
 495  776.1738
 496  788.2015
 497  756.8096
 498  769.6059
 499  743.4496
 500  782.585
 501  790.6031
 502  767.0705
 503  788.5065
 504  759.8372
 505  841.6814
 506  885.8069
 507  799.441
 508  760.7298
 509  855.184
 510  933.0598
 511  1061.682
