# Input file       =  1204103553.100353_cleaned.dat
# Candidate        =  PSR_0332+5434
# Telescope        =  AR
# Epoch_topo       =  58180.383508105937
# Epoch_bary       =  N/A
# T_sample         =  0.002
# Data Folded      =  7208960
# Data Avg         =  0.0624533114572326
# Data StdDev      =  1.00001551922844 
# Profile Bins     =  512
# Profile Avg      =  879.401222546143 
# Profile StdDev   =  118.661017292386 
# Reduced chi-sqr  =  3.272
# Prob(Noise)      <  3.08e-123   (~23.6 sigma)
# P_topo (ms)      =  714.580232651273  +/- 2.58e-05
# P'_topo (s/s)    =  -0                +/- 1.39e-11
# P''_topo (s/s^2) =  0                 +/- 6.24e-15
# P_bary (ms)      =  N/A
# P'_bary (s/s)    =  N/A
# P''_bary (s/s^2) =  N/A
# P_orb (s)        =  N/A
# asin(i)/c (s)    =  N/A
# eccentricity     =  N/A
# w (rad)          =  N/A
# T_peri           =  N/A
######################################################
   0  1232.997
   1  1224.099
   2  991.8883
   3  812.6028
   4  723.1565
   5  640.5829
   6  747.4457
   7  881.337
   8  913.1977
   9  898.6145
  10  937.4854
  11  839.9579
  12  737.6885
  13  812.2569
  14  787.293
  15  762.325
  16  822.65
  17  841.9438
  18  791.0983
  19  683.1514
  20  634.6575
  21  738.1924
  22  877.7685
  23  855.9511
  24  968.5596
  25  999.6913
  26  976.0193
  27  721.5933
  28  656.4338
  29  705.1433
  30  613.9381
  31  674.9241
  32  828.7361
  33  967.9244
  34  961.1777
  35  831.7573
  36  813.6841
  37  828.042
  38  782.1215
  39  819.1557
  40  855.4375
  41  873.9851
  42  897.8388
  43  1024.869
  44  870.0383
  45  879.9022
  46  924.5842
  47  902.1902
  48  932.3367
  49  915.7928
  50  903.4753
  51  865.2088
  52  894.1059
  53  971.1716
  54  873.1048
  55  836.5963
  56  1011.868
  57  1049.62
  58  1039.596
  59  911.5961
  60  834.4491
  61  790.2546
  62  773.5661
  63  743.827
  64  825.1138
  65  937.8733
  66  995.3598
  67  1075.147
  68  1021.565
  69  961.7038
  70  844.3873
  71  784.2556
  72  928.2728
  73  833.1531
  74  1025.823
  75  987.2386
  76  907.7333
  77  934.6249
  78  815.0965
  79  891.2154
  80  922.9589
  81  902.5399
  82  933.8698
  83  852.4182
  84  870.3009
  85  853.8829
  86  775.6492
  87  805.5414
  88  794.0834
  89  866.1547
  90  910.6439
  91  983.5582
  92  896.0762
  93  826.9666
  94  801.4995
  95  769.4791
  96  693.8999
  97  779.3784
  98  875.5277
  99  1000.635
 100  1075.579
 101  933.8953
 102  787.3856
 103  773.9397
 104  799.1897
 105  796.3174
 106  883.0496
 107  947.4686
 108  1090.564
 109  1066.947
 110  1006.057
 111  881.4197
 112  936.6456
 113  939.7675
 114  938.2281
 115  1079.97
 116  1204.573
 117  1093.737
 118  950.5923
 119  946.8837
 120  966.912
 121  930.9151
 122  1088.364
 123  1120.827
 124  1153.921
 125  1198.349
 126  1072.137
 127  1040.018
 128  990.1135
 129  1075.876
 130  1086.214
 131  998.3958
 132  1017.34
 133  1082.607
 134  1140.369
 135  958.6169
 136  999.7816
 137  1045.643
 138  1090.023
 139  1249.954
 140  1347.119
 141  1361.539
 142  1292.411
 143  1136.519
 144  1168.058
 145  1120.795
 146  1091.009
 147  1054.9
 148  992.4431
 149  1230.626
 150  1214.079
 151  1066.871
 152  1053.85
 153  1072.39
 154  1047.596
 155  1097.557
 156  1184.762
 157  1229.952
 158  1322.84
 159  1257.037
 160  1088.275
 161  947.3516
 162  1033.949
 163  1195.026
 164  1300.646
 165  1320.809
 166  1164.688
 167  1040.406
 168  923.6814
 169  1020.599
 170  987.5679
 171  1110.099
 172  1076.171
 173  1217.371
 174  1302.757
 175  1159.361
 176  988.5377
 177  1057.341
 178  1043.002
 179  1016.908
 180  1032.366
 181  1031.548
 182  1192.482
 183  1237.119
 184  1140.766
 185  958.4084
 186  950.6081
 187  1027.374
 188  1096.85
 189  1173.602
 190  1231.617
 191  1304.515
 192  1169.496
 193  1032.16
 194  954.2708
 195  937.7553
 196  989.7551
 197  981.6086
 198  1073.273
 199  1035.862
 200  981.7751
 201  963.5744
 202  989.4188
 203  1018.332
 204  959.5252
 205  1058.056
 206  1152.18
 207  1268.691
 208  1196.372
 209  1048.642
 210  903.8221
 211  918.5471
 212  976.8582
 213  968.5292
 214  1071.877
 215  1109.619
 216  881.4878
 217  850.1536
 218  906.7087
 219  1024.999
 220  978.3377
 221  1060.719
 222  1025.135
 223  1066.323
 224  987.8564
 225  958.0034
 226  908.7358
 227  795.191
 228  803.118
 229  837.3638
 230  809.7045
 231  971.2806
 232  985.1194
 233  940.6149
 234  811.3856
 235  803.9396
 236  830.347
 237  845.7807
 238  915.5204
 239  943.8924
 240  953.7594
 241  933.1593
 242  830.8621
 243  760.8244
 244  810.3943
 245  868.395
 246  951.153
 247  936.2951
 248  878.9574
 249  928.8992
 250  847.5942
 251  693.8568
 252  660.846
 253  698.2788
 254  812.6888
 255  1023.15
 256  978.7262
 257  1033.38
 258  994.9716
 259  803.1182
 260  703.8155
 261  732.7105
 262  740.4597
 263  776.5674
 264  836.9751
 265  899.5569
 266  905.7891
 267  772.7446
 268  807.9872
 269  792.4027
 270  833.6859
 271  1007.19
 272  957.8478
 273  932.1708
 274  880.3581
 275  781.8174
 276  772.1787
 277  874.7269
 278  890.9901
 279  994.8567
 280  1063.316
 281  1072.195
 282  990.8946
 283  875.5559
 284  810.9316
 285  812.8021
 286  855.8798
 287  905.1471
 288  964.2267
 289  1015.423
 290  1005.32
 291  877.0067
 292  763.2775
 293  801.1323
 294  732.4086
 295  786.3255
 296  887.0514
 297  939.9778
 298  935.7261
 299  894.4867
 300  745.3848
 301  730.9149
 302  737.1235
 303  805.5801
 304  855.4758
 305  905.6978
 306  1033.436
 307  947.986
 308  801.408
 309  853.2536
 310  839.5417
 311  776.6463
 312  765.1622
 313  770.1011
 314  941.8159
 315  935.8482
 316  819.8066
 317  862.7519
 318  777.72
 319  764.8694
 320  835.8074
 321  896.651
 322  892.4308
 323  870.2836
 324  914.4839
 325  881.0775
 326  765.9543
 327  671.0118
 328  772.7302
 329  833.8105
 330  747.7452
 331  844.6612
 332  808.9328
 333  684.5063
 334  619.6711
 335  677.3779
 336  761.3663
 337  825.6008
 338  881.1364
 339  906.2634
 340  786.7458
 341  726.9949
 342  692.8206
 343  652.1954
 344  610.3793
 345  757.5383
 346  863.2392
 347  934.2026
 348  787.0197
 349  627.307
 350  620.2344
 351  729.1151
 352  815.485
 353  902.085
 354  906.3435
 355  1060.169
 356  1035.213
 357  941.929
 358  798.0067
 359  749.7372
 360  828.0742
 361  837.6769
 362  785.8817
 363  763.9321
 364  878.1559
 365  915.829
 366  816.8848
 367  665.272
 368  762.4679
 369  683.8665
 370  699.7401
 371  807.4896
 372  977.9633
 373  889.9655
 374  747.907
 375  741.9362
 376  697.8516
 377  662.6849
 378  703.0358
 379  789.5735
 380  797.1191
 381  810.9087
 382  788.1876
 383  741.3563
 384  755.173
 385  739.8344
 386  697.149
 387  800.2548
 388  882.8216
 389  939.2202
 390  819.7244
 391  671.5676
 392  490.1867
 393  627.1545
 394  677.0383
 395  622.2191
 396  795.9857
 397  832.9513
 398  810.9133
 399  668.617
 400  592.5816
 401  630.6132
 402  716.559
 403  748.9548
 404  854.1315
 405  892.0737
 406  854.2657
 407  762.5192
 408  643.3049
 409  696.9885
 410  791.8798
 411  792.4277
 412  874.6561
 413  826.0546
 414  836.0029
 415  877.1784
 416  758.6577
 417  766.7525
 418  811.4089
 419  833.871
 420  933.6383
 421  1008.516
 422  957.9195
 423  968.8548
 424  836.2274
 425  752.4818
 426  749.6339
 427  841.3502
 428  881.7449
 429  970.1152
 430  882.1579
 431  775.7308
 432  671.4051
 433  616.6226
 434  662.3334
 435  664.8351
 436  741.2631
 437  806.8745
 438  905.8436
 439  836.7202
 440  754.4922
 441  710.0021
 442  652.7481
 443  660.2139
 444  715.3004
 445  716.1677
 446  842.7261
 447  815.972
 448  767.832
 449  675.8947
 450  619.9406
 451  843.8265
 452  795.3915
 453  814.4977
 454  901.7415
 455  898.2181
 456  832.6054
 457  771.7385
 458  779.1645
 459  712.1625
 460  625.9495
 461  735.3458
 462  800.4454
 463  764.7607
 464  709.2383
 465  629.9686
 466  621.3253
 467  687.9838
 468  692.6978
 469  610.0726
 470  734.1827
 471  843.7601
 472  857.3147
 473  785.8946
 474  603.486
 475  558.7861
 476  615.3636
 477  609.2243
 478  629.8159
 479  745.1846
 480  785.6052
 481  744.97
 482  655.004
 483  579.7022
 484  642.6528
 485  758.6753
 486  751.3591
 487  877.1413
 488  875.5653
 489  851.9738
 490  710.5731
 491  643.5621
 492  642.2411
 493  622.9386
 494  801.0836
 495  854.734
 496  871.9575
 497  894.4688
 498  687.7442
 499  580.4322
 500  663.5588
 501  797.3794
 502  878.8752
 503  874.2385
 504  848.8901
 505  909.8665
 506  759.5157
 507  623.4767
 508  668.6266
 509  782.4406
 510  938.5694
 511  1191.686
