# Input file       =  1204118180.101071_cleaned.dat
# Candidate        =  PSR_0332+5434
# Telescope        =  AR
# Epoch_topo       =  58180.552802095728
# Epoch_bary       =  N/A
# T_sample         =  0.002
# Data Folded      =  7340032
# Data Avg         =  0.0826634076481115
# Data StdDev      =  1.00009418338594 
# Profile Bins     =  512
# Profile Avg      =  1184.93785814505 
# Profile StdDev   =  119.744313239541 
# Reduced chi-sqr  =  1.331
# Prob(Noise)      <  6.99e-07   (~4.8 sigma)
# P_topo (ms)      =  714.580222410301  +/- 0.00104
# P'_topo (s/s)    =  -0                +/- 5.48e-10
# P''_topo (s/s^2) =  0                 +/- 2.42e-13
# P_bary (ms)      =  N/A
# P'_bary (s/s)    =  N/A
# P''_bary (s/s^2) =  N/A
# P_orb (s)        =  N/A
# asin(i)/c (s)    =  N/A
# eccentricity     =  N/A
# w (rad)          =  N/A
# T_peri           =  N/A
######################################################
   0  1507.687
   1  1383.358
   2  1325.068
   3  1297.238
   4  1263.28
   5  1217.993
   6  1199.225
   7  1200.915
   8  1186.639
   9  1158.897
  10  1127.814
  11  1175.581
  12  1152.442
  13  1149.724
  14  1232.361
  15  1171.752
  16  1131.368
  17  1150.236
  18  1167.79
  19  1147.818
  20  1125.601
  21  1121.189
  22  1111.453
  23  1083.125
  24  1108.201
  25  1141.888
  26  1118.379
  27  1052.88
  28  1052.695
  29  1098.982
  30  1128.805
  31  1049.83
  32  1052.69
  33  1057.666
  34  1026.978
  35  1107.709
  36  1098.737
  37  1088.326
  38  1080.444
  39  1098.308
  40  1113.264
  41  1170.282
  42  1068.022
  43  1048.85
  44  1103.163
  45  1122.577
  46  1157.061
  47  1171.645
  48  1192.703
  49  1159.865
  50  1160.294
  51  1103.438
  52  1103.444
  53  1158.187
  54  1180.771
  55  1186.791
  56  1143.211
  57  1093.502
  58  1115.911
  59  1096.91
  60  1058.627
  61  1131.659
  62  1172.217
  63  1163.08
  64  1171.643
  65  1167.047
  66  1120.551
  67  1071.437
  68  1094.629
  69  1067.251
  70  1090.817
  71  1182.565
  72  1140.065
  73  1099.608
  74  1084.612
  75  1118.492
  76  1102.012
  77  1124.76
  78  1148.608
  79  1119.445
  80  1147.544
  81  1175.473
  82  1203.251
  83  1172.92
  84  1102.211
  85  1085.182
  86  1068.915
  87  1104.753
  88  1122.645
  89  1141.787
  90  1141.203
  91  1117.068
  92  1167.718
  93  1188.921
  94  1136.489
  95  1086.767
  96  1062.64
  97  1110.214
  98  1031.518
  99  1030.038
 100  1016.792
 101  999.6077
 102  1016.924
 103  1136.123
 104  1088.034
 105  979.9827
 106  1048.65
 107  1136.858
 108  1048.216
 109  980.3364
 110  1009.676
 111  1012.832
 112  1006.789
 113  1030.538
 114  1065.88
 115  1046.22
 116  1036.436
 117  1095.549
 118  1008.837
 119  956.3292
 120  987.3924
 121  1032.365
 122  1057.898
 123  1103.469
 124  1032.362
 125  1039.271
 126  1008.831
 127  1024.588
 128  1060.215
 129  1074.223
 130  1066.048
 131  1029.917
 132  1044.575
 133  1070.033
 134  1041.227
 135  1025.142
 136  1047.813
 137  1070.368
 138  1047.086
 139  1076.007
 140  1048.186
 141  1075.565
 142  1151.233
 143  1117.004
 144  1106.048
 145  1126.255
 146  1161.495
 147  1183.103
 148  1089.736
 149  1111.403
 150  1099.994
 151  1123.066
 152  1154.101
 153  1156.585
 154  1092.811
 155  1086.693
 156  1066.034
 157  996.5693
 158  1058.562
 159  1150.568
 160  1188.068
 161  1182.865
 162  1155.444
 163  1137.413
 164  1157.675
 165  1191.383
 166  1118.01
 167  1145.084
 168  1122.878
 169  1155.212
 170  1157.399
 171  1219.646
 172  1197.258
 173  1095.237
 174  1143.975
 175  1109.731
 176  1065.446
 177  1060.07
 178  1084.112
 179  1103.935
 180  1151.075
 181  1140.71
 182  1144.614
 183  1128.728
 184  1010.324
 185  1061.693
 186  1158.299
 187  1124.65
 188  1099.922
 189  1096.243
 190  1146.142
 191  1101.253
 192  1101.434
 193  1052.576
 194  1073.997
 195  1165.436
 196  1114.144
 197  1040.973
 198  1026.277
 199  1070.75
 200  1074.598
 201  1056.868
 202  1084.634
 203  1095.301
 204  1046.17
 205  1097.881
 206  1074.621
 207  1073.951
 208  1041.034
 209  1056.018
 210  1114.909
 211  1092.06
 212  1118.491
 213  1151.901
 214  1149.954
 215  1109.731
 216  1038.677
 217  1074.417
 218  1035.343
 219  1101.639
 220  1216.262
 221  1136.982
 222  1141.666
 223  1171.921
 224  1072.183
 225  1071.252
 226  1120.617
 227  1118.296
 228  1052.945
 229  1122.619
 230  1152.042
 231  1095.093
 232  1158.69
 233  1125.582
 234  1126.186
 235  1133.048
 236  1159.788
 237  1160.245
 238  1150.804
 239  1192.982
 240  1136.491
 241  1165.572
 242  1162.133
 243  1110.347
 244  1105.163
 245  1256.019
 246  1268.515
 247  1220.948
 248  1126.558
 249  1120.717
 250  1200.52
 251  1145.205
 252  1186.115
 253  1242.901
 254  1228.29
 255  1190.742
 256  1220.82
 257  1278.126
 258  1247.035
 259  1236.912
 260  1260.478
 261  1228.01
 262  1388.369
 263  1377.184
 264  1298.473
 265  1195.94
 266  1289.054
 267  1259.838
 268  1257.271
 269  1301.912
 270  1287.895
 271  1269.931
 272  1268.037
 273  1263.419
 274  1197.836
 275  1217.396
 276  1203.152
 277  1127.232
 278  1190.972
 279  1270.607
 280  1269.408
 281  1239.102
 282  1159.003
 283  1205.437
 284  1164.442
 285  1124.393
 286  1138.517
 287  1120.024
 288  1188.941
 289  1129.223
 290  1122.324
 291  1081.56
 292  1124.599
 293  1164.609
 294  1116.522
 295  1209.51
 296  1116.846
 297  1089.846
 298  1093.823
 299  1187.437
 300  1253.945
 301  1243.173
 302  1303.204
 303  1280.646
 304  1166.753
 305  1192.305
 306  1220.016
 307  1161.089
 308  1151.968
 309  1145.235
 310  1193.955
 311  1189.462
 312  1194.144
 313  1173.452
 314  1195.51
 315  1204.106
 316  1182.61
 317  1164.361
 318  1090.143
 319  1185.692
 320  1139.175
 321  1122.678
 322  1143.913
 323  1116.935
 324  1137.722
 325  1065.482
 326  1086.718
 327  1179.602
 328  1161.939
 329  1238.039
 330  1229.008
 331  1176.465
 332  1203.375
 333  1238.371
 334  1213.517
 335  1314.734
 336  1290.566
 337  1303.331
 338  1260.663
 339  1241.766
 340  1318.618
 341  1251.027
 342  1249.88
 343  1326.021
 344  1370.195
 345  1395.878
 346  1335.128
 347  1322.245
 348  1289.818
 349  1268.516
 350  1270.331
 351  1302.684
 352  1307.63
 353  1348.705
 354  1330.829
 355  1295.676
 356  1366.499
 357  1298.289
 358  1257.777
 359  1186.513
 360  1220.553
 361  1253.244
 362  1268.652
 363  1271.32
 364  1239.097
 365  1216.411
 366  1247.961
 367  1226.175
 368  1193.862
 369  1236.551
 370  1277.437
 371  1290.12
 372  1263.271
 373  1243.729
 374  1206.63
 375  1195.514
 376  1323.798
 377  1398.917
 378  1409.68
 379  1424.87
 380  1324.887
 381  1281.179
 382  1341.927
 383  1344.5
 384  1389.495
 385  1348.958
 386  1330.979
 387  1390.454
 388  1445.647
 389  1413.678
 390  1352.472
 391  1284.652
 392  1302.702
 393  1321.325
 394  1237.275
 395  1270.38
 396  1224.255
 397  1277.934
 398  1336.288
 399  1301.422
 400  1229.306
 401  1250.777
 402  1274.721
 403  1255.685
 404  1305.439
 405  1368.459
 406  1300.785
 407  1249.579
 408  1221.426
 409  1199.724
 410  1246.124
 411  1283.363
 412  1322.712
 413  1314.626
 414  1313.375
 415  1287.166
 416  1374.19
 417  1314.037
 418  1194.885
 419  1226.771
 420  1269.468
 421  1247.175
 422  1266.046
 423  1393.33
 424  1345.006
 425  1245.652
 426  1205.123
 427  1226.208
 428  1300.455
 429  1291.425
 430  1373.12
 431  1378.582
 432  1397.016
 433  1280.815
 434  1338.99
 435  1391.556
 436  1321.397
 437  1286.359
 438  1272.559
 439  1201.913
 440  1244.867
 441  1309.773
 442  1306.206
 443  1340.351
 444  1253.654
 445  1288.814
 446  1322.777
 447  1304.307
 448  1297.24
 449  1324.511
 450  1323.706
 451  1391.034
 452  1391.313
 453  1380.202
 454  1360.949
 455  1361.016
 456  1312.598
 457  1276.306
 458  1236.159
 459  1225.731
 460  1282.477
 461  1257.01
 462  1242.401
 463  1332.624
 464  1312.15
 465  1285.532
 466  1326.555
 467  1259.846
 468  1239.362
 469  1252.108
 470  1254.499
 471  1271.524
 472  1226.329
 473  1276.656
 474  1219.927
 475  1233.506
 476  1264.809
 477  1221.913
 478  1284.826
 479  1210.154
 480  1203.25
 481  1184.788
 482  1217.305
 483  1281.523
 484  1229.463
 485  1206.814
 486  1271.355
 487  1242.858
 488  1237.711
 489  1252.394
 490  1330.381
 491  1269.655
 492  1145.176
 493  1163.142
 494  1259.973
 495  1174.596
 496  1137.109
 497  1177.609
 498  1203.12
 499  1144.697
 500  1174.72
 501  1195.666
 502  1148.592
 503  1149.344
 504  1153.432
 505  1147.428
 506  1139.894
 507  1217.283
 508  1229.666
 509  1316.625
 510  1466.375
 511  1511.96
