# Input file       =  1204103553.100353_cleaned.dat
# Candidate        =  PSR_0332+5434
# Telescope        =  AR
# Epoch_topo       =  58180.383508105937
# Epoch_bary       =  N/A
# T_sample         =  0.002
# Data Folded      =  7208960
# Data Avg         =  0.0624533114572326
# Data StdDev      =  1.00001551922844 
# Profile Bins     =  512
# Profile Avg      =  879.401222556826 
# Profile StdDev   =  118.661017292386 
# Reduced chi-sqr  =  3.267
# Prob(Noise)      <  6.85e-123   (~23.5 sigma)
# P_topo (ms)      =  714.580232568693  +/- 2.58e-05
# P'_topo (s/s)    =  -0                +/- 1.39e-11
# P''_topo (s/s^2) =  0                 +/- 6.23e-15
# P_bary (ms)      =  N/A
# P'_bary (s/s)    =  N/A
# P''_bary (s/s^2) =  N/A
# P_orb (s)        =  N/A
# asin(i)/c (s)    =  N/A
# eccentricity     =  N/A
# w (rad)          =  N/A
# T_peri           =  N/A
######################################################
   0  1225.365
   1  1244.261
   2  1133.501
   3  891.2075
   4  772.7323
   5  682.2212
   6  666.5514
   7  809.2233
   8  906.3815
   9  895.9143
  10  926.1537
  11  918.0596
  12  789.5527
  13  752.7419
  14  821.1417
  15  756.1458
  16  792.3953
  17  828.7405
  18  840.7481
  19  731.2894
  20  657.6302
  21  650.9035
  22  825.5489
  23  863.7492
  24  899.4118
  25  992.1004
  26  1013.773
  27  872.9173
  28  660.9407
  29  684.9509
  30  673.9763
  31  613.5056
  32  732.9524
  33  895.6339
  34  984.6536
  35  912.4928
  36  788.1124
  37  851.1266
  38  789.136
  39  815.5361
  40  833.5462
  41  866.6501
  42  867.3267
  43  954.2171
  44  986.3937
  45  840.4582
  46  915.9294
  47  912.7199
  48  916.2358
  49  932.993
  50  895.626
  51  904.2084
  52  857.3403
  53  937.3909
  54  939.9128
  55  816.6093
  56  926.9092
  57  1028.13
  58  1083.189
  59  967.5573
  60  897.1368
  61  782.9351
  62  796.7369
  63  747.4626
  64  777.4148
  65  869.798
  66  962.3101
  67  1030.471
  68  1067.004
  69  1001.218
  70  918.8942
  71  785.5996
  72  853.6321
  73  895.3148
  74  892.4324
  75  1075.556
  76  916.6849
  77  922.8348
  78  877.8983
  79  822.8623
  80  939.9432
  81  891.6797
  82  934.9601
  83  888.707
  84  857.0831
  85  872.1127
  86  826.5804
  87  770.1933
  88  814.9725
  89  820.1111
  90  877.02
  91  956.0435
  92  955.0596
  93  855.8757
  94  808.3331
  95  789.5422
  96  737.8723
  97  700.7787
  98  843.1472
  99  896.1096
 100  1084.858
 101  1020.868
 102  866.828
 103  753.9563
 104  798.255
 105  787.2501
 106  834.47
 107  914.1591
 108  1003.865
 109  1099.02
 110  1043.81
 111  945.1901
 112  898.7019
 113  942.4957
 114  925.7283
 115  982.6552
 116  1155.308
 117  1184.143
 118  1017.623
 119  931.9994
 120  973.7404
 121  934.3332
 122  996.7052
 123  1119.873
 124  1117.374
 125  1195.833
 126  1141.4
 127  1065.111
 128  995.3124
 129  1029.421
 130  1086.626
 131  1057.985
 132  982.3306
 133  1061.96
 134  1103.729
 135  1088.558
 136  912.2896
 137  1063.308
 138  1046.466
 139  1167.055
 140  1301.877
 141  1351.577
 142  1353.752
 143  1208.518
 144  1143.798
 145  1153.2
 146  1101.426
 147  1087.245
 148  1007.828
 149  1071.996
 150  1272.715
 151  1133.224
 152  1055.827
 153  1070.271
 154  1059.86
 155  1051.341
 156  1139.107
 157  1212.166
 158  1273.147
 159  1311.78
 160  1180.741
 161  1023.628
 162  954.2551
 163  1120.177
 164  1229.916
 165  1325.466
 166  1273.462
 167  1105.849
 168  972.7872
 169  975.639
 170  990.9718
 171  1046.627
 172  1087.963
 173  1118.197
 174  1275.813
 175  1280.213
 176  1048.309
 177  1017.752
 178  1058.64
 179  1017.65
 180  1041.688
 181  1012.033
 182  1096.62
 183  1229.308
 184  1217.913
 185  1054.488
 186  931.0172
 187  972.8524
 188  1063.581
 189  1137.329
 190  1193.585
 191  1275.667
 192  1266.624
 193  1086.272
 194  1009.775
 195  914.461
 196  992.061
 197  960.5594
 198  1040.11
 199  1063.47
 200  1018.011
 201  972.2717
 202  964.0447
 203  1005.319
 204  981.9061
 205  994.5062
 206  1100.466
 207  1216.654
 208  1243.164
 209  1147.364
 210  974.6968
 211  891.7651
 212  950.8856
 213  962.1401
 214  1008.892
 215  1111.526
 216  1039.71
 217  822.5272
 218  888.5358
 219  957.35
 220  1009.5
 221  1007.95
 222  1042.458
 223  1045.168
 224  1053.599
 225  945.3832
 226  956.4592
 227  849.5125
 228  790.8441
 229  833.2386
 230  810.4564
 231  864.213
 232  1008.669
 233  968.9749
 234  884.8603
 235  780.0159
 236  822.6744
 237  827.6686
 238  879.1863
 239  935.3111
 240  946.6161
 241  961.7347
 242  899.7406
 243  780.6915
 244  771.462
 245  820.6987
 246  923.8574
 247  944.9489
 248  916.7191
 249  885.7292
 250  944.715
 251  748.5032
 252  672.8857
 253  673.0252
 254  732.101
 255  922.1216
 256  1019.605
 257  974.2411
 258  1047.982
 259  913.426
 260  742.7826
 261  706.7899
 262  748.7545
 263  743.8561
 264  797.4281
 265  876.6162
 266  910.239
 267  867.2722
 268  738.4095
 269  838.7025
 270  761.2919
 271  949.0587
 272  987.6081
 273  950.8081
 274  900.9964
 275  852.8961
 276  752.3234
 277  836.8494
 278  868.7318
 279  925.287
 280  1031.455
 281  1068.524
 282  1055.118
 283  926.4064
 284  857.0761
 285  795.6083
 286  833.0448
 287  869.4741
 288  924.8884
 289  999.2897
 290  1020.684
 291  974.7441
 292  781.5255
 293  803.3718
 294  754.4362
 295  748.8167
 296  826.3087
 297  924.3671
 298  944.4829
 299  935.1249
 300  810.9224
 301  733.9346
 302  728.7228
 303  766.9012
 304  831.6522
 305  870.1412
 306  957.6788
 307  1039.61
 308  858.8226
 309  822.6127
 310  851.7955
 311  816.2195
 312  749.1843
 313  768.1147
 314  817.1221
 315  998.5674
 316  861.4232
 317  838.3904
 318  834.6458
 319  755.7007
 320  790.4291
 321  886.4796
 322  884.0422
 323  893.0741
 324  871.3513
 325  922.8427
 326  837.9186
 327  713.551
 328  686.0603
 329  838.2767
 330  768.5995
 331  792.0778
 332  850.2297
 333  764.5588
 334  640.0151
 335  632.8419
 336  715.8098
 337  793.8585
 338  841.722
 339  904.041
 340  864.1721
 341  747.9944
 342  710.825
 343  675.571
 344  618.2372
 345  666.1536
 346  823.4874
 347  896.8929
 348  918.2178
 349  682.1713
 350  618.137
 351  636.5868
 352  769.5402
 353  860.2013
 354  900.9042
 355  979.1966
 356  1063.76
 357  1003.522
 358  879.9682
 359  759.8086
 360  783.3606
 361  854.3542
 362  806.2313
 363  772.3412
 364  797.9414
 365  913.4297
 366  888.4384
 367  725.1458
 368  712.0035
 369  737.8719
 370  678.3378
 371  723.2609
 372  893.5191
 373  979.6874
 374  799.9105
 375  766.3738
 376  703.4371
 377  689.348
 378  661.5004
 379  751.667
 380  797.4641
 381  797.0353
 382  807.9254
 383  768.9377
 384  744.3185
 385  766.3469
 386  704.6953
 387  716.6713
 388  846.2721
 389  916.5804
 390  905.8323
 391  762.9814
 392  572.5733
 393  521.1086
 394  678.5075
 395  647.5204
 396  672.7505
 397  858.7336
 398  802.6693
 399  771.3256
 400  606.4155
 401  597.3051
 402  675.1725
 403  716.9719
 404  817.5591
 405  865.5339
 406  899.2515
 407  799.5485
 408  720.5326
 409  639.8049
 410  754.5401
 411  781.7852
 412  829.6597
 413  878.7352
 414  801.482
 415  871.6595
 416  828.5234
 417  731.7596
 418  797.463
 419  816.6201
 420  873.296
 421  988.2987
 422  986.3492
 423  959.2209
 424  932.1283
 425  786.7753
 426  738.8859
 427  795.3515
 428  845.512
 429  932.2792
 430  940.8264
 431  847.2845
 432  723.6427
 433  644.1317
 434  625.3055
 435  665.3005
 436  693.0354
 437  773.2087
 438  846.4122
 439  895.9431
 440  783.0402
 441  747.3742
 442  671.2345
 443  660.0878
 444  683.1194
 445  715.4123
 446  762.962
 447  852.6208
 448  797.6465
 449  733.7864
 450  617.4747
 451  704.0713
 452  861.1954
 453  769.8379
 454  873.0004
 455  907.9858
 456  877.3417
 457  791.1578
 458  780.4686
 459  765.7025
 460  666.7667
 461  648.392
 462  783.7587
 463  793.5923
 464  737.8953
 465  693.0532
 466  586.3753
 467  649.3723
 468  700.0166
 469  660.5847
 470  640.6936
 471  798.9581
 472  859.1194
 473  837.2428
 474  720.9072
 475  535.7476
 476  599.5956
 477  598.6713
 478  629.925
 479  672.8775
 480  790.1181
 481  769.2999
 482  704.9539
 483  609.5564
 484  593.3177
 485  696.5799
 486  761.3892
 487  788.7163
 488  888.8181
 489  874.9726
 490  800.8817
 491  672.4631
 492  644.0206
 493  620.4752
 494  678.0226
 495  854.6696
 496  845.325
 497  905.0234
 498  822.4208
 499  604.8759
 500  606.2835
 501  711.9526
 502  865.8403
 503  866.8431
 504  880.9344
 505  866.5506
 506  885.5679
 507  657.7369
 508  639.3313
 509  702.5252
 510  847.9695
 511  1057.819
