# Input file       =  1204736803.105261_cleaned.dat
# Candidate        =  PSR_0332+5434
# Telescope        =  AR
# Epoch_topo       =  58187.712790570149
# Epoch_bary       =  N/A
# T_sample         =  0.002
# Data Folded      =  7340032
# Data Avg         =  0.047585212600939
# Data StdDev      =  1.00009671975498 
# Profile Bins     =  512
# Profile Avg      =  682.089435497877 
# Profile StdDev   =  119.744616926708 
# Reduced chi-sqr  =  0.998
# Prob(Noise)      <  0.507   (~0.0 sigma)
# P_topo (ms)      =  714.579197340985  +/- 0.000496
# P'_topo (s/s)    =  -0                +/- 2.62e-10
# P''_topo (s/s^2) =  0                 +/- 1.16e-13
# P_bary (ms)      =  N/A
# P'_bary (s/s)    =  N/A
# P''_bary (s/s^2) =  N/A
# P_orb (s)        =  N/A
# asin(i)/c (s)    =  N/A
# eccentricity     =  N/A
# w (rad)          =  N/A
# T_peri           =  N/A
######################################################
   0  1166.097
   1  1106.504
   2  885.9924
   3  798.0367
   4  762.4641
   5  696.176
   6  664.8069
   7  754.2297
   8  689.9546
   9  620.0483
  10  667.9323
  11  677.7679
  12  564.0654
  13  635.8386
  14  799.4552
  15  730.0401
  16  744.42
  17  700.7007
  18  746.7342
  19  724.5475
  20  627.0728
  21  786.3804
  22  794.2405
  23  693.9545
  24  804.0501
  25  653.9942
  26  573.8037
  27  633.6491
  28  731.0957
  29  679.9224
  30  548.2197
  31  646.252
  32  660.7968
  33  593.7792
  34  549.8649
  35  633.8328
  36  646.8368
  37  585.3231
  38  586.0138
  39  660.6379
  40  608.9402
  41  567.3828
  42  625.0417
  43  718.9148
  44  641.9605
  45  584.5303
  46  613.5093
  47  616.7534
  48  629.5549
  49  639.019
  50  676.1553
  51  686.2874
  52  679.0303
  53  732.2768
  54  692.569
  55  608.6096
  56  666.3406
  57  681.4943
  58  701.8118
  59  661.0233
  60  590.5735
  61  611.4155
  62  643.9526
  63  768.6747
  64  719.0399
  65  730.9517
  66  721.4068
  67  610.7598
  68  797.5233
  69  741.2128
  70  744.1846
  71  693.8315
  72  574.9584
  73  611.8302
  74  616.6434
  75  640.2888
  76  710.0945
  77  631.8555
  78  510.6502
  79  516.9957
  80  653.4654
  81  713.0408
  82  574.0545
  83  565.3544
  84  565.0338
  85  594.8674
  86  570.4412
  87  651.7017
  88  607.1274
  89  571.025
  90  678.0042
  91  622.0454
  92  576.9178
  93  605.3345
  94  653.9678
  95  687.5452
  96  701.3453
  97  599.6041
  98  604.8481
  99  603.0898
 100  659.6705
 101  589.8434
 102  648.4106
 103  695.5161
 104  646.1541
 105  642.9872
 106  619.2812
 107  649.8464
 108  695.4506
 109  733.6332
 110  778.1547
 111  608.318
 112  683.9635
 113  688.6448
 114  640.173
 115  708.5892
 116  822.8389
 117  802.3268
 118  677.1097
 119  608.586
 120  655.2312
 121  708.4131
 122  795.3132
 123  817.2248
 124  833.3025
 125  833.6443
 126  852.7086
 127  750.4922
 128  782.671
 129  750.6646
 130  683.097
 131  597.4836
 132  726.3646
 133  824.9749
 134  835.6478
 135  767.1546
 136  708.9597
 137  824.5488
 138  679.5266
 139  696.2477
 140  740.5266
 141  692.1439
 142  694.7676
 143  695.2555
 144  697.8267
 145  745.598
 146  674.4026
 147  717.9008
 148  520.2806
 149  569.1538
 150  577.0363
 151  631.2855
 152  669.8744
 153  680.5122
 154  678.4824
 155  628.7869
 156  580.8331
 157  689.3383
 158  730.4584
 159  675.2925
 160  722.1008
 161  678.2277
 162  634.1248
 163  720.8347
 164  646.2222
 165  593.5229
 166  590.8505
 167  768.0211
 168  700.3461
 169  704.1725
 170  712.1979
 171  733.2637
 172  642.7507
 173  704.7821
 174  723.5419
 175  695.493
 176  595.9218
 177  568.5817
 178  607.4572
 179  618.6024
 180  673.2218
 181  757.9784
 182  814.2331
 183  597.0427
 184  698.6636
 185  780.9636
 186  729.3449
 187  727.533
 188  781.2656
 189  784.6703
 190  841.2368
 191  730.0629
 192  735.2623
 193  772.5919
 194  764.3646
 195  789.9766
 196  885.1497
 197  852.4927
 198  822.1642
 199  795.9773
 200  752.0958
 201  802.5872
 202  808.8139
 203  804.751
 204  790.4784
 205  797.2428
 206  803.9772
 207  739.2277
 208  780.0615
 209  712.3763
 210  744.9427
 211  730.5693
 212  725.6078
 213  679.3384
 214  713.6082
 215  738.3214
 216  730.2489
 217  803.459
 218  833.8085
 219  700.7999
 220  769.5693
 221  793.9909
 222  712.6177
 223  774.6975
 224  743.4489
 225  738.8429
 226  739.9441
 227  718.3823
 228  727.6763
 229  748.5158
 230  701.7457
 231  711.7122
 232  700.9001
 233  800.1524
 234  621.5823
 235  565.7156
 236  592.6163
 237  637.7332
 238  645.4944
 239  646.0853
 240  746.5117
 241  615.4734
 242  586.0242
 243  642.0486
 244  655.2004
 245  706.763
 246  623.326
 247  691.5174
 248  643.9088
 249  661.5875
 250  676.1567
 251  513.9581
 252  566.5908
 253  673.585
 254  763.8439
 255  709.1347
 256  690.9514
 257  594.1509
 258  714.8649
 259  683.8611
 260  658.8104
 261  598.0086
 262  518.9153
 263  626.5107
 264  628.0344
 265  457.2845
 266  618.7003
 267  612.1782
 268  653.3405
 269  753.687
 270  791.7925
 271  765.252
 272  757.52
 273  748.4635
 274  690.6658
 275  663.2484
 276  676.7164
 277  782.2399
 278  816.7466
 279  703.6296
 280  670.2154
 281  666.7078
 282  709.8019
 283  743.4416
 284  828.295
 285  769.0975
 286  764.0475
 287  705.3141
 288  738.6189
 289  684.8688
 290  663.935
 291  623.5433
 292  603.5005
 293  640.6587
 294  797.0966
 295  758.0558
 296  686.0442
 297  600.5137
 298  606.7485
 299  643.4541
 300  700.8954
 301  730.1882
 302  729.6271
 303  682.0363
 304  677.3674
 305  729.3439
 306  607.0392
 307  748.7073
 308  761.1821
 309  701.2061
 310  655.5912
 311  781.3918
 312  650.7562
 313  624.1123
 314  635.3087
 315  743.1389
 316  817.6999
 317  719.4653
 318  662.6899
 319  777.1546
 320  683.2277
 321  666.5207
 322  650.6581
 323  757.2813
 324  703.6959
 325  610.6106
 326  542.5142
 327  601.6626
 328  699.1927
 329  558.9561
 330  563.4336
 331  553.353
 332  530.6221
 333  519.7982
 334  568.3204
 335  635.8092
 336  570.6006
 337  558.1016
 338  624.6262
 339  644.1941
 340  725.6125
 341  563.7517
 342  584.1821
 343  625.7292
 344  633.6897
 345  677.0505
 346  640.4299
 347  722.6343
 348  738.3597
 349  608.8601
 350  691.1558
 351  679.7163
 352  722.3573
 353  730.9776
 354  738.6476
 355  701.391
 356  626.8506
 357  647.6818
 358  677.1349
 359  796.4113
 360  760.6677
 361  594.3728
 362  817.1502
 363  774.9682
 364  658.5102
 365  685.348
 366  636.9929
 367  708.9137
 368  686.2693
 369  744.6214
 370  718.7746
 371  678.6743
 372  742.9695
 373  658.97
 374  625.1129
 375  627.5059
 376  504.4081
 377  600.8973
 378  683.6846
 379  726.6129
 380  779.1651
 381  789.5503
 382  818.6733
 383  639.4235
 384  599.368
 385  760.0721
 386  691.2327
 387  619.9572
 388  744.5029
 389  700.8782
 390  553.6586
 391  512.6188
 392  719.4587
 393  629.5914
 394  556.9147
 395  563.9285
 396  629.8118
 397  579.2337
 398  500.1438
 399  539.307
 400  533.7814
 401  606.4349
 402  625.9302
 403  632.4536
 404  602.5856
 405  623.6147
 406  575.4199
 407  626.7217
 408  684.426
 409  693.9473
 410  722.9851
 411  727.7916
 412  632.0016
 413  589.5549
 414  636.1552
 415  624.4125
 416  788.3566
 417  753.6256
 418  738.8319
 419  809.0176
 420  727.8843
 421  679.1306
 422  671.4972
 423  698.2584
 424  689.4394
 425  731.2332
 426  704.4888
 427  776.066
 428  775.175
 429  687.8444
 430  688.3046
 431  681.8093
 432  701.5312
 433  724.7935
 434  639.2616
 435  631.6826
 436  656.4629
 437  692.5697
 438  720.7031
 439  702.7811
 440  747.2486
 441  708.1693
 442  670.0163
 443  638.8842
 444  710.0378
 445  779.0992
 446  726.957
 447  632.8967
 448  646.7173
 449  677.6826
 450  645.1417
 451  543.049
 452  540.5271
 453  699.36
 454  724.0627
 455  741.2727
 456  664.3785
 457  603.9595
 458  650.0793
 459  635.6596
 460  648.2242
 461  692.5607
 462  632.3671
 463  570.9446
 464  617.3751
 465  653.5243
 466  632.6426
 467  636.5672
 468  575.9561
 469  628.7997
 470  590.1627
 471  651.9681
 472  650.4355
 473  567.8828
 474  573.7919
 475  627.4896
 476  706.6724
 477  597.9569
 478  543.8279
 479  601.1362
 480  686.33
 481  731.3242
 482  684.8363
 483  619.4806
 484  600.7521
 485  588.3162
 486  573.2398
 487  599.8934
 488  566.4189
 489  590.9993
 490  564.7756
 491  599.5817
 492  510.774
 493  431.2491
 494  661.5988
 495  676.937
 496  658.9913
 497  558.6671
 498  548.2366
 499  761.4969
 500  823.5231
 501  650.3416
 502  750.0652
 503  754.3739
 504  795.6
 505  746.866
 506  819.7609
 507  846.9611
 508  905.6865
 509  963.3689
 510  959.3581
 511  1112.486
