# Input file       =  1204017792.172484_cleaned.dat
# Candidate        =  PSR_0332+5434
# Telescope        =  AR
# Epoch_topo       =  58179.390904774118
# Epoch_bary       =  N/A
# T_sample         =  0.002
# Data Folded      =  7274496
# Data Avg         =  0.0139975945094281
# Data StdDev      =  1.00004994508746 
# Profile Bins     =  512
# Profile Avg      =  198.953357217113 
# Profile StdDev   =  119.203268726353 
# Reduced chi-sqr  =  1.468
# Prob(Noise)      <  2.36e-11   (~6.6 sigma)
# P_topo (ms)      =  714.580346689314  +/- 0.00011
# P'_topo (s/s)    =  -0                +/- 5.88e-11
# P''_topo (s/s^2) =  0                 +/- 2.62e-14
# P_bary (ms)      =  N/A
# P'_bary (s/s)    =  N/A
# P''_bary (s/s^2) =  N/A
# P_orb (s)        =  N/A
# asin(i)/c (s)    =  N/A
# eccentricity     =  N/A
# w (rad)          =  N/A
# T_peri           =  N/A
######################################################
   0  762.5546
   1  796.7515
   2  610.5676
   3  428.6191
   4  405.9598
   5  273.5083
   6  148.929
   7  228.0592
   8  89.2673
   9  62.12926
  10  232.319
  11  103.8618
  12  92.77032
  13  176.9344
  14  246.5884
  15  184.6092
  16  94.21159
  17  126.1754
  18  68.97118
  19  106.134
  20  203.1207
  21  170.6107
  22  163.6245
  23  37.5925
  24  96.61006
  25  180.1861
  26  125.2758
  27  70.13863
  28  107.9276
  29  200.2959
  30  279.9668
  31  310.2328
  32  146.718
  33  64.67527
  34  127.3533
  35  232.0179
  36  216.6559
  37  189.2387
  38  312.7398
  39  200.8407
  40  170.244
  41  113.6517
  42  146.7599
  43  271.7448
  44  224.6118
  45  199.8799
  46  204.7477
  47  118.6021
  48  124.3791
  49  124.2867
  50  166.4148
  51  178.3245
  52  56.97086
  53  61.7768
  54  94.57471
  55  133.6992
  56  193.9796
  57  218.7439
  58  128.9159
  59  -117.1304
  60  -6.036365
  61  184.161
  62  195.7245
  63  176.8221
  64  148.2983
  65  233.7346
  66  219.3608
  67  125.1117
  68  94.68098
  69  224.9408
  70  222.53
  71  165.0305
  72  137.5581
  73  19.46217
  74  -88.07309
  75  57.84094
  76  -12.45182
  77  2.358594
  78  111.4217
  79  125.9492
  80  160.6147
  81  108.9083
  82  188.5705
  83  168.6642
  84  146.1453
  85  174.611
  86  254.4656
  87  155.4704
  88  76.80581
  89  179.8687
  90  86.62962
  91  60.64959
  92  -27.08535
  93  -41.48392
  94  147.9602
  95  121.2065
  96  236.2878
  97  289.8399
  98  295.3705
  99  265.3248
 100  238.4476
 101  188.5453
 102  297.6894
 103  265.3852
 104  247.4011
 105  155.8133
 106  159.2268
 107  160.6898
 108  147.0419
 109  160.7532
 110  198.5897
 111  164.953
 112  131.2401
 113  199.2991
 114  320.2272
 115  268.3437
 116  143.6031
 117  108.8579
 118  226.3582
 119  292.1257
 120  395.9518
 121  288.7267
 122  162.8975
 123  119.8648
 124  97.2662
 125  86.84128
 126  263.6654
 127  170.6594
 128  214.9078
 129  191.7222
 130  94.47957
 131  196.6068
 132  339.8603
 133  228.7066
 134  171.1485
 135  304.775
 136  255.5017
 137  181.7557
 138  288.096
 139  260.9662
 140  271.5582
 141  214.4244
 142  312.4496
 143  227.3394
 144  133.3353
 145  40.67288
 146  153.1863
 147  230.1621
 148  287.6743
 149  261.0739
 150  389.5732
 151  340.7227
 152  148.0789
 153  209.4021
 154  191.1778
 155  33.84071
 156  156.0035
 157  120.0196
 158  31.64648
 159  54.66275
 160  -17.74668
 161  -56.28042
 162  97.15934
 163  303.2388
 164  208.265
 165  -62.40331
 166  57.6315
 167  111.6751
 168  87.66733
 169  145.1471
 170  135.7989
 171  124.6713
 172  167.4798
 173  56.59008
 174  -25.85989
 175  70.19901
 176  132.5279
 177  130.7862
 178  164.4533
 179  177.165
 180  160.7216
 181  179.5011
 182  120.758
 183  140.2971
 184  160.7823
 185  102.8146
 186  90.07868
 187  137.0721
 188  85.03162
 189  -11.32723
 190  -34.07175
 191  -30.56779
 192  51.40147
 193  164.3565
 194  243.7229
 195  223.1194
 196  204.0901
 197  154.8358
 198  210.3888
 199  307.0367
 200  346.9351
 201  264.5338
 202  242.8091
 203  190.6032
 204  76.97679
 205  125.3874
 206  150.0328
 207  174.4427
 208  185.2532
 209  145.5838
 210  150.7089
 211  244.6596
 212  295.6982
 213  127.6674
 214  240.2999
 215  169.5414
 216  59.99216
 217  169.3098
 218  234.313
 219  346.5665
 220  189.9836
 221  276.1686
 222  158.0175
 223  82.38444
 224  110.0937
 225  165.6165
 226  151.7299
 227  68.87643
 228  252.4644
 229  370.4901
 230  281.4483
 231  228.2219
 232  353.5349
 233  189.0683
 234  141.8142
 235  245.0424
 236  221.9803
 237  189.6683
 238  119.6106
 239  33.25572
 240  91.61002
 241  147.0339
 242  147.992
 243  180.5214
 244  155.684
 245  194.0311
 246  151.4534
 247  120.2759
 248  217.8202
 249  153.8018
 250  162.6498
 251  257.8567
 252  288.1968
 253  222.2956
 254  178.485
 255  224.1911
 256  123.9106
 257  103.5865
 258  72.36816
 259  239.488
 260  278.0711
 261  175.3887
 262  78.49916
 263  88.57278
 264  305.0627
 265  187.8131
 266  176.0737
 267  220.6234
 268  458.7003
 269  399.3681
 270  290.4363
 271  246.2836
 272  180.4109
 273  165.0267
 274  285.0122
 275  266.5829
 276  214.053
 277  165.1476
 278  280.3922
 279  291.6237
 280  224.7072
 281  279.0318
 282  208.9589
 283  363.7547
 284  409.3453
 285  344.7905
 286  194.0581
 287  116.8267
 288  192.3051
 289  256.0766
 290  263.2363
 291  247.4737
 292  248.9342
 293  200.49
 294  144.4812
 295  144.3965
 296  270.4554
 297  268.5703
 298  298.7258
 299  304.2341
 300  261.3103
 301  352.5029
 302  287.6537
 303  186.6344
 304  148.3044
 305  125.7749
 306  166.6729
 307  165.1557
 308  219.649
 309  220.7402
 310  234.5688
 311  167.2324
 312  334.6603
 313  375.1977
 314  175.8925
 315  301.757
 316  328.6409
 317  251.5557
 318  164.2505
 319  209.5725
 320  352.5714
 321  202.3971
 322  137.909
 323  59.91723
 324  -26.43359
 325  80.35173
 326  286.5817
 327  312.1164
 328  352.2191
 329  258.5396
 330  172.9377
 331  284.3813
 332  181.1256
 333  318.8913
 334  295.9509
 335  284.8528
 336  366.7762
 337  231.5912
 338  146.6135
 339  157.5963
 340  53.75679
 341  214.9077
 342  277.9927
 343  263.4753
 344  265.8215
 345  369.6417
 346  384.766
 347  244.8738
 348  113.9645
 349  131.9452
 350  212.722
 351  334.057
 352  382.2997
 353  346.163
 354  142.1716
 355  113.4885
 356  143.2127
 357  170.0284
 358  157.7554
 359  281.4995
 360  419.4828
 361  388.6855
 362  382.6899
 363  290.4133
 364  292.7246
 365  269.7668
 366  211.1074
 367  247.1907
 368  240.3743
 369  356.7046
 370  319.4388
 371  154.5963
 372  124.1353
 373  205.4209
 374  124.189
 375  75.28677
 376  189.0329
 377  136.8072
 378  111.2225
 379  73.24751
 380  253.2741
 381  101.7032
 382  66.85533
 383  114.6476
 384  272.2715
 385  221.1263
 386  75.28486
 387  120.9715
 388  182.5266
 389  108.4092
 390  108.9263
 391  215.1535
 392  290.0247
 393  240.0814
 394  194.6849
 395  279.5263
 396  387.0418
 397  264.6018
 398  273.9459
 399  244.1197
 400  201.9621
 401  179.6205
 402  171.3479
 403  222.6077
 404  170.8209
 405  239.0098
 406  145.2016
 407  73.96176
 408  184.5888
 409  271.4245
 410  274.5167
 411  133.7431
 412  199.3871
 413  77.62131
 414  89.54613
 415  194.5917
 416  224.2773
 417  185.8906
 418  161.8372
 419  220.1839
 420  134.7906
 421  197.2559
 422  202.7553
 423  138.7572
 424  90.02294
 425  250.7135
 426  236.2264
 427  243.4998
 428  275.0201
 429  273.3195
 430  267.8664
 431  243.134
 432  238.4899
 433  339.3726
 434  327.4408
 435  294.6531
 436  185.3831
 437  145.3605
 438  41.64367
 439  166.2029
 440  211.8737
 441  387.6023
 442  393.6388
 443  323.7643
 444  180.7115
 445  94.95637
 446  276.9417
 447  227.3465
 448  160.7589
 449  198.9255
 450  220.1001
 451  317.8774
 452  231.6466
 453  109.8602
 454  95.12326
 455  174.739
 456  252.3768
 457  199.5215
 458  157.7755
 459  276.1096
 460  251.8157
 461  155.6077
 462  132.1772
 463  357.6993
 464  274.5327
 465  80.49466
 466  191.5685
 467  306.0951
 468  258.0189
 469  185.6973
 470  262.6252
 471  217.3167
 472  211.945
 473  274.8509
 474  250.6403
 475  249.278
 476  187.0093
 477  168.6411
 478  266.3479
 479  252.87
 480  152.2854
 481  175.8732
 482  366.4604
 483  368.2108
 484  304.2586
 485  287.6277
 486  257.5896
 487  211.6467
 488  85.09374
 489  77.97105
 490  168.2549
 491  295.3969
 492  285.833
 493  281.6749
 494  194.7348
 495  154.2868
 496  304.9663
 497  256.8696
 498  243.4096
 499  190.2332
 500  174.1886
 501  120.3533
 502  108.3697
 503  242.1919
 504  226.1293
 505  71.30012
 506  144.9671
 507  259.5449
 508  170.2312
 509  352.9531
 510  600.0638
 511  743.9677
