# Input file       =  1204878933.116375_cleaned.dat
# Candidate        =  PSR_0332+5434
# Telescope        =  AR
# Epoch_topo       =  58189.357813846931
# Epoch_bary       =  N/A
# T_sample         =  0.002
# Data Folded      =  7208960
# Data Avg         =  0.0870605020184387
# Data StdDev      =  1.00006141087245 
# Profile Bins     =  512
# Profile Avg      =  1225.71006790572 
# Profile StdDev   =  118.666462757041 
# Reduced chi-sqr  =  1.335
# Prob(Noise)      <  5.56e-07   (~4.9 sigma)
# P_topo (ms)      =  714.578396806399  +/- 0.000173
# P'_topo (s/s)    =  -0                +/- 9.31e-11
# P''_topo (s/s^2) =  0                 +/- 4.19e-14
# P_bary (ms)      =  N/A
# P'_bary (s/s)    =  N/A
# P''_bary (s/s^2) =  N/A
# P_orb (s)        =  N/A
# asin(i)/c (s)    =  N/A
# eccentricity     =  N/A
# w (rad)          =  N/A
# T_peri           =  N/A
######################################################
   0  1663.992
   1  1651.079
   2  1595.447
   3  1432.416
   4  1299.818
   5  1235.051
   6  1256.497
   7  1338.408
   8  1317.824
   9  1231.793
  10  1219.71
  11  1290.464
  12  1271.002
  13  1226.566
  14  1222.745
  15  1213.394
  16  1211.824
  17  1284.136
  18  1227.128
  19  1118.647
  20  1145.524
  21  1182.228
  22  1116.242
  23  1198.868
  24  1279.519
  25  1197.65
  26  1269.702
  27  1283.104
  28  1227.161
  29  1162.537
  30  1243.067
  31  1274.727
  32  1391.16
  33  1275.483
  34  1311.328
  35  1253.259
  36  1203.945
  37  1160.266
  38  1170.957
  39  1293.929
  40  1194.493
  41  1184.254
  42  1363.508
  43  1394.099
  44  1284.132
  45  1272.564
  46  1280.452
  47  1217.258
  48  1323.265
  49  1324.677
  50  1307.838
  51  1319.164
  52  1239.511
  53  1238.506
  54  1256.481
  55  1248.267
  56  1210.619
  57  1255.678
  58  1282.485
  59  1359.106
  60  1370.423
  61  1401.419
  62  1298.951
  63  1360.667
  64  1320.507
  65  1315.208
  66  1233.008
  67  1365.894
  68  1309.09
  69  1217.934
  70  1235.419
  71  1247.855
  72  1178.198
  73  1187.091
  74  1316.199
  75  1419.978
  76  1494.604
  77  1393.088
  78  1320.346
  79  1219.754
  80  1238.912
  81  1310.194
  82  1201.305
  83  1190.397
  84  1288.279
  85  1253.121
  86  1271.816
  87  1161.696
  88  1166.12
  89  1257.7
  90  1293.716
  91  1360.488
  92  1369.544
  93  1302.926
  94  1329.568
  95  1288.438
  96  1287.829
  97  1310.557
  98  1128.71
  99  1270.135
 100  1288.964
 101  1179.868
 102  1263.753
 103  1266.556
 104  1131.004
 105  1079.741
 106  1181.022
 107  1206.172
 108  1178.019
 109  1230.665
 110  1283.093
 111  1201.159
 112  995.1663
 113  1063.578
 114  1124.673
 115  1173.408
 116  1167.356
 117  1089.524
 118  1123.52
 119  1146.356
 120  1109.398
 121  1025.828
 122  1087.083
 123  1189.513
 124  1184.306
 125  1138.049
 126  1166.177
 127  1123.008
 128  1102.632
 129  1068.625
 130  1223.492
 131  1226.375
 132  1130.138
 133  1207.233
 134  1247.2
 135  1124.626
 136  1103.45
 137  1115.096
 138  1157.284
 139  1158.215
 140  1196.886
 141  1195.335
 142  1169.155
 143  1141.785
 144  1206.944
 145  1076.961
 146  1136.083
 147  1060.106
 148  985.1736
 149  987.8612
 150  1092.003
 151  1184.332
 152  1136.292
 153  1095.178
 154  1066.604
 155  1098.196
 156  1099.53
 157  1084.162
 158  1125.568
 159  1105.114
 160  1226.434
 161  1211.708
 162  1126.869
 163  1165.412
 164  1179.44
 165  1089.331
 166  1106.109
 167  1133.62
 168  1122.319
 169  1004.378
 170  1017.056
 171  1085.743
 172  1159.71
 173  1236.058
 174  1218.621
 175  1214.466
 176  1196.037
 177  1206.994
 178  1050.145
 179  1100.67
 180  1105.968
 181  1010.047
 182  982.2096
 183  1055.832
 184  1157.414
 185  1121.674
 186  1088.527
 187  1072.186
 188  1097.999
 189  1071.273
 190  1191.542
 191  1198.004
 192  1166.032
 193  1102.386
 194  1061.125
 195  1071.714
 196  1142.376
 197  1176.102
 198  1273.292
 199  1215.237
 200  1143.955
 201  1195.743
 202  1239.672
 203  1218.899
 204  1318.612
 205  1162.645
 206  1206.8
 207  1287.943
 208  1397.164
 209  1331.853
 210  1254.102
 211  1330.934
 212  1410.465
 213  1283.293
 214  1239.852
 215  1256.669
 216  1223.185
 217  1294.813
 218  1334.562
 219  1220.371
 220  1131.01
 221  1191.132
 222  1338.106
 223  1333.167
 224  1379.021
 225  1290.563
 226  1247.431
 227  1225.417
 228  1199.937
 229  1262.298
 230  1226.283
 231  1216.642
 232  1278.758
 233  1264.918
 234  1291.566
 235  1299.613
 236  1347.46
 237  1372.129
 238  1396.676
 239  1314.001
 240  1289.171
 241  1304.307
 242  1343.8
 243  1358.698
 244  1388.279
 245  1328.91
 246  1226.228
 247  1361.702
 248  1401.968
 249  1303.792
 250  1270.88
 251  1191.258
 252  1157.265
 253  1155.227
 254  1191.724
 255  1182.605
 256  1238.936
 257  1278.815
 258  1258.577
 259  1294.327
 260  1229.901
 261  1219.996
 262  1195.352
 263  1203.422
 264  1221.109
 265  1162.953
 266  1036.909
 267  991.0186
 268  1045.519
 269  1089.984
 270  1107.015
 271  1147.208
 272  1195.069
 273  1414.376
 274  1316.984
 275  1256.653
 276  1239.52
 277  1142.509
 278  1160.843
 279  1070.767
 280  1042.541
 281  1150.156
 282  1154.446
 283  1259.502
 284  1217.266
 285  1179.815
 286  1220.814
 287  1159.05
 288  1085.024
 289  1166.08
 290  1149.029
 291  1264.502
 292  1314.803
 293  1236.543
 294  1147.919
 295  1177.677
 296  1100.29
 297  1167.277
 298  1217.646
 299  1227.733
 300  1155.105
 301  1134.139
 302  1147.394
 303  1110.877
 304  1117.612
 305  1173.477
 306  1159.721
 307  1146.517
 308  1143.036
 309  1119.508
 310  1152.446
 311  1121.959
 312  1132.68
 313  1138.74
 314  1144.749
 315  1078.893
 316  1047.971
 317  1166.239
 318  1212.813
 319  1180.442
 320  1197.148
 321  1046.117
 322  1141.207
 323  1294.314
 324  1356.698
 325  1313.392
 326  1269.391
 327  1232.448
 328  1156.123
 329  1118.419
 330  1144.989
 331  1096.385
 332  1168.368
 333  1180.752
 334  1154.689
 335  1257.155
 336  1217.075
 337  1203.157
 338  1228.258
 339  1300.091
 340  1365.562
 341  1278.668
 342  1197.915
 343  1298.317
 344  1268.837
 345  1177.649
 346  1195.509
 347  1239.074
 348  1263.511
 349  1339.104
 350  1279.417
 351  1116.247
 352  1064.069
 353  1220.119
 354  1237.616
 355  1279.925
 356  1371.973
 357  1348.108
 358  1340.751
 359  1214.232
 360  1309.913
 361  1346.142
 362  1308.067
 363  1265.433
 364  1369.823
 365  1309.096
 366  1264.662
 367  1344.123
 368  1326.619
 369  1367.784
 370  1261.433
 371  1335.589
 372  1193.391
 373  1195.826
 374  1323.702
 375  1308.63
 376  1290.388
 377  1213.438
 378  1159.008
 379  1241.458
 380  1223.052
 381  1224.878
 382  1221.763
 383  1260.477
 384  1335.341
 385  1372.856
 386  1322.689
 387  1300.844
 388  1356.225
 389  1432.427
 390  1386.406
 391  1218.6
 392  1157.031
 393  1213.978
 394  1416.361
 395  1372.359
 396  1309.3
 397  1296.289
 398  1195.954
 399  1184.601
 400  1241.64
 401  1245.693
 402  1220.507
 403  1263.609
 404  1295.027
 405  1295.58
 406  1340.031
 407  1250.993
 408  1171.465
 409  1191.365
 410  1281.688
 411  1258.069
 412  1179.518
 413  1139.801
 414  1167.24
 415  1157.322
 416  1056.954
 417  1113.569
 418  1043.63
 419  1093.5
 420  1287.607
 421  1305.971
 422  1228.439
 423  1298.367
 424  1202.632
 425  1239.463
 426  1260.185
 427  1208.256
 428  1196.385
 429  1299.573
 430  1289.486
 431  1236.821
 432  1156.325
 433  1143.395
 434  1172.643
 435  1222.923
 436  1272.464
 437  1247.122
 438  1154.295
 439  1283.547
 440  1417.233
 441  1278.233
 442  1175.246
 443  1165.113
 444  1133.203
 445  990.4032
 446  1074.851
 447  1179.434
 448  1280.827
 449  1216.255
 450  1200.492
 451  1144.589
 452  1214.648
 453  1254.951
 454  1287.266
 455  1231.89
 456  1229.72
 457  1311.897
 458  1155.982
 459  1223.838
 460  1337.008
 461  1237.886
 462  1315.986
 463  1304.944
 464  1243.545
 465  1318.555
 466  1254.806
 467  1207.068
 468  1088.73
 469  1202.726
 470  1294.921
 471  1190.341
 472  1271.99
 473  1299.408
 474  1275.052
 475  1211.434
 476  1189.192
 477  1144.101
 478  1201.432
 479  1290.357
 480  1197.836
 481  1043.116
 482  1135.517
 483  1256.771
 484  1236.581
 485  1165.068
 486  1230.444
 487  1240.871
 488  1227.729
 489  1210.064
 490  1212.127
 491  1225.879
 492  1289.722
 493  1364.668
 494  1281.737
 495  1214.837
 496  1168.779
 497  1199.447
 498  1243.115
 499  1225.382
 500  1339.059
 501  1319.025
 502  1228.178
 503  1246.333
 504  1382.818
 505  1404.906
 506  1351.01
 507  1408.246
 508  1307.459
 509  1422.254
 510  1574.1
 511  1680.735
