# Input file       =  1204189742.101555_cleaned.dat
# Candidate        =  PSR_0332+5434
# Telescope        =  AR
# Epoch_topo       =  58181.381065990223
# Epoch_bary       =  N/A
# T_sample         =  0.002
# Data Folded      =  7208960
# Data Avg         =  0.112921167649307
# Data StdDev      =  1.00011144824423 
# Profile Bins     =  512
# Profile Avg      =  1589.86482598715 
# Profile StdDev   =  118.672400150335 
# Reduced chi-sqr  =  1.994
# Prob(Noise)      <  4.68e-36   (~12.5 sigma)
# P_topo (ms)      =  714.580096451702  +/- 0.000132
# P'_topo (s/s)    =  -0                +/- 7.12e-11
# P''_topo (s/s^2) =  0                 +/- 3.2e-14
# P_bary (ms)      =  N/A
# P'_bary (s/s)    =  N/A
# P''_bary (s/s^2) =  N/A
# P_orb (s)        =  N/A
# asin(i)/c (s)    =  N/A
# eccentricity     =  N/A
# w (rad)          =  N/A
# T_peri           =  N/A
######################################################
   0  2019.599
   1  2141.145
   2  2069.675
   3  1949.257
   4  1831.381
   5  1672.385
   6  1666.861
   7  1670.691
   8  1711.565
   9  1719.639
  10  1769.181
  11  1806.269
  12  1771.368
  13  1727.431
  14  1728.643
  15  1709.441
  16  1706.804
  17  1694.533
  18  1683.291
  19  1801.042
  20  1781.445
  21  1690.036
  22  1692.154
  23  1684.859
  24  1675.104
  25  1673.947
  26  1644.284
  27  1709.503
  28  1664.028
  29  1683.085
  30  1684.284
  31  1627.654
  32  1675.302
  33  1689.149
  34  1783.385
  35  1797.39
  36  1820.491
  37  1748.874
  38  1773.852
  39  1798.227
  40  1843.695
  41  1729.388
  42  1687.742
  43  1788.872
  44  1802.654
  45  1699.113
  46  1634.731
  47  1654.144
  48  1623.024
  49  1713.401
  50  1734.106
  51  1784.291
  52  1727.342
  53  1739.049
  54  1722.959
  55  1658.953
  56  1659.698
  57  1606.562
  58  1655.808
  59  1656.209
  60  1694.838
  61  1731.381
  62  1631.037
  63  1551.672
  64  1601.186
  65  1694.687
  66  1708.631
  67  1708.082
  68  1723.711
  69  1790.721
  70  1740.839
  71  1631.101
  72  1617.142
  73  1694.807
  74  1682.197
  75  1660.066
  76  1689.132
  77  1708.914
  78  1650.979
  79  1722.66
  80  1788.722
  81  1743.401
  82  1679.753
  83  1700.59
  84  1751.573
  85  1772.271
  86  1795.302
  87  1685.476
  88  1592.438
  89  1665.366
  90  1672.423
  91  1648.025
  92  1687.041
  93  1719.797
  94  1702.806
  95  1564.342
  96  1609.735
  97  1567.786
  98  1517.884
  99  1505.852
 100  1507.269
 101  1614.727
 102  1706.621
 103  1716.159
 104  1648.54
 105  1620.74
 106  1697.078
 107  1657.717
 108  1691.546
 109  1708.325
 110  1729.608
 111  1646.09
 112  1549.815
 113  1515.872
 114  1653.046
 115  1718.667
 116  1545.052
 117  1559.216
 118  1659.565
 119  1632.992
 120  1586.495
 121  1607.275
 122  1563.981
 123  1537.266
 124  1608.608
 125  1645.583
 126  1616.886
 127  1614.502
 128  1619.436
 129  1688.151
 130  1604.735
 131  1591.432
 132  1504.235
 133  1504.639
 134  1564.662
 135  1653.973
 136  1667.949
 137  1629.955
 138  1577.053
 139  1521.629
 140  1578.98
 141  1518.968
 142  1514.278
 143  1585.795
 144  1514.33
 145  1492.961
 146  1464.443
 147  1552.871
 148  1511.143
 149  1502.384
 150  1619.7
 151  1600.218
 152  1519.195
 153  1516.049
 154  1440.548
 155  1527.211
 156  1446.386
 157  1438.615
 158  1474.881
 159  1626.361
 160  1592.6
 161  1575.713
 162  1498.375
 163  1399.172
 164  1452.832
 165  1445.583
 166  1504.274
 167  1542.978
 168  1578.208
 169  1616.728
 170  1572.846
 171  1549.524
 172  1511.041
 173  1536.712
 174  1522.682
 175  1507.422
 176  1554.406
 177  1548.478
 178  1606.064
 179  1537.885
 180  1540.174
 181  1566.18
 182  1509.402
 183  1552.41
 184  1510.267
 185  1551.249
 186  1574.546
 187  1591.443
 188  1472.492
 189  1535.277
 190  1635.914
 191  1540.214
 192  1421.563
 193  1551.696
 194  1580.65
 195  1515.135
 196  1525.865
 197  1581.498
 198  1552.428
 199  1480.65
 200  1528.775
 201  1535.005
 202  1542.469
 203  1622.129
 204  1585.587
 205  1497.865
 206  1469.416
 207  1452.673
 208  1498.389
 209  1639.051
 210  1617.738
 211  1553.674
 212  1531.422
 213  1495.736
 214  1448.428
 215  1487.816
 216  1519.011
 217  1608.906
 218  1543.5
 219  1531.78
 220  1472.906
 221  1508.48
 222  1481.651
 223  1511.481
 224  1504.76
 225  1519.299
 226  1564.795
 227  1463.79
 228  1336.02
 229  1380.428
 230  1439.052
 231  1475.506
 232  1477.177
 233  1459.641
 234  1484.95
 235  1531.753
 236  1455.708
 237  1483.851
 238  1481.113
 239  1488.253
 240  1467.881
 241  1483.058
 242  1568.962
 243  1560.809
 244  1496.128
 245  1417.123
 246  1302.035
 247  1436.116
 248  1568.393
 249  1521.513
 250  1578.727
 251  1733.972
 252  1580.688
 253  1537.322
 254  1610.443
 255  1562.199
 256  1517.384
 257  1519.354
 258  1512.386
 259  1627.712
 260  1542.398
 261  1620.776
 262  1594.408
 263  1530.915
 264  1653.526
 265  1627.456
 266  1598.572
 267  1714.94
 268  1750.183
 269  1713.345
 270  1636.211
 271  1569.881
 272  1629.052
 273  1611.982
 274  1663.538
 275  1632.334
 276  1718.531
 277  1659.332
 278  1585.49
 279  1543.667
 280  1538.338
 281  1584.209
 282  1499.956
 283  1563.905
 284  1593.351
 285  1648.926
 286  1612.759
 287  1637.893
 288  1671.153
 289  1592.003
 290  1553.808
 291  1583.537
 292  1559.158
 293  1593.807
 294  1540.212
 295  1377.614
 296  1424.955
 297  1449.685
 298  1510.83
 299  1493.965
 300  1563.459
 301  1591.767
 302  1527.465
 303  1476.679
 304  1448.972
 305  1488.38
 306  1545.465
 307  1527.212
 308  1502.841
 309  1489.847
 310  1503.474
 311  1431.701
 312  1333.203
 313  1370.801
 314  1433.48
 315  1454.788
 316  1419.825
 317  1417.408
 318  1480.732
 319  1401.61
 320  1411.048
 321  1407.521
 322  1510.662
 323  1473.76
 324  1519.864
 325  1571.84
 326  1440.836
 327  1386.01
 328  1328.984
 329  1430.189
 330  1374.391
 331  1412.614
 332  1481.918
 333  1454.318
 334  1482.099
 335  1485.945
 336  1505.367
 337  1506.99
 338  1450.117
 339  1442.187
 340  1483.397
 341  1487.071
 342  1546.733
 343  1472.812
 344  1500.943
 345  1404.321
 346  1475.863
 347  1493.691
 348  1400.003
 349  1453.182
 350  1553.748
 351  1560.896
 352  1524.875
 353  1449.904
 354  1523.301
 355  1485.99
 356  1455.605
 357  1452.342
 358  1488.078
 359  1526.873
 360  1566.122
 361  1532.424
 362  1486.845
 363  1477.958
 364  1458.056
 365  1486.222
 366  1543.904
 367  1544.952
 368  1586.271
 369  1515.391
 370  1497.065
 371  1513.88
 372  1513.761
 373  1534.996
 374  1521.775
 375  1664.173
 376  1630.286
 377  1559.219
 378  1576.622
 379  1472.266
 380  1477.574
 381  1518.518
 382  1480.79
 383  1469.151
 384  1389.699
 385  1465.875
 386  1381.92
 387  1440.292
 388  1501.017
 389  1478.433
 390  1496.256
 391  1434.095
 392  1470.19
 393  1476.764
 394  1495.28
 395  1409.49
 396  1492.495
 397  1555.566
 398  1444.511
 399  1418.706
 400  1469.882
 401  1480.721
 402  1477.978
 403  1515.244
 404  1420.666
 405  1456.571
 406  1496.96
 407  1435.698
 408  1425.032
 409  1424.524
 410  1409.891
 411  1408.295
 412  1482.937
 413  1477.304
 414  1460.853
 415  1555.58
 416  1588.741
 417  1553.195
 418  1525.967
 419  1484.713
 420  1459.971
 421  1501.827
 422  1452.616
 423  1484.021
 424  1489.49
 425  1467.637
 426  1505.461
 427  1445.793
 428  1472.32
 429  1469.144
 430  1541.101
 431  1625.459
 432  1657.445
 433  1689.101
 434  1631.391
 435  1567.044
 436  1556.436
 437  1472.622
 438  1598.929
 439  1547.2
 440  1636.838
 441  1684.894
 442  1648.126
 443  1555.28
 444  1604.634
 445  1576.39
 446  1649.245
 447  1704.62
 448  1705.064
 449  1634.25
 450  1672.678
 451  1697.235
 452  1650.493
 453  1591.229
 454  1552.812
 455  1558.564
 456  1599.33
 457  1687.627
 458  1703.225
 459  1596.892
 460  1613.943
 461  1600.941
 462  1634.61
 463  1656.018
 464  1640.763
 465  1669.351
 466  1783.517
 467  1734.394
 468  1594.763
 469  1603.551
 470  1607.261
 471  1634.614
 472  1679.67
 473  1744.383
 474  1706.577
 475  1713.111
 476  1830.425
 477  1697.723
 478  1599.129
 479  1629.732
 480  1761.224
 481  1765.242
 482  1826.817
 483  1905.077
 484  1766.602
 485  1695.302
 486  1671.581
 487  1724.054
 488  1678.198
 489  1739.435
 490  1765.328
 491  1845.516
 492  1855.463
 493  1777.726
 494  1719.097
 495  1672.211
 496  1789.872
 497  1839.251
 498  1800.729
 499  1888.64
 500  1843.873
 501  1820.3
 502  1740.26
 503  1817.303
 504  1702.903
 505  1674.777
 506  1736.352
 507  1813.859
 508  1797.561
 509  1831.369
 510  1979.104
 511  1984.767
