# Input file       =  1205927696.108282_cleaned.dat
# Candidate        =  PSR_0332+5434
# Telescope        =  AR
# Epoch_topo       =  58201.496274401412
# Epoch_bary       =  N/A
# T_sample         =  0.002
# Data Folded      =  7340032
# Data Avg         =  0.0761744268988719
# Data StdDev      =  1.00013630386455 
# Profile Bins     =  512
# Profile Avg      =  1092.08004571408 
# Profile StdDev   =  119.749356452339 
# Reduced chi-sqr  =  0.995
# Prob(Noise)      <  0.522   (~0.0 sigma)
# P_topo (ms)      =  714.573696861923  +/- 0.000456
# P'_topo (s/s)    =  -0                +/- 2.41e-10
# P''_topo (s/s^2) =  0                 +/- 1.06e-13
# P_bary (ms)      =  N/A
# P'_bary (s/s)    =  N/A
# P''_bary (s/s^2) =  N/A
# P_orb (s)        =  N/A
# asin(i)/c (s)    =  N/A
# eccentricity     =  N/A
# w (rad)          =  N/A
# T_peri           =  N/A
######################################################
   0  1607.312
   1  1454.489
   2  1270.865
   3  1115.492
   4  1048.542
   5  961.6837
   6  904.5448
   7  990.4611
   8  1015.667
   9  986.9908
  10  995.634
  11  1000.903
  12  983.2112
  13  1048.375
  14  1066.684
  15  1035.573
  16  1016.39
  17  1077.15
  18  1104.198
  19  1142.563
  20  1215.917
  21  1171.778
  22  1116.042
  23  1086.064
  24  1122.792
  25  1096.804
  26  1115.994
  27  1179.341
  28  1132.296
  29  1084.191
  30  1087.179
  31  1067.528
  32  1043.975
  33  1061.131
  34  1090.181
  35  1083.05
  36  1084.017
  37  1077.691
  38  1104.594
  39  1145.932
  40  1119.447
  41  1091.25
  42  1080.838
  43  1075.181
  44  1163.099
  45  1263.441
  46  1194.338
  47  1145.217
  48  1212.485
  49  1130.131
  50  1060.437
  51  1135.701
  52  1137.315
  53  1111.906
  54  1166.745
  55  1264.598
  56  1223.226
  57  1135.467
  58  1121.08
  59  1213.874
  60  1205.722
  61  1220.855
  62  1183.935
  63  1195.542
  64  1161.94
  65  1140.014
  66  1147.751
  67  1114.826
  68  1145.073
  69  1175.193
  70  1090.691
  71  1052.097
  72  1105.312
  73  1064.633
  74  1081.388
  75  1174.059
  76  1157.892
  77  1097.954
  78  1090.928
  79  1075.114
  80  1006.69
  81  1043.865
  82  1036.434
  83  1050.083
  84  1105.096
  85  1121.437
  86  1168.798
  87  1131.73
  88  1122.091
  89  1173.498
  90  1108.146
  91  1084.417
  92  1099.365
  93  1160.604
  94  1130.335
  95  1211.878
  96  1158.291
  97  1079.929
  98  1110.534
  99  1155.032
 100  1140.286
 101  1225.143
 102  1217.333
 103  1177.324
 104  1117.268
 105  1056.318
 106  1047.14
 107  1023.453
 108  1123.628
 109  1137.016
 110  1059.619
 111  1054.256
 112  1025.119
 113  1011.63
 114  1142.8
 115  1133.536
 116  1146.61
 117  1096.552
 118  1092.857
 119  1091.438
 120  1067.14
 121  1062.938
 122  1109.733
 123  1151.59
 124  1162.202
 125  1185.811
 126  1114.001
 127  1120.069
 128  1157.387
 129  1086.415
 130  1103.244
 131  1035.657
 132  1021.549
 133  1033.65
 134  1060.876
 135  1088.073
 136  1133.636
 137  1092.578
 138  1026.041
 139  1058.599
 140  1029.591
 141  1028.241
 142  1111.438
 143  1183.857
 144  1063.917
 145  1080.936
 146  1157.834
 147  1158.892
 148  1131.177
 149  1157.781
 150  1170.665
 151  1186.478
 152  1196.696
 153  1047.218
 154  1073.681
 155  1079.462
 156  1114.7
 157  1122.272
 158  1050.834
 159  1081.478
 160  1097.036
 161  1096.431
 162  1055.629
 163  1039.926
 164  996.8566
 165  1060.993
 166  1012.747
 167  1027.296
 168  1114.573
 169  1140.642
 170  1095.248
 171  986.0386
 172  1003.396
 173  1065.518
 174  1076.899
 175  1075.589
 176  1039.516
 177  1029.345
 178  1066.596
 179  1051.399
 180  1097.846
 181  1127.175
 182  1121.454
 183  1077.746
 184  1034.334
 185  1056.66
 186  1047.653
 187  1031.312
 188  1065.089
 189  1121.553
 190  1121.614
 191  1097.935
 192  1120.204
 193  1031.938
 194  972.678
 195  1021.011
 196  1071.018
 197  1089.124
 198  1118.336
 199  1133.35
 200  1138.332
 201  1117.46
 202  1185.214
 203  1193.538
 204  1170.67
 205  1182.938
 206  1168.482
 207  1189.233
 208  1226.042
 209  1178.422
 210  1189.687
 211  1234.109
 212  1290.438
 213  1263.315
 214  1248.447
 215  1220.92
 216  1202.618
 217  1210.839
 218  1270.978
 219  1255.502
 220  1176.022
 221  1183.751
 222  1265.373
 223  1245.919
 224  1190.303
 225  1199.936
 226  1262.24
 227  1257.532
 228  1217.958
 229  1257.771
 230  1207.475
 231  1118.076
 232  1175.699
 233  1183.629
 234  1095.873
 235  1100.558
 236  1153.424
 237  1198.432
 238  1191.613
 239  1036.133
 240  1080.3
 241  1153.586
 242  1084.77
 243  1112.369
 244  1102.268
 245  1020.589
 246  1057.936
 247  1129.613
 248  1081.048
 249  1115.491
 250  1075.427
 251  1061.917
 252  1138.778
 253  1098.167
 254  1061.083
 255  993.2696
 256  1013.995
 257  991.4852
 258  894.1419
 259  1004.28
 260  998.7274
 261  997.3914
 262  1023.715
 263  1122.632
 264  1061.477
 265  1048.284
 266  1093.613
 267  1081.395
 268  1038.999
 269  997.3508
 270  955.9484
 271  953.0717
 272  1016.659
 273  980.7206
 274  1006.52
 275  997.7969
 276  994.7487
 277  992.7832
 278  998.1901
 279  982.8499
 280  992.3414
 281  1014.395
 282  981.7375
 283  971.9787
 284  1020.943
 285  1022.701
 286  971.5203
 287  995.5334
 288  1047.831
 289  1112.294
 290  986.8948
 291  957.851
 292  919.1528
 293  861.5129
 294  857.2384
 295  915.7955
 296  956.7656
 297  891.9514
 298  908.7902
 299  934.5793
 300  924.0895
 301  902.8904
 302  948.0626
 303  957.1007
 304  928.0967
 305  953.4686
 306  908.8961
 307  942.412
 308  964.6588
 309  969.0611
 310  1069.651
 311  1088.437
 312  1050.287
 313  1078.975
 314  1014.371
 315  1050.577
 316  1046.673
 317  1054.352
 318  1126.189
 319  1040.099
 320  1056.817
 321  1132.108
 322  1088.323
 323  943.3814
 324  971.9071
 325  1082.225
 326  1054.684
 327  1025.597
 328  1059.054
 329  1056.089
 330  1117.401
 331  1118.156
 332  1096.511
 333  1038.464
 334  1103.243
 335  1058.905
 336  1086.969
 337  1078.598
 338  1081.857
 339  1078.111
 340  1084.515
 341  1054.413
 342  1109.187
 343  1104.68
 344  1123.204
 345  1169.793
 346  1157.96
 347  1114.697
 348  1110.448
 349  1237.655
 350  1247.365
 351  1190.281
 352  1143.893
 353  1207.814
 354  1208.368
 355  1236.218
 356  1179.856
 357  1138.602
 358  1108.562
 359  1152.123
 360  1132.881
 361  1112.702
 362  1171.463
 363  1106.714
 364  1102.947
 365  1050.214
 366  1100.948
 367  1132.091
 368  1064.635
 369  1072.604
 370  1048.757
 371  1055.737
 372  1063.697
 373  1152.839
 374  1133.195
 375  1044.926
 376  1099.884
 377  1074.007
 378  1056.224
 379  1154.791
 380  1159.726
 381  1190.918
 382  1204.559
 383  1151.002
 384  1114.85
 385  1105.273
 386  1177.607
 387  1187.991
 388  1111.352
 389  1184.603
 390  1095.297
 391  1074.412
 392  1107.511
 393  1024.044
 394  1008.123
 395  1129.653
 396  1062.784
 397  1056.33
 398  1127.816
 399  1108.651
 400  1117.734
 401  1083.124
 402  1033.517
 403  1089.049
 404  1137.904
 405  1162.897
 406  1133.526
 407  1156.891
 408  1127.122
 409  1050.887
 410  1085.223
 411  1098.885
 412  1161.092
 413  1198.761
 414  1206.729
 415  1163.061
 416  1121.966
 417  1132.593
 418  1189.125
 419  1067.009
 420  1044.561
 421  1011.988
 422  1089.252
 423  1128.06
 424  1040.752
 425  1011.628
 426  1072.831
 427  1005.845
 428  1053.597
 429  1158.554
 430  1194.677
 431  1179.828
 432  1062.623
 433  1007.666
 434  987.9822
 435  1021.566
 436  991.871
 437  1012.762
 438  1095.624
 439  1078.026
 440  971.0528
 441  977.9846
 442  1116.978
 443  1046.911
 444  965.8184
 445  1045.62
 446  1062.745
 447  1030.786
 448  980.4399
 449  1059.464
 450  1063.191
 451  1079.977
 452  1074.079
 453  982.505
 454  891.6571
 455  860.6226
 456  899.8604
 457  1040.479
 458  959.264
 459  846.3005
 460  925.4534
 461  1002.256
 462  1081.755
 463  1023.538
 464  1001.83
 465  1104.156
 466  1117.489
 467  1094.2
 468  1130.065
 469  1094.736
 470  1047.826
 471  1049.367
 472  1085.411
 473  984.581
 474  1044.316
 475  1062.895
 476  1046.88
 477  1087.823
 478  1041.944
 479  982.675
 480  1049.296
 481  1038.104
 482  1074.646
 483  1075.469
 484  1076.094
 485  1073.554
 486  1069.947
 487  1071.179
 488  1086.585
 489  1122.85
 490  1158.27
 491  1085.823
 492  1159.267
 493  1114.795
 494  1089.995
 495  1127.997
 496  1080.625
 497  1094.914
 498  1036.037
 499  1027.766
 500  1035.348
 501  1043.818
 502  1108.219
 503  1069.783
 504  1103.702
 505  1098.314
 506  1092.374
 507  1211.662
 508  1211.094
 509  1330.865
 510  1411.088
 511  1568.016
