# Input file       =  1205856444.106251_cleaned.dat
# Candidate        =  PSR_0332+5434
# Telescope        =  AR
# Epoch_topo       =  58200.671598451976
# Epoch_bary       =  N/A
# T_sample         =  0.002
# Data Folded      =  7340032
# Data Avg         =  0.0353115117357349
# Data StdDev      =  1.00006216162174 
# Profile Bins     =  512
# Profile Avg      =  506.253711934208 
# Profile StdDev   =  119.740479176484 
# Reduced chi-sqr  =  1.779
# Prob(Noise)      <  9.37e-25   (~10.2 sigma)
# P_topo (ms)      =  714.574428524765  +/- 0.000309
# P'_topo (s/s)    =  -0                +/- 1.63e-10
# P''_topo (s/s^2) =  0                 +/- 7.19e-14
# P_bary (ms)      =  N/A
# P'_bary (s/s)    =  N/A
# P''_bary (s/s^2) =  N/A
# P_orb (s)        =  N/A
# asin(i)/c (s)    =  N/A
# eccentricity     =  N/A
# w (rad)          =  N/A
# T_peri           =  N/A
######################################################
   0  1352.689
   1  1317.502
   2  1182.701
   3  1054.552
   4  788.9749
   5  590.9911
   6  606.6358
   7  712.4078
   8  591.9131
   9  581.6672
  10  681.9984
  11  658.233
  12  646.0972
  13  503.9241
  14  542.4919
  15  590.7994
  16  593.0956
  17  551.2489
  18  619.1125
  19  496.1226
  20  473.2807
  21  453.0698
  22  592.4713
  23  586.1493
  24  512.4877
  25  481.8839
  26  455.1497
  27  472.4428
  28  446.064
  29  551.66
  30  593.0175
  31  544.3149
  32  612.5682
  33  550.5776
  34  515.8093
  35  464.6583
  36  525.6888
  37  528.8222
  38  542.1072
  39  664.8588
  40  640.7828
  41  518.8812
  42  492.1239
  43  419.1401
  44  394.524
  45  391.1294
  46  543.061
  47  530.6644
  48  569.2559
  49  531.5998
  50  463.43
  51  413.4969
  52  479.0914
  53  505.21
  54  547.8388
  55  524.7283
  56  505.4701
  57  529.762
  58  490.3015
  59  529.8892
  60  418.5285
  61  513.0566
  62  597.22
  63  576.1416
  64  598.2647
  65  474.1439
  66  535.9113
  67  516.5907
  68  376.1206
  69  467.2825
  70  490.7807
  71  608.9387
  72  673.7325
  73  559.9279
  74  494.8151
  75  314.4841
  76  292.9541
  77  359.7415
  78  411.0423
  79  418.6221
  80  447.5329
  81  458.6468
  82  464.0643
  83  449.3245
  84  484.1412
  85  431.4594
  86  441.588
  87  496.6111
  88  633.8183
  89  472.6242
  90  380.2603
  91  354.3812
  92  347.4758
  93  332.4181
  94  506.995
  95  558.5741
  96  620.6987
  97  605.1194
  98  519.6614
  99  636.676
 100  692.7971
 101  588.6437
 102  500.2346
 103  494.7175
 104  535.8238
 105  548.9483
 106  439.0497
 107  349.8517
 108  445.0829
 109  471.7574
 110  498.1351
 111  490.521
 112  464.7701
 113  540.5384
 114  447.8438
 115  495.1465
 116  504.9327
 117  527.7923
 118  596.0696
 119  611.0428
 120  568.191
 121  457.6386
 122  501.4142
 123  528.4653
 124  442.5098
 125  465.6845
 126  605.1033
 127  393.8208
 128  407.463
 129  489.7354
 130  435.0281
 131  515.145
 132  584.2015
 133  461.2659
 134  415.311
 135  422.6599
 136  392.586
 137  475.2127
 138  478.147
 139  497.2599
 140  440.9945
 141  475.8585
 142  501.0375
 143  472.3656
 144  502.0544
 145  550.4513
 146  499.1912
 147  404.4304
 148  360.4798
 149  444.5569
 150  515.89
 151  479.2662
 152  455.5483
 153  453.9716
 154  543.6068
 155  582.6615
 156  500.0805
 157  477.2606
 158  426.9873
 159  381.5667
 160  365.5052
 161  518.954
 162  562.5639
 163  475.3512
 164  494.4774
 165  641.4246
 166  568.0658
 167  556.2371
 168  646.4468
 169  673.6885
 170  617.5059
 171  575.2006
 172  432.5395
 173  506.4503
 174  539.3892
 175  523.454
 176  457.4132
 177  401.3015
 178  492.5704
 179  422.6978
 180  402.955
 181  455.3572
 182  487.6846
 183  560.7594
 184  477.1706
 185  460.3836
 186  470.776
 187  559.65
 188  490.4691
 189  470.5901
 190  515.2668
 191  521.4772
 192  449.5055
 193  562.1961
 194  522.0111
 195  542.3102
 196  514.7547
 197  391.7595
 198  420.3693
 199  608.6884
 200  610.6244
 201  531.3917
 202  504.4264
 203  508.871
 204  580.4682
 205  601.7928
 206  539.8627
 207  543.11
 208  590.9816
 209  516.2856
 210  504.7185
 211  517.4778
 212  383.0939
 213  336.6366
 214  527.6445
 215  515.7084
 216  521.0537
 217  442.9879
 218  482.9951
 219  462.343
 220  384.6991
 221  517.5665
 222  421.6451
 223  418.6115
 224  451.7435
 225  395.097
 226  300.218
 227  374.3348
 228  496.8611
 229  508.005
 230  365.4709
 231  445.0016
 232  468.7265
 233  556.252
 234  377.3535
 235  293.0858
 236  335.8366
 237  523.128
 238  635.3505
 239  589.1312
 240  485.2357
 241  451.1957
 242  459.6571
 243  446.4695
 244  437.9879
 245  436.9936
 246  405.175
 247  402.181
 248  371.7017
 249  478.1187
 250  539.7233
 251  427.7475
 252  424.9894
 253  368.7747
 254  401.2602
 255  367.9939
 256  459.9446
 257  401.9678
 258  432.8421
 259  489.9877
 260  527.429
 261  388.3215
 262  345.9502
 263  334.707
 264  431.1836
 265  371.674
 266  451.4748
 267  462.1783
 268  387.4172
 269  472.8609
 270  500.1255
 271  500.8575
 272  502.9358
 273  521.4513
 274  464.5034
 275  426.081
 276  527.5616
 277  455.9792
 278  498.4198
 279  481.1783
 280  506.7094
 281  517.6039
 282  580.9546
 283  575.7504
 284  457.7224
 285  542.8657
 286  586.0585
 287  462.68
 288  466.7809
 289  485.6406
 290  483.7834
 291  403.309
 292  354.2055
 293  479.6092
 294  552.3462
 295  381.2557
 296  526.8045
 297  499.8763
 298  350.5628
 299  344.5648
 300  335.9661
 301  470.5273
 302  484.3228
 303  366.2664
 304  384.1394
 305  413.8638
 306  377.6522
 307  439.4214
 308  461.4075
 309  493.4846
 310  411.9723
 311  519.6301
 312  399.8009
 313  408.9397
 314  542.1501
 315  569.244
 316  473.0809
 317  441.8581
 318  541.7648
 319  475.7973
 320  476.4757
 321  419.7846
 322  429.7614
 323  469.8783
 324  429.9206
 325  381.7638
 326  534.1747
 327  618.3887
 328  480.6879
 329  536.7024
 330  599.5969
 331  542.3521
 332  709.1035
 333  682.4565
 334  540.9021
 335  544.4255
 336  531.9639
 337  492.7294
 338  366.4457
 339  456.9332
 340  552.3669
 341  612.9814
 342  620.0067
 343  579.7405
 344  543.2423
 345  426.9238
 346  485.785
 347  519.179
 348  493.002
 349  477.5311
 350  423.0411
 351  468.7506
 352  548.8743
 353  628.6691
 354  483.4097
 355  453.87
 356  452.2864
 357  514.5721
 358  455.1755
 359  460.4252
 360  468.3399
 361  439.6724
 362  404.4566
 363  444.6432
 364  358.1322
 365  458.5812
 366  514.9991
 367  423.0878
 368  585.8477
 369  557.1527
 370  481.1038
 371  479.4374
 372  376.9001
 373  459.3866
 374  547.5246
 375  505.848
 376  640.3307
 377  511.8458
 378  552.5766
 379  560.3871
 380  527.1035
 381  671.6616
 382  591.9761
 383  641.0045
 384  674.3713
 385  627.9989
 386  575.1342
 387  565.6649
 388  577.8997
 389  534.2497
 390  519.3544
 391  500.5772
 392  537.0027
 393  508.2023
 394  484.569
 395  361.4987
 396  396.5024
 397  467.6642
 398  399.9789
 399  441.3491
 400  494.6757
 401  490.4393
 402  536.7713
 403  476.9455
 404  363.3654
 405  394.0835
 406  528.9092
 407  572.627
 408  641.3275
 409  593.2375
 410  501.8294
 411  458.7475
 412  413.822
 413  476.3136
 414  625.7521
 415  568.8113
 416  506.3671
 417  497.0517
 418  449.2051
 419  571.0827
 420  547.0164
 421  568.1513
 422  475.6017
 423  552.0084
 424  567.9526
 425  431.3
 426  538.1937
 427  523.4026
 428  543.2544
 429  534.3467
 430  542.5707
 431  497.1312
 432  408.9718
 433  494.1781
 434  489.2292
 435  533.7743
 436  420.674
 437  443.4214
 438  402.6
 439  355.9211
 440  311.0267
 441  371.3433
 442  538.0628
 443  467.3893
 444  465.148
 445  457.8035
 446  506.8065
 447  352.1313
 448  367.8055
 449  473.7427
 450  520.6492
 451  499.9307
 452  391.7803
 453  454.6324
 454  471.4075
 455  501.7135
 456  435.7599
 457  458.8445
 458  568.0303
 459  569.8409
 460  575.0981
 461  427.119
 462  354.6369
 463  432.5315
 464  542.6583
 465  564.2267
 466  511.5481
 467  418.4312
 468  483.3399
 469  542.6748
 470  450.7639
 471  419.1445
 472  427.6035
 473  454.1087
 474  495.956
 475  436.1359
 476  369.2711
 477  474.744
 478  441.6166
 479  504.5887
 480  345.8053
 481  435.0656
 482  613.9965
 483  519.8547
 484  597.0093
 485  698.4731
 486  569.3496
 487  572.0087
 488  454.4865
 489  460.3128
 490  449.0024
 491  516.2606
 492  505.067
 493  606.2396
 494  632.5817
 495  667.1219
 496  615.8874
 497  546.3992
 498  546.9703
 499  439.9749
 500  555.2862
 501  630.6989
 502  614.6118
 503  661.886
 504  629.3995
 505  641.6985
 506  792.873
 507  797.8506
 508  762.0721
 509  939.8375
 510  1117.669
 511  1318.377
