# Input file       =  1205927696.108282_cleaned.dat
# Candidate        =  PSR_0332+5434
# Telescope        =  AR
# Epoch_topo       =  58201.496274401412
# Epoch_bary       =  N/A
# T_sample         =  0.002
# Data Folded      =  7340032
# Data Avg         =  0.0761744268988719
# Data StdDev      =  1.00013630386455 
# Profile Bins     =  512
# Profile Avg      =  1092.08004571068 
# Profile StdDev   =  119.749356452339 
# Reduced chi-sqr  =  0.999
# Prob(Noise)      <  0.501   (~0.0 sigma)
# P_topo (ms)      =  714.573696958127  +/- 0.000458
# P'_topo (s/s)    =  -0                +/- 2.42e-10
# P''_topo (s/s^2) =  0                 +/- 1.07e-13
# P_bary (ms)      =  N/A
# P'_bary (s/s)    =  N/A
# P''_bary (s/s^2) =  N/A
# P_orb (s)        =  N/A
# asin(i)/c (s)    =  N/A
# eccentricity     =  N/A
# w (rad)          =  N/A
# T_peri           =  N/A
######################################################
   0  1629.499
   1  1539.928
   2  1381.107
   3  1192.58
   4  1083.518
   5  1009.116
   6  924.8316
   7  921.9452
   8  1026.07
   9  994.3998
  10  998.9991
  11  990.2581
  12  1002.025
  13  995.6702
  14  1073.663
  15  1056.156
  16  1015.63
  17  1038.817
  18  1095.286
  19  1107.528
  20  1195.874
  21  1190.427
  22  1155.002
  23  1084.963
  24  1105.209
  25  1124.098
  26  1086.106
  27  1164.278
  28  1164.483
  29  1100.607
  30  1073.552
  31  1094.857
  32  1050.827
  33  1044.739
  34  1080.889
  35  1086.397
  36  1084.004
  37  1087.434
  38  1078.443
  39  1137.63
  40  1115.749
  41  1120.135
  42  1069.882
  43  1086.497
  44  1089.141
  45  1229.189
  46  1242.989
  47  1160.874
  48  1173.674
  49  1197.082
  50  1087.28
  51  1083.331
  52  1156.831
  53  1113.021
  54  1121.994
  55  1220.837
  56  1258.924
  57  1186.925
  58  1107.088
  59  1164.1
  60  1224.913
  61  1211.242
  62  1208.042
  63  1185.575
  64  1183.197
  65  1145.055
  66  1142.776
  67  1142.118
  68  1115.358
  69  1163.766
  70  1148.448
  71  1050.896
  72  1084.245
  73  1097.181
  74  1057.753
  75  1114.629
  76  1186.917
  77  1126.772
  78  1102.644
  79  1081.967
  80  1041.661
  81  1014.033
  82  1053.949
  83  1038.09
  84  1063.91
  85  1117.561
  86  1134.876
  87  1179.39
  88  1099.124
  89  1162.018
  90  1152.905
  91  1088.774
  92  1087.063
  93  1118.956
  94  1149.131
  95  1162.999
  96  1217.517
  97  1111.405
  98  1075.847
  99  1144.91
 100  1143.494
 101  1176.972
 102  1221.914
 103  1207.961
 104  1146.443
 105  1090.89
 106  1046.969
 107  1040.214
 108  1055.318
 109  1156.225
 110  1093.425
 111  1045.665
 112  1053.26
 113  999.497
 114  1068.561
 115  1168.129
 116  1117.973
 117  1148.791
 118  1063.199
 119  1111.957
 120  1076.198
 121  1062.757
 122  1077.444
 123  1123.238
 124  1165.259
 125  1175.25
 126  1166.137
 127  1080.887
 128  1164.817
 129  1113.66
 130  1105.62
 131  1075.847
 132  1030.364
 133  1018.891
 134  1041.773
 135  1071.899
 136  1113.247
 137  1131.656
 138  1052.674
 139  1037.057
 140  1044.307
 141  1026.913
 142  1040.692
 143  1174.269
 144  1138.763
 145  1043.348
 146  1125.507
 147  1168.934
 148  1147.646
 149  1131.563
 150  1162.315
 151  1178.339
 152  1198.36
 153  1142.238
 154  1029.058
 155  1104.001
 156  1064.599
 157  1154.562
 158  1068.972
 159  1073.318
 160  1078.049
 161  1104.964
 162  1073.099
 163  1055.936
 164  1014.38
 165  1013.813
 166  1064.062
 167  989.8452
 168  1077.92
 169  1131.081
 170  1138.64
 171  1030.591
 172  994.4445
 173  1020.119
 174  1076.39
 175  1078.522
 176  1056.139
 177  1046.402
 178  1032.093
 179  1067.95
 180  1059.018
 181  1117.497
 182  1131.493
 183  1112.394
 184  1056.723
 185  1041.071
 186  1044.975
 187  1043.656
 188  1031.576
 189  1095.508
 190  1132.458
 191  1105.483
 192  1112.865
 193  1088.798
 194  996.1992
 195  979.9935
 196  1055.343
 197  1067.691
 198  1117.432
 199  1122.071
 200  1141.939
 201  1115.17
 202  1137.892
 203  1205.553
 204  1177.667
 205  1182.155
 206  1182.704
 207  1167.57
 208  1212.692
 209  1202.025
 210  1180.065
 211  1201.484
 212  1272.682
 213  1285.021
 214  1251.732
 215  1232.036
 216  1207.799
 217  1198.111
 218  1238.845
 219  1285.805
 220  1219.524
 221  1167.03
 222  1222.655
 223  1266.384
 224  1212.09
 225  1193.218
 226  1212.971
 227  1279.963
 228  1229.604
 229  1235.683
 230  1260.562
 231  1151.688
 232  1131.761
 233  1189.38
 234  1154.547
 235  1067.477
 236  1140.224
 237  1162.427
 238  1229.257
 239  1109.63
 240  1036.132
 241  1130.277
 242  1119.297
 243  1082.84
 244  1124.691
 245  1069.722
 246  1025.059
 247  1097.482
 248  1110.518
 249  1082.759
 250  1114.258
 251  1050.715
 252  1106.202
 253  1127.919
 254  1078.957
 255  1029.046
 256  997.5044
 257  1017.327
 258  950.4095
 259  910.2979
 260  1037.319
 261  975.3212
 262  1011.418
 263  1065.91
 264  1124.559
 265  1034.336
 266  1062.298
 267  1101.156
 268  1048.609
 269  1035.802
 270  976.1484
 271  938.9363
 272  994.2574
 273  1011.382
 274  977.1414
 275  1003.822
 276  995.2433
 277  990.0363
 278  1000.676
 279  986.2046
 280  984.4938
 281  1007.094
 282  1009.206
 283  967.267
 284  997.212
 285  1030.137
 286  996.2092
 287  975.0072
 288  1011.891
 289  1092.47
 290  1064.368
 291  953.9537
 292  953.8085
 293  883.7057
 294  863.7124
 295  860.43
 296  959.4507
 297  922.3887
 298  901.396
 299  911.3291
 300  948.3611
 301  901.044
 302  923.8025
 303  959.2665
 304  935.916
 305  940.6083
 306  937.2144
 307  915.9327
 308  963.3902
 309  961.3722
 310  996.3681
 311  1096.897
 312  1064.917
 313  1061.85
 314  1065.376
 315  1010.312
 316  1071.672
 317  1027.847
 318  1096.846
 319  1101.711
 320  1020.797
 321  1113.597
 322  1114.803
 323  1031.183
 324  914.026
 325  1032.295
 326  1092.057
 327  1023.712
 328  1048.417
 329  1044.477
 330  1091.7
 331  1116.667
 332  1122.368
 333  1055.732
 334  1067.641
 335  1092.93
 336  1066.007
 337  1076.234
 338  1092.297
 339  1068.927
 340  1101.214
 341  1059.598
 342  1069.327
 343  1122.272
 344  1096.979
 345  1155.982
 346  1162.541
 347  1150.398
 348  1088.352
 349  1164.935
 350  1255.863
 351  1236.134
 352  1145.094
 353  1171.824
 354  1213.49
 355  1229.152
 356  1216.027
 357  1154.333
 358  1119.775
 359  1121.52
 360  1166.881
 361  1101.395
 362  1151.836
 363  1136.955
 364  1099.075
 365  1092.757
 366  1055.511
 367  1133.345
 368  1097.478
 369  1060.602
 370  1074.813
 371  1039.764
 372  1058.091
 373  1097.612
 374  1160.131
 375  1102.593
 376  1047.733
 377  1121.685
 378  1032.938
 379  1101.307
 380  1157.947
 381  1169.348
 382  1198.802
 383  1193.601
 384  1128.943
 385  1105.946
 386  1136.102
 387  1195.381
 388  1154.369
 389  1131.593
 390  1178.522
 391  1050.059
 392  1101.829
 393  1081.438
 394  993.2495
 395  1065.586
 396  1119.009
 397  1040.358
 398  1079.502
 399  1143.011
 400  1096.192
 401  1131.709
 402  1041.965
 403  1047.656
 404  1117.197
 405  1155.225
 406  1153.986
 407  1134.093
 408  1155.471
 409  1087.692
 410  1055.754
 411  1096.533
 412  1121.746
 413  1182.462
 414  1212.026
 415  1184.159
 416  1141.764
 417  1111.089
 418  1168.647
 419  1145.814
 420  1047.61
 421  1031.031
 422  1029.642
 423  1127.994
 424  1095.447
 425  1014.54
 426  1046.931
 427  1050.458
 428  995.3381
 429  1110.216
 430  1176.524
 431  1199.077
 432  1132.376
 433  1031.664
 434  996.7198
 435  1001.926
 436  1008.949
 437  982.3276
 438  1063.299
 439  1101.834
 440  1035.919
 441  944.7231
 442  1042.129
 443  1119.591
 444  980.525
 445  1001.99
 446  1053.858
 447  1071.717
 448  983.574
 449  1029.429
 450  1055.762
 451  1074.93
 452  1077.765
 453  1042.184
 454  944.5498
 455  864.951
 456  865.7748
 457  954.2428
 458  1043.756
 459  888.514
 460  869.0034
 461  956.4708
 462  1048.046
 463  1080.854
 464  982.7277
 465  1050.379
 466  1121.302
 467  1096.015
 468  1116.941
 469  1123.46
 470  1071.733
 471  1027.206
 472  1081.174
 473  1049.033
 474  990.4993
 475  1068.867
 476  1043.769
 477  1072.293
 478  1077.233
 479  1003.085
 480  1010.691
 481  1048.149
 482  1046.59
 483  1080.249
 484  1075.881
 485  1084.738
 486  1065.971
 487  1069.41
 488  1079.577
 489  1089.017
 490  1162.07
 491  1118.532
 492  1112.798
 493  1160.629
 494  1075.654
 495  1128.242
 496  1092.94
 497  1089.114
 498  1079.755
 499  1018.214
 500  1043.863
 501  1024.626
 502  1069.987
 503  1109.637
 504  1064.618
 505  1130.18
 506  1060.004
 507  1157.466
 508  1212.263
 509  1254.253
 510  1377.889
 511  1453.978
