# Input file       =  1205999253.103225_cleaned.dat
# Candidate        =  PSR_0332+5434
# Telescope        =  AR
# Epoch_topo       =  58202.324480361400
# Epoch_bary       =  N/A
# T_sample         =  0.002
# Data Folded      =  7208960
# Data Avg         =  0.0444551905632598
# Data StdDev      =  1.00005223832342 
# Profile Bins     =  512
# Profile Avg      =  625.863776993493 
# Profile StdDev   =  118.665374349932 
# Reduced chi-sqr  =  1.607
# Prob(Noise)      <  7.88e-17   (~8.3 sigma)
# P_topo (ms)      =  714.573274709113  +/- 7.21e-05
# P'_topo (s/s)    =  -0                +/- 3.87e-11
# P''_topo (s/s^2) =  0                 +/- 1.74e-14
# P_bary (ms)      =  N/A
# P'_bary (s/s)    =  N/A
# P''_bary (s/s^2) =  N/A
# P_orb (s)        =  N/A
# asin(i)/c (s)    =  N/A
# eccentricity     =  N/A
# w (rad)          =  N/A
# T_peri           =  N/A
######################################################
   0  1389.068
   1  1364.772
   2  1088.916
   3  749.7784
   4  603.8828
   5  593.2059
   6  599.582
   7  708.6847
   8  731.531
   9  684.5801
  10  616.448
  11  590.2827
  12  637.3557
  13  612.7927
  14  518.1063
  15  567.3419
  16  593.4276
  17  631.5025
  18  715.868
  19  527.7655
  20  475.5447
  21  588.9159
  22  624.3267
  23  660.4166
  24  656.098
  25  655.7854
  26  636.1501
  27  506.6669
  28  485.0376
  29  520.8418
  30  494.4205
  31  466.9886
  32  584.9911
  33  574.387
  34  540.8862
  35  520.1175
  36  552.9594
  37  524.4814
  38  501.5851
  39  491.3011
  40  558.5419
  41  674.0787
  42  607.7078
  43  486.8476
  44  528.6954
  45  555.5052
  46  576.681
  47  566.3215
  48  638.6332
  49  665.9973
  50  638.8232
  51  563.3447
  52  523.1463
  53  555.7178
  54  529.9948
  55  648.7755
  56  639.3935
  57  620.8978
  58  608.6154
  59  561.384
  60  452.4316
  61  473.4844
  62  474.8211
  63  530.9043
  64  597.777
  65  671.8951
  66  635.8652
  67  572.0582
  68  647.1449
  69  491.907
  70  337.7654
  71  472.1263
  72  546.787
  73  539.8891
  74  465.8882
  75  612.8219
  76  553.0735
  77  558.7579
  78  518.3978
  79  504.0796
  80  536.8822
  81  638.0355
  82  631.1812
  83  627.6188
  84  580.5078
  85  621.8635
  86  444.062
  87  484.188
  88  583.4572
  89  652.1397
  90  587.5872
  91  538.7269
  92  684.4054
  93  609.8709
  94  530.5033
  95  570.4242
  96  546.1385
  97  536.7294
  98  650.2179
  99  662.4193
 100  688.1141
 101  662.7059
 102  587.8667
 103  507.3974
 104  522.8313
 105  504.062
 106  529.8008
 107  597.2083
 108  664.4749
 109  609.9233
 110  648.1152
 111  536.7897
 112  485.3752
 113  426.8996
 114  395.2686
 115  516.9952
 116  549.2781
 117  583.7343
 118  450.8755
 119  535.368
 120  530.4166
 121  589.6968
 122  666.0239
 123  605.6592
 124  617.9736
 125  608.4654
 126  624.3567
 127  682.2853
 128  553.0714
 129  538.8345
 130  461.1969
 131  553.1707
 132  672.2672
 133  653.6885
 134  568.2667
 135  572.9381
 136  611.1592
 137  632.0105
 138  555.0295
 139  483.8398
 140  581.7307
 141  614.4172
 142  728.6131
 143  658.7795
 144  592.9976
 145  561.6248
 146  577.9498
 147  519.8409
 148  555.6371
 149  743.1923
 150  724.9456
 151  729.9997
 152  772.5194
 153  680.1487
 154  670.0261
 155  659.9086
 156  724.0261
 157  646.6052
 158  550.3394
 159  533.5924
 160  601.2249
 161  631.827
 162  666.0539
 163  627.8394
 164  633.3151
 165  749.0004
 166  676.8663
 167  754.4156
 168  607.8314
 169  678.1846
 170  654.3219
 171  634.3044
 172  638.2852
 173  624.9955
 174  759.3047
 175  736.547
 176  699.3301
 177  636.4813
 178  601.0763
 179  657.5761
 180  610.2947
 181  588.1863
 182  762.8248
 183  742.7122
 184  628.3628
 185  731.832
 186  648.0009
 187  594.2449
 188  536.9178
 189  600.7693
 190  623.9758
 191  720.403
 192  620.1792
 193  505.9881
 194  594.993
 195  544.6461
 196  579.6829
 197  573.6694
 198  642.6012
 199  694.2131
 200  657.8278
 201  530.309
 202  620.5424
 203  657.2926
 204  529.2719
 205  487.247
 206  563.9385
 207  703.4479
 208  608.2816
 209  468.5537
 210  616.5363
 211  524.3495
 212  554.2546
 213  628.5448
 214  699.1354
 215  670.3821
 216  630.1208
 217  474.9541
 218  566.9529
 219  531.4039
 220  674.2513
 221  710.4419
 222  625.1316
 223  640.1542
 224  688.499
 225  717.1145
 226  591.5713
 227  669.1213
 228  670.6144
 229  558.5549
 230  756.4877
 231  794.5406
 232  709.4753
 233  673.2032
 234  693.2557
 235  650.3273
 236  599.5063
 237  611.3361
 238  628.556
 239  602.0085
 240  661.5499
 241  738.7534
 242  670.9115
 243  573.1434
 244  616.9736
 245  686.2034
 246  747.428
 247  817.6027
 248  692.8798
 249  727.8539
 250  698.121
 251  632.7508
 252  570.9943
 253  611.0836
 254  620.995
 255  623.1497
 256  751.8309
 257  839.9897
 258  775.3074
 259  730.7564
 260  724.8135
 261  651.6515
 262  644.5825
 263  670.1844
 264  570.4825
 265  588.4622
 266  710.8503
 267  596.6915
 268  566.248
 269  518.5125
 270  625.3174
 271  615.3248
 272  618.0281
 273  576.7898
 274  632.1121
 275  648.7878
 276  538.8934
 277  640.7192
 278  696.3448
 279  714.8908
 280  699.8572
 281  657.9706
 282  625.9827
 283  620.022
 284  429.4316
 285  553.5032
 286  638.6027
 287  711.7345
 288  686.7912
 289  617.1427
 290  576.3486
 291  657.6955
 292  656.4238
 293  640.2225
 294  741.7819
 295  792.4647
 296  635.9773
 297  526.5022
 298  533.3926
 299  595.7778
 300  602.1771
 301  523.5701
 302  619.8871
 303  613.1306
 304  517.2938
 305  550.7483
 306  534.8159
 307  591.0593
 308  523.6108
 309  636.9263
 310  701.0693
 311  656.3254
 312  538.6475
 313  548.4384
 314  649.2255
 315  704.9659
 316  517.3387
 317  562.6263
 318  594.5436
 319  522.0884
 320  637.1945
 321  557.9011
 322  660.6146
 323  662.2976
 324  619.2211
 325  521.7922
 326  473.0573
 327  595.0919
 328  578.938
 329  551.0803
 330  573.5874
 331  637.0095
 332  523.2351
 333  347.3981
 334  591.8531
 335  598.8375
 336  560.2089
 337  578.6871
 338  637.195
 339  658.8065
 340  631.8361
 341  525.2332
 342  590.6823
 343  495.7078
 344  446.2467
 345  531.7181
 346  630.6114
 347  672.4506
 348  698.4097
 349  660.5117
 350  541.1163
 351  499.7747
 352  541.2332
 353  618.9504
 354  572.6698
 355  525.2805
 356  577.2499
 357  558.9427
 358  526.7994
 359  631.729
 360  610.5627
 361  603.5397
 362  681.68
 363  645.1035
 364  651.8131
 365  654.6537
 366  690.2732
 367  641.4916
 368  734.4045
 369  730.462
 370  608.158
 371  720.9606
 372  757.5859
 373  709.0541
 374  667.4166
 375  737.8267
 376  745.3732
 377  760.0398
 378  840.392
 379  827.4998
 380  729.7384
 381  753.3658
 382  698.9034
 383  623.9005
 384  738.2768
 385  684.2416
 386  633.1788
 387  697.2047
 388  745.3978
 389  824.5119
 390  727.6758
 391  592.6743
 392  631.9344
 393  662.6495
 394  737.1545
 395  659.9655
 396  619.2823
 397  653.8622
 398  725.5641
 399  544.9999
 400  591.0522
 401  714.0011
 402  570.2516
 403  675.2115
 404  760.7119
 405  875.4202
 406  737.7437
 407  622.9413
 408  669.4326
 409  673.9255
 410  759.7949
 411  723.0449
 412  637.1066
 413  711.7568
 414  768.1541
 415  742.3295
 416  649.2278
 417  614.669
 418  425.0237
 419  516.9514
 420  563.6244
 421  582.8321
 422  699.0529
 423  672.9304
 424  554.034
 425  554.1948
 426  506.6532
 427  482.7404
 428  612.097
 429  650.1998
 430  607.0842
 431  671.0563
 432  577.2027
 433  472.8614
 434  533.1459
 435  582.1174
 436  595.3973
 437  652.3718
 438  838.5493
 439  758.8922
 440  485.6965
 441  457.9068
 442  612.6552
 443  664.137
 444  682.9855
 445  683.524
 446  728.0639
 447  708.4901
 448  710.1146
 449  539.1569
 450  644.8619
 451  649.7903
 452  637.4526
 453  753.5161
 454  696.6599
 455  738.7995
 456  709.0297
 457  604.2474
 458  591.6603
 459  620.6255
 460  619.5812
 461  588.2853
 462  676.9807
 463  644.1773
 464  660.7962
 465  638.7693
 466  478.3649
 467  504.2974
 468  495.967
 469  679.3772
 470  726.3954
 471  770.3386
 472  891.8559
 473  718.183
 474  651.8289
 475  515.8345
 476  469.1698
 477  558.6501
 478  722.7876
 479  716.4907
 480  553.1265
 481  550.2377
 482  493.2324
 483  674.9387
 484  593.9417
 485  491.3784
 486  503.4262
 487  574.1254
 488  669.9243
 489  610.7162
 490  506.3692
 491  518.7541
 492  602.873
 493  619.2742
 494  635.8915
 495  693.5189
 496  670.6086
 497  622.4562
 498  520.6412
 499  539.1605
 500  559.2843
 501  603.0471
 502  671.3002
 503  696.9006
 504  726.8605
 505  829.168
 506  734.6971
 507  764.4658
 508  829.9918
 509  1048.572
 510  1233.188
 511  1337.044
