# Input file       =  1205826898.111558_cleaned.dat
# Candidate        =  PSR_0332+5434
# Telescope        =  AR
# Epoch_topo       =  58200.329630920809
# Epoch_bary       =  N/A
# T_sample         =  0.002
# Data Folded      =  7143424
# Data Avg         =  0.014758395889413
# Data StdDev      =  1.00000998866765 
# Profile Bins     =  512
# Profile Avg      =  205.865953556524 
# Profile StdDev   =  118.119764329151 
# Reduced chi-sqr  =  1.915
# Prob(Noise)      <  9.42e-32   (~11.7 sigma)
# P_topo (ms)      =  714.574241903694  +/- 6.3e-05
# P'_topo (s/s)    =  -0                +/- 3.42e-11
# P''_topo (s/s^2) =  0                 +/- 1.55e-14
# P_bary (ms)      =  N/A
# P'_bary (s/s)    =  N/A
# P''_bary (s/s^2) =  N/A
# P_orb (s)        =  N/A
# asin(i)/c (s)    =  N/A
# eccentricity     =  N/A
# w (rad)          =  N/A
# T_peri           =  N/A
######################################################
   0  904.6961
   1  970.9431
   2  894.3206
   3  748.9599
   4  422.1958
   5  186.0709
   6  31.92722
   7  -41.21712
   8  162.6502
   9  269.3549
  10  271.9396
  11  153.8404
  12  251.0456
  13  352.3889
  14  229.8476
  15  198.0904
  16  171.9323
  17  129.05
  18  42.85014
  19  126.8243
  20  254.0397
  21  269.0002
  22  129.3514
  23  63.75362
  24  169.9998
  25  247.2862
  26  183.664
  27  323.5125
  28  396.453
  29  174.7233
  30  108.1446
  31  96.94262
  32  55.33958
  33  49.52943
  34  41.92914
  35  -11.45732
  36  48.75903
  37  258.3052
  38  296.6718
  39  116.3651
  40  75.95712
  41  102.6071
  42  107.4091
  43  228.8677
  44  321.4332
  45  356.9832
  46  352.7729
  47  216.511
  48  138.6455
  49  135.4907
  50  117.0911
  51  9.608582
  52  67.59069
  53  195.604
  54  170.9517
  55  118.5252
  56  147.6232
  57  254.4151
  58  206.2087
  59  246.7574
  60  311.3781
  61  343.9185
  62  238.9156
  63  164.919
  64  179.0387
  65  153.6116
  66  218.3089
  67  272.209
  68  75.28593
  69  126.9819
  70  104.5894
  71  107.2672
  72  202.0701
  73  236.932
  74  209.7848
  75  233.9814
  76  266.1489
  77  261.8517
  78  242.3421
  79  314.258
  80  289.5016
  81  81.34504
  82  119.9029
  83  146.3024
  84  234.8665
  85  308.0821
  86  248.6022
  87  192.2579
  88  123.515
  89  209.7016
  90  221.1349
  91  17.07546
  92  114.9442
  93  205.6089
  94  302.723
  95  199.0705
  96  207.3323
  97  215.9762
  98  146.5954
  99  24.31875
 100  206.7766
 101  231.9378
 102  274.1139
 103  209.8278
 104  165.8186
 105  267.735
 106  261.9264
 107  222.7878
 108  213.1509
 109  233.2552
 110  360.8709
 111  350.0099
 112  408.327
 113  230.9816
 114  91.96713
 115  88.79468
 116  16.08251
 117  148.6886
 118  205.5907
 119  287.4326
 120  165.0953
 121  148.7158
 122  208.7549
 123  152.7777
 124  269.1021
 125  155.1419
 126  297.8106
 127  299.9894
 128  241.0198
 129  274.763
 130  195.2287
 131  240.1102
 132  116.994
 133  128.6414
 134  19.1296
 135  -65.58228
 136  159.3307
 137  307.3906
 138  155.4502
 139  133.5981
 140  172.6642
 141  303.4372
 142  326.9908
 143  353.4951
 144  294.2009
 145  258.7286
 146  209.7871
 147  168.9868
 148  259.4051
 149  172.491
 150  63.32203
 151  159.1061
 152  131.4561
 153  243.9815
 154  168.4264
 155  -16.87147
 156  -2.129861
 157  166.8318
 158  239.4568
 159  281.6411
 160  91.17213
 161  142.2657
 162  211.0407
 163  177.1581
 164  91.63835
 165  83.49416
 166  117.6891
 167  204.744
 168  222.7699
 169  214.935
 170  196.0184
 171  251.8733
 172  118.8605
 173  146.9907
 174  355.1741
 175  268.3967
 176  269.3776
 177  265.2302
 178  208.3421
 179  121.1787
 180  107.8048
 181  130.5462
 182  90.00352
 183  140.5309
 184  176.1669
 185  298.2923
 186  363.1485
 187  158.5403
 188  157.7848
 189  191.9541
 190  80.04359
 191  190.163
 192  211.2325
 193  307.1685
 194  159.0891
 195  136.5326
 196  104.7513
 197  226.5394
 198  125.1627
 199  160.474
 200  32.06402
 201  183.3365
 202  92.63117
 203  88.58164
 204  42.90163
 205  168.7079
 206  57.8397
 207  124.9106
 208  223.4115
 209  196.0396
 210  178.5007
 211  258.2186
 212  295.5334
 213  183.4431
 214  254.1882
 215  285.6172
 216  232.5048
 217  127.4422
 218  211.8802
 219  318.5677
 220  153.0968
 221  23.52888
 222  86.93542
 223  125.2158
 224  142.9829
 225  233.9572
 226  358.678
 227  342.1058
 228  188.2582
 229  157.9531
 230  133.1479
 231  66.13653
 232  91.17302
 233  154.5335
 234  193.8535
 235  154.3015
 236  132.5651
 237  12.75324
 238  -14.41747
 239  -20.06447
 240  81.57965
 241  252.3843
 242  241.229
 243  370.2463
 244  311.9395
 245  226.1215
 246  119.1806
 247  86.26855
 248  179.8316
 249  246.2891
 250  323.2113
 251  309.2882
 252  248.9341
 253  167.0675
 254  99.03387
 255  16.72296
 256  53.49334
 257  125.7952
 258  211.436
 259  291.9128
 260  339.7318
 261  437.2648
 262  441.532
 263  174.0191
 264  217.1803
 265  213.4078
 266  163.5324
 267  199.6239
 268  243.8091
 269  64.10516
 270  29.11513
 271  11.05445
 272  150.4415
 273  214.9475
 274  296.2827
 275  299.5738
 276  248.9635
 277  232.3139
 278  292.0596
 279  214.4226
 280  117.957
 281  247.7624
 282  328.0031
 283  235.051
 284  267.145
 285  239.2949
 286  213.0071
 287  251.0514
 288  267.3007
 289  264.6269
 290  253.9834
 291  373.337
 292  329.2563
 293  247.5925
 294  368.4031
 295  201.9902
 296  283.4917
 297  90.21577
 298  110.6662
 299  151.6757
 300  339.798
 301  313.1958
 302  167.729
 303  199.1193
 304  186.364
 305  255.8718
 306  171.1724
 307  293.2708
 308  395.2384
 309  413.4437
 310  429.7913
 311  200.6886
 312  151.7779
 313  101.3522
 314  233.1011
 315  226.7229
 316  141.933
 317  115.2129
 318  176.3368
 319  129.364
 320  96.19978
 321  217.814
 322  83.34798
 323  201.9022
 324  339.6571
 325  465.9846
 326  353.1991
 327  188.3982
 328  93.4101
 329  126.805
 330  171.9505
 331  116.4643
 332  208.8219
 333  231.2423
 334  214.2157
 335  210.3031
 336  167.8181
 337  210.4403
 338  122.5306
 339  124.257
 340  128.9532
 341  143.8254
 342  162.8637
 343  287.2874
 344  370.7555
 345  224.3404
 346  143.207
 347  206.7745
 348  269.304
 349  61.64096
 350  63.80085
 351  141.08
 352  78.50726
 353  173.3077
 354  215.8799
 355  196.7734
 356  170.5836
 357  289.5573
 358  408.0797
 359  461.1982
 360  350.6251
 361  221.5454
 362  249.0089
 363  310.2769
 364  285.5699
 365  182.1624
 366  281.9043
 367  328.0544
 368  200.5337
 369  148.1493
 370  71.78647
 371  153.836
 372  225.3286
 373  349.9745
 374  432.8301
 375  416.1065
 376  284.2661
 377  112.0289
 378  132.4953
 379  169.4973
 380  66.39864
 381  183.9145
 382  199.09
 383  268.1249
 384  215.1009
 385  99.80183
 386  49.54351
 387  138.7597
 388  163.067
 389  166.3011
 390  249.5352
 391  333.0061
 392  395.8524
 393  420.2145
 394  383.1462
 395  293.5089
 396  361.1428
 397  394.7452
 398  259.6815
 399  275.5891
 400  197.6636
 401  189.6123
 402  218.8288
 403  141.3953
 404  146.6661
 405  232.55
 406  273.2087
 407  262.0273
 408  275.68
 409  276.9989
 410  309.7166
 411  146.0921
 412  101.9805
 413  155.7285
 414  136.0185
 415  229.6738
 416  295.7339
 417  188.9229
 418  165.4247
 419  153.0576
 420  -3.525456
 421  86.40269
 422  114.3577
 423  191.5421
 424  219.5212
 425  245.2592
 426  291.6935
 427  150.3948
 428  138.6368
 429  194.7645
 430  147.0939
 431  154.8109
 432  198.4511
 433  224.7341
 434  221.5359
 435  207.7738
 436  211.0068
 437  183.2673
 438  163.713
 439  289.8352
 440  281.6588
 441  316.7111
 442  302.9148
 443  203.7962
 444  107.4231
 445  -5.044499
 446  125.7132
 447  193.7565
 448  161.2731
 449  132.1137
 450  173.1555
 451  337.6974
 452  127.0802
 453  137.8742
 454  111.2924
 455  180.4069
 456  228.5962
 457  242.5648
 458  299.303
 459  267.4236
 460  222.3274
 461  29.84635
 462  40.67572
 463  214.8269
 464  180.2585
 465  158.1401
 466  165.8756
 467  122.9781
 468  160.8605
 469  89.20341
 470  48.35003
 471  142.6618
 472  262.2045
 473  145.8499
 474  212.3468
 475  400.8045
 476  352.2343
 477  151.9344
 478  160.6067
 479  114.8815
 480  107.8968
 481  205.113
 482  148.9293
 483  293.2854
 484  213.7383
 485  219.4792
 486  127.3667
 487  129.0429
 488  226.1874
 489  210.0854
 490  225.6261
 491  251.3338
 492  196.4194
 493  145.1799
 494  166.5699
 495  131.94
 496  258.0406
 497  47.86651
 498  30.98116
 499  133.6377
 500  171.6715
 501  84.96513
 502  -51.60175
 503  147.9608
 504  222.7529
 505  345.7693
 506  522.9727
 507  501.4568
 508  423.5554
 509  463.0622
 510  583.6202
 511  818.0444
