# Input file       =  1205152155.100529_cleaned.dat
# Candidate        =  PSR_0332+5434
# Telescope        =  AR
# Epoch_topo       =  58192.520105330193
# Epoch_bary       =  N/A
# T_sample         =  0.002
# Data Folded      =  7340032
# Data Avg         =  0.0514952132638173
# Data StdDev      =  1.00011920360581 
# Profile Bins     =  512
# Profile Avg      =  738.298604443154 
# Profile StdDev   =  119.747308986437 
# Reduced chi-sqr  =  1.403
# Prob(Noise)      <  4.24e-09   (~5.8 sigma)
# P_topo (ms)      =  714.577424205031  +/- 0.000199
# P'_topo (s/s)    =  -0                +/- 1.05e-10
# P''_topo (s/s^2) =  0                 +/- 4.62e-14
# P_bary (ms)      =  N/A
# P'_bary (s/s)    =  N/A
# P''_bary (s/s^2) =  N/A
# P_orb (s)        =  N/A
# asin(i)/c (s)    =  N/A
# eccentricity     =  N/A
# w (rad)          =  N/A
# T_peri           =  N/A
######################################################
   0  1289.666
   1  1249.377
   2  1219.56
   3  946.2861
   4  685.29
   5  712.3701
   6  785.1166
   7  797.8726
   8  723.5511
   9  618.9828
  10  527.8679
  11  613.2661
  12  621.2515
  13  738.5941
  14  690.1284
  15  697.1857
  16  708.1423
  17  712.627
  18  728.4
  19  881.2491
  20  816.8943
  21  761.4182
  22  835.6274
  23  725.543
  24  809.3104
  25  742.1636
  26  688.8022
  27  655.8498
  28  635.0454
  29  672.0162
  30  642.0258
  31  734.3171
  32  730.6667
  33  625.1403
  34  560.0006
  35  677.0893
  36  640.4519
  37  624.7504
  38  601.5149
  39  632.9724
  40  712.5942
  41  767.7714
  42  722.0323
  43  658.9134
  44  742.8865
  45  801.2224
  46  715.1936
  47  748.4456
  48  761.2311
  49  716.4509
  50  779.2667
  51  809.2006
  52  741.8633
  53  679.0153
  54  698.4363
  55  740.2931
  56  738.1996
  57  709.5842
  58  755.7016
  59  784.2404
  60  669.0577
  61  701.3495
  62  823.4265
  63  900.7895
  64  888.9895
  65  858.0952
  66  824.46
  67  705.3312
  68  775.5792
  69  775.8901
  70  797.6208
  71  697.4192
  72  702.5237
  73  663.8073
  74  699.977
  75  615.8875
  76  624.2582
  77  772.5735
  78  849.918
  79  863.8278
  80  885.8408
  81  818.0499
  82  685.225
  83  680.7684
  84  692.8243
  85  711.8583
  86  721.9761
  87  729.5316
  88  722.0843
  89  769.6331
  90  813.5298
  91  846.9551
  92  842.0905
  93  708.6664
  94  673.625
  95  753.3917
  96  843.5975
  97  877.1883
  98  774.1725
  99  740.8544
 100  651.1301
 101  701.4362
 102  770.5566
 103  760.2982
 104  692.5854
 105  648.1019
 106  687.9744
 107  797.8278
 108  892.601
 109  804.9806
 110  718.2167
 111  819.4039
 112  840.783
 113  928.2847
 114  806.017
 115  837.7599
 116  823.3516
 117  729.8911
 118  795.3858
 119  909.0645
 120  890.1265
 121  765.4612
 122  758.3425
 123  796.5856
 124  832.8318
 125  842.0301
 126  799.725
 127  809.7366
 128  738.9974
 129  639.4657
 130  610.9239
 131  677.7677
 132  674.2214
 133  751.9464
 134  854.6346
 135  706.9763
 136  753.6682
 137  708.982
 138  734.9559
 139  687.9202
 140  811.434
 141  767.8986
 142  737.4888
 143  654.781
 144  844.8531
 145  871.5013
 146  814.5659
 147  895.7189
 148  887.9451
 149  734.4273
 150  701.458
 151  753.5626
 152  841.085
 153  802.4697
 154  802.0806
 155  777.3939
 156  772.8682
 157  746.5889
 158  680.5821
 159  663.049
 160  700.7004
 161  782.8248
 162  820.2119
 163  822.0302
 164  879.9792
 165  856.4857
 166  830.7652
 167  784.0402
 168  869.4239
 169  826.0446
 170  782.2115
 171  923.606
 172  891.7173
 173  759.7097
 174  753.574
 175  815.3512
 176  827.9955
 177  865.7999
 178  977.9218
 179  877.5211
 180  749.5243
 181  800.4074
 182  756.2104
 183  759.752
 184  758.1129
 185  759.7275
 186  647.1572
 187  585.7726
 188  596.4431
 189  602.1694
 190  678.1078
 191  681.0861
 192  666.0904
 193  634.8151
 194  747.2249
 195  840.6787
 196  743.9989
 197  685.1726
 198  830.0173
 199  920.9465
 200  906.868
 201  914.7009
 202  799.2302
 203  753.3553
 204  726.6406
 205  793.7444
 206  948.1744
 207  836.7787
 208  822.4045
 209  809.3307
 210  887.6553
 211  809.6776
 212  882.7107
 213  941.1835
 214  838.6588
 215  754.4789
 216  720.9398
 217  756.2174
 218  846.9252
 219  902.6849
 220  780.2672
 221  775.5134
 222  813.1185
 223  814.4471
 224  867.6086
 225  778.5561
 226  794.0938
 227  805.4579
 228  829.7727
 229  836.8707
 230  856.0472
 231  716.8343
 232  628.5928
 233  706.0585
 234  778.2964
 235  784.2701
 236  725.1199
 237  806.7102
 238  830.1589
 239  876.6476
 240  804.4144
 241  769.6411
 242  804.9598
 243  854.425
 244  744.9984
 245  747.8566
 246  714.3732
 247  716.0374
 248  818.2483
 249  870.9972
 250  832.7896
 251  716.3887
 252  681.3636
 253  747.4044
 254  757.2976
 255  786.3893
 256  671.9814
 257  530.6082
 258  614.3497
 259  681.0406
 260  645.9119
 261  712.9792
 262  729.2331
 263  759.4227
 264  778.4446
 265  799.0365
 266  747.5421
 267  661.8717
 268  716.5714
 269  748.1938
 270  670.5349
 271  726.4684
 272  732.9024
 273  745.1282
 274  812.0233
 275  742.5856
 276  808.7072
 277  845.5574
 278  726.0027
 279  672.0256
 280  678.1439
 281  711.6973
 282  766.8522
 283  808.2785
 284  804.2881
 285  826.687
 286  860.5834
 287  992.2663
 288  984.2686
 289  889.1667
 290  791.9804
 291  779.774
 292  806.2209
 293  774.5911
 294  860.4583
 295  948.356
 296  980.6376
 297  893.9805
 298  881.3533
 299  869.2538
 300  968.5554
 301  911.0541
 302  904.6292
 303  935.4899
 304  803.6547
 305  793.9766
 306  735.3539
 307  673.0676
 308  697.2114
 309  793.5826
 310  834.5039
 311  670.4146
 312  769.9467
 313  643.8715
 314  635.3889
 315  703.3049
 316  773.7176
 317  858.4466
 318  747.6808
 319  651.6341
 320  696.5422
 321  691.9642
 322  727.159
 323  616.5945
 324  618.0876
 325  685.2646
 326  602.1985
 327  615.9368
 328  737.8953
 329  718.9737
 330  678.058
 331  795.3455
 332  892.1459
 333  792.5766
 334  635.4229
 335  736.1578
 336  742.7645
 337  859.5983
 338  803.793
 339  745.3445
 340  615.4259
 341  579.9684
 342  658.7786
 343  576.7153
 344  625.5287
 345  638.374
 346  581.9679
 347  574.287
 348  651.1693
 349  695.5355
 350  691.8669
 351  637.5286
 352  647.757
 353  675.3328
 354  637.4116
 355  584.4606
 356  543.7562
 357  596.0123
 358  641.9912
 359  681.2651
 360  558.4271
 361  634.0663
 362  660.4224
 363  657.3743
 364  598.9608
 365  712.8127
 366  796.7513
 367  791.1292
 368  658.0877
 369  608.7978
 370  713.5226
 371  743.3869
 372  619.1516
 373  680.4686
 374  786.1562
 375  781.4881
 376  637.9697
 377  663.3259
 378  772.7325
 379  772.6774
 380  770.1449
 381  842.9083
 382  848.4209
 383  772.6642
 384  710.267
 385  663.9386
 386  655.2998
 387  721.5069
 388  704.6625
 389  729.9445
 390  688.4117
 391  521.6507
 392  590.176
 393  603.2469
 394  660.2532
 395  569.9372
 396  631.3984
 397  590.9716
 398  557.3664
 399  606.0911
 400  627.8595
 401  561.5748
 402  599.8286
 403  690.8788
 404  580.2593
 405  623.4631
 406  645.5447
 407  679.2079
 408  574.6774
 409  581.0342
 410  715.2967
 411  675.9352
 412  633.9536
 413  597.7377
 414  679.7642
 415  631.085
 416  714.9279
 417  757.6856
 418  811.5072
 419  734.2142
 420  643.4297
 421  646.0459
 422  720.962
 423  710.6029
 424  606.0557
 425  606.847
 426  734.3235
 427  657.6705
 428  613.5156
 429  694.2722
 430  716.0977
 431  736.2935
 432  737.8913
 433  691.8151
 434  618.7544
 435  805.5103
 436  830.8467
 437  817.6956
 438  742.2605
 439  739.2699
 440  745.6302
 441  701.6779
 442  679.5898
 443  692.6667
 444  703.8597
 445  708.7031
 446  658.5168
 447  706.1834
 448  729.4426
 449  749.5729
 450  782.1176
 451  624.1647
 452  667.4946
 453  678.5437
 454  751.8863
 455  767.352
 456  729.7787
 457  632.6641
 458  563.4172
 459  515.2259
 460  647.437
 461  705.1234
 462  672.8564
 463  649.2249
 464  615.1891
 465  664.3582
 466  579.5367
 467  633.9463
 468  603.2009
 469  725.2937
 470  751.6581
 471  708.0134
 472  705.4208
 473  684.1555
 474  647.4867
 475  716.1953
 476  707.9924
 477  748.9577
 478  708.1149
 479  676.217
 480  710.0035
 481  596.4116
 482  643.7195
 483  647.7042
 484  689.2165
 485  624.0276
 486  602.5895
 487  696.1541
 488  551.5964
 489  553.2402
 490  553.7157
 491  666.7498
 492  758.1036
 493  687.5865
 494  690.0453
 495  699.4827
 496  529.6041
 497  549.4217
 498  567.1601
 499  628.4238
 500  706.6953
 501  712.584
 502  774.2656
 503  654.298
 504  624.982
 505  786.4352
 506  773.7178
 507  762.3415
 508  815.7271
 509  949.3805
 510  999.4928
 511  1199.187
