# Input file       =  1205498225.096636_cleaned.dat
# Candidate        =  PSR_0332+5434
# Telescope        =  AR
# Epoch_topo       =  58196.525545099954
# Epoch_bary       =  N/A
# T_sample         =  0.002
# Data Folded      =  7340032
# Data Avg         =  0.0663541581813663
# Data StdDev      =  1.00010111943334 
# Profile Bins     =  512
# Profile Avg      =  951.254120018896 
# Profile StdDev   =  119.745143713557 
# Reduced chi-sqr  =  1.787
# Prob(Noise)      <  4.08e-25   (~10.3 sigma)
# P_topo (ms)      =  714.575948287973  +/- 0.000912
# P'_topo (s/s)    =  -0                +/- 4.81e-10
# P''_topo (s/s^2) =  0                 +/- 2.12e-13
# P_bary (ms)      =  N/A
# P'_bary (s/s)    =  N/A
# P''_bary (s/s^2) =  N/A
# P_orb (s)        =  N/A
# asin(i)/c (s)    =  N/A
# eccentricity     =  N/A
# w (rad)          =  N/A
# T_peri           =  N/A
######################################################
   0  1304.051
   1  1378.267
   2  1168.935
   3  955.2017
   4  828.425
   5  739.9167
   6  778.0397
   7  791.4108
   8  804.9657
   9  831.1852
  10  783.648
  11  771.2083
  12  836.4091
  13  878.3283
  14  850.2864
  15  762.5103
  16  864.8277
  17  952.0527
  18  919.389
  19  937.8665
  20  928.9031
  21  935.8313
  22  887.3482
  23  910.0118
  24  985.0325
  25  928.6334
  26  865.5528
  27  896.081
  28  937.2467
  29  908.3978
  30  846.8849
  31  908.5369
  32  828.5287
  33  810.3754
  34  875.5516
  35  844.9339
  36  895.6125
  37  867.6158
  38  895.2153
  39  900.0513
  40  802.8618
  41  831.4657
  42  911.7125
  43  888.4707
  44  794.3646
  45  905.5623
  46  887.96
  47  913.426
  48  860.2933
  49  820.108
  50  877.2271
  51  904.9396
  52  859.3853
  53  941.2093
  54  992.7146
  55  927.0811
  56  866.9508
  57  912.7123
  58  961.4921
  59  1020.815
  60  972.0125
  61  947.7288
  62  937.3013
  63  758.8645
  64  881.4593
  65  975.8173
  66  916.5913
  67  900.9745
  68  791.651
  69  876.2152
  70  902.0989
  71  961.6148
  72  946.5642
  73  800.9256
  74  820.8364
  75  816.7958
  76  880.7086
  77  935.4918
  78  947.3337
  79  823.9954
  80  867.4771
  81  925.3694
  82  827.725
  83  907.8458
  84  912.2905
  85  926.1498
  86  914.5967
  87  911.2345
  88  923.2379
  89  917.9296
  90  938.5109
  91  918.7818
  92  911.1037
  93  959.1786
  94  888.5995
  95  900.8218
  96  891.9367
  97  889.7281
  98  919.996
  99  930.0357
 100  984.0071
 101  953.095
 102  1045.349
 103  946.6706
 104  952.8236
 105  1086.578
 106  1109.95
 107  1066.883
 108  1004.628
 109  1136.56
 110  1205.468
 111  1054.415
 112  1056.94
 113  1071.767
 114  1091.378
 115  1039.994
 116  1038.307
 117  1058.242
 118  1071.943
 119  1080.398
 120  977.2551
 121  1047.28
 122  1143.875
 123  1059.249
 124  1131.491
 125  1161.675
 126  1124.546
 127  1074.208
 128  1081.42
 129  1146.214
 130  1052.937
 131  1069.016
 132  1093.371
 133  1055.65
 134  1094.021
 135  1099.792
 136  1128.143
 137  1058.942
 138  1066.281
 139  1044.839
 140  1122.168
 141  1154.506
 142  1078.426
 143  1011.134
 144  1028.249
 145  1024.855
 146  1079.038
 147  1082.342
 148  1135.151
 149  1067.432
 150  1087.281
 151  1156.857
 152  1161.436
 153  1195.797
 154  1135.331
 155  969.0602
 156  1028.533
 157  1187.573
 158  1101.074
 159  1073.956
 160  1119.032
 161  1196.579
 162  1129.38
 163  1082.039
 164  1087.208
 165  1061.098
 166  1132.253
 167  1075.137
 168  1011.955
 169  1025.639
 170  1139.031
 171  1180.025
 172  1167.869
 173  1213.846
 174  1189.355
 175  1209.553
 176  1136.715
 177  1046.363
 178  1074.945
 179  1048.671
 180  1030.516
 181  1018.992
 182  1098.377
 183  1210.861
 184  1181.497
 185  1127.444
 186  1117.551
 187  1115.925
 188  1137.408
 189  1132.399
 190  1135.536
 191  1119.797
 192  1132.534
 193  1125.209
 194  1198.454
 195  1215.263
 196  1155.871
 197  1080.989
 198  1099.446
 199  1106.339
 200  1053.065
 201  1077.896
 202  1109.962
 203  1096.299
 204  1093.749
 205  999.946
 206  1000.493
 207  1096.667
 208  1152.875
 209  1125.337
 210  1108.129
 211  1173.188
 212  1039.313
 213  1096.734
 214  1122.066
 215  1123.906
 216  1137.878
 217  1042.879
 218  1146.466
 219  1125.017
 220  1074.745
 221  966.2215
 222  977.0297
 223  1012.242
 224  929.7715
 225  945.4097
 226  991.0069
 227  963.5178
 228  991.5913
 229  939.3619
 230  893.4086
 231  816.7552
 232  922.4676
 233  955.3827
 234  957.8827
 235  909.7813
 236  919.2382
 237  984.8591
 238  936.4275
 239  899.4215
 240  1021.151
 241  1018.847
 242  1078.677
 243  973.5013
 244  939.8751
 245  982.1064
 246  937.863
 247  930.6549
 248  980.9044
 249  1064.93
 250  1040.507
 251  941.0164
 252  965.2786
 253  986.5231
 254  934.161
 255  920.5157
 256  973.5002
 257  997.3202
 258  1010.007
 259  996.851
 260  883.0972
 261  878.6891
 262  899.909
 263  881.6884
 264  925.0923
 265  981.427
 266  962.4412
 267  1016.052
 268  1009.539
 269  930.2693
 270  969.415
 271  919.1869
 272  856.0982
 273  924.4255
 274  1084.314
 275  1032.493
 276  949.2387
 277  985.624
 278  1025.8
 279  1061.887
 280  891.4439
 281  931.5665
 282  1018.938
 283  958.9607
 284  965.8077
 285  988.4526
 286  942.5602
 287  897.4315
 288  844.0003
 289  951.5449
 290  887.8006
 291  905.6309
 292  953.1985
 293  915.141
 294  872.813
 295  954.7217
 296  894.3085
 297  813.7736
 298  727.6321
 299  734.066
 300  800.4699
 301  829.3704
 302  883.2955
 303  831.4265
 304  807.4458
 305  887.4589
 306  912.6322
 307  971.7339
 308  879.837
 309  878.5483
 310  973.9076
 311  996.8759
 312  959.8727
 313  947.5281
 314  966.5422
 315  1017.35
 316  1006.184
 317  1054.784
 318  930.724
 319  1040.476
 320  1082.45
 321  1010.207
 322  998.0807
 323  1019.142
 324  1086.387
 325  1050.843
 326  990.682
 327  967.5011
 328  956.7726
 329  981.0854
 330  983.9012
 331  1036.453
 332  1037.032
 333  1097.287
 334  1055.007
 335  958.643
 336  1004.135
 337  976.8892
 338  993.4542
 339  1023.786
 340  1049.153
 341  1057.174
 342  1006.464
 343  1009.964
 344  1050.773
 345  1013.044
 346  1020.778
 347  1067.204
 348  1055.436
 349  991.9164
 350  1040.265
 351  1071.112
 352  945.4484
 353  959.1325
 354  1015.962
 355  1013.554
 356  950.9237
 357  918.2325
 358  936.7678
 359  969.2358
 360  944.8689
 361  855.0196
 362  791.6964
 363  836.5675
 364  933.2969
 365  910.0653
 366  870.2336
 367  840.4123
 368  822.0353
 369  752.3681
 370  745.0723
 371  844.6835
 372  849.6968
 373  766.4268
 374  721.8256
 375  708.48
 376  796.3192
 377  781.329
 378  717.5567
 379  713.9
 380  711.0757
 381  714.1294
 382  700.3773
 383  724.5129
 384  723.1243
 385  731.6855
 386  695.2427
 387  679.6269
 388  734.7791
 389  668.8179
 390  673.4379
 391  774.0695
 392  710.3988
 393  664.3722
 394  721.4379
 395  760.6277
 396  807.8809
 397  820.7802
 398  795.2798
 399  748.345
 400  737.9057
 401  776.9778
 402  804.31
 403  842.9681
 404  885.1989
 405  874.2733
 406  870.2321
 407  920.6509
 408  856.8046
 409  827.4218
 410  850.2188
 411  881.6865
 412  872.41
 413  869.3204
 414  882.0479
 415  883.6258
 416  826.0444
 417  848.3906
 418  878.0464
 419  919.39
 420  980.8131
 421  886.5869
 422  954.4783
 423  1049.164
 424  934.8096
 425  877.5366
 426  896.8906
 427  974.921
 428  929.9149
 429  901.2522
 430  872.7011
 431  923.2865
 432  925.3593
 433  926.6011
 434  879.7044
 435  941.4482
 436  924.5894
 437  887.0692
 438  910.621
 439  931.3719
 440  921.8397
 441  861.9818
 442  935.6004
 443  950.8464
 444  961.2719
 445  879.2423
 446  753.2299
 447  862.4634
 448  978.9417
 449  969.524
 450  897.6758
 451  939.0924
 452  864.6862
 453  897.5317
 454  834.2584
 455  820.05
 456  865.4315
 457  854.9452
 458  877.8727
 459  942.8118
 460  915.252
 461  918.5209
 462  814.7756
 463  916.0839
 464  912.4582
 465  895.0676
 466  932.6403
 467  900.0793
 468  910.3392
 469  920.0635
 470  849.1984
 471  859.3997
 472  959.8015
 473  955.6904
 474  933.8835
 475  937.4113
 476  938.7822
 477  868.9617
 478  874.6187
 479  919.2337
 480  905.6547
 481  841.4026
 482  891.9357
 483  880.3632
 484  835.1699
 485  826.6675
 486  813.5917
 487  863.3305
 488  903.2081
 489  870.8756
 490  861.0445
 491  828.9155
 492  890.3586
 493  944.3365
 494  901.4288
 495  889.4374
 496  858.7363
 497  949.6854
 498  920.4394
 499  831.138
 500  869.6737
 501  936.0284
 502  833.007
 503  880.2304
 504  877.6779
 505  844.7356
 506  860.0616
 507  832.3194
 508  893.2608
 509  920.6006
 510  1025.187
 511  1158.898
