# Input file       =  1205684143.112546_cleaned.dat
# Candidate        =  PSR_0332+5434
# Telescope        =  AR
# Epoch_topo       =  58198.677373987797
# Epoch_bary       =  N/A
# T_sample         =  0.002
# Data Folded      =  7340032
# Data Avg         =  0.104089985323153
# Data StdDev      =  1.00017794788617 
# Profile Bins     =  512
# Profile Avg      =  1492.15401868959 
# Profile StdDev   =  119.754342617494 
# Reduced chi-sqr  =  1.608
# Prob(Noise)      <  7.37e-17   (~8.3 sigma)
# P_topo (ms)      =  714.575345962037  +/- 0.000324
# P'_topo (s/s)    =  -0                +/- 1.71e-10
# P''_topo (s/s^2) =  0                 +/- 7.55e-14
# P_bary (ms)      =  N/A
# P'_bary (s/s)    =  N/A
# P''_bary (s/s^2) =  N/A
# P_orb (s)        =  N/A
# asin(i)/c (s)    =  N/A
# eccentricity     =  N/A
# w (rad)          =  N/A
# T_peri           =  N/A
######################################################
   0  2142.724
   1  2134.766
   2  2017.005
   3  1851.51
   4  1788.741
   5  1682.255
   6  1667.377
   7  1680.156
   8  1692.931
   9  1682.841
  10  1690.432
  11  1637.329
  12  1657.663
  13  1602.27
  14  1587.949
  15  1609.537
  16  1629.929
  17  1584.788
  18  1712.984
  19  1762.612
  20  1581.214
  21  1572.866
  22  1530.776
  23  1472.084
  24  1547.513
  25  1632.131
  26  1735.805
  27  1692.416
  28  1647.319
  29  1575.141
  30  1594.14
  31  1609.469
  32  1681.425
  33  1678.508
  34  1590.009
  35  1571.848
  36  1479.452
  37  1546.944
  38  1548.625
  39  1547.605
  40  1554.324
  41  1620.057
  42  1523.234
  43  1506.633
  44  1530.336
  45  1496.615
  46  1543.693
  47  1402.702
  48  1414.639
  49  1393.781
  50  1492.459
  51  1481.893
  52  1482.2
  53  1503.544
  54  1477.539
  55  1479.048
  56  1493.518
  57  1449.974
  58  1507.191
  59  1441.041
  60  1506.57
  61  1500.039
  62  1363.58
  63  1412.395
  64  1497.392
  65  1389.243
  66  1499.05
  67  1553.273
  68  1456.131
  69  1419.09
  70  1373.545
  71  1353.049
  72  1398.509
  73  1405.074
  74  1464.83
  75  1480.783
  76  1415.295
  77  1397.269
  78  1437.042
  79  1560.366
  80  1441.489
  81  1453.098
  82  1533.601
  83  1515.809
  84  1418.193
  85  1429.701
  86  1454.319
  87  1489.432
  88  1479.279
  89  1394.128
  90  1422.668
  91  1511.941
  92  1567.406
  93  1598.435
  94  1556.116
  95  1669.534
  96  1613.183
  97  1469.616
  98  1481.94
  99  1503.315
 100  1680.282
 101  1714.647
 102  1688.731
 103  1663.576
 104  1597.353
 105  1560.567
 106  1587.292
 107  1543.719
 108  1517.899
 109  1561.136
 110  1526.891
 111  1575.535
 112  1560.704
 113  1545.163
 114  1537.377
 115  1507.307
 116  1539.01
 117  1520.181
 118  1584.952
 119  1589.695
 120  1456.107
 121  1453.075
 122  1444.667
 123  1276.323
 124  1286.802
 125  1369.038
 126  1407.432
 127  1399.749
 128  1462.491
 129  1467.5
 130  1558.03
 131  1458.993
 132  1359.869
 133  1362.799
 134  1529.145
 135  1494.268
 136  1429.805
 137  1364.631
 138  1297.973
 139  1455.99
 140  1370.527
 141  1473.83
 142  1475.921
 143  1378.458
 144  1355.851
 145  1494.632
 146  1421.361
 147  1392.798
 148  1377.683
 149  1391.13
 150  1470.016
 151  1397.716
 152  1396.985
 153  1420.665
 154  1383.844
 155  1301.895
 156  1303.079
 157  1494.797
 158  1483.348
 159  1422.133
 160  1348.177
 161  1361.156
 162  1485.279
 163  1450.724
 164  1458.681
 165  1420.414
 166  1472.285
 167  1422.294
 168  1452.805
 169  1498.362
 170  1558.305
 171  1523.527
 172  1600.707
 173  1443.746
 174  1423.907
 175  1486.338
 176  1552.285
 177  1537.206
 178  1539.091
 179  1577.599
 180  1558.404
 181  1450.781
 182  1490.464
 183  1496.584
 184  1531.025
 185  1516.633
 186  1540.109
 187  1569.477
 188  1580.302
 189  1479.576
 190  1410.281
 191  1456.936
 192  1457.329
 193  1437.134
 194  1432.498
 195  1505.237
 196  1532.68
 197  1521.591
 198  1542.397
 199  1486.848
 200  1449.677
 201  1507.263
 202  1575.058
 203  1570.744
 204  1565.816
 205  1578.716
 206  1568.477
 207  1479.983
 208  1483.08
 209  1506.155
 210  1582.043
 211  1594.206
 212  1562.548
 213  1578.588
 214  1519.285
 215  1517.797
 216  1543.037
 217  1654.637
 218  1634.613
 219  1487.923
 220  1402.26
 221  1501.359
 222  1612.294
 223  1595.571
 224  1649.237
 225  1540.778
 226  1428.213
 227  1481.279
 228  1494.547
 229  1531.23
 230  1589.144
 231  1517.597
 232  1509.262
 233  1508.302
 234  1558.825
 235  1430.831
 236  1476.266
 237  1595.422
 238  1593.698
 239  1522.314
 240  1501.551
 241  1591.122
 242  1581.718
 243  1539.302
 244  1552.389
 245  1553.214
 246  1636.972
 247  1597.045
 248  1549.763
 249  1600.028
 250  1539.718
 251  1543.336
 252  1475.894
 253  1434.915
 254  1487.519
 255  1537.495
 256  1556.605
 257  1579.527
 258  1513.22
 259  1587.315
 260  1535.515
 261  1470.127
 262  1458.292
 263  1515.669
 264  1525.648
 265  1539.653
 266  1522.157
 267  1379.597
 268  1315.563
 269  1460.631
 270  1535.588
 271  1486.356
 272  1484.369
 273  1532.765
 274  1473.375
 275  1476.881
 276  1504.866
 277  1432.247
 278  1594.736
 279  1636.865
 280  1578.719
 281  1537.883
 282  1555.112
 283  1576.006
 284  1566.497
 285  1503.532
 286  1445.11
 287  1440.766
 288  1382.045
 289  1417.804
 290  1465.664
 291  1545.191
 292  1523.789
 293  1495.353
 294  1498.668
 295  1530.31
 296  1517.762
 297  1481.886
 298  1505.879
 299  1449.612
 300  1513.173
 301  1538.521
 302  1476.975
 303  1431.044
 304  1478.136
 305  1492.483
 306  1546.473
 307  1628.55
 308  1613.724
 309  1569.5
 310  1510.842
 311  1480.634
 312  1406.581
 313  1347.488
 314  1446.717
 315  1580.793
 316  1541.459
 317  1553.313
 318  1556.604
 319  1434.351
 320  1403.413
 321  1450.06
 322  1456.526
 323  1473.204
 324  1525.139
 325  1546.512
 326  1458.204
 327  1363.311
 328  1362.5
 329  1356.258
 330  1374.547
 331  1499.204
 332  1540.682
 333  1465.147
 334  1373.58
 335  1398.92
 336  1314.226
 337  1319.139
 338  1478.746
 339  1407.51
 340  1388.019
 341  1487.275
 342  1493.062
 343  1432.795
 344  1541.138
 345  1513.751
 346  1364.323
 347  1427.023
 348  1371.127
 349  1300.638
 350  1281.062
 351  1361.898
 352  1494.797
 353  1546.114
 354  1392.602
 355  1291.728
 356  1367.628
 357  1389.627
 358  1369.967
 359  1425.064
 360  1399.652
 361  1376.165
 362  1449.404
 363  1458.856
 364  1519.533
 365  1406.404
 366  1331.155
 367  1304.688
 368  1321.253
 369  1324.544
 370  1315.138
 371  1451.889
 372  1388.391
 373  1444.081
 374  1443.146
 375  1438.485
 376  1382.976
 377  1339.111
 378  1381.74
 379  1372.996
 380  1427.495
 381  1448.118
 382  1509.362
 383  1497.677
 384  1381.415
 385  1373.761
 386  1426.419
 387  1323.324
 388  1371.787
 389  1383.919
 390  1347.756
 391  1351.933
 392  1386.755
 393  1417.895
 394  1341.657
 395  1396.531
 396  1421.611
 397  1412.849
 398  1487.53
 399  1505.27
 400  1435.723
 401  1405.737
 402  1340.017
 403  1405.339
 404  1320.671
 405  1306.911
 406  1421.48
 407  1423.617
 408  1428.161
 409  1330.653
 410  1348.283
 411  1407.822
 412  1362.001
 413  1379.449
 414  1450.691
 415  1422.823
 416  1360.848
 417  1335.97
 418  1289.383
 419  1307.698
 420  1279.014
 421  1317.296
 422  1381.286
 423  1420.639
 424  1349.653
 425  1216.62
 426  1257.115
 427  1430.116
 428  1445.081
 429  1406.759
 430  1450.404
 431  1429.367
 432  1432.034
 433  1439.253
 434  1410.228
 435  1333.992
 436  1413.171
 437  1458.837
 438  1386.812
 439  1379.849
 440  1396.95
 441  1277.169
 442  1361.589
 443  1463.772
 444  1512.999
 445  1511.492
 446  1390.186
 447  1519.229
 448  1465.662
 449  1497.495
 450  1544.563
 451  1504.642
 452  1521.407
 453  1553.184
 454  1509.442
 455  1410.896
 456  1452.232
 457  1464.795
 458  1565.421
 459  1592.589
 460  1536.007
 461  1531.164
 462  1524.461
 463  1716.146
 464  1592.309
 465  1570.861
 466  1521.056
 467  1548.48
 468  1571.063
 469  1427.329
 470  1407.284
 471  1469.516
 472  1457.308
 473  1460.372
 474  1505.168
 475  1457.781
 476  1412.07
 477  1416.343
 478  1574.472
 479  1554.806
 480  1510.257
 481  1573.727
 482  1556.35
 483  1497.198
 484  1583.515
 485  1523.626
 486  1519.772
 487  1486.258
 488  1466.918
 489  1520.582
 490  1503.393
 491  1482.722
 492  1573.726
 493  1627.799
 494  1552.895
 495  1490.61
 496  1545.51
 497  1510.112
 498  1519.795
 499  1566.459
 500  1561.947
 501  1558.601
 502  1544.33
 503  1555.602
 504  1554.484
 505  1631.212
 506  1545.182
 507  1633.391
 508  1707.744
 509  1742.928
 510  1876.493
 511  2113.707
