# Input file       =  1205167077.107159_cleaned.dat
# Candidate        =  PSR_0332+5434
# Telescope        =  AR
# Epoch_topo       =  58192.692813740265
# Epoch_bary       =  N/A
# T_sample         =  0.002
# Data Folded      =  7340032
# Data Avg         =  0.0101858316653304
# Data StdDev      =  1.00003992992974 
# Profile Bins     =  512
# Profile Avg      =  145.997055009408 
# Profile StdDev   =  119.737817308496 
# Reduced chi-sqr  =  1.412
# Prob(Noise)      <  2.1e-09   (~5.9 sigma)
# P_topo (ms)      =  714.577699539557  +/- 0.000289
# P'_topo (s/s)    =  -0                +/- 1.52e-10
# P''_topo (s/s^2) =  0                 +/- 6.73e-14
# P_bary (ms)      =  N/A
# P'_bary (s/s)    =  N/A
# P''_bary (s/s^2) =  N/A
# P_orb (s)        =  N/A
# asin(i)/c (s)    =  N/A
# eccentricity     =  N/A
# w (rad)          =  N/A
# T_peri           =  N/A
######################################################
   0  801.7026
   1  727.2142
   2  445.1553
   3  334.7472
   4  170.714
   5  156.2861
   6  114.3248
   7  73.42952
   8  115.582
   9  207.0886
  10  146.5442
  11  88.5305
  12  121.0759
  13  161.5414
  14  115.88
  15  4.184557
  16  49.38202
  17  69.33807
  18  34.14194
  19  34.65638
  20  -10.80144
  21  53.40844
  22  72.16257
  23  136.0569
  24  78.49977
  25  21.77862
  26  -50.03057
  27  28.54984
  28  69.22209
  29  40.02821
  30  148.2569
  31  98.90984
  32  194.2357
  33  179.009
  34  207.7241
  35  185.8798
  36  276.4442
  37  230.3989
  38  -18.45183
  39  50.65715
  40  187.0579
  41  187.7927
  42  102.4974
  43  74.14169
  44  117.6868
  45  144.6586
  46  46.40368
  47  136.4434
  48  172.9728
  49  122.5899
  50  31.89347
  51  112.457
  52  130.9111
  53  164.7767
  54  67.75275
  55  73.45348
  56  247.6227
  57  320.4455
  58  235.7817
  59  155.7864
  60  219.1156
  61  203.8211
  62  220.2445
  63  284.2389
  64  179.5066
  65  111.4127
  66  176.2657
  67  64.13354
  68  -31.93519
  69  -18.77836
  70  -52.04065
  71  100.0865
  72  193.1566
  73  121.3465
  74  -42.32016
  75  34.30124
  76  73.92983
  77  97.82021
  78  175.7035
  79  130.1373
  80  115.7894
  81  75.73631
  82  107.2755
  83  78.94904
  84  182.3094
  85  1.750538
  86  -26.61357
  87  10.19561
  88  98.21085
  89  50.26196
  90  79.26588
  91  167.0872
  92  69.84473
  93  -3.145636
  94  -24.05739
  95  28.21407
  96  61.92004
  97  193.6008
  98  73.78521
  99  34.46354
 100  4.489695
 101  126.4039
 102  234.6345
 103  85.71351
 104  174.6595
 105  111.8224
 106  181.7262
 107  182.6926
 108  183.0594
 109  212.191
 110  -11.6752
 111  177.0907
 112  164.702
 113  112.636
 114  117.8047
 115  121.241
 116  100.5612
 117  14.45867
 118  88.17693
 119  234.217
 120  200.9032
 121  39.1175
 122  180.0387
 123  172.8713
 124  235.3975
 125  152.0586
 126  -27.56558
 127  82.05975
 128  245.2659
 129  235.1709
 130  213.3058
 131  102.7378
 132  161.6378
 133  167.256
 134  56.68197
 135  88.70338
 136  89.56712
 137  149.9271
 138  171.272
 139  122.1463
 140  72.48612
 141  144.3427
 142  147.7022
 143  165.9334
 144  102.6211
 145  129.2396
 146  119.5711
 147  142.1232
 148  53.53472
 149  40.52483
 150  141.5094
 151  65.84361
 152  90.37978
 153  158.8742
 154  196.835
 155  291.964
 156  194.4604
 157  159.0031
 158  91.57304
 159  143.576
 160  107.8084
 161  212.1545
 162  221.2059
 163  159.0097
 164  187.2626
 165  184.6941
 166  38.57103
 167  -10.54932
 168  84.40197
 169  189.1292
 170  118.4366
 171  58.78334
 172  174.9555
 173  243.627
 174  199.9904
 175  141.5797
 176  149.9644
 177  142.9256
 178  130.4047
 179  66.42233
 180  142.535
 181  147.8283
 182  176.2482
 183  103.0651
 184  140.729
 185  252.127
 186  127.7143
 187  93.55149
 188  45.91829
 189  97.54656
 190  268.4523
 191  222.8602
 192  140.4716
 193  80.12875
 194  34.21684
 195  119.2343
 196  15.40248
 197  169.505
 198  88.80043
 199  39.0267
 200  145.6179
 201  114.9788
 202  193.5677
 203  154.0471
 204  54.74856
 205  40.7106
 206  258.2966
 207  355.6577
 208  190.869
 209  99.39158
 210  130.3762
 211  90.67636
 212  29.2531
 213  45.53261
 214  143.5013
 215  106.9876
 216  -10.89258
 217  24.37034
 218  107.8936
 219  168.2502
 220  151.6622
 221  179.9151
 222  222.0892
 223  240.4173
 224  204.2092
 225  98.80231
 226  -21.38062
 227  70.14421
 228  155.1048
 229  185.2995
 230  165.6474
 231  250.54
 232  285.7962
 233  199.0421
 234  105.6292
 235  75.98519
 236  198.2357
 237  61.87736
 238  -44.40007
 239  -18.56695
 240  -38.22988
 241  58.75089
 242  156.4635
 243  67.66621
 244  167.2918
 245  230.9883
 246  147.182
 247  17.07662
 248  127.8024
 249  139.6953
 250  154.2983
 251  43.66189
 252  16.17492
 253  126.4032
 254  141.732
 255  246.8912
 256  146.1577
 257  174.3376
 258  252.1186
 259  193.9068
 260  -33.01267
 261  -19.19834
 262  215.9136
 263  291.6674
 264  122.0726
 265  113.6874
 266  150.3464
 267  231.8128
 268  332.9601
 269  302.4486
 270  161.3191
 271  124.8479
 272  117.9836
 273  278.7753
 274  259.4276
 275  221.075
 276  202.717
 277  86.98718
 278  140.266
 279  251.9908
 280  229.8861
 281  278.5272
 282  183.6528
 283  67.28632
 284  -23.17013
 285  -97.97162
 286  41.36715
 287  104.8246
 288  191.8295
 289  157.866
 290  97.87166
 291  155.4955
 292  226.5685
 293  176.5184
 294  103.5886
 295  124.1608
 296  235.1235
 297  280.7231
 298  191.2062
 299  156.3072
 300  159.6981
 301  118.2905
 302  7.107027
 303  52.96842
 304  140.934
 305  135.5375
 306  253.2338
 307  223.4288
 308  194.7939
 309  124.0531
 310  147.0303
 311  229.526
 312  146.9916
 313  30.33461
 314  124.6698
 315  152.4698
 316  158.375
 317  51.48037
 318  70.55958
 319  59.93325
 320  145.9722
 321  162.0024
 322  175.3609
 323  105.2862
 324  226.7596
 325  143.62
 326  173.1082
 327  62.52134
 328  75.54144
 329  224.0163
 330  150.8003
 331  227.8765
 332  364.9272
 333  257.502
 334  58.79964
 335  52.63478
 336  140.6229
 337  231.6673
 338  255.0916
 339  218.2141
 340  229.335
 341  131.3167
 342  54.45705
 343  113.8638
 344  116.7159
 345  28.25464
 346  135.9179
 347  229.8268
 348  232.0452
 349  200.8344
 350  252.5879
 351  261.2077
 352  232.5404
 353  162.5015
 354  220.3674
 355  152.2741
 356  132.4359
 357  125.8393
 358  148.9793
 359  240.7767
 360  189.992
 361  138.1639
 362  184.2292
 363  229.664
 364  173.6066
 365  110.4635
 366  41.45742
 367  -24.63052
 368  69.27409
 369  100.6339
 370  -11.63223
 371  51.91584
 372  -8.071568
 373  -5.996334
 374  84.36192
 375  79.66292
 376  24.35488
 377  -7.702658
 378  20.78152
 379  136.5795
 380  92.99457
 381  121.8414
 382  205.1405
 383  190.4015
 384  226.3398
 385  237.4856
 386  213.5387
 387  236.8788
 388  264.54
 389  222.7317
 390  179.3255
 391  148.6395
 392  118.3067
 393  52.66677
 394  165.8943
 395  168.8309
 396  194.5267
 397  120.9658
 398  110.4456
 399  104.7286
 400  144.3023
 401  44.25329
 402  101.6819
 403  114.0958
 404  191.4615
 405  123.4199
 406  56.66299
 407  258.6596
 408  208.0501
 409  145.707
 410  107.7611
 411  99.90868
 412  70.96651
 413  9.463
 414  95.44612
 415  63.09048
 416  23.07513
 417  224.225
 418  293.2549
 419  141.8032
 420  124.6709
 421  175.5879
 422  181.561
 423  131.5401
 424  272.9513
 425  359.2256
 426  396.0071
 427  295.1828
 428  154.4258
 429  141.8338
 430  166.5587
 431  165.849
 432  231.4893
 433  232.9085
 434  253.4633
 435  66.26001
 436  106.4938
 437  132.8234
 438  141.8609
 439  168.924
 440  172.4654
 441  202.8235
 442  163.1742
 443  243.986
 444  160.1477
 445  163.5244
 446  378.318
 447  259.1643
 448  77.12543
 449  185.5715
 450  282.3988
 451  202.9465
 452  248.3387
 453  229.5905
 454  119.3207
 455  185.0193
 456  240.4368
 457  214.5944
 458  106.6426
 459  -2.072427
 460  88.14835
 461  207.9786
 462  216.739
 463  10.33318
 464  18.07833
 465  35.74005
 466  -52.92564
 467  47.28045
 468  159.9981
 469  47.10752
 470  42.98907
 471  47.57338
 472  124.3823
 473  181.8155
 474  230.2054
 475  148.6566
 476  166.5309
 477  -17.70885
 478  55.60394
 479  130.3682
 480  188.6031
 481  254.7165
 482  222.6406
 483  232.5988
 484  192.2376
 485  226.3259
 486  331.1003
 487  225.0762
 488  148.0701
 489  143.1057
 490  170.3152
 491  217.8048
 492  94.80017
 493  167.2121
 494  229.6546
 495  246.8037
 496  164.34
 497  -8.052648
 498  47.12635
 499  74.36069
 500  243.2986
 501  288.991
 502  279.3051
 503  222.5174
 504  229.9857
 505  232.0084
 506  251.8298
 507  349.9037
 508  411.9264
 509  569.4462
 510  737.9512
 511  795.0536
