# Input file       =  1205482329.110533_cleaned.dat
# Candidate        =  PSR_0332+5434
# Telescope        =  AR
# Epoch_topo       =  58196.341563779315
# Epoch_bary       =  N/A
# T_sample         =  0.002
# Data Folded      =  7405568
# Data Avg         =  0.089012177154534
# Data StdDev      =  1.0002060134729  
# Profile Bins     =  512
# Profile Avg      =  1287.5626550476  
# Profile StdDev   =  120.291147519752 
# Reduced chi-sqr  =  1.593
# Prob(Noise)      <  2.99e-16   (~8.1 sigma)
# P_topo (ms)      =  714.575988152271  +/- 5.24e-05
# P'_topo (s/s)    =  -0                +/- 2.74e-11
# P''_topo (s/s^2) =  0                 +/- 1.2e-14
# P_bary (ms)      =  N/A
# P'_bary (s/s)    =  N/A
# P''_bary (s/s^2) =  N/A
# P_orb (s)        =  N/A
# asin(i)/c (s)    =  N/A
# eccentricity     =  N/A
# w (rad)          =  N/A
# T_peri           =  N/A
######################################################
   0  1921.386
   1  1851.902
   2  1638.43
   3  1539.026
   4  1422.305
   5  1283.488
   6  1207.904
   7  1311.316
   8  1355.617
   9  1187.08
  10  1253.469
  11  1234.882
  12  1213.122
  13  1179.084
  14  1232.488
  15  1341.37
  16  1302.158
  17  1248.92
  18  1197.421
  19  1145.83
  20  1162.715
  21  1080.503
  22  1090.223
  23  1223.974
  24  1199.053
  25  1097.265
  26  1125.427
  27  1127.73
  28  1069.484
  29  1186.816
  30  1282.324
  31  1334.497
  32  1262.281
  33  1211.493
  34  1129.787
  35  1144.854
  36  1195.669
  37  1155.503
  38  1204.841
  39  1270.703
  40  1264.17
  41  1271.783
  42  1288.885
  43  1316.444
  44  1311.525
  45  1283.318
  46  1296.628
  47  1333.004
  48  1327.847
  49  1335.472
  50  1175.796
  51  1154.796
  52  1198.257
  53  1227.53
  54  1321.346
  55  1345.84
  56  1320.36
  57  1304.089
  58  1200.018
  59  1174.785
  60  1154.405
  61  1253.951
  62  1233.793
  63  1211.32
  64  1364.207
  65  1421.113
  66  1220.81
  67  1211.111
  68  1212.442
  69  1325.89
  70  1324.577
  71  1218.915
  72  1231.997
  73  1270.893
  74  1293.816
  75  1175.654
  76  1146.093
  77  1186.56
  78  1082.612
  79  1275.914
  80  1360.545
  81  1402.157
  82  1225.534
  83  1152.178
  84  1267.417
  85  1241.014
  86  1354.279
  87  1355.179
  88  1342.899
  89  1285.246
  90  1280.342
  91  1185.023
  92  1202.656
  93  1204.105
  94  1156.985
  95  1235.815
  96  1446.311
  97  1446.151
  98  1425.721
  99  1222.46
 100  1341.84
 101  1320.331
 102  1368.445
 103  1467.777
 104  1394.331
 105  1458.097
 106  1586.115
 107  1508.565
 108  1227.338
 109  1276.9
 110  1331.552
 111  1277.16
 112  1343.698
 113  1384.441
 114  1339.498
 115  1266.074
 116  1297.299
 117  1316.671
 118  1297.109
 119  1363.742
 120  1262.068
 121  1355.561
 122  1387.357
 123  1306.793
 124  1379.087
 125  1371.998
 126  1391.649
 127  1279.695
 128  1268.03
 129  1367.463
 130  1472.483
 131  1536.848
 132  1451.691
 133  1318.454
 134  1433.185
 135  1483.421
 136  1572.87
 137  1437.596
 138  1390.847
 139  1471.768
 140  1420.097
 141  1417.36
 142  1419.525
 143  1388.64
 144  1569.812
 145  1516.889
 146  1466.918
 147  1506.653
 148  1428.616
 149  1393.073
 150  1368.27
 151  1408.198
 152  1272.191
 153  1338.49
 154  1436.347
 155  1403.4
 156  1344.029
 157  1315.869
 158  1235.159
 159  1247.143
 160  1258.104
 161  1278.907
 162  1347.01
 163  1371.978
 164  1327.198
 165  1322.922
 166  1292.945
 167  1237.812
 168  1243.043
 169  1277.767
 170  1305.688
 171  1303.046
 172  1427.091
 173  1361.273
 174  1172.095
 175  1211.028
 176  1358.24
 177  1357.278
 178  1297.619
 179  1270.739
 180  1448.343
 181  1542.678
 182  1469.778
 183  1402.385
 184  1410.099
 185  1357.164
 186  1222.137
 187  1276.141
 188  1332.88
 189  1352.29
 190  1197.99
 191  1333.087
 192  1299.614
 193  1243.008
 194  1167.051
 195  1285.071
 196  1350.316
 197  1423.749
 198  1362.772
 199  1313.838
 200  1303.135
 201  1277.718
 202  1297.865
 203  1361.239
 204  1372.088
 205  1387.604
 206  1339.732
 207  1282.041
 208  1270.181
 209  1265.148
 210  1210.842
 211  1267.627
 212  1211.922
 213  1297.635
 214  1229.877
 215  1344.631
 216  1292.085
 217  1277.213
 218  1361.089
 219  1296.878
 220  1295.455
 221  1356.933
 222  1393.304
 223  1291.343
 224  1209.334
 225  1271.8
 226  1346.34
 227  1369.063
 228  1368.878
 229  1392.687
 230  1317.65
 231  1333.483
 232  1264.47
 233  1159.239
 234  1259.069
 235  1288.553
 236  1321.553
 237  1343.959
 238  1323.981
 239  1304.479
 240  1259.794
 241  1271.376
 242  1259.733
 243  1225.562
 244  1222.609
 245  1283.95
 246  1389.053
 247  1332.951
 248  1143.761
 249  1183.153
 250  1138.208
 251  1203.173
 252  1268.99
 253  1288.002
 254  1289.83
 255  1284.766
 256  1249.548
 257  1200.494
 258  1236.208
 259  1334.98
 260  1345.545
 261  1400.897
 262  1379.455
 263  1405.188
 264  1388.019
 265  1382.917
 266  1238.025
 267  1248.509
 268  1395.335
 269  1330.988
 270  1456.484
 271  1408.711
 272  1326.396
 273  1310.148
 274  1208.56
 275  1287.053
 276  1331.081
 277  1219.944
 278  1307.914
 279  1386.702
 280  1329.922
 281  1210.07
 282  1151.685
 283  1232.747
 284  1176.634
 285  1225.357
 286  1363.771
 287  1269.311
 288  1281.207
 289  1246.573
 290  1140.378
 291  1141.152
 292  1289.186
 293  1271.272
 294  1308.715
 295  1461.686
 296  1433.516
 297  1242.01
 298  1265.724
 299  1306.976
 300  1320.13
 301  1206.287
 302  1230.008
 303  1375.516
 304  1271.451
 305  1209.52
 306  1172.392
 307  1153.597
 308  1214.256
 309  1276.097
 310  1273.287
 311  1325.981
 312  1387.091
 313  1165.722
 314  1152.903
 315  1130.299
 316  1190.808
 317  1210.995
 318  1208.479
 319  1232.825
 320  1282.534
 321  1223.288
 322  1067.356
 323  906.6669
 324  1037.497
 325  1204.989
 326  1161.412
 327  1203.118
 328  1250.334
 329  1196.375
 330  1295.887
 331  1226.26
 332  1213.972
 333  1256.989
 334  1067.359
 335  1252.72
 336  1302.841
 337  1317.304
 338  1211.152
 339  1145.438
 340  1217.948
 341  1203.326
 342  1327.989
 343  1280.2
 344  1220.198
 345  1271.155
 346  1350.261
 347  1276.551
 348  1191.424
 349  1131.381
 350  1135.197
 351  1132.338
 352  1238.798
 353  1288.801
 354  1291.363
 355  1197.669
 356  1095.854
 357  1135.352
 358  1101.704
 359  1124.014
 360  1159.463
 361  1293.324
 362  1231.585
 363  1231.227
 364  1183.963
 365  1172.377
 366  1284.979
 367  1342.935
 368  1281.18
 369  1163.786
 370  1290.898
 371  1326.579
 372  1240.874
 373  1308.305
 374  1346.377
 375  1203.863
 376  1262.257
 377  1298.756
 378  1405.359
 379  1331.696
 380  1314.304
 381  1344.672
 382  1190.937
 383  1308.687
 384  1290.355
 385  1288.66
 386  1412.517
 387  1332.11
 388  1311.307
 389  1260.724
 390  1327.06
 391  1378.884
 392  1314.81
 393  1337.463
 394  1318.599
 395  1313.177
 396  1297.086
 397  1261.827
 398  1304.875
 399  1336.048
 400  1343.27
 401  1345.662
 402  1355.478
 403  1467.015
 404  1356.443
 405  1217.906
 406  1180.572
 407  1251.973
 408  1327.215
 409  1279.257
 410  1314.362
 411  1466.671
 412  1437.266
 413  1420.935
 414  1355.408
 415  1262.632
 416  1292.133
 417  1283.276
 418  1274.183
 419  1322.705
 420  1363.485
 421  1288.479
 422  1194.897
 423  1171.492
 424  1281.599
 425  1251.984
 426  1235.103
 427  1259.759
 428  1277.967
 429  1213.581
 430  1215.461
 431  1225.433
 432  1227.057
 433  1160.325
 434  1186.25
 435  1247.968
 436  1342.053
 437  1212.641
 438  1099.379
 439  1161.191
 440  1140.503
 441  1128.872
 442  1226.527
 443  1331.097
 444  1419.687
 445  1368.203
 446  1229.728
 447  1226.385
 448  1199.617
 449  1154.353
 450  1147.575
 451  1201.782
 452  1330.482
 453  1245.823
 454  1128.268
 455  1113.12
 456  1240.262
 457  1231.3
 458  1131.496
 459  1217.392
 460  1288.923
 461  1260.263
 462  1236.055
 463  1173.731
 464  1154.505
 465  1156.672
 466  1242.963
 467  1233.049
 468  1229.037
 469  1255.521
 470  1141.326
 471  1156.248
 472  1198.401
 473  1231.752
 474  1237.001
 475  1166.712
 476  1244.267
 477  1418.098
 478  1388.606
 479  1351.531
 480  1351.677
 481  1283.826
 482  1200.973
 483  1294.631
 484  1280.182
 485  1407.233
 486  1438.666
 487  1261.448
 488  1162.11
 489  1215.052
 490  1191.935
 491  1257.912
 492  1348.213
 493  1406.624
 494  1347.839
 495  1218.018
 496  1247.506
 497  1212.133
 498  1207.683
 499  1204.363
 500  1197.589
 501  1372.405
 502  1504.03
 503  1413.199
 504  1269.926
 505  1166.829
 506  1154.441
 507  1266.88
 508  1430.595
 509  1670.345
 510  1818.948
 511  1907.68
