# Input file       =  1205583670.095333_cleaned.dat
# Candidate        =  PSR_0332+5434
# Telescope        =  AR
# Epoch_topo       =  58197.514491844137
# Epoch_bary       =  N/A
# T_sample         =  0.002
# Data Folded      =  7340032
# Data Avg         =  0.080511641247894
# Data StdDev      =  1.00008902920509 
# Profile Bins     =  512
# Profile Avg      =  1154.32445610528 
# Profile StdDev   =  119.743696113817 
# Reduced chi-sqr  =  0.999
# Prob(Noise)      <  0.5   (~0.0 sigma)
# P_topo (ms)      =  714.575524761822  +/- 0.000727
# P'_topo (s/s)    =  -0                +/- 3.84e-10
# P''_topo (s/s^2) =  0                 +/- 1.69e-13
# P_bary (ms)      =  N/A
# P'_bary (s/s)    =  N/A
# P''_bary (s/s^2) =  N/A
# P_orb (s)        =  N/A
# asin(i)/c (s)    =  N/A
# eccentricity     =  N/A
# w (rad)          =  N/A
# T_peri           =  N/A
######################################################
   0  1720.182
   1  1629.027
   2  1461.884
   3  1335.505
   4  1246.009
   5  1179.657
   6  1239.002
   7  1296.989
   8  1166.296
   9  1238.87
  10  1255.527
  11  1144.416
  12  1184.039
  13  1286.484
  14  1264.209
  15  1247.212
  16  1245.866
  17  1214.381
  18  1139.42
  19  1206.469
  20  1245.747
  21  1278.793
  22  1190.866
  23  1171.673
  24  1119.101
  25  1146.054
  26  1132.125
  27  1164.323
  28  1248.695
  29  1206.392
  30  1247.709
  31  1188.598
  32  1167.788
  33  1251.403
  34  1281.206
  35  1196.327
  36  1187.16
  37  1153.442
  38  1193.467
  39  1300.69
  40  1275.558
  41  1223.03
  42  1215.376
  43  1182.148
  44  1155.368
  45  1207.053
  46  1247.103
  47  1233.3
  48  1232.766
  49  1187.181
  50  1062.946
  51  1185.244
  52  1283.828
  53  1282.359
  54  1217.813
  55  1271.02
  56  1269.619
  57  1159.25
  58  1079.265
  59  1034.521
  60  1152.528
  61  1156.195
  62  1279.611
  63  1343.325
  64  1263.997
  65  1210.999
  66  1202.664
  67  1156.32
  68  1216.922
  69  1243.793
  70  1304.537
  71  1210.767
  72  1241.693
  73  1233.781
  74  1205.829
  75  1183.169
  76  1189.772
  77  1164.133
  78  1199.379
  79  1216.036
  80  1164.133
  81  1175.763
  82  1116.301
  83  1135.026
  84  1200.301
  85  1219.548
  86  1236.43
  87  1176.505
  88  1205.118
  89  1230.599
  90  1123.867
  91  1155.908
  92  1197.985
  93  1132.658
  94  1108.031
  95  1120.73
  96  1139.58
  97  1103.766
  98  1089.221
  99  1132.503
 100  1117.056
 101  1134.215
 102  1125.854
 103  1050.694
 104  1081.619
 105  1115.073
 106  1102.987
 107  1141.556
 108  1116.397
 109  1124.219
 110  1127.864
 111  1167.885
 112  1219.884
 113  1163.631
 114  1196.357
 115  1207.84
 116  1212.964
 117  1195.86
 118  1132.988
 119  1175.734
 120  1274.408
 121  1187.936
 122  1145.738
 123  1138.116
 124  1118.08
 125  1115.797
 126  1085.698
 127  1141.695
 128  1197.138
 129  1246.565
 130  1178.389
 131  1246.405
 132  1199.13
 133  1188.165
 134  1228.647
 135  1161.712
 136  1195.656
 137  1275.611
 138  1284.199
 139  1245.111
 140  1274.426
 141  1207.337
 142  1141.231
 143  1133.889
 144  1175.848
 145  1140.53
 146  1110.334
 147  1108.063
 148  1238.663
 149  1266.351
 150  1216.161
 151  1181.507
 152  1162.514
 153  1214.495
 154  1232.901
 155  1191.932
 156  1103.641
 157  1126.612
 158  1147.499
 159  1208.82
 160  1223.475
 161  1149.733
 162  1149.491
 163  1102.992
 164  1183.922
 165  1188.057
 166  1162.348
 167  1140.308
 168  1183.832
 169  1137.893
 170  1144.033
 171  1160.979
 172  1110.814
 173  1119.031
 174  1116.051
 175  1147.582
 176  1123.322
 177  1051.801
 178  1090.477
 179  1132.384
 180  1159.694
 181  1115.844
 182  1117.174
 183  1133.547
 184  1082.818
 185  1040.92
 186  1070.821
 187  1078.889
 188  1043.893
 189  1123.065
 190  1103.396
 191  1086.669
 192  1182.288
 193  1145.128
 194  1133.5
 195  1183.013
 196  1151.432
 197  1115.187
 198  1140.94
 199  1112.071
 200  1061.091
 201  1132.706
 202  1128.887
 203  1181.342
 204  1156.015
 205  1167.48
 206  1171.549
 207  1042.128
 208  994.4777
 209  1008.364
 210  1010.779
 211  1042.28
 212  1134.306
 213  1145.133
 214  1071.482
 215  1078.815
 216  1097.333
 217  1062.497
 218  1034.314
 219  1084.069
 220  1084.603
 221  1163.327
 222  1159.916
 223  1077.208
 224  1090.152
 225  1167.991
 226  1167.116
 227  1151.806
 228  1035.201
 229  1098.956
 230  1035.705
 231  1008.27
 232  976.7017
 233  1056.343
 234  1069.974
 235  1131.234
 236  1150.443
 237  1074.083
 238  1054.761
 239  1092.909
 240  1065.639
 241  1020.183
 242  1047.345
 243  1022.335
 244  1101.083
 245  1147.829
 246  1104.85
 247  1079.389
 248  1081.993
 249  1074.474
 250  1055.543
 251  1102.044
 252  1064.216
 253  1082.571
 254  1165.969
 255  1141.366
 256  1080.047
 257  1137.293
 258  1152.439
 259  1098.097
 260  1029.01
 261  1129.409
 262  1118.921
 263  1115.776
 264  1125.452
 265  1131.678
 266  1171.782
 267  1164.222
 268  1083.22
 269  1181.269
 270  1177.041
 271  1081.576
 272  1145.705
 273  1195.091
 274  1180.582
 275  1141.024
 276  1112.682
 277  1165.493
 278  1226.899
 279  1085.116
 280  1125.564
 281  1116.686
 282  1101.928
 283  1156.733
 284  1093.46
 285  1082.564
 286  1100.374
 287  1083.705
 288  1118.173
 289  1117.655
 290  1038.661
 291  1118.238
 292  1093.363
 293  1094.348
 294  1182.728
 295  1137.967
 296  1185.011
 297  1132.73
 298  1173.746
 299  1139.146
 300  1144.567
 301  1176.611
 302  1135.643
 303  1144.871
 304  1196.784
 305  1164.894
 306  1115.899
 307  1121.253
 308  1161.039
 309  1203.323
 310  1270.083
 311  1236.987
 312  1196.606
 313  1174.156
 314  1075.783
 315  1155.623
 316  1178.791
 317  1153.651
 318  1084.779
 319  1047.821
 320  1052.735
 321  1114.176
 322  1079.358
 323  1084.448
 324  1074.491
 325  1117.865
 326  1097.13
 327  1010.763
 328  1058.003
 329  1140.45
 330  1139.919
 331  1090.358
 332  1072.95
 333  1133.24
 334  1155.114
 335  1162.363
 336  1048.526
 337  1144.374
 338  1195.7
 339  1144.38
 340  1206.091
 341  1182.719
 342  1084.013
 343  1180.932
 344  1197.166
 345  1186.503
 346  1141.757
 347  1160.414
 348  1135.012
 349  1160.554
 350  1224.271
 351  1113.246
 352  1067.275
 353  1123.792
 354  1158.458
 355  1169.252
 356  1165.457
 357  1209.829
 358  1160.562
 359  1087.562
 360  1092.166
 361  1179.642
 362  1078.873
 363  1038.343
 364  1134.418
 365  1129.252
 366  1090.642
 367  1145.42
 368  1154.348
 369  1072.4
 370  1098.639
 371  1107.589
 372  1099.21
 373  1171.608
 374  1228.953
 375  1211.284
 376  1189.928
 377  1264.893
 378  1093.47
 379  1103.717
 380  1157.092
 381  1153.535
 382  1160.128
 383  1184.732
 384  1152.867
 385  1190.996
 386  1236.806
 387  1221.998
 388  1143.769
 389  1052.585
 390  1017.27
 391  1017.035
 392  1089.748
 393  1046.9
 394  1111.42
 395  1187.067
 396  1203.636
 397  1119.545
 398  1192.708
 399  1168.032
 400  1154.088
 401  1105.117
 402  1144.131
 403  1127.452
 404  1123.649
 405  1156.1
 406  1146.481
 407  1117.821
 408  1055.536
 409  1121.32
 410  1093.231
 411  1112.851
 412  1165.775
 413  1122.641
 414  1015.21
 415  1086.397
 416  1041.398
 417  1017.223
 418  1064.66
 419  1153.137
 420  1125.715
 421  1115.804
 422  1064.282
 423  1070.928
 424  1094.507
 425  1003.76
 426  1036.325
 427  1037.007
 428  1139.613
 429  1048.101
 430  1030.315
 431  1113.729
 432  1069.162
 433  1019.065
 434  946.7618
 435  971.6697
 436  972.1822
 437  1019.034
 438  1098.665
 439  1162.01
 440  1131.364
 441  1143.865
 442  1096.656
 443  1024.12
 444  1091.515
 445  1167.593
 446  1144.622
 447  1138.865
 448  1083.645
 449  1054.568
 450  1028.7
 451  1097.754
 452  1213.08
 453  1180.104
 454  1152.46
 455  1049.193
 456  1048.672
 457  1100.786
 458  1084.634
 459  1113.553
 460  1053.5
 461  1096.1
 462  1052.841
 463  1059.458
 464  1027.886
 465  1085.407
 466  1105.182
 467  1123.034
 468  1185.657
 469  1230.887
 470  1199.224
 471  1131.514
 472  1148.402
 473  1177.739
 474  1205.457
 475  1218.46
 476  1193.901
 477  1215.015
 478  1142.441
 479  1115.136
 480  1187.404
 481  1289.46
 482  1276.431
 483  1251.841
 484  1233.044
 485  1273.024
 486  1322.702
 487  1254.602
 488  1186.424
 489  1257.055
 490  1279.646
 491  1188.772
 492  1220.321
 493  1293.175
 494  1278.64
 495  1229.5
 496  1243.213
 497  1221.63
 498  1209.979
 499  1200.009
 500  1233.623
 501  1286.495
 502  1388.352
 503  1268.172
 504  1251.335
 505  1387.325
 506  1344.177
 507  1272.888
 508  1468.578
 509  1539.007
 510  1541.604
 511  1662.016
