# Input file       =  1206444813.112411_cleaned.dat
# Candidate        =  PSR_0332+5434
# Telescope        =  AR
# Epoch_topo       =  58207.481424912163
# Epoch_bary       =  N/A
# T_sample         =  0.002
# Data Folded      =  7340032
# Data Avg         =  0.0961894290268192
# Data StdDev      =  1.00010987174241 
# Profile Bins     =  512
# Profile Avg      =  1378.89145816514 
# Profile StdDev   =  119.746191654097 
# Reduced chi-sqr  =  1.010
# Prob(Noise)      <  0.426   (~0.2 sigma)
# P_topo (ms)      =  714.570535704077  +/- 0.000781
# P'_topo (s/s)    =  -0                +/- 4.12e-10
# P''_topo (s/s^2) =  0                 +/- 1.82e-13
# P_bary (ms)      =  N/A
# P'_bary (s/s)    =  N/A
# P''_bary (s/s^2) =  N/A
# P_orb (s)        =  N/A
# asin(i)/c (s)    =  N/A
# eccentricity     =  N/A
# w (rad)          =  N/A
# T_peri           =  N/A
######################################################
   0  1960.564
   1  1972.795
   2  1809.347
   3  1513.246
   4  1409.658
   5  1447.397
   6  1404.678
   7  1445.371
   8  1506.827
   9  1495.723
  10  1475.737
  11  1483.838
  12  1441.672
  13  1461.271
  14  1529.46
  15  1626.034
  16  1598.082
  17  1475.741
  18  1418.94
  19  1411.028
  20  1448.09
  21  1471.813
  22  1434.682
  23  1462.804
  24  1429.26
  25  1435.401
  26  1347.814
  27  1356.418
  28  1290.097
  29  1381.469
  30  1430.996
  31  1410.909
  32  1425.662
  33  1404.431
  34  1463.486
  35  1512.5
  36  1437.544
  37  1384.016
  38  1428.997
  39  1364.897
  40  1392.544
  41  1393.415
  42  1355.197
  43  1447.301
  44  1466.799
  45  1371.682
  46  1345.408
  47  1335.802
  48  1320.857
  49  1362.941
  50  1412.322
  51  1448.049
  52  1400.922
  53  1410.726
  54  1444.8
  55  1392.031
  56  1395.517
  57  1453.449
  58  1400.156
  59  1389.941
  60  1400.473
  61  1382.41
  62  1355.475
  63  1327.776
  64  1297.441
  65  1427.697
  66  1391.399
  67  1380.233
  68  1435.63
  69  1384.703
  70  1327.257
  71  1318.684
  72  1343.829
  73  1317.362
  74  1279.137
  75  1413.062
  76  1365.519
  77  1330.311
  78  1359.477
  79  1345.888
  80  1325.625
  81  1315.659
  82  1373.792
  83  1261.327
  84  1288.738
  85  1301.152
  86  1222.925
  87  1232.783
  88  1289.557
  89  1362.664
  90  1363.129
  91  1364.484
  92  1377.866
  93  1421.474
  94  1382.472
  95  1308.538
  96  1258.898
  97  1310.001
  98  1344.457
  99  1410.921
 100  1325.285
 101  1169.11
 102  1292.43
 103  1412.85
 104  1400.543
 105  1333.079
 106  1363.407
 107  1379.567
 108  1344.238
 109  1399.852
 110  1441.942
 111  1503.656
 112  1527.242
 113  1481.168
 114  1495.605
 115  1508.389
 116  1464.08
 117  1398.806
 118  1437.933
 119  1475.089
 120  1438.718
 121  1369.179
 122  1407.132
 123  1482.332
 124  1471.962
 125  1435.251
 126  1497.53
 127  1435.561
 128  1397.878
 129  1361.241
 130  1357.726
 131  1425.131
 132  1464.508
 133  1544.927
 134  1562.105
 135  1521.229
 136  1482.635
 137  1525.589
 138  1453.552
 139  1460.112
 140  1411.062
 141  1309.402
 142  1422.883
 143  1504.715
 144  1420.297
 145  1371.912
 146  1401.494
 147  1427.19
 148  1374.993
 149  1436.015
 150  1406.039
 151  1363.383
 152  1377.751
 153  1428.669
 154  1487.233
 155  1470.414
 156  1451.021
 157  1450.753
 158  1472.599
 159  1436.458
 160  1466.608
 161  1476.756
 162  1515.955
 163  1445.17
 164  1449.64
 165  1443.219
 166  1400.427
 167  1385.058
 168  1457.623
 169  1481.399
 170  1414.703
 171  1412.961
 172  1409.365
 173  1341.784
 174  1357.218
 175  1371.307
 176  1393.709
 177  1372.887
 178  1383.797
 179  1387.85
 180  1391.743
 181  1373.846
 182  1298.677
 183  1352.468
 184  1436.9
 185  1418.01
 186  1398.088
 187  1351.367
 188  1349.958
 189  1352.011
 190  1412.039
 191  1431.418
 192  1364.913
 193  1355.567
 194  1435.585
 195  1473.223
 196  1404.785
 197  1432.756
 198  1390.53
 199  1441.12
 200  1420.187
 201  1429.035
 202  1449.842
 203  1420.326
 204  1406.208
 205  1399.62
 206  1349.653
 207  1353.788
 208  1366.271
 209  1354.701
 210  1391.39
 211  1386.557
 212  1289.979
 213  1305.865
 214  1329.607
 215  1354.024
 216  1381.995
 217  1347.788
 218  1379.136
 219  1236.06
 220  1203.832
 221  1253.017
 222  1287.333
 223  1330.375
 224  1184.23
 225  1270.033
 226  1326.861
 227  1302.105
 228  1290.573
 229  1313.592
 230  1285.023
 231  1361.261
 232  1299.454
 233  1356.772
 234  1407.665
 235  1364.259
 236  1442.639
 237  1454.701
 238  1309.408
 239  1292.053
 240  1334.578
 241  1404.255
 242  1354.451
 243  1353.523
 244  1387.758
 245  1368.556
 246  1280.97
 247  1266.654
 248  1256.589
 249  1318.563
 250  1325.208
 251  1329.619
 252  1364.666
 253  1416.269
 254  1386.057
 255  1402.506
 256  1324.438
 257  1379.149
 258  1364.773
 259  1366.092
 260  1306.212
 261  1390.849
 262  1376.497
 263  1351.383
 264  1349.627
 265  1258.93
 266  1320.273
 267  1353.996
 268  1353.973
 269  1306.857
 270  1366.321
 271  1326.95
 272  1288.247
 273  1286.117
 274  1339.705
 275  1270.166
 276  1266.365
 277  1350.515
 278  1419.704
 279  1388.985
 280  1373.407
 281  1389.029
 282  1330.261
 283  1237.98
 284  1260.298
 285  1260.421
 286  1287.928
 287  1294.967
 288  1339.671
 289  1336.624
 290  1321.083
 291  1263.564
 292  1277.958
 293  1288.322
 294  1290.291
 295  1318.487
 296  1404.889
 297  1333.825
 298  1261.085
 299  1286.098
 300  1307.053
 301  1312.278
 302  1343.115
 303  1452.573
 304  1405.971
 305  1389.579
 306  1387.137
 307  1422.869
 308  1346.843
 309  1325.987
 310  1311.487
 311  1264.166
 312  1214.008
 313  1313.998
 314  1239.413
 315  1247.025
 316  1328.263
 317  1384.822
 318  1346.299
 319  1407.245
 320  1346.202
 321  1325.516
 322  1360.784
 323  1418.465
 324  1412.665
 325  1393.151
 326  1398.082
 327  1393.763
 328  1296.582
 329  1252.451
 330  1281.747
 331  1316.801
 332  1389.943
 333  1384.981
 334  1324.463
 335  1334.24
 336  1307.647
 337  1256.435
 338  1323.375
 339  1377.053
 340  1404.095
 341  1394.951
 342  1410.269
 343  1451.182
 344  1416.306
 345  1366.826
 346  1366.32
 347  1399.199
 348  1335.971
 349  1397.384
 350  1364.164
 351  1384.818
 352  1412.786
 353  1380.867
 354  1397.046
 355  1369.031
 356  1430.455
 357  1476.856
 358  1361.571
 359  1407.932
 360  1380.833
 361  1330.822
 362  1368.991
 363  1350.266
 364  1341.426
 365  1243.287
 366  1179.196
 367  1168.95
 368  1248.789
 369  1276.823
 370  1232.61
 371  1239.629
 372  1308.988
 373  1343.119
 374  1276.246
 375  1295.633
 376  1401.03
 377  1342.231
 378  1311.131
 379  1334.33
 380  1323.547
 381  1239.93
 382  1298.633
 383  1321.958
 384  1386.256
 385  1377.321
 386  1387.642
 387  1292.633
 388  1208.287
 389  1280.13
 390  1274.197
 391  1289.627
 392  1372.698
 393  1287.546
 394  1193.374
 395  1177.938
 396  1266.072
 397  1291.787
 398  1303.886
 399  1266.756
 400  1351.078
 401  1386.964
 402  1285.573
 403  1365.304
 404  1381.306
 405  1314.885
 406  1327.731
 407  1307.822
 408  1318.45
 409  1284.75
 410  1249.175
 411  1334.596
 412  1345.772
 413  1427.07
 414  1373.386
 415  1441.095
 416  1380.091
 417  1372.713
 418  1464.439
 419  1384.876
 420  1355.06
 421  1378.18
 422  1347.849
 423  1288.507
 424  1328.677
 425  1405.756
 426  1410.449
 427  1467.006
 428  1426.293
 429  1357.824
 430  1356.714
 431  1388.508
 432  1329.954
 433  1361.658
 434  1449.511
 435  1442.647
 436  1460.518
 437  1404.365
 438  1407.013
 439  1371.493
 440  1379.322
 441  1328.074
 442  1363.599
 443  1384.431
 444  1442.16
 445  1492.065
 446  1378.305
 447  1360.853
 448  1390.651
 449  1409.295
 450  1325.097
 451  1381.727
 452  1430.134
 453  1416.841
 454  1391.89
 455  1425.217
 456  1472.926
 457  1428.849
 458  1428.245
 459  1443.778
 460  1399.289
 461  1386.7
 462  1426.008
 463  1419.272
 464  1430.614
 465  1381.99
 466  1408.617
 467  1406.277
 468  1353.315
 469  1428.562
 470  1296.805
 471  1304.2
 472  1251.195
 473  1325.137
 474  1386.077
 475  1291.719
 476  1257.957
 477  1346.161
 478  1365.349
 479  1403.751
 480  1370.705
 481  1378.627
 482  1468.603
 483  1419.699
 484  1375.799
 485  1320.557
 486  1366.048
 487  1422.786
 488  1422.388
 489  1392.7
 490  1400.303
 491  1411.716
 492  1398.581
 493  1358.778
 494  1314.683
 495  1376.604
 496  1400.778
 497  1430.365
 498  1349.755
 499  1320.909
 500  1412.628
 501  1455.502
 502  1460.717
 503  1419.816
 504  1376.927
 505  1507.281
 506  1492.676
 507  1464.294
 508  1487.467
 509  1672.74
 510  1820.887
 511  1902.716
