# Input file       =  1206085431.110653_cleaned.dat
# Candidate        =  PSR_0332+5434
# Telescope        =  AR
# Epoch_topo       =  58203.321911002924
# Epoch_bary       =  N/A
# T_sample         =  0.002
# Data Folded      =  7208960
# Data Avg         =  0.0822017009069322
# Data StdDev      =  1.00011145300281 
# Profile Bins     =  512
# Profile Avg      =  1157.32937405371 
# Profile StdDev   =  118.672400714984 
# Reduced chi-sqr  =  1.978
# Prob(Noise)      <  3.85e-35   (~12.3 sigma)
# P_topo (ms)      =  714.572769642968  +/- 7.96e-05
# P'_topo (s/s)    =  -0                +/- 4.27e-11
# P''_topo (s/s^2) =  0                 +/- 1.92e-14
# P_bary (ms)      =  N/A
# P'_bary (s/s)    =  N/A
# P''_bary (s/s^2) =  N/A
# P_orb (s)        =  N/A
# asin(i)/c (s)    =  N/A
# eccentricity     =  N/A
# w (rad)          =  N/A
# T_peri           =  N/A
######################################################
   0  1778.471
   1  1725.457
   2  1653.75
   3  1356.135
   4  1224.054
   5  1186.047
   6  1168.215
   7  1236.878
   8  1226.376
   9  1266.658
  10  1203.28
  11  1332.084
  12  1354.631
  13  1244.814
  14  1181.253
  15  1262.504
  16  1291.82
  17  1225.742
  18  1160.912
  19  1162.271
  20  1133.722
  21  1108.8
  22  1081.823
  23  1035.333
  24  1217.75
  25  1175.448
  26  1224.336
  27  1266.595
  28  1181.12
  29  1098.056
  30  1102.667
  31  1097.55
  32  1181.022
  33  1202.14
  34  1240.433
  35  1174.635
  36  1138.557
  37  1161.491
  38  1175.343
  39  1072.225
  40  991.4346
  41  1037.006
  42  1115.442
  43  1243.075
  44  1252.009
  45  1271.88
  46  1144.358
  47  1149.561
  48  1140.274
  49  1111.792
  50  1142.718
  51  1122.975
  52  1191.29
  53  1110.715
  54  1140.086
  55  1077.571
  56  1032.796
  57  1030.184
  58  1090.782
  59  1156.247
  60  1302.014
  61  1235.13
  62  1109.817
  63  1062.43
  64  1075.902
  65  1211.483
  66  1145.707
  67  1116.835
  68  1107.112
  69  1108.907
  70  1111.484
  71  1195.623
  72  1108.377
  73  1165.036
  74  1047.554
  75  1182.548
  76  1216.349
  77  1279.457
  78  1189.83
  79  1133.891
  80  1092.261
  81  968.7939
  82  1077.797
  83  1123.286
  84  1093.634
  85  1215.46
  86  1153.568
  87  1138.767
  88  1130.786
  89  1121.523
  90  1047.899
  91  983.3314
  92  1101.388
  93  1255.227
  94  1230.849
  95  1178.336
  96  1189.038
  97  1153.16
  98  1175.178
  99  1085.957
 100  1084.374
 101  1115.166
 102  1184.792
 103  1235.284
 104  1197.27
 105  1095.934
 106  1150.754
 107  1103.387
 108  1119.301
 109  1123.182
 110  1142.847
 111  1196.063
 112  1166.582
 113  1247.889
 114  1233.534
 115  1126.77
 116  1015.134
 117  1149.145
 118  1242.916
 119  1259.745
 120  1100.765
 121  1018.7
 122  1053.117
 123  1064.016
 124  1017.839
 125  1173.181
 126  1252.751
 127  1238.182
 128  1155.424
 129  1011.603
 130  1027.997
 131  1107.137
 132  1033.192
 133  1099.421
 134  1252.785
 135  1241.071
 136  1029.215
 137  1046.141
 138  1093.258
 139  1096.41
 140  1115.964
 141  1127.173
 142  1206.105
 143  1179.32
 144  1105.751
 145  981.4688
 146  1030.533
 147  1106.411
 148  1096.473
 149  1085.501
 150  1095.078
 151  1190.867
 152  1169.544
 153  1021.729
 154  1135.816
 155  1132.419
 156  1218.424
 157  1169.398
 158  1140.762
 159  1207.884
 160  1161.334
 161  1108.977
 162  1060.32
 163  1232.742
 164  1190.399
 165  1165.951
 166  1037.971
 167  1127.059
 168  1165.028
 169  1200.208
 170  1280.456
 171  1175.338
 172  1143.113
 173  1194.888
 174  1251.425
 175  1215.053
 176  1189.886
 177  1294.219
 178  1245.117
 179  1233.394
 180  1285.828
 181  1316.786
 182  1178.872
 183  1151.923
 184  1478.872
 185  1436.945
 186  1331.863
 187  1302.335
 188  1248.676
 189  1289.206
 190  1184.642
 191  1288.803
 192  1359.105
 193  1269.893
 194  1235.2
 195  1245.992
 196  1245.245
 197  1170.664
 198  1188.116
 199  1253.974
 200  1308.526
 201  1207.055
 202  1176.862
 203  1061.326
 204  961.4308
 205  1034.374
 206  1102.901
 207  1087.204
 208  1197.391
 209  1307.851
 210  1203.682
 211  1061.129
 212  1080.469
 213  1175.455
 214  1188.845
 215  1135.627
 216  1163.374
 217  1165.837
 218  1206.951
 219  1112.327
 220  1010.33
 221  995.206
 222  964.0798
 223  991.2784
 224  1070.738
 225  1054.127
 226  1105.884
 227  1058.504
 228  1085.333
 229  1118.376
 230  1004.558
 231  965.9004
 232  948.5007
 233  998.2838
 234  1132.524
 235  1069.968
 236  1007.653
 237  915.0845
 238  938.0182
 239  949.2195
 240  995.728
 241  1076.325
 242  1178.586
 243  1116.431
 244  927.6731
 245  893.4443
 246  930.3183
 247  974.9675
 248  1017.957
 249  1044.302
 250  1066.69
 251  1125.704
 252  1043.046
 253  897.5345
 254  1003.842
 255  960.8688
 256  966.8907
 257  1032.632
 258  1101.135
 259  1158.305
 260  1234.325
 261  1159.349
 262  1094.298
 263  1100.524
 264  1074.781
 265  1211.14
 266  1173.68
 267  1159.045
 268  1187.842
 269  1203.699
 270  1057.082
 271  922.6453
 272  981.8365
 273  1117.384
 274  1261.751
 275  1263.636
 276  1247.657
 277  1179.896
 278  1169.948
 279  1226.044
 280  1155.931
 281  1164.758
 282  1169.258
 283  1308.638
 284  1335.199
 285  1228.091
 286  1173.795
 287  1258.792
 288  1257.901
 289  1166.687
 290  1166.646
 291  1250.989
 292  1223.906
 293  1219.852
 294  1255.361
 295  1174.501
 296  1258.578
 297  1241.426
 298  1196.068
 299  1265.02
 300  1329.129
 301  1344.14
 302  1228.515
 303  1154.941
 304  1267.636
 305  1147.418
 306  1177.76
 307  1211.21
 308  1369.158
 309  1318.279
 310  1193.812
 311  1222.887
 312  1277.492
 313  1288.395
 314  1226.871
 315  1257.209
 316  1310.896
 317  1349.459
 318  1253.349
 319  1197.327
 320  1207.209
 321  1197.148
 322  1166.633
 323  1291.093
 324  1365.225
 325  1365.749
 326  1320.7
 327  1256.496
 328  1155.35
 329  1306.403
 330  1255.79
 331  1275.004
 332  1261.779
 333  1228.355
 334  1164.933
 335  1097.495
 336  1097.417
 337  1132.05
 338  1081.964
 339  1177.999
 340  1263.313
 341  1244.117
 342  1220.755
 343  1175.552
 344  1144.046
 345  1160.623
 346  1124.56
 347  1123.984
 348  1051.495
 349  1186.352
 350  1193.134
 351  1063.063
 352  985.1349
 353  1023.704
 354  1044.889
 355  1031.698
 356  1090.235
 357  1187.416
 358  1088.568
 359  1156.521
 360  1182
 361  1105.34
 362  1038.627
 363  1100.853
 364  1272.304
 365  1150.28
 366  1210.594
 367  1165.205
 368  1038.799
 369  1106.888
 370  1155.857
 371  1151.083
 372  1175.391
 373  1275.729
 374  1256.286
 375  1144.691
 376  1127.285
 377  1209.136
 378  1241.351
 379  1222.141
 380  1156.559
 381  1139.196
 382  1169.031
 383  1197.613
 384  1277.883
 385  1236.063
 386  1168.945
 387  1198.666
 388  1191.194
 389  1177.682
 390  1145.778
 391  1177.166
 392  1273.912
 393  1210.002
 394  1133.112
 395  1151.384
 396  1183.455
 397  1189.093
 398  1195.789
 399  1263.035
 400  1380.014
 401  1226.833
 402  1158.602
 403  1121.183
 404  1138.906
 405  1314.176
 406  1425.286
 407  1352.439
 408  1236.384
 409  1193.387
 410  1181.786
 411  1126.836
 412  1061.633
 413  1185.802
 414  1235.709
 415  1231.583
 416  1237.896
 417  1165.862
 418  1109.39
 419  1049.964
 420  983.4738
 421  1141.43
 422  1134.041
 423  1148.972
 424  1269.226
 425  1144.1
 426  1078.195
 427  953.5091
 428  1119.731
 429  1053.521
 430  1123.231
 431  1155.944
 432  1122.624
 433  1105.773
 434  1049.604
 435  1032.277
 436  1008.674
 437  968.3216
 438  911.034
 439  1042.24
 440  1118.935
 441  1125.111
 442  972.4303
 443  959.5108
 444  935.5126
 445  958.1395
 446  1003.058
 447  1029.649
 448  1045.991
 449  1034.774
 450  938.3163
 451  848.6104
 452  921.2072
 453  1011.466
 454  1054.936
 455  1092.814
 456  1074.505
 457  1048.833
 458  1017.651
 459  991.7839
 460  1019.084
 461  952.4995
 462  892.206
 463  1020.48
 464  1112.581
 465  1017.69
 466  931.782
 467  1020.364
 468  996.3694
 469  904.5164
 470  951.2802
 471  929.9045
 472  1014.941
 473  1149.049
 474  1130.782
 475  1153.713
 476  1178.899
 477  1103.484
 478  1059.926
 479  1112.032
 480  1119.828
 481  1135.167
 482  1179.009
 483  1139.08
 484  1134.778
 485  1120.891
 486  1082.988
 487  1087.438
 488  1116.252
 489  1185.752
 490  1240.107
 491  1231.968
 492  1275.331
 493  1307.456
 494  1235.068
 495  1222.764
 496  1244.375
 497  1327.623
 498  1410.419
 499  1349.663
 500  1301.394
 501  1299.331
 502  1255.12
 503  1215.279
 504  1159.704
 505  1295.676
 506  1416.295
 507  1347.765
 508  1396.485
 509  1549.71
 510  1801.181
 511  1827.561
