# Input file       =  1206100079.114177_cleaned.dat
# Candidate        =  PSR_0332+5434
# Telescope        =  AR
# Epoch_topo       =  58203.491448080749
# Epoch_bary       =  N/A
# T_sample         =  0.002
# Data Folded      =  7340032
# Data Avg         =  0.062309292785022
# Data StdDev      =  1.00024729230187 
# Profile Bins     =  512
# Profile Avg      =  893.187055050312 
# Profile StdDev   =  119.762645434942 
# Reduced chi-sqr  =  1.253
# Prob(Noise)      <  8.39e-05   (~3.8 sigma)
# P_topo (ms)      =  714.572697258604  +/- 0.000392
# P'_topo (s/s)    =  -0                +/- 2.07e-10
# P''_topo (s/s^2) =  0                 +/- 9.13e-14
# P_bary (ms)      =  N/A
# P'_bary (s/s)    =  N/A
# P''_bary (s/s^2) =  N/A
# P_orb (s)        =  N/A
# asin(i)/c (s)    =  N/A
# eccentricity     =  N/A
# w (rad)          =  N/A
# T_peri           =  N/A
######################################################
   0  1413.95
   1  1481.991
   2  1288.535
   3  1065.977
   4  970.6634
   5  918.5049
   6  925.4104
   7  913.73
   8  950.4976
   9  910.3651
  10  873.485
  11  834.9377
  12  794.2135
  13  857.5885
  14  930.223
  15  953.368
  16  941.8307
  17  929.814
  18  893.6586
  19  878.7637
  20  841.3612
  21  828.2501
  22  841.3615
  23  867.8899
  24  879.2454
  25  888.5154
  26  881.6205
  27  883.171
  28  886.2835
  29  770.8275
  30  691.1177
  31  680.6661
  32  712.2094
  33  699.2612
  34  756.767
  35  776.0223
  36  819.6555
  37  858.5681
  38  845.3796
  39  834.9274
  40  916.3402
  41  917.2323
  42  811.2482
  43  775.0346
  44  832.1844
  45  886.2949
  46  924.9763
  47  970.5208
  48  945.3091
  49  923.9702
  50  911.4219
  51  952.3397
  52  930.2549
  53  892.2941
  54  941.7747
  55  935.2157
  56  1020.421
  57  997.4437
  58  987.0814
  59  1017.483
  60  1020.379
  61  1000.268
  62  888.8283
  63  911.2044
  64  970.7609
  65  952.0699
  66  1002.854
  67  1011.32
  68  947.5224
  69  964.7066
  70  1027.55
  71  955.8294
  72  908.9853
  73  917.5137
  74  888.8429
  75  962.092
  76  948.9371
  77  910.8341
  78  893.3676
  79  861.8356
  80  802.2983
  81  865.5984
  82  955.3653
  83  922.3007
  84  919.2349
  85  810.3734
  86  916.8823
  87  1029.484
  88  942.0054
  89  962.5316
  90  925.6833
  91  920.5273
  92  855.2792
  93  841.1448
  94  916.4993
  95  836.2447
  96  842.5806
  97  901.8953
  98  781.3495
  99  812.2241
 100  860.4484
 101  830.5131
 102  862.2377
 103  870.3514
 104  744.3589
 105  760.2514
 106  830.1623
 107  863.0068
 108  800.1533
 109  787.2486
 110  806.5839
 111  852.9223
 112  873.402
 113  899.3618
 114  890.628
 115  790.5118
 116  758.6428
 117  828.2615
 118  893.7975
 119  948.3179
 120  956.6915
 121  881.0569
 122  903.0183
 123  927.4244
 124  880.9638
 125  930.9122
 126  923.1349
 127  868.6618
 128  917.3574
 129  901.7148
 130  883.9247
 131  822.5164
 132  840.1161
 133  915.7316
 134  900.3012
 135  846.7294
 136  859.7123
 137  930.5636
 138  903.7314
 139  900.6897
 140  966.8862
 141  903.0555
 142  888.6409
 143  914.9208
 144  984.1854
 145  998.3774
 146  1019.148
 147  1046.283
 148  1041.23
 149  1056.426
 150  985.8676
 151  961.0459
 152  977.8845
 153  988.131
 154  1065.261
 155  1104.953
 156  1077.003
 157  1064.129
 158  1001.719
 159  983.897
 160  952.8325
 161  981.0246
 162  1088.395
 163  1030.377
 164  1032.057
 165  998.4391
 166  931.4321
 167  923.14
 168  947.2245
 169  940.6081
 170  919.3239
 171  855.8087
 172  911.5667
 173  908.7977
 174  853.6684
 175  852.7328
 176  883.864
 177  922.2148
 178  910.4214
 179  937.485
 180  929.6088
 181  805.9517
 182  767.0871
 183  782.6363
 184  846.9306
 185  856.7016
 186  921.0023
 187  863.1403
 188  935.9634
 189  877.7877
 190  874.3351
 191  887.746
 192  935.8794
 193  908.0779
 194  931.1116
 195  916.0411
 196  894.8345
 197  979.2869
 198  958.7319
 199  924.0215
 200  889.9706
 201  995.6521
 202  942.9225
 203  850.4893
 204  859.1312
 205  922.7103
 206  881.0567
 207  933.462
 208  923.4757
 209  988.0191
 210  1061.253
 211  935.1339
 212  906.2571
 213  884.3416
 214  873.9867
 215  904.2327
 216  911.0719
 217  947.62
 218  969.8256
 219  1060.657
 220  1019.739
 221  929.9601
 222  863.2477
 223  837.7619
 224  823.0926
 225  906.7673
 226  930.0139
 227  901.3451
 228  938.4221
 229  886.3193
 230  894.8392
 231  891.3786
 232  934.0114
 233  921.3323
 234  789.7578
 235  808.9309
 236  889.1742
 237  980.3522
 238  914.7773
 239  823.0652
 240  862.3637
 241  839.6725
 242  796.3024
 243  757.8278
 244  792.2101
 245  816.5897
 246  877.1665
 247  769.5984
 248  827.4236
 249  811.4371
 250  802.7038
 251  797.3694
 252  846.191
 253  848.9636
 254  760.5541
 255  788.3356
 256  831.0828
 257  770.6341
 258  730.1859
 259  772.4955
 260  746.6832
 261  680.7587
 262  695.8019
 263  668.1353
 264  622.6703
 265  694.7904
 266  729.3451
 267  747.1547
 268  723.0461
 269  710.2685
 270  690.7443
 271  697.9838
 272  750.2526
 273  746.0966
 274  722.4572
 275  687.9315
 276  753.8842
 277  739.3424
 278  677.5612
 279  733.042
 280  717.8517
 281  801.3922
 282  770.8636
 283  885.7275
 284  824.2308
 285  850.6064
 286  868.5997
 287  841.6933
 288  920.6877
 289  945.8571
 290  822.9939
 291  811.9531
 292  871.7888
 293  930.4867
 294  921.032
 295  904.1312
 296  968.7236
 297  973.6276
 298  953.7167
 299  893.4693
 300  913.0161
 301  931.7653
 302  956.1636
 303  936.9843
 304  893.0912
 305  920.6897
 306  948.4895
 307  903.698
 308  858.5892
 309  905.9032
 310  846.9243
 311  882.0248
 312  930.445
 313  859.4928
 314  883.6579
 315  872.1572
 316  855.7505
 317  809.8868
 318  795.1382
 319  841.2924
 320  848.0444
 321  857.0238
 322  874.3023
 323  899.5271
 324  865.7792
 325  815.0673
 326  873.8277
 327  846.3159
 328  846.8774
 329  826.4397
 330  828.8156
 331  827.1253
 332  792.8917
 333  838.4023
 334  850.1361
 335  799.234
 336  813.8797
 337  721.5273
 338  718.4699
 339  788.6893
 340  856.9943
 341  831.5043
 342  806.4941
 343  847.2753
 344  903.5557
 345  873.316
 346  826.1912
 347  860.4413
 348  836.643
 349  816.0764
 350  860.4578
 351  950.7343
 352  985.3088
 353  929.975
 354  880.6636
 355  908.3434
 356  935.7784
 357  969.068
 358  996.4985
 359  996.5186
 360  961.4373
 361  929.0999
 362  889.5361
 363  908.2779
 364  898.033
 365  928.1459
 366  837.2466
 367  900.6788
 368  915.8865
 369  920.1763
 370  919.9338
 371  963.3024
 372  941.7489
 373  895.3784
 374  959.9175
 375  1030.231
 376  1040.997
 377  1024.09
 378  996.7746
 379  944.298
 380  853.4034
 381  885.614
 382  881.1546
 383  916.1077
 384  969.4184
 385  910.0028
 386  903.6366
 387  897.6787
 388  848.5765
 389  820.4791
 390  905.8227
 391  912.9609
 392  930.4185
 393  877.3046
 394  915.3558
 395  844.5944
 396  756.6107
 397  740.7269
 398  781.7826
 399  682.6187
 400  665.0184
 401  762.5306
 402  806.6686
 403  805.6948
 404  846.7354
 405  811.5009
 406  715.1395
 407  675.989
 408  768.2299
 409  775.6743
 410  806.5181
 411  831.158
 412  771.3453
 413  720.743
 414  786.1335
 415  828.9805
 416  761.7907
 417  687.0458
 418  777.4299
 419  828.7446
 420  873.3149
 421  844.9165
 422  870.5622
 423  940.5691
 424  978.0559
 425  898.6471
 426  931.6022
 427  971.9865
 428  922.7655
 429  800.1265
 430  881.4992
 431  915.2498
 432  901.4932
 433  922.5927
 434  857.6808
 435  889.4137
 436  885.2111
 437  914.9366
 438  931.8286
 439  941.9672
 440  843.8297
 441  870.46
 442  905.8249
 443  892.5649
 444  872.4012
 445  820.015
 446  799.9548
 447  867.5165
 448  844.7651
 449  934.5919
 450  999.0335
 451  1012.005
 452  924.2361
 453  911.1465
 454  1031.465
 455  980.9224
 456  975.3965
 457  1029.168
 458  960.881
 459  973.502
 460  1038.226
 461  984.3265
 462  914.026
 463  945.1896
 464  976.4758
 465  920.9564
 466  945.5828
 467  1007.723
 468  979.5423
 469  882.9977
 470  875.6476
 471  978.0561
 472  1042.849
 473  1010.456
 474  1024.644
 475  1017.816
 476  936.2623
 477  873.0903
 478  849.0786
 479  828.1113
 480  937.225
 481  891.557
 482  941.6151
 483  926.5638
 484  905.3295
 485  939.3992
 486  949.0983
 487  957.6797
 488  970.4317
 489  979.3559
 490  874.7852
 491  874.3973
 492  967.2642
 493  1036.616
 494  936.8528
 495  902.7504
 496  895.3105
 497  806.1508
 498  855.574
 499  971.286
 500  985.44
 501  924.9447
 502  920.2741
 503  973.727
 504  1021.916
 505  1045.935
 506  1070.573
 507  1048.514
 508  1052.397
 509  1153.782
 510  1288.398
 511  1389.421
