# Input file       =  1206358626.111749_cleaned.dat
# Candidate        =  PSR_0332+5434
# Telescope        =  AR
# Epoch_topo       =  58206.483890182280
# Epoch_bary       =  N/A
# T_sample         =  0.002
# Data Folded      =  7340032
# Data Avg         =  0.0657329037082582
# Data StdDev      =  1.00011991923284 
# Profile Bins     =  512
# Profile Avg      =  942.324761404142 
# Profile StdDev   =  119.747394670634 
# Reduced chi-sqr  =  0.971
# Prob(Noise)      <  0.676   (~0.0 sigma)
# P_topo (ms)      =  714.571095546153  +/- 0.000285
# P'_topo (s/s)    =  -0                +/- 1.51e-10
# P''_topo (s/s^2) =  0                 +/- 6.64e-14
# P_bary (ms)      =  N/A
# P'_bary (s/s)    =  N/A
# P''_bary (s/s^2) =  N/A
# P_orb (s)        =  N/A
# asin(i)/c (s)    =  N/A
# eccentricity     =  N/A
# w (rad)          =  N/A
# T_peri           =  N/A
######################################################
   0  1394.372
   1  1282.819
   2  1245.524
   3  1145.827
   4  1038.096
   5  925.7773
   6  862.4227
   7  861.8601
   8  832.54
   9  839.7279
  10  879.4351
  11  925.8525
  12  909.9514
  13  935.223
  14  909.7183
  15  928.6049
  16  945.5112
  17  996.5569
  18  1005.398
  19  941.5385
  20  975.3876
  21  967.4265
  22  917.8314
  23  854.6254
  24  856.4775
  25  834.077
  26  945.2104
  27  957.7751
  28  974.3537
  29  990.8975
  30  1037.761
  31  1043.646
  32  952.089
  33  962.7952
  34  940.0383
  35  967.7522
  36  871.2368
  37  832.2737
  38  905.4873
  39  894.7653
  40  923.1884
  41  843.2501
  42  918.3007
  43  920.7659
  44  903.1083
  45  961.9514
  46  964.5776
  47  983.949
  48  967.6154
  49  992.4067
  50  942.3293
  51  910.5823
  52  984.7683
  53  884.2692
  54  872.2164
  55  830.203
  56  851.0515
  57  791.7593
  58  849.4487
  59  927.9192
  60  927.3804
  61  962.4155
  62  908.2661
  63  871.7068
  64  881.6345
  65  931.0067
  66  790.6578
  67  811.9717
  68  900.2371
  69  911.8669
  70  840.6611
  71  796.3163
  72  845.736
  73  786.9072
  74  954.8113
  75  941.725
  76  854.485
  77  891.2413
  78  962.2883
  79  1027.477
  80  961.3627
  81  956.9254
  82  900.5911
  83  876.8517
  84  1021.358
  85  1018.337
  86  1032.312
  87  1014.078
  88  960.9713
  89  1015.965
  90  1030.192
  91  950.3119
  92  967.8998
  93  1085.744
  94  1158.374
  95  1048.444
  96  1032.262
  97  1154.225
  98  1089.595
  99  1019.984
 100  1019.183
 101  975.9711
 102  997.5157
 103  1009.278
 104  1007.762
 105  1066.765
 106  1062.605
 107  1042.344
 108  1058.739
 109  1132.541
 110  1033.129
 111  1071.779
 112  1043.77
 113  999.0869
 114  1051.288
 115  1023.255
 116  990.7319
 117  893.1753
 118  1001.533
 119  1036.156
 120  912.7513
 121  900.7326
 122  915.4989
 123  955.6235
 124  972.7487
 125  1013.226
 126  1098.707
 127  1106.507
 128  985.6596
 129  976.922
 130  1041.078
 131  1042.993
 132  1010.643
 133  967.4518
 134  1002.501
 135  1112.25
 136  1060.724
 137  1018.598
 138  1005.827
 139  1050.08
 140  1011.321
 141  1064.129
 142  1050.903
 143  999.7582
 144  1010.374
 145  952.7803
 146  989.5099
 147  1052.216
 148  1014.303
 149  990.0372
 150  889.6096
 151  906.3394
 152  978.9942
 153  1072.45
 154  1027.876
 155  993.1953
 156  1019.709
 157  996.3553
 158  982.5364
 159  938.9221
 160  1020.521
 161  1023.655
 162  987.1097
 163  961.8463
 164  931.0832
 165  919.2684
 166  893.1621
 167  920.4244
 168  965.7656
 169  1025.044
 170  1001.312
 171  944.519
 172  955.2019
 173  899.8667
 174  912.7164
 175  928.6384
 176  974.3668
 177  873.3434
 178  869.3852
 179  839.3233
 180  891.8672
 181  820.4914
 182  905.629
 183  929.9072
 184  877.9868
 185  928.1995
 186  886.3345
 187  957.5276
 188  987.9366
 189  1031.745
 190  1013.013
 191  883.5772
 192  897.5494
 193  905.8298
 194  940.8483
 195  984.1232
 196  980.1347
 197  969.6135
 198  938.6036
 199  931.3937
 200  949.916
 201  920.3992
 202  868.2531
 203  939.9258
 204  896.1528
 205  912.2184
 206  895.5933
 207  950.5967
 208  860.629
 209  893.4861
 210  941.896
 211  964.242
 212  1021.641
 213  945.5828
 214  968.7321
 215  935.0546
 216  946.7938
 217  934.9261
 218  883.4696
 219  970.9495
 220  959.3301
 221  888.2405
 222  907.57
 223  992.2342
 224  1002.038
 225  947.1138
 226  972.7599
 227  929.8022
 228  982.4423
 229  952.0562
 230  928.4958
 231  943.5673
 232  977.1973
 233  1006.382
 234  966.8097
 235  1022.324
 236  1023.162
 237  1029.65
 238  948.6364
 239  872.481
 240  876.3514
 241  976.579
 242  912.4736
 243  900.8639
 244  996.3877
 245  991.9871
 246  1028.542
 247  1033.736
 248  1026.725
 249  876.7495
 250  813.7232
 251  870.4651
 252  916.05
 253  879.2788
 254  950.5992
 255  1032.455
 256  930.97
 257  946.7068
 258  913.1499
 259  862.6836
 260  840.3616
 261  924.7491
 262  986.4338
 263  962.9863
 264  887.6926
 265  896.7949
 266  946.5341
 267  931.233
 268  908.7466
 269  903.5463
 270  868.871
 271  872.0697
 272  894.5219
 273  804.7458
 274  833.1557
 275  874.5812
 276  912.715
 277  953.7023
 278  947.4244
 279  922.2476
 280  857.0391
 281  898.1876
 282  936.6749
 283  850.6643
 284  814.2175
 285  806.8656
 286  776.5486
 287  764.0623
 288  863.6414
 289  886.188
 290  856.8757
 291  856.6729
 292  701.4315
 293  732.9445
 294  830.2565
 295  883.7286
 296  886.7618
 297  857.5109
 298  866.2068
 299  850.9929
 300  838.1854
 301  829.2463
 302  963.038
 303  956.4467
 304  822.3585
 305  834.0882
 306  825.2147
 307  774.8292
 308  775.3696
 309  917.3541
 310  879.9379
 311  888.8737
 312  890.5605
 313  900.0682
 314  922.1352
 315  924.3654
 316  873.495
 317  834.7886
 318  861.3037
 319  976.8859
 320  994.2514
 321  975.0809
 322  1036.432
 323  1025.804
 324  940.7753
 325  958.5311
 326  892.7295
 327  887.9192
 328  924.2058
 329  928.145
 330  873.8794
 331  831.2167
 332  884.3384
 333  945.1736
 334  955.8229
 335  933.0714
 336  894.3677
 337  975.1918
 338  1000.149
 339  953.0533
 340  947.8091
 341  952.4362
 342  916.1714
 343  876.6686
 344  875.5319
 345  947.791
 346  866.6583
 347  964.6855
 348  1031.608
 349  992.0168
 350  985.7413
 351  985.6047
 352  971.1287
 353  951.6136
 354  979.1755
 355  914.634
 356  998.5013
 357  976.3885
 358  907.5649
 359  842.7136
 360  800.8032
 361  896.8086
 362  878.5681
 363  845.6976
 364  876.8029
 365  904.376
 366  881.8131
 367  830.6432
 368  794.9502
 369  870.7943
 370  790.8553
 371  830.3752
 372  873.1259
 373  874.1671
 374  864.9208
 375  879.3547
 376  809.3361
 377  844.1932
 378  853.1351
 379  839.6437
 380  880.2654
 381  911.6041
 382  966.2873
 383  908.8001
 384  937.5256
 385  882.7681
 386  878.9241
 387  897.0306
 388  906.1695
 389  932.0524
 390  936.8281
 391  920.3835
 392  857.7491
 393  778.7941
 394  887.9524
 395  848.4926
 396  918.6602
 397  963.5605
 398  884.3932
 399  781.0789
 400  816.4739
 401  931.3221
 402  1007.27
 403  975.207
 404  1021.573
 405  1081.938
 406  951.5323
 407  883.0416
 408  909.6603
 409  955.7454
 410  1049.655
 411  1023.886
 412  1067.883
 413  1094.16
 414  1078.335
 415  1042.201
 416  1036.173
 417  974.4702
 418  978.0961
 419  1002.245
 420  992.0952
 421  1036.222
 422  1048.978
 423  996.5695
 424  1038.534
 425  1107.144
 426  1041.521
 427  928.7865
 428  985.8995
 429  1069.563
 430  1097.653
 431  1068.408
 432  1113.999
 433  1115.034
 434  1097.096
 435  1099.618
 436  1059.087
 437  1077.768
 438  1006.58
 439  985.3782
 440  1029.352
 441  1043.174
 442  1019.259
 443  1064.751
 444  1092.031
 445  1077.688
 446  1081.365
 447  993.7944
 448  934.9523
 449  880.849
 450  912.1952
 451  1037.36
 452  997.9687
 453  986.7183
 454  1079.706
 455  1068.781
 456  1004.022
 457  908.9168
 458  939.2525
 459  864.9661
 460  799.9769
 461  943.3762
 462  922.9985
 463  922.4207
 464  990.3681
 465  1004.54
 466  915.9975
 467  886.3173
 468  987.5997
 469  957.3419
 470  970.0116
 471  916.7972
 472  905.9633
 473  908.1451
 474  811.2419
 475  734.3614
 476  873.9456
 477  939.609
 478  921.2544
 479  837.0232
 480  894.2407
 481  878.3149
 482  935.0955
 483  964.8463
 484  902.6337
 485  900.6022
 486  910.3635
 487  861.4293
 488  793.3101
 489  866.6479
 490  852.7417
 491  832.8502
 492  845.5684
 493  925.7019
 494  885.5675
 495  807.5237
 496  876.032
 497  850.7045
 498  894.049
 499  927.4207
 500  813.1182
 501  851.0007
 502  930.8047
 503  839.8856
 504  752.5967
 505  834.9335
 506  880.1592
 507  905.8412
 508  923.7712
 509  1076.764
 510  1246.378
 511  1329.354
