# Input file       =  1206343968.106489_cleaned.dat
# Candidate        =  PSR_0332+5434
# Telescope        =  AR
# Epoch_topo       =  58206.314237343620
# Epoch_bary       =  N/A
# T_sample         =  0.002
# Data Folded      =  7208960
# Data Avg         =  0.103192273554746
# Data StdDev      =  1.00019266778634 
# Profile Bins     =  512
# Profile Avg      =  1452.93875794229 
# Profile StdDev   =  118.68203759426  
# Reduced chi-sqr  =  1.810
# Prob(Noise)      <  2.84e-26   (~10.5 sigma)
# P_topo (ms)      =  714.571173388117  +/- 0.000125
# P'_topo (s/s)    =  -0                +/- 6.72e-11
# P''_topo (s/s^2) =  0                 +/- 3.02e-14
# P_bary (ms)      =  N/A
# P'_bary (s/s)    =  N/A
# P''_bary (s/s^2) =  N/A
# P_orb (s)        =  N/A
# asin(i)/c (s)    =  N/A
# eccentricity     =  N/A
# w (rad)          =  N/A
# T_peri           =  N/A
######################################################
   0  2171.451
   1  2111.407
   2  1836.017
   3  1682.589
   4  1536.623
   5  1480.365
   6  1498.227
   7  1508.628
   8  1538.591
   9  1544.385
  10  1341.095
  11  1384.524
  12  1337.312
  13  1404.1
  14  1328.536
  15  1260.442
  16  1390.416
  17  1319.981
  18  1334.451
  19  1299.756
  20  1419.809
  21  1388.496
  22  1366.466
  23  1379.842
  24  1458.726
  25  1388.853
  26  1349.214
  27  1338.757
  28  1276.659
  29  1277.609
  30  1267.124
  31  1299.654
  32  1220.303
  33  1371.92
  34  1306.629
  35  1203.038
  36  1264.251
  37  1362.567
  38  1467.938
  39  1379.533
  40  1353.016
  41  1393.222
  42  1329.32
  43  1247.091
  44  1280.658
  45  1292.016
  46  1285.009
  47  1216.279
  48  1325.303
  49  1320.392
  50  1266.125
  51  1228.973
  52  1214.033
  53  1321.646
  54  1428.172
  55  1358.289
  56  1315.005
  57  1383.598
  58  1423.17
  59  1360.416
  60  1289.269
  61  1261.667
  62  1389.019
  63  1416.838
  64  1290.087
  65  1211.02
  66  1315.536
  67  1395.096
  68  1348.132
  69  1385.781
  70  1402.926
  71  1440.972
  72  1473.494
  73  1442.008
  74  1454.191
  75  1490.554
  76  1305.601
  77  1263.781
  78  1309.452
  79  1286.333
  80  1259.46
  81  1256.004
  82  1251.75
  83  1290.917
  84  1374.717
  85  1355.197
  86  1398.716
  87  1484.757
  88  1517.788
  89  1472.668
  90  1523.912
  91  1569.941
  92  1537.292
  93  1361.711
  94  1383.95
  95  1517.797
  96  1459.539
  97  1448.03
  98  1493.475
  99  1533.472
 100  1504.68
 101  1540.463
 102  1616.129
 103  1699.639
 104  1597.229
 105  1599.659
 106  1581.157
 107  1561.847
 108  1588.364
 109  1579.557
 110  1541.25
 111  1510.848
 112  1542.328
 113  1547.636
 114  1543.436
 115  1444.638
 116  1425.687
 117  1539.288
 118  1428.435
 119  1463.965
 120  1544.362
 121  1615.733
 122  1612.16
 123  1641.243
 124  1542.44
 125  1489.591
 126  1467.605
 127  1484.663
 128  1565.578
 129  1493.797
 130  1487.151
 131  1438.117
 132  1414.138
 133  1573.589
 134  1529.773
 135  1423.498
 136  1401.681
 137  1492.237
 138  1520.628
 139  1513.283
 140  1490.242
 141  1508.998
 142  1490.966
 143  1392.995
 144  1345.33
 145  1354.112
 146  1382.862
 147  1432.123
 148  1398.347
 149  1386.391
 150  1320.174
 151  1291.883
 152  1440.914
 153  1437.119
 154  1314.158
 155  1411.219
 156  1384.9
 157  1403.828
 158  1445.331
 159  1384.667
 160  1382.567
 161  1354.292
 162  1322.017
 163  1348.115
 164  1349.703
 165  1377.247
 166  1427.889
 167  1286.591
 168  1234.252
 169  1191.706
 170  1448.129
 171  1477.218
 172  1406.662
 173  1478.951
 174  1590.618
 175  1440.509
 176  1339.171
 177  1328.041
 178  1322.268
 179  1404.848
 180  1254.933
 181  1231.486
 182  1426.788
 183  1356.397
 184  1307.35
 185  1306.062
 186  1363.425
 187  1370.122
 188  1408.116
 189  1455.337
 190  1447.443
 191  1399.53
 192  1310.498
 193  1395.613
 194  1395.62
 195  1293.046
 196  1361.45
 197  1365.628
 198  1377.286
 199  1490.091
 200  1443.009
 201  1444.326
 202  1441.266
 203  1488.007
 204  1389.029
 205  1401.753
 206  1433.074
 207  1484.984
 208  1523.094
 209  1515.68
 210  1454.28
 211  1518.514
 212  1552.233
 213  1515.039
 214  1492.946
 215  1440.843
 216  1351.7
 217  1410.184
 218  1454.342
 219  1485.402
 220  1500.169
 221  1488.661
 222  1530.947
 223  1471.245
 224  1462.845
 225  1443.054
 226  1342.187
 227  1355.401
 228  1414.047
 229  1420.876
 230  1428.552
 231  1412.337
 232  1407.287
 233  1483.897
 234  1464.554
 235  1446.32
 236  1513.935
 237  1617.582
 238  1620.014
 239  1564.44
 240  1620.494
 241  1595.853
 242  1497.258
 243  1489.145
 244  1474.54
 245  1547.259
 246  1503.769
 247  1407.683
 248  1438.636
 249  1497.126
 250  1424.089
 251  1478.024
 252  1573.418
 253  1589.519
 254  1527.597
 255  1510.832
 256  1528.732
 257  1526.233
 258  1518.713
 259  1618.543
 260  1536.881
 261  1452.093
 262  1468.621
 263  1381.727
 264  1504.293
 265  1613.876
 266  1537.634
 267  1496.405
 268  1570.171
 269  1637.33
 270  1692.591
 271  1623.187
 272  1649.12
 273  1687.345
 274  1603.211
 275  1547.625
 276  1509.524
 277  1528.957
 278  1500.724
 279  1473.949
 280  1480.277
 281  1642.546
 282  1582.936
 283  1431.726
 284  1448.351
 285  1540.378
 286  1598.219
 287  1624.396
 288  1606.799
 289  1567.85
 290  1412.386
 291  1440.137
 292  1514.814
 293  1611.524
 294  1631.393
 295  1619.277
 296  1620.464
 297  1625.033
 298  1666.426
 299  1539.209
 300  1512.749
 301  1538.576
 302  1618.233
 303  1565.609
 304  1598.629
 305  1614.982
 306  1608.276
 307  1610.398
 308  1499.391
 309  1512.985
 310  1503.491
 311  1590.742
 312  1581.499
 313  1517.688
 314  1581.366
 315  1557.064
 316  1549.003
 317  1477.669
 318  1476.737
 319  1515.445
 320  1517.926
 321  1578.121
 322  1658.01
 323  1606.997
 324  1564.763
 325  1519.11
 326  1505.345
 327  1524.106
 328  1412.012
 329  1447.559
 330  1490.305
 331  1464.249
 332  1361.701
 333  1339.627
 334  1494.222
 335  1541.739
 336  1460.7
 337  1596.986
 338  1594.073
 339  1491.906
 340  1421.734
 341  1389.992
 342  1422.186
 343  1497.106
 344  1404.254
 345  1310.595
 346  1299.716
 347  1324.18
 348  1316.062
 349  1299.927
 350  1282.593
 351  1372.456
 352  1461.3
 353  1426.777
 354  1447.309
 355  1512.877
 356  1508.433
 357  1442.946
 358  1381.154
 359  1231.501
 360  1274.311
 361  1349.591
 362  1238.7
 363  1284.872
 364  1376.856
 365  1360.935
 366  1354.696
 367  1378.534
 368  1491.116
 369  1422.15
 370  1342.134
 371  1397.373
 372  1408.896
 373  1427.395
 374  1399.743
 375  1354.787
 376  1316.274
 377  1494.757
 378  1481.406
 379  1393.543
 380  1503.614
 381  1516.323
 382  1481.125
 383  1378.208
 384  1441.06
 385  1546.791
 386  1580.449
 387  1554.279
 388  1568.047
 389  1540.154
 390  1502.183
 391  1332.485
 392  1327.285
 393  1433.641
 394  1364.803
 395  1368.984
 396  1348.477
 397  1323.329
 398  1316.738
 399  1336.846
 400  1432.863
 401  1503.912
 402  1563.353
 403  1562.361
 404  1523.665
 405  1585.213
 406  1503.803
 407  1442.849
 408  1451.733
 409  1424.193
 410  1385.78
 411  1421.745
 412  1467.175
 413  1503.902
 414  1460.354
 415  1450.583
 416  1500.535
 417  1620.918
 418  1621.598
 419  1565.681
 420  1426.404
 421  1418.914
 422  1501.935
 423  1481.195
 424  1515.456
 425  1492.386
 426  1419.044
 427  1428.201
 428  1510.757
 429  1531.691
 430  1585.368
 431  1529.659
 432  1464.697
 433  1500.916
 434  1505.596
 435  1524.547
 436  1499.297
 437  1572.019
 438  1559.754
 439  1623.391
 440  1524.962
 441  1458.915
 442  1435.698
 443  1458.179
 444  1431.502
 445  1374.121
 446  1446.574
 447  1487.481
 448  1415.578
 449  1383.859
 450  1483.793
 451  1506.741
 452  1508.341
 453  1526.155
 454  1618.597
 455  1552.785
 456  1527.582
 457  1472.245
 458  1331.434
 459  1418.601
 460  1316.051
 461  1345.362
 462  1430.793
 463  1492.902
 464  1397.913
 465  1395.427
 466  1509.777
 467  1477.812
 468  1456.521
 469  1500.522
 470  1503.873
 471  1551.531
 472  1498.101
 473  1448.808
 474  1332.81
 475  1257.101
 476  1372.625
 477  1418.886
 478  1382.126
 479  1374.194
 480  1316.194
 481  1325.096
 482  1351.479
 483  1407.01
 484  1397.153
 485  1349.483
 486  1383.094
 487  1447.028
 488  1398.968
 489  1384.275
 490  1339.841
 491  1351.792
 492  1393.751
 493  1363.441
 494  1388.358
 495  1391.264
 496  1414.259
 497  1444.959
 498  1379.965
 499  1307.672
 500  1463.406
 501  1496.257
 502  1514.504
 503  1549.637
 504  1496.031
 505  1486.941
 506  1474.534
 507  1411.532
 508  1460.588
 509  1616.13
 510  1890.888
 511  2066.558
