# Input file       =  1206257845.112525_cleaned.dat
# Candidate        =  PSR_0332+5434
# Telescope        =  AR
# Epoch_topo       =  58205.317443432003
# Epoch_bary       =  N/A
# T_sample         =  0.002
# Data Folded      =  7143424
# Data Avg         =  0.0407467430084452
# Data StdDev      =  1.00004925128309 
# Profile Bins     =  512
# Profile Avg      =  568.496217780713 
# Profile StdDev   =  118.12440197371  
# Reduced chi-sqr  =  1.838
# Prob(Noise)      <  1.01e-27   (~10.8 sigma)
# P_topo (ms)      =  714.571717521139  +/- 6.12e-05
# P'_topo (s/s)    =  -0                +/- 3.32e-11
# P''_topo (s/s^2) =  0                 +/- 1.5e-14
# P_bary (ms)      =  N/A
# P'_bary (s/s)    =  N/A
# P''_bary (s/s^2) =  N/A
# P_orb (s)        =  N/A
# asin(i)/c (s)    =  N/A
# eccentricity     =  N/A
# w (rad)          =  N/A
# T_peri           =  N/A
######################################################
   0  1335.872
   1  1209.183
   2  1108.757
   3  877.811
   4  713.9939
   5  790.1842
   6  737.2704
   7  637.6971
   8  493.3931
   9  611.4872
  10  549.7339
  11  566.3255
  12  629.6776
  13  634.4373
  14  760.1755
  15  735.0486
  16  621.0864
  17  567.7473
  18  472.7205
  19  468.7364
  20  554.345
  21  719.3098
  22  760.2029
  23  692.2184
  24  612.1837
  25  722.0281
  26  655.6368
  27  592.1903
  28  497.8876
  29  464.6778
  30  562.8071
  31  627.1989
  32  553.2202
  33  546.2727
  34  630.6232
  35  629.3032
  36  503.2497
  37  541.5993
  38  629.3045
  39  676.3517
  40  683.2849
  41  659.3918
  42  570.1991
  43  521.1964
  44  597.6425
  45  636.9858
  46  592.6764
  47  651.278
  48  556.3555
  49  547.3119
  50  515.7285
  51  496.6945
  52  584.6019
  53  728.3364
  54  689.4875
  55  641.8772
  56  686.8447
  57  612.5676
  58  646.513
  59  573.6692
  60  470.8177
  61  441.0059
  62  484.2298
  63  616.7137
  64  592.0519
  65  522.3178
  66  600.5668
  67  511.3053
  68  473.1503
  69  475.7987
  70  567.5981
  71  659.1572
  72  703.329
  73  628.5016
  74  562.162
  75  584.3087
  76  535.3276
  77  642.5852
  78  726.235
  79  726.7212
  80  591.9846
  81  590.6978
  82  510.8268
  83  560.4408
  84  596.2874
  85  619.8628
  86  556.7025
  87  546.9305
  88  807.6219
  89  725.5651
  90  664.0284
  91  626.4614
  92  553.455
  93  473.0604
  94  529.8879
  95  546.2409
  96  631.1874
  97  684.7259
  98  634.2037
  99  528.3374
 100  388.9659
 101  469.6153
 102  475.9811
 103  620.1255
 104  704.6979
 105  665.4134
 106  619.1449
 107  582.2173
 108  621.9779
 109  636.8238
 110  525.2677
 111  554.2534
 112  575.7888
 113  628.0697
 114  633.3105
 115  669.1033
 116  611.2194
 117  526.8627
 118  549.7445
 119  613.7537
 120  646.2534
 121  792.4913
 122  787.6432
 123  827.4974
 124  825.797
 125  628.0129
 126  531.4916
 127  560.0761
 128  613.3959
 129  617.4131
 130  603.1255
 131  510.3962
 132  511.3954
 133  453.9898
 134  522.1755
 135  531.3573
 136  683.0528
 137  705.93
 138  640.2009
 139  786.5877
 140  720.0093
 141  714.4617
 142  468.0897
 143  531.1711
 144  584.0016
 145  535.0081
 146  636.8043
 147  687.3935
 148  493.9265
 149  441.7478
 150  444.8348
 151  557.356
 152  555.368
 153  758.6131
 154  842.9688
 155  763.066
 156  685.0347
 157  583.4395
 158  600.0036
 159  714.7726
 160  634.4467
 161  463.7229
 162  510.3057
 163  543.8639
 164  491.8094
 165  374.9856
 166  406.1593
 167  512.3202
 168  597.5289
 169  494.7394
 170  632.1229
 171  599.2896
 172  606.2021
 173  458.3737
 174  498.2007
 175  480.9751
 176  355.7328
 177  490.5123
 178  511.9422
 179  517.2437
 180  455.2522
 181  484.7731
 182  533.9881
 183  401.6583
 184  345.9845
 185  378.8943
 186  486.4383
 187  652.369
 188  612.6569
 189  437.7375
 190  428.3596
 191  503.3983
 192  500.9956
 193  366.4621
 194  398.2014
 195  493.6445
 196  534.8598
 197  397.8683
 198  382.86
 199  441.9294
 200  417.2191
 201  369.712
 202  417.3507
 203  522.371
 204  566.4987
 205  558.0729
 206  530.6278
 207  452.9058
 208  462.4789
 209  406.7514
 210  387.2582
 211  469.9608
 212  505.5349
 213  484.4156
 214  377.37
 215  396.9497
 216  314.1889
 217  391.5706
 218  443.5073
 219  499.7466
 220  540.8291
 221  547.1791
 222  541.7743
 223  630.4832
 224  462.8447
 225  330.4717
 226  361.9561
 227  468.2805
 228  549.1633
 229  495.0085
 230  480.3613
 231  542.2308
 232  445.1598
 233  335.5218
 234  458.1307
 235  488.8637
 236  549.7928
 237  619.5718
 238  589.2336
 239  495.3461
 240  437.8935
 241  384.7766
 242  449.369
 243  493.7794
 244  503.6306
 245  540.4341
 246  497.1816
 247  571.8477
 248  545.8303
 249  461.0145
 250  433.7517
 251  539.138
 252  680.6741
 253  650.2627
 254  753.8567
 255  714.7127
 256  586.299
 257  617.5986
 258  631.1212
 259  547.8653
 260  585.9792
 261  599.0854
 262  513.1858
 263  462.4657
 264  435.2262
 265  502.5136
 266  452.6152
 267  523.2617
 268  534.4954
 269  633.7015
 270  709.8723
 271  672.3701
 272  661.8586
 273  527.8573
 274  559.9176
 275  612.6316
 276  555.3564
 277  538.9024
 278  556.3087
 279  575.5267
 280  415.5917
 281  566.0322
 282  622.3383
 283  564.8514
 284  512.3149
 285  586.1795
 286  610.7679
 287  591.5404
 288  559.5349
 289  596.6675
 290  549.8322
 291  459.5583
 292  551.01
 293  587.2252
 294  634.5991
 295  556.0833
 296  444.9566
 297  381.7752
 298  452.5316
 299  424.1943
 300  398.5555
 301  473.6453
 302  609.0599
 303  752.0668
 304  678.2142
 305  627.4543
 306  553.2512
 307  475.5696
 308  549.324
 309  538.8143
 310  559.9754
 311  647.7558
 312  584.656
 313  534.4274
 314  503.5731
 315  553.0065
 316  614.0884
 317  612.2805
 318  570.0654
 319  583.793
 320  594.0292
 321  722.114
 322  653.6364
 323  662.1087
 324  684.6398
 325  550.1924
 326  608.9199
 327  572.9735
 328  577.5712
 329  586.5848
 330  485.5145
 331  424.0385
 332  422.5414
 333  548.5792
 334  639.9918
 335  683.3203
 336  669.9251
 337  614.489
 338  634.0933
 339  652.5594
 340  531.6684
 341  485.9369
 342  440.8898
 343  432.0349
 344  467.3459
 345  520.6708
 346  527.678
 347  568.4063
 348  511.1629
 349  479.0821
 350  476.8908
 351  410.0454
 352  685.7214
 353  753.3257
 354  598.0579
 355  526.222
 356  493.8395
 357  464.4966
 358  638.6899
 359  680.1481
 360  712.0708
 361  648.811
 362  547.8862
 363  681.1418
 364  575.9923
 365  419.5556
 366  469.9594
 367  524.6526
 368  630.4093
 369  708.0837
 370  674.2265
 371  523.1223
 372  522.8087
 373  505.7173
 374  504.7681
 375  570.0063
 376  556.4592
 377  596.8582
 378  551.4398
 379  497.7929
 380  446.7585
 381  467.6089
 382  446.3808
 383  467.1711
 384  545.2232
 385  535.0941
 386  504.1043
 387  502.2641
 388  531.205
 389  514.5757
 390  565.6708
 391  537.3347
 392  517.4083
 393  392.1767
 394  378.1294
 395  447.6595
 396  464.9027
 397  504.7867
 398  510.1174
 399  402.3829
 400  492.6465
 401  611.447
 402  693.0526
 403  655.8906
 404  545.4556
 405  599.7309
 406  612.5159
 407  579.9838
 408  441.0843
 409  450.8138
 410  638.0341
 411  612.2289
 412  570.947
 413  390.6417
 414  433.3115
 415  407.2346
 416  371.6432
 417  515.5787
 418  544.1057
 419  546.7377
 420  539.649
 421  490.4134
 422  540.7666
 423  549.9359
 424  406.3583
 425  386.5615
 426  494.6576
 427  545.4193
 428  470.4618
 429  386.8867
 430  512.6559
 431  475.0393
 432  466.1573
 433  479.7621
 434  643.8403
 435  684.0753
 436  671.7018
 437  539.207
 438  518.2231
 439  516.4519
 440  469.6543
 441  469.0622
 442  605.4294
 443  592.8937
 444  484.5131
 445  443.7121
 446  565.814
 447  615.5224
 448  390.9791
 449  569.3409
 450  668.8699
 451  628.3214
 452  667.9929
 453  600.7537
 454  753.7119
 455  713.4662
 456  585.0354
 457  639.125
 458  617.3203
 459  650.086
 460  621.0328
 461  584.269
 462  510.8183
 463  623.4741
 464  632.1951
 465  571.2468
 466  645.495
 467  663.5624
 468  712.5493
 469  692.5656
 470  644.3814
 471  640.6695
 472  537.3076
 473  546.5485
 474  541.8048
 475  603.6169
 476  654.7324
 477  666.6591
 478  595.5781
 479  524.1188
 480  447.7952
 481  464.6299
 482  501.7707
 483  663.4872
 484  792.8401
 485  713.665
 486  536.0344
 487  602.0634
 488  563.1982
 489  520.2906
 490  638.7139
 491  623.7153
 492  548.6132
 493  529.4201
 494  578.5975
 495  517.7776
 496  592.5302
 497  532.582
 498  497.7209
 499  517.7479
 500  466.1282
 501  656.6116
 502  745.8004
 503  649.1569
 504  717.1981
 505  774.4094
 506  768.6225
 507  688.4247
 508  610.0443
 509  718.7999
 510  1063.128
 511  1247.651
