# Input file       =  1206272451.117398_cleaned.dat
# Candidate        =  PSR_0332+5434
# Telescope        =  AR
# Epoch_topo       =  58205.486494414326
# Epoch_bary       =  N/A
# T_sample         =  0.002
# Data Folded      =  7340032
# Data Avg         =  -0.0135843788795801
# Data StdDev      =  1.00032703058726 
# Profile Bins     =  512
# Profile Avg      =  -194.738432248388
# Profile StdDev   =  119.772192741967 
# Reduced chi-sqr  =  0.985
# Prob(Noise)      <  0.586   (~0.0 sigma)
# P_topo (ms)      =  714.571642699843  +/- 0.000504
# P'_topo (s/s)    =  -0                +/- 2.66e-10
# P''_topo (s/s^2) =  0                 +/- 1.18e-13
# P_bary (ms)      =  N/A
# P'_bary (s/s)    =  N/A
# P''_bary (s/s^2) =  N/A
# P_orb (s)        =  N/A
# asin(i)/c (s)    =  N/A
# eccentricity     =  N/A
# w (rad)          =  N/A
# T_peri           =  N/A
######################################################
   0  395.4349
   1  180.2661
   2  114.6514
   3  -75.8145
   4  -275.239
   5  -360.33
   6  -281.2385
   7  -193.4122
   8  -223.1262
   9  -193.4388
  10  -148.9973
  11  -185.9001
  12  -130.3825
  13  -172.7603
  14  -186.3343
  15  -81.89719
  16  -38.65328
  17  -169.5463
  18  -159.6416
  19  -241.2433
  20  -203.4599
  21  -182.7111
  22  -141.0927
  23  -175.6942
  24  -111.7624
  25  -109.1738
  26  -186.9862
  27  -219.6242
  28  -137.6153
  29  -161.7719
  30  -232.0651
  31  -184.4272
  32  -201.8258
  33  -121.1156
  34  -93.21908
  35  -138.1661
  36  -207.077
  37  -290.6206
  38  -278.2284
  39  -273.5287
  40  -262.6685
  41  -259.2351
  42  -243.4294
  43  -230.624
  44  -109.4451
  45  -194.5414
  46  -186.2265
  47  -150.7106
  48  -200.4713
  49  -127.8768
  50  -185.7399
  51  -178.5844
  52  -212.7253
  53  -221.4431
  54  -244.6966
  55  -270.44
  56  -261.7704
  57  -251.699
  58  -310.9538
  59  -304.5181
  60  -328.201
  61  -358.9012
  62  -297.9437
  63  -263.5913
  64  -251.4646
  65  -287.734
  66  -226.9642
  67  -222.0903
  68  -315.7127
  69  -239.1777
  70  -161.0542
  71  -296.6847
  72  -336.5395
  73  -327.4239
  74  -248.9611
  75  -245.0489
  76  -266.045
  77  -317.0965
  78  -297.6768
  79  -278.0615
  80  -346.0516
  81  -365.9695
  82  -354.9462
  83  -288.2981
  84  -275.7859
  85  -174.474
  86  -203.1326
  87  -282.0523
  88  -283.7129
  89  -227.162
  90  -242.6159
  91  -298.7415
  92  -324.7654
  93  -295.0904
  94  -275.7285
  95  -281.3876
  96  -204.1832
  97  -208.0113
  98  -185.378
  99  -261.7792
 100  -294.6352
 101  -282.2277
 102  -233.7787
 103  -292.4404
 104  -206.5625
 105  -267.4853
 106  -232.064
 107  -259.442
 108  -310.6118
 109  -245.408
 110  -215.9449
 111  -214.9952
 112  -227.6985
 113  -203.1724
 114  -234.7298
 115  -262.105
 116  -176.8821
 117  -206.9878
 118  -168.8184
 119  -215.6896
 120  -237.7493
 121  -235.6568
 122  -211.4623
 123  -154.1446
 124  -159.3697
 125  -233.4826
 126  -231.4186
 127  -170.2719
 128  -201.3781
 129  -209.4075
 130  -266.2392
 131  -258.801
 132  -259.4241
 133  -233.8507
 134  -244.7278
 135  -244.8172
 136  -189.0267
 137  -207.1246
 138  -96.7895
 139  -182.8508
 140  -191.2371
 141  -244.1769
 142  -256.0831
 143  -179.5961
 144  -204.2301
 145  -213.4121
 146  -248.5112
 147  -211.273
 148  -213.6234
 149  -187.2719
 150  -155.3548
 151  -181.1485
 152  -203.7144
 153  -215.9578
 154  -172.3088
 155  -191.9515
 156  -235.6165
 157  -168.6801
 158  -89.88061
 159  -95.70572
 160  -112.0299
 161  -177.5068
 162  -176.9998
 163  -58.43745
 164  -59.13766
 165  -193.7923
 166  -238.014
 167  -259.6074
 168  -226.292
 169  -138.0058
 170  -134.822
 171  -195.6965
 172  -184.5102
 173  -146.8527
 174  -184.2529
 175  -180.3884
 176  -194.2459
 177  -130.1484
 178  -160.1327
 179  -133.7733
 180  -140.3688
 181  -161.1363
 182  -131.5128
 183  -136.8932
 184  -168.1146
 185  -138.0421
 186  -103.5933
 187  -146.7068
 188  -197.0163
 189  -146.2507
 190  -148.8627
 191  -103.6008
 192  -121.2159
 193  -111.697
 194  1.052751
 195  -61.17053
 196  -79.27903
 197  -70.3007
 198  -69.32354
 199  -59.51988
 200  -37.61885
 201  21.14075
 202  -55.83637
 203  -113.1171
 204  -91.04099
 205  -90.75953
 206  -121.7253
 207  -163.1526
 208  -227.8748
 209  -165.2516
 210  -174.8981
 211  -140.1158
 212  -184.6379
 213  -225.0257
 214  -161.9767
 215  -183.1037
 216  -190.6664
 217  -198.2974
 218  -155.331
 219  -136.5798
 220  -194.9035
 221  -220.6749
 222  -150.9482
 223  -139.723
 224  -235.6739
 225  -163.9794
 226  -188.3349
 227  -220.1596
 228  -230.2647
 229  -258.1102
 230  -276.9425
 231  -218.4509
 232  -287.2813
 233  -278.7483
 234  -293.3042
 235  -329.4112
 236  -310.1038
 237  -360.81
 238  -385.8868
 239  -346.9909
 240  -312.8275
 241  -279.2185
 242  -305.1967
 243  -302.158
 244  -313.1412
 245  -290.6592
 246  -288.193
 247  -321.2415
 248  -304.7608
 249  -268.0793
 250  -306.1691
 251  -274.6892
 252  -299.2082
 253  -264.9337
 254  -257.521
 255  -317.842
 256  -314.193
 257  -253.9634
 258  -251.8384
 259  -270.8589
 260  -300.7825
 261  -266.64
 262  -210.5028
 263  -147.2187
 264  -152.8747
 265  -236.4164
 266  -197.4731
 267  -125.7737
 268  -131.457
 269  -153.3496
 270  -208.7296
 271  -196.8827
 272  -220.9505
 273  -219.3052
 274  -246.5484
 275  -136.4337
 276  -117.2172
 277  -153.9566
 278  -182.1828
 279  -254.5849
 280  -307.9942
 281  -266.8335
 282  -243.112
 283  -254.0607
 284  -173.78
 285  -158.8054
 286  -163.0978
 287  -107.7802
 288  -113.3811
 289  -94.24281
 290  -157.1555
 291  -101.2422
 292  -34.61577
 293  -114.4114
 294  -182.8725
 295  -235.4022
 296  -166.9381
 297  -216.8468
 298  -182.3906
 299  -243.5954
 300  -220.8405
 301  -218.8391
 302  -214.9601
 303  -279.1406
 304  -180.8701
 305  -185.8153
 306  -186.5857
 307  -138.9646
 308  -84.96004
 309  -105.5862
 310  -180.849
 311  -179.5189
 312  -183.1633
 313  -184.569
 314  -166.2556
 315  -199.6336
 316  -128.0176
 317  -157.2532
 318  -217.9775
 319  -183.3511
 320  -157.0503
 321  -222.5584
 322  -225.8412
 323  -133.7764
 324  -99.0312
 325  -130.6971
 326  -109.8051
 327  -151.4852
 328  -151.7532
 329  -120.0073
 330  -77.18093
 331  -168.1396
 332  -148.4495
 333  -159.7792
 334  -237.9316
 335  -254.6406
 336  -233.6602
 337  -110.7437
 338  -105.041
 339  -168.9445
 340  -196.32
 341  -178.8112
 342  -102.2785
 343  -128.5126
 344  -150.7235
 345  -142.9192
 346  -129.4118
 347  -212.3248
 348  -207.9767
 349  -225.1752
 350  -185.1872
 351  -238.7137
 352  -185.6833
 353  -119.1678
 354  -88.33398
 355  -160.8724
 356  -107.9334
 357  -116.3807
 358  -91.70126
 359  -147.5002
 360  -156.1855
 361  -146.1083
 362  -150.4622
 363  -118.128
 364  -158.3281
 365  -94.06236
 366  -172.0285
 367  -238.5046
 368  -249.2446
 369  -287.7696
 370  -235.1382
 371  -192.552
 372  -151.0392
 373  -212.9394
 374  -206.4957
 375  -161.7934
 376  -183.2451
 377  -156.0363
 378  -133.0397
 379  -178.6771
 380  -221.234
 381  -176.0089
 382  -196.46
 383  -237.6257
 384  -157.6269
 385  -190.4592
 386  -230.7135
 387  -233.7989
 388  -277.1109
 389  -251.3929
 390  -226.4497
 391  -179.9869
 392  -224.7017
 393  -216.299
 394  -297.9171
 395  -199.1728
 396  -173.4859
 397  -177.7861
 398  -86.04581
 399  -188.8325
 400  -201.5508
 401  -181.2178
 402  -152.2618
 403  -97.1403
 404  -107.4847
 405  -68.73685
 406  -129.2496
 407  -133.7031
 408  -194.653
 409  -233.0719
 410  -155.6225
 411  -104.9847
 412  -151.9005
 413  -203.787
 414  -279.6362
 415  -305.3905
 416  -220.4092
 417  -177.2257
 418  -191.5269
 419  -185.7642
 420  -228.1454
 421  -227.1999
 422  -281.4632
 423  -157.4846
 424  -203.7665
 425  -294.8072
 426  -365.8391
 427  -341.8696
 428  -287.3468
 429  -283.2265
 430  -244.6238
 431  -274.4589
 432  -269.407
 433  -335.0508
 434  -254.5691
 435  -276.8089
 436  -300.0195
 437  -188.0278
 438  -122.9394
 439  -187.2719
 440  -291.0456
 441  -286.7101
 442  -332.6066
 443  -395.7151
 444  -364.5825
 445  -268.9891
 446  -189.2352
 447  -257.2362
 448  -310.2977
 449  -255.8857
 450  -393.9158
 451  -371.5174
 452  -288.7099
 453  -267.0918
 454  -296.6346
 455  -336.4204
 456  -326.2992
 457  -374.9198
 458  -322.0261
 459  -204.5308
 460  -171.2712
 461  -228.9158
 462  -231.3297
 463  -171.2067
 464  -160.8725
 465  -199.1408
 466  -260.2699
 467  -213.8691
 468  -201.9914
 469  -203.6783
 470  -149.1581
 471  -139.7169
 472  -60.1264
 473  -166.6048
 474  -188.3725
 475  -163.479
 476  -182.7658
 477  -175.1425
 478  -200.35
 479  -180.8835
 480  -103.1272
 481  -52.86871
 482  -62.18012
 483  -138.2609
 484  -172.1616
 485  -103.5269
 486  -88.38037
 487  -144.5907
 488  -199.875
 489  -195.0744
 490  -162.5068
 491  -224.729
 492  -218.8116
 493  -34.09005
 494  -76.63058
 495  -41.2349
 496  -81.36604
 497  -127.8146
 498  -185.7714
 499  -128.2802
 500  -158.6399
 501  -183.2252
 502  -114.8378
 503  -65.72198
 504  -17.0018
 505  -63.90887
 506  -22.58834
 507  -115.2828
 508  -142.8754
 509  95.04282
 510  203.2851
 511  318.51
