# Input file       =  1207924562.108558_cleaned.dat
# Candidate        =  PSR_0332+5434
# Telescope        =  AR
# Epoch_topo       =  58224.608149404608
# Epoch_bary       =  N/A
# T_sample         =  0.002
# Data Folded      =  7340032
# Data Avg         =  0.0399177882761166
# Data StdDev      =  1.00006206753368 
# Profile Bins     =  512
# Profile Avg      =  572.290561506093 
# Profile StdDev   =  119.740467911034 
# Reduced chi-sqr  =  1.412
# Prob(Noise)      <  2.17e-09   (~5.9 sigma)
# P_topo (ms)      =  714.559258403964  +/- 0.000287
# P'_topo (s/s)    =  -0                +/- 1.51e-10
# P''_topo (s/s^2) =  0                 +/- 6.69e-14
# P_bary (ms)      =  N/A
# P'_bary (s/s)    =  N/A
# P''_bary (s/s^2) =  N/A
# P_orb (s)        =  N/A
# asin(i)/c (s)    =  N/A
# eccentricity     =  N/A
# w (rad)          =  N/A
# T_peri           =  N/A
######################################################
   0  1274.713
   1  1268.428
   2  1160.727
   3  925.895
   4  879.4661
   5  767.9068
   6  656.0581
   7  608.3625
   8  701.0601
   9  577.9395
  10  561.4485
  11  592.3944
  12  735.3761
  13  632.7093
  14  508.8947
  15  602.5758
  16  646.0692
  17  721.3047
  18  698.472
  19  563.7596
  20  661.3397
  21  600.1528
  22  521.45
  23  564.2829
  24  646.12
  25  709.5866
  26  666.0506
  27  685.9034
  28  686.2697
  29  669.971
  30  674.4586
  31  609.3841
  32  553.9493
  33  519.0161
  34  515.519
  35  466.6954
  36  422.0532
  37  625.0088
  38  628.2468
  39  570.1489
  40  509.4915
  41  518.0369
  42  459.7808
  43  514.0214
  44  520.9445
  45  620.8581
  46  511.6022
  47  616.7607
  48  687.1376
  49  567.6689
  50  508.6077
  51  416.2654
  52  403.0771
  53  400.2845
  54  496.5981
  55  469.0315
  56  538.169
  57  557.4753
  58  631.2023
  59  626.6348
  60  666.7167
  61  521.5381
  62  514.2005
  63  536.1276
  64  524.3296
  65  441.4885
  66  458.7495
  67  504.547
  68  456.8657
  69  426.6364
  70  483.3378
  71  662.9521
  72  602.6564
  73  565.9984
  74  465.8911
  75  439.6607
  76  489.9189
  77  492.0543
  78  654.0418
  79  683.533
  80  573.244
  81  538.2828
  82  580.2573
  83  573.9803
  84  576.5773
  85  690.8732
  86  632.7968
  87  590.879
  88  548.7315
  89  555.2464
  90  562.0025
  91  510.7423
  92  590.1608
  93  601.5323
  94  705.2288
  95  630.2481
  96  608.5876
  97  583.801
  98  666.7501
  99  552.4368
 100  668.1878
 101  773.4041
 102  693.1125
 103  683.3156
 104  710.6619
 105  620.015
 106  528.0502
 107  724.5508
 108  734.8045
 109  693.3887
 110  671.1929
 111  654.722
 112  536.5237
 113  462.8366
 114  503.7845
 115  566.8464
 116  549.1166
 117  582.5953
 118  562.6851
 119  575.9677
 120  710.3014
 121  649.8544
 122  642.0471
 123  610.632
 124  661.2554
 125  699.1485
 126  635.8101
 127  677.2269
 128  627.2968
 129  544.3613
 130  576.4223
 131  696.4819
 132  702.4983
 133  629.1645
 134  672.9471
 135  589.409
 136  424.9006
 137  478.8159
 138  577.1812
 139  527.8545
 140  483.6171
 141  386.016
 142  355.7161
 143  522.7076
 144  587.3151
 145  628.8351
 146  457.8029
 147  547.5408
 148  585.1852
 149  529.3948
 150  486.17
 151  631.5325
 152  619.5367
 153  614.5707
 154  626.4655
 155  567.9539
 156  507.8017
 157  510.7748
 158  581.783
 159  587.6774
 160  638.458
 161  696.1661
 162  579.6747
 163  588.3397
 164  682.5172
 165  645.3734
 166  606.8824
 167  587.9901
 168  658.6188
 169  471.1696
 170  569.4252
 171  676.6249
 172  591.1292
 173  571.3568
 174  487.0306
 175  477.3887
 176  546.4088
 177  468.8721
 178  546.8807
 179  575.7491
 180  527.3545
 181  525.4131
 182  602.3973
 183  686.8448
 184  693.5729
 185  578.1211
 186  517.5983
 187  512.6476
 188  418.0295
 189  517.5762
 190  484.9551
 191  422.7317
 192  456.8351
 193  499.5616
 194  539.9343
 195  515.7686
 196  452.904
 197  530.8038
 198  657.5626
 199  711.9292
 200  597.558
 201  487.1791
 202  525.066
 203  611.9892
 204  551.8903
 205  501.7578
 206  553.4637
 207  549.6001
 208  505.8179
 209  490.9201
 210  563.2895
 211  598.8821
 212  517.6768
 213  626.0281
 214  562.687
 215  562.8506
 216  512.0113
 217  562.2513
 218  599.0417
 219  487.9629
 220  491.5622
 221  581.4513
 222  584.9243
 223  509.2859
 224  523.2238
 225  593.6895
 226  524.7504
 227  595.789
 228  517.3094
 229  566.0159
 230  501.6748
 231  597.1187
 232  679.4964
 233  629.4091
 234  662.8018
 235  533.9672
 236  515.6309
 237  560.6396
 238  562.4108
 239  623.5985
 240  506.1702
 241  541.4873
 242  594.5947
 243  594.0328
 244  564.3458
 245  490.7409
 246  516.9851
 247  536.7617
 248  501.2278
 249  530.757
 250  593.5814
 251  716.6266
 252  726.8926
 253  630.178
 254  603.3443
 255  632.7883
 256  608.0623
 257  643.6608
 258  583.4332
 259  643.9759
 260  554.0439
 261  531.9117
 262  672.7792
 263  670.9702
 264  711.3235
 265  658.3078
 266  580.454
 267  673.2621
 268  638.5915
 269  586.3692
 270  585.515
 271  630.0363
 272  552.0818
 273  439.1213
 274  555.1562
 275  561.407
 276  563.5323
 277  534.0631
 278  587.5792
 279  596.7645
 280  566.4111
 281  645.3958
 282  634.4396
 283  602.2772
 284  545.6511
 285  585.1432
 286  593.4484
 287  580.4957
 288  493.5031
 289  643.9907
 290  723.8297
 291  712.4139
 292  681.6994
 293  666.1071
 294  661.2531
 295  614.6284
 296  798.5234
 297  672.7978
 298  540.7189
 299  607.1377
 300  577.6338
 301  597.1871
 302  630.1401
 303  631.6786
 304  616.301
 305  680.3555
 306  571.9937
 307  420.3038
 308  467.0527
 309  450.9888
 310  580.9369
 311  630.1267
 312  628.9605
 313  697.9495
 314  713.1894
 315  652.7514
 316  666.721
 317  644.2834
 318  689.546
 319  633.8671
 320  573.9914
 321  492.001
 322  457.8151
 323  527.9038
 324  650.6508
 325  564.5602
 326  458.6714
 327  551.9264
 328  658.8217
 329  599.9609
 330  647.6054
 331  623.3282
 332  545.1938
 333  582.5003
 334  614.433
 335  678.0968
 336  551.2038
 337  540.9506
 338  521.4598
 339  571.2457
 340  562.902
 341  517.6253
 342  574.0253
 343  564.3516
 344  546.8615
 345  535.8761
 346  613.6859
 347  623.7518
 348  676.004
 349  659.6752
 350  594.5443
 351  585.9434
 352  551.1737
 353  463.3232
 354  526.4757
 355  552.7633
 356  478.3422
 357  550.5916
 358  558.9282
 359  536.8218
 360  526.3768
 361  598.6391
 362  700.6832
 363  599.0752
 364  570.3111
 365  506.3579
 366  524.6503
 367  538.3242
 368  449.9749
 369  487.9745
 370  594.5809
 371  558.7983
 372  558.6436
 373  648.8914
 374  572.6541
 375  505.0266
 376  578.4408
 377  681.3049
 378  654.238
 379  597.3017
 380  585.9271
 381  582.0296
 382  586.9351
 383  569.335
 384  464.4128
 385  515.9346
 386  510.6924
 387  479.4826
 388  466.3083
 389  485.5627
 390  493.6556
 391  500.8564
 392  506.686
 393  412.1353
 394  477.0296
 395  552.9724
 396  509.8862
 397  425.4719
 398  490.2376
 399  427.9869
 400  501.9899
 401  516.21
 402  477.4873
 403  399.8314
 404  397.308
 405  420.7615
 406  526.4242
 407  559.1581
 408  461.0183
 409  482.723
 410  496.5895
 411  489.3676
 412  514.5267
 413  656.7559
 414  642.4763
 415  453.1647
 416  408.957
 417  494.0473
 418  440.7432
 419  469.2797
 420  493.2979
 421  373.3938
 422  417.679
 423  416.4547
 424  555.9579
 425  550.7145
 426  553.7088
 427  611.9197
 428  551.7618
 429  454.7441
 430  600.3215
 431  559.2046
 432  558.0436
 433  543.5153
 434  547.4053
 435  570.1376
 436  445.7878
 437  459.2438
 438  608.0052
 439  586.6212
 440  537.8718
 441  446.6758
 442  510.4187
 443  507.5942
 444  465.2748
 445  453.8958
 446  536.0362
 447  480.5756
 448  474.1938
 449  440.1899
 450  384.7354
 451  425.9743
 452  446.1574
 453  456.9133
 454  506.4832
 455  573.3605
 456  608.3311
 457  550.2084
 458  518.1611
 459  497.3848
 460  414.1471
 461  423.3887
 462  557.7891
 463  587.9191
 464  552.6064
 465  485.165
 466  584.618
 467  532.4832
 468  474.9359
 469  537.7975
 470  452.2003
 471  526.4763
 472  617.2011
 473  542.2018
 474  590.9254
 475  591.6641
 476  556.6792
 477  600.67
 478  620.5298
 479  601.1322
 480  566.8018
 481  567.4365
 482  599.1362
 483  484.037
 484  464.348
 485  483.2612
 486  442.8779
 487  473.476
 488  376.785
 489  385.838
 490  515.3002
 491  622.0031
 492  530.0945
 493  487.4545
 494  525.6442
 495  532.7459
 496  585.7421
 497  575.5563
 498  560.8105
 499  460.6012
 500  547.4396
 501  603.6297
 502  625.138
 503  479.6407
 504  511.2501
 505  545.4822
 506  667.852
 507  775.9639
 508  799.7175
 509  922.2043
 510  1022.568
 511  1152.252
