# Input file       =  1207808803.09915_cleaned.dat
# Candidate        =  PSR_0332+5434
# Telescope        =  AR
# Epoch_topo       =  58223.268346054974
# Epoch_bary       =  N/A
# T_sample         =  0.002
# Data Folded      =  7208960
# Data Avg         =  0.0682793102658473
# Data StdDev      =  1.00012080931638 
# Profile Bins     =  512
# Profile Avg      =  961.356824849245 
# Profile StdDev   =  118.67351092744  
# Reduced chi-sqr  =  2.707
# Prob(Noise)      <  1.91e-81   (~19.1 sigma)
# P_topo (ms)      =  714.559944762662  +/- 0.00018
# P'_topo (s/s)    =  -0                +/- 9.67e-11
# P''_topo (s/s^2) =  0                 +/- 4.35e-14
# P_bary (ms)      =  N/A
# P'_bary (s/s)    =  N/A
# P''_bary (s/s^2) =  N/A
# P_orb (s)        =  N/A
# asin(i)/c (s)    =  N/A
# eccentricity     =  N/A
# w (rad)          =  N/A
# T_peri           =  N/A
######################################################
   0  1865.537
   1  1820.231
   2  1430.239
   3  1215.221
   4  1094.959
   5  927.1783
   6  1082.482
   7  1196.109
   8  1163.616
   9  1071.629
  10  999.3264
  11  994.9604
  12  918.5776
  13  917.1782
  14  984.1743
  15  941.2034
  16  992.4084
  17  951.4066
  18  993.7294
  19  939.1699
  20  941.7516
  21  932.1811
  22  989.6187
  23  999.3847
  24  1001.957
  25  1011.358
  26  1033.753
  27  937.9248
  28  831.4141
  29  865.4672
  30  814.316
  31  828.372
  32  778.3326
  33  797.8029
  34  754.9512
  35  870.5985
  36  858.8743
  37  804.3593
  38  750.1856
  39  1010.011
  40  1031.659
  41  942.2907
  42  963.8955
  43  972.4183
  44  845.5635
  45  884.8011
  46  843.6897
  47  741.6025
  48  727.7944
  49  830.0153
  50  921.4143
  51  858.0045
  52  928.7736
  53  813.2285
  54  868.5488
  55  943.8775
  56  970.5969
  57  902.8084
  58  935.3651
  59  939.0988
  60  804.4084
  61  692.608
  62  696.5699
  63  735.6606
  64  720.9789
  65  792.8839
  66  829.9907
  67  806.3577
  68  777.9207
  69  792.3735
  70  700.4749
  71  749.0204
  72  828.6046
  73  897.1395
  74  857.0201
  75  873.7316
  76  946.1092
  77  867.8947
  78  872.2769
  79  837.5178
  80  826.1519
  81  866.2832
  82  911.4225
  83  1001.971
  84  868.778
  85  817.0529
  86  928.8981
  87  1034.792
  88  1070.957
  89  1113.465
  90  1150.77
  91  1143.58
  92  1080.095
  93  1018.238
  94  1011.244
  95  1012.196
  96  887.0507
  97  865.9366
  98  955.1965
  99  1114.522
 100  1004.385
 101  943.4152
 102  966.8395
 103  867.2825
 104  860.5902
 105  927.9268
 106  1071.745
 107  1149.97
 108  1028.039
 109  1026.592
 110  1037.918
 111  973.9611
 112  935.9427
 113  868.9225
 114  962.1451
 115  959.9762
 116  886.3156
 117  974.4764
 118  891.5645
 119  1004.265
 120  1098.621
 121  1060.903
 122  1064.239
 123  1033.782
 124  1089.782
 125  1060.893
 126  1129.459
 127  1091.344
 128  921.0901
 129  1085.989
 130  1061.009
 131  1058.273
 132  1004.847
 133  959.0205
 134  947.5756
 135  943.2446
 136  1064.619
 137  1072.313
 138  923.8697
 139  963.2346
 140  1061.141
 141  933.4257
 142  936.7839
 143  869.6233
 144  782.2763
 145  867.7169
 146  967.0726
 147  949.0472
 148  920.5048
 149  889.4546
 150  946.9617
 151  792.3512
 152  925.8043
 153  862.5648
 154  964.1268
 155  1040.356
 156  1011.601
 157  978.7626
 158  1010.676
 159  896.8618
 160  1000.708
 161  1008.31
 162  945.4127
 163  818.5278
 164  842.7286
 165  883.1202
 166  838.6422
 167  808.9908
 168  857.4661
 169  968.8962
 170  815.0648
 171  873.3204
 172  917.0386
 173  1015.799
 174  1068.376
 175  989.9866
 176  889.2531
 177  891.8721
 178  903.9193
 179  944.0953
 180  936.9574
 181  939.0723
 182  1073.879
 183  976.8222
 184  882.9048
 185  878.8501
 186  869.3264
 187  848.6219
 188  968.6019
 189  948.8672
 190  907.0179
 191  945.5731
 192  1026.268
 193  970.2234
 194  854.584
 195  804.5446
 196  883.2738
 197  907.625
 198  1003.425
 199  1007.317
 200  952.7648
 201  996.9828
 202  918.8459
 203  917.8352
 204  1014.454
 205  1174.845
 206  1209.672
 207  1126.254
 208  1153.026
 209  1063.614
 210  1017.157
 211  1082.796
 212  1075.055
 213  1031.425
 214  1105.292
 215  1002.406
 216  982.1906
 217  1037.009
 218  928.2568
 219  975.6078
 220  1150.866
 221  1183.723
 222  1125.91
 223  1204.336
 224  1119.794
 225  1017.453
 226  1109.285
 227  1147.898
 228  1113.828
 229  1147.228
 230  1140.086
 231  1072.725
 232  1031.077
 233  1014.69
 234  1047.398
 235  1021.671
 236  1146.329
 237  1182.071
 238  1202.6
 239  1306.752
 240  1299.845
 241  1199.898
 242  1170.295
 243  1068.922
 244  1105.443
 245  1129.573
 246  1125.043
 247  1042.693
 248  1073.953
 249  1190.388
 250  1175.271
 251  1024.243
 252  989.1376
 253  1071.932
 254  1090.57
 255  1195.046
 256  1200.915
 257  1167.912
 258  1132.108
 259  1094.562
 260  1101.803
 261  1080.288
 262  1049.316
 263  1038.745
 264  1017.739
 265  1165.599
 266  1202.604
 267  1107.444
 268  1100.391
 269  1151.342
 270  1099.356
 271  1081.45
 272  1173.046
 273  1096.285
 274  994.8253
 275  1060.387
 276  1073.919
 277  968.5933
 278  953.0923
 279  1119.464
 280  1077.422
 281  1011.408
 282  940.3656
 283  952.3714
 284  971.3146
 285  971.5822
 286  966.8318
 287  1031.594
 288  987.2428
 289  982.9595
 290  953.8962
 291  891.033
 292  1003.045
 293  911.7054
 294  924.3086
 295  1048.746
 296  942.0636
 297  962.567
 298  1014.608
 299  1041.169
 300  1038.893
 301  1026.083
 302  914.7348
 303  950.0266
 304  1000.171
 305  942.7806
 306  1097.067
 307  1057.841
 308  918.7518
 309  892.5513
 310  927.0762
 311  896.9791
 312  1052.541
 313  1033.81
 314  933.2881
 315  1032.808
 316  1038.085
 317  912.7126
 318  949.672
 319  937.7933
 320  936.3441
 321  1007.329
 322  1052.342
 323  1038.898
 324  928.5126
 325  1037.125
 326  1078.854
 327  1026.636
 328  945.516
 329  970.9887
 330  1087.203
 331  961.5359
 332  925.9133
 333  873.3708
 334  973.9084
 335  992.2244
 336  1094.008
 337  1123.569
 338  982.554
 339  1020.034
 340  965.7236
 341  984.1328
 342  907.1951
 343  882.259
 344  860.2189
 345  865.2164
 346  916.3074
 347  917.7074
 348  872.7112
 349  926.5114
 350  849.0577
 351  814.3488
 352  1046.333
 353  1008.667
 354  1025.752
 355  977.4042
 356  1002.379
 357  972.5081
 358  875.99
 359  1013.19
 360  987.1418
 361  940.6581
 362  1012.782
 363  812.7135
 364  735.1292
 365  791.4312
 366  883.0282
 367  913.223
 368  964.1967
 369  935.6953
 370  954.2657
 371  985.8514
 372  984.4743
 373  975.6332
 374  1042.019
 375  981.0659
 376  825.8402
 377  905.8629
 378  876.9516
 379  1012.118
 380  882.577
 381  782.5299
 382  874.7715
 383  850.3037
 384  1086.744
 385  1185.077
 386  1020.45
 387  947.3766
 388  903.864
 389  1018.175
 390  1041.913
 391  947.8245
 392  996.1494
 393  891.6819
 394  923.1116
 395  884.4855
 396  812.9444
 397  945.3747
 398  946.522
 399  898.8876
 400  971.0846
 401  1052.496
 402  1080.728
 403  1082.971
 404  1110.986
 405  997.593
 406  1008.125
 407  1125.007
 408  1036.412
 409  945.4999
 410  991.2066
 411  1075.003
 412  969.5329
 413  1000.484
 414  924.2332
 415  1014.319
 416  915.1853
 417  907.9999
 418  978.9753
 419  1036.687
 420  1099.984
 421  1086.525
 422  1032.342
 423  941.7457
 424  931.6603
 425  977.1964
 426  855.3283
 427  801.6972
 428  864.5881
 429  829.2774
 430  854.7393
 431  794.0984
 432  670.9468
 433  708.0031
 434  878.3936
 435  877.1377
 436  823.5012
 437  750.4555
 438  801.624
 439  889.8997
 440  877.5158
 441  874.7255
 442  782.7749
 443  848.8311
 444  821.8029
 445  866.8265
 446  805.232
 447  898.0031
 448  920.5894
 449  770.4208
 450  790.7185
 451  865.9532
 452  850.7034
 453  795.3688
 454  809.8398
 455  803.1712
 456  820.0555
 457  700.3016
 458  751.6636
 459  587.6664
 460  668.097
 461  695.7396
 462  751.2782
 463  644.5361
 464  760.8476
 465  846.5011
 466  691.0929
 467  837.9868
 468  887.1167
 469  857.7201
 470  871.0435
 471  814.0539
 472  765.3972
 473  816.9712
 474  908.1168
 475  860.3706
 476  783.1255
 477  749.0728
 478  718.1804
 479  751.9147
 480  826.4493
 481  805.1995
 482  711.4954
 483  778.6577
 484  779.9225
 485  887.787
 486  951.0686
 487  852.9556
 488  828.3492
 489  861.8169
 490  868.1317
 491  775.0262
 492  732.736
 493  785.7603
 494  938.1975
 495  824.3812
 496  784.0776
 497  869.5841
 498  790.0905
 499  881.2122
 500  870.0976
 501  957.8231
 502  1056.429
 503  1069.938
 504  1068.036
 505  937.0704
 506  906.8895
 507  1086.206
 508  1186.959
 509  1309.176
 510  1643.991
 511  1863.993
