# Input file       =  1207823475.107672_cleaned.dat
# Candidate        =  PSR_0332+5434
# Telescope        =  AR
# Epoch_topo       =  58223.438160968428
# Epoch_bary       =  N/A
# T_sample         =  0.002
# Data Folded      =  7340032
# Data Avg         =  0.0534288824884277
# Data StdDev      =  0.999967982874081
# Profile Bins     =  512
# Profile Avg      =  765.94966083963  
# Profile StdDev   =  119.729202869064 
# Reduced chi-sqr  =  2.167
# Prob(Noise)      <  4.65e-46   (~14.2 sigma)
# P_topo (ms)      =  714.559831587423  +/- 0.000442
# P'_topo (s/s)    =  -0                +/- 2.33e-10
# P''_topo (s/s^2) =  0                 +/- 1.03e-13
# P_bary (ms)      =  N/A
# P'_bary (s/s)    =  N/A
# P''_bary (s/s^2) =  N/A
# P_orb (s)        =  N/A
# asin(i)/c (s)    =  N/A
# eccentricity     =  N/A
# w (rad)          =  N/A
# T_peri           =  N/A
######################################################
   0  1521.838
   1  1491.05
   2  1157.961
   3  947.4899
   4  784.5244
   5  735.0752
   6  763.4917
   7  763.1508
   8  707.8984
   9  785.1625
  10  707.4092
  11  728.7746
  12  793.9573
  13  872.0165
  14  830.4832
  15  781.2448
  16  823.8225
  17  773.6465
  18  765.8431
  19  706.7543
  20  719.1846
  21  709.7563
  22  735.9731
  23  666.4512
  24  691.6656
  25  630.653
  26  636.2387
  27  656.2377
  28  701.4547
  29  683.307
  30  710.365
  31  683.3926
  32  647.0973
  33  615.8344
  34  563.0208
  35  624.0393
  36  648.8789
  37  665.0024
  38  659.9229
  39  685.6292
  40  584.412
  41  548.8638
  42  553.3011
  43  597.0624
  44  630.5648
  45  651.0093
  46  677.426
  47  668.5818
  48  615.3712
  49  591.9898
  50  563.2706
  51  592.6008
  52  599.4001
  53  605.83
  54  655.8051
  55  574.3042
  56  517.1114
  57  529.604
  58  484.4245
  59  509.4173
  60  566.6195
  61  612.696
  62  584.1616
  63  511.0752
  64  454.8115
  65  546.6169
  66  610.9572
  67  554.3383
  68  639.3299
  69  636.9453
  70  594.3118
  71  618.5723
  72  638.4928
  73  533.8532
  74  464.3718
  75  620.6113
  76  740.4069
  77  659.3579
  78  579.1056
  79  605.0132
  80  585.9485
  81  536.4413
  82  476.6028
  83  463.2721
  84  512.1284
  85  548.4161
  86  556.9405
  87  612.6605
  88  554.6022
  89  626.4238
  90  727.7659
  91  768.959
  92  790.4951
  93  746.3542
  94  671.4194
  95  671.7787
  96  723.744
  97  685.6777
  98  744.5732
  99  768.2081
 100  713.6849
 101  649.9006
 102  705.4556
 103  788.7019
 104  675.4738
 105  670.0602
 106  635.1957
 107  548.575
 108  574.8361
 109  718.668
 110  700.0239
 111  638.8568
 112  601.2202
 113  638.7934
 114  693.5682
 115  764.9957
 116  717.7577
 117  719.3317
 118  699.4658
 119  661.5022
 120  614.7487
 121  613.5906
 122  653.1754
 123  592.2499
 124  585.4497
 125  573.8581
 126  654.8813
 127  656.0413
 128  621.8747
 129  597.0722
 130  616.4669
 131  598.6325
 132  602.6077
 133  606.8613
 134  687.9412
 135  615.9578
 136  558.5761
 137  671.4098
 138  661.4155
 139  574.9414
 140  572.4021
 141  556.0525
 142  652.3309
 143  701.8672
 144  715.5017
 145  673.5946
 146  718.9218
 147  643.5116
 148  587.7051
 149  622.3135
 150  694.596
 151  684.696
 152  778.1771
 153  754.0372
 154  660.6229
 155  675.2893
 156  745.044
 157  778.171
 158  792.1292
 159  829.5123
 160  808.2703
 161  722.4469
 162  749.6338
 163  863.221
 164  916.6757
 165  939.8492
 166  868.1824
 167  895.3186
 168  932.6647
 169  939.5378
 170  915.4418
 171  925.1039
 172  867.3506
 173  830.6442
 174  929.7341
 175  882.9226
 176  812.55
 177  901.6808
 178  852.4385
 179  934.5768
 180  958.8598
 181  956.7025
 182  896.2526
 183  828.0186
 184  827.4094
 185  699.9783
 186  728.3323
 187  745.7604
 188  762.1595
 189  728.5518
 190  732.3461
 191  758.2017
 192  737.5226
 193  633.0554
 194  639.7086
 195  707.6774
 196  714.3071
 197  703.2422
 198  766.1915
 199  793.9728
 200  780.8336
 201  802.4677
 202  749.0469
 203  701.1051
 204  729.6753
 205  842.1514
 206  820.5503
 207  796.1507
 208  862.6197
 209  842.0494
 210  824.4218
 211  828.4132
 212  765.6054
 213  787.5471
 214  770.2512
 215  699.1522
 216  773.1118
 217  717.4596
 218  713.6458
 219  768.6053
 220  739.6303
 221  869.2458
 222  825.4496
 223  781.3738
 224  773.6744
 225  716.849
 226  729.8652
 227  781.387
 228  767.7018
 229  881.341
 230  855.2646
 231  761.9933
 232  838.4117
 233  827.4545
 234  796.1031
 235  724.5949
 236  745.9636
 237  819.7703
 238  773.2381
 239  720.8095
 240  734.9492
 241  704.167
 242  702.6335
 243  773.7854
 244  887.1988
 245  831.0237
 246  842.8594
 247  840.6825
 248  837.559
 249  764.1693
 250  777.2768
 251  869.5648
 252  861.9448
 253  807.5875
 254  852.8572
 255  795.194
 256  843.9752
 257  885.6926
 258  906.72
 259  803.4941
 260  856.8704
 261  807.1859
 262  759.6213
 263  772.3145
 264  745.4797
 265  772.0458
 266  751.0007
 267  841.4543
 268  847.4294
 269  806.5535
 270  827.314
 271  840.9947
 272  825.0176
 273  831.7155
 274  828.8879
 275  777.4997
 276  837.9086
 277  723.5442
 278  758.2205
 279  878.3289
 280  849.6779
 281  811.0201
 282  791.7501
 283  831.8498
 284  836.8369
 285  888.4528
 286  910.4342
 287  911.9196
 288  876.5856
 289  885.4578
 290  850.72
 291  911.8899
 292  823.1599
 293  832.2145
 294  870.0817
 295  867.5175
 296  844.9356
 297  819.3692
 298  881.6296
 299  901.1941
 300  860.6464
 301  848.3264
 302  869.1417
 303  883.4987
 304  931.3427
 305  889.7952
 306  913.1315
 307  877.4578
 308  851.107
 309  851.3052
 310  752.3615
 311  818.2744
 312  902.4744
 313  889.1623
 314  831.4485
 315  848.6926
 316  864.8347
 317  880.6689
 318  940.0033
 319  953.1284
 320  977.9973
 321  989.8919
 322  873.0117
 323  807.397
 324  729.5082
 325  891.3573
 326  939.1653
 327  927.0544
 328  883.4069
 329  932.4908
 330  879.1394
 331  916.8698
 332  859.8911
 333  836.7441
 334  872.8607
 335  835.6707
 336  845.2023
 337  934.5488
 338  866.0308
 339  861.0258
 340  885.7517
 341  869.4772
 342  821.1247
 343  834.5192
 344  880.9091
 345  917.7939
 346  831.8896
 347  800.6678
 348  814.0798
 349  847.945
 350  802.4576
 351  789.9614
 352  874.7662
 353  932.2173
 354  862.2231
 355  883.4973
 356  861.2682
 357  811.9312
 358  878.8556
 359  855.1592
 360  863.8087
 361  832.6976
 362  813.3596
 363  829.0975
 364  850.7166
 365  828.9583
 366  850.1965
 367  879.9928
 368  838.3577
 369  891.0467
 370  841.4019
 371  835.8187
 372  810.6371
 373  856.5656
 374  894.0129
 375  921.7352
 376  850.2845
 377  912.3282
 378  914.3958
 379  889.6218
 380  912.8036
 381  868.8104
 382  900.7769
 383  860.6553
 384  822.941
 385  838.5905
 386  839.6822
 387  853.2351
 388  825.2522
 389  851.3452
 390  801.9636
 391  816.3633
 392  742.0982
 393  813.2453
 394  695.9597
 395  661.858
 396  760.7677
 397  781.2548
 398  740.0761
 399  724.8563
 400  705.4551
 401  686.2705
 402  779.1691
 403  774.4858
 404  695.2845
 405  693.3283
 406  747.5696
 407  786.0933
 408  728.5396
 409  726.6313
 410  701.9266
 411  625.5513
 412  641.972
 413  718.1539
 414  667.6293
 415  760.8217
 416  740.8844
 417  770.8348
 418  748.963
 419  674.9808
 420  572.9069
 421  659.6069
 422  720.5513
 423  690.3885
 424  617.3523
 425  711.3373
 426  724.9627
 427  772.1035
 428  706.6538
 429  742.8028
 430  746.5123
 431  777.9306
 432  826.6875
 433  710.3447
 434  675.813
 435  723.7529
 436  767.1584
 437  727.7132
 438  767.0542
 439  827.0483
 440  745.5591
 441  739.3236
 442  748.0131
 443  755.1265
 444  692.3225
 445  707.8451
 446  748.5312
 447  731.8969
 448  812.6984
 449  753.0651
 450  669.2012
 451  749.8364
 452  833.7584
 453  823.9229
 454  800.715
 455  807.7398
 456  830.3524
 457  727.558
 458  686.8738
 459  741.1777
 460  745.2596
 461  714.5859
 462  697.6487
 463  763.527
 464  769.7148
 465  809.6291
 466  779.9219
 467  704.5873
 468  717.0746
 469  850.5678
 470  873.1333
 471  784.2415
 472  831.9985
 473  834.2971
 474  848.5766
 475  816.4147
 476  794.5299
 477  765.9684
 478  726.548
 479  737.39
 480  734.1292
 481  737.7852
 482  766.9377
 483  694.0049
 484  662.5509
 485  641.7392
 486  693.9523
 487  712.3702
 488  681.2756
 489  684.7472
 490  721.0568
 491  767.4257
 492  865.5168
 493  799.937
 494  789.5936
 495  780.7864
 496  656.7136
 497  698.4681
 498  728.3906
 499  776.8009
 500  798.1105
 501  832.3245
 502  752.4621
 503  799.8032
 504  886.2698
 505  879.8951
 506  786.9654
 507  909.6736
 508  1070.5
 509  1293.681
 510  1517.408
 511  1539.16
