# Input file       =  1208082048.119238_cleaned.dat
# Candidate        =  PSR_0332+5434
# Telescope        =  AR
# Epoch_topo       =  58226.430904157845
# Epoch_bary       =  N/A
# T_sample         =  0.002
# Data Folded      =  7340032
# Data Avg         =  0.0424470206516009
# Data StdDev      =  0.999855107701768
# Profile Bins     =  512
# Profile Avg      =  608.556904180763 
# Profile StdDev   =  119.715687981951 
# Reduced chi-sqr  =  1.585
# Prob(Noise)      <  6.34e-16   (~8.0 sigma)
# P_topo (ms)      =  714.557474662437  +/- 0.00027
# P'_topo (s/s)    =  -0                +/- 1.42e-10
# P''_topo (s/s^2) =  0                 +/- 6.29e-14
# P_bary (ms)      =  N/A
# P'_bary (s/s)    =  N/A
# P''_bary (s/s^2) =  N/A
# P_orb (s)        =  N/A
# asin(i)/c (s)    =  N/A
# eccentricity     =  N/A
# w (rad)          =  N/A
# T_peri           =  N/A
######################################################
   0  1217.756
   1  1156.025
   2  973.7811
   3  793.311
   4  759.7835
   5  718.2877
   6  670.3721
   7  611.8043
   8  622.4317
   9  618.0805
  10  594.7267
  11  711.8096
  12  630.9698
  13  639.3086
  14  633.6479
  15  623.7264
  16  615.1277
  17  565.0076
  18  615.7958
  19  517.7527
  20  459.2187
  21  523.0297
  22  515.6171
  23  484.7647
  24  436.6496
  25  383.2456
  26  482.3206
  27  414.5268
  28  449.1583
  29  333.4431
  30  347.7267
  31  389.7894
  32  412.4889
  33  521.5464
  34  412.8536
  35  299.1972
  36  421.2181
  37  410.0486
  38  430.9548
  39  510.5038
  40  533.5688
  41  551.0051
  42  529.468
  43  555.8152
  44  581.9438
  45  485.0535
  46  487.8522
  47  588.3666
  48  622.6862
  49  595.8261
  50  572.5253
  51  583.514
  52  758.6875
  53  782.4653
  54  702.4506
  55  675.2957
  56  680.8071
  57  714.2302
  58  600.2498
  59  686.4857
  60  730.4616
  61  746.8525
  62  783.9465
  63  792.5551
  64  757.852
  65  675.7023
  66  668.5364
  67  807.8489
  68  800.213
  69  741.4182
  70  741.572
  71  579.5952
  72  600.2195
  73  606.3982
  74  640.317
  75  660.6891
  76  615.9265
  77  609.7303
  78  534.7462
  79  484.9067
  80  533.7962
  81  611.8209
  82  669.3966
  83  631.7208
  84  602.5581
  85  655.64
  86  623.28
  87  571.5118
  88  617.3459
  89  631.1565
  90  604.0899
  91  620.7158
  92  588.6434
  93  567.3215
  94  559.0992
  95  543.8126
  96  484.4188
  97  538.3955
  98  520.6847
  99  620.0845
 100  642.0901
 101  669.0489
 102  625.662
 103  588.7026
 104  633.588
 105  526.6956
 106  562.1757
 107  542.2601
 108  560.5558
 109  602.304
 110  561.285
 111  419.48
 112  425.7313
 113  528.3533
 114  600.9975
 115  533.9846
 116  513.2583
 117  619.9887
 118  612.1199
 119  594.7516
 120  597.4968
 121  576.4369
 122  595.0594
 123  598.1581
 124  645.9918
 125  622.2899
 126  620.2647
 127  601.0938
 128  672.7659
 129  605.1246
 130  654.0271
 131  704.9533
 132  689.5823
 133  667.5305
 134  633.0632
 135  620.5939
 136  686.3698
 137  684.5859
 138  630.7126
 139  668.8608
 140  647.186
 141  616.3802
 142  607.0754
 143  646.1031
 144  574.0866
 145  536.4628
 146  641.938
 147  676.1829
 148  677.4111
 149  583.6807
 150  578.804
 151  544.3724
 152  555.6428
 153  576.2454
 154  562.6959
 155  557.1301
 156  680.9042
 157  544.3791
 158  580.3721
 159  617.9106
 160  646.1229
 161  618.507
 162  564.0901
 163  620.6044
 164  628.7357
 165  605.7893
 166  494.2727
 167  491.9129
 168  604.2104
 169  609.0602
 170  562.2892
 171  633.2635
 172  567.778
 173  499.8078
 174  609.7286
 175  592.5609
 176  594.9821
 177  567.463
 178  567.0956
 179  554.5907
 180  615.4434
 181  587.1705
 182  615.9946
 183  614.4522
 184  590.632
 185  615.5717
 186  670.2108
 187  647.3743
 188  708.3786
 189  720.5104
 190  650.0046
 191  603.4039
 192  636.8113
 193  690.7468
 194  709.7059
 195  686.8345
 196  756.335
 197  707.9772
 198  672.1573
 199  732.2029
 200  766.3973
 201  755.6957
 202  802.8533
 203  763.9285
 204  753.118
 205  776.3788
 206  797.296
 207  669.8149
 208  615.0508
 209  703.5109
 210  721.9877
 211  651.043
 212  666.1826
 213  652.0677
 214  607.0403
 215  665.4261
 216  679.3256
 217  708.0984
 218  728.4846
 219  715.5065
 220  660.8431
 221  683.4352
 222  731.9729
 223  684.5326
 224  584.666
 225  590.5459
 226  646.629
 227  643.5663
 228  658.6855
 229  643.8292
 230  691.9197
 231  694.3539
 232  611.3333
 233  605.036
 234  642.1467
 235  641.9124
 236  653.8918
 237  604.5112
 238  661.7731
 239  637.6432
 240  590.1052
 241  590.5665
 242  603.9554
 243  525.2479
 244  553.6123
 245  461.1332
 246  548.0665
 247  610.1473
 248  615.7975
 249  607.4411
 250  576.8998
 251  553.9683
 252  605.5959
 253  683.9385
 254  688.67
 255  691.6536
 256  644.4852
 257  621.5699
 258  564.8779
 259  573.634
 260  606.9667
 261  573.345
 262  583.1744
 263  624.7168
 264  661.5643
 265  702.6324
 266  728.9141
 267  698.2977
 268  707.3973
 269  662.5201
 270  648.8901
 271  795.7999
 272  783.7859
 273  781.5668
 274  840.6216
 275  804.8017
 276  860.7995
 277  821.1122
 278  832.8989
 279  796.4184
 280  802.1307
 281  777.3026
 282  781.6108
 283  759.9029
 284  740.9819
 285  696.9268
 286  690.5458
 287  826.5208
 288  816.5981
 289  721.3555
 290  742.6937
 291  723.6362
 292  600.5504
 293  621.1952
 294  623.5423
 295  753.8662
 296  686.7842
 297  672.1383
 298  667.7997
 299  635.5626
 300  681.9739
 301  637.0239
 302  623.0144
 303  768.9191
 304  738.1492
 305  730.6872
 306  563.1483
 307  575.0797
 308  754.2053
 309  700.1575
 310  676.0165
 311  735.4979
 312  696.0076
 313  595.2311
 314  483.636
 315  538.1031
 316  601.9685
 317  546.8046
 318  567.7558
 319  568.2285
 320  581.6585
 321  531.2663
 322  470.6466
 323  544.2203
 324  619.8796
 325  544.7902
 326  416.6094
 327  459.3923
 328  542.9558
 329  528.7593
 330  508.5306
 331  473.5084
 332  608.5354
 333  556.6169
 334  494.5995
 335  415.6567
 336  441.9026
 337  494.7848
 338  588.3393
 339  644.5113
 340  662.9541
 341  708.7849
 342  668.8262
 343  633.0563
 344  675.5698
 345  615.3857
 346  659.5551
 347  709.7584
 348  678.824
 349  681.7391
 350  634.0383
 351  618.6829
 352  743.3818
 353  668.8457
 354  695.8364
 355  692.5573
 356  653.7108
 357  673.9657
 358  663.7189
 359  677.848
 360  586.0213
 361  632.7736
 362  681.9158
 363  661.2427
 364  604.1024
 365  559.5413
 366  539.2028
 367  562.0516
 368  551.114
 369  571.7781
 370  601.0322
 371  600.3729
 372  580.1272
 373  556.9711
 374  568.8422
 375  531.0223
 376  587.753
 377  603.0364
 378  517.9836
 379  572.5592
 380  660.9984
 381  662.0308
 382  618.8433
 383  521.0988
 384  500.3369
 385  565.9362
 386  534.0958
 387  573.5011
 388  689.4842
 389  590.4611
 390  499.9171
 391  437.7769
 392  493.9276
 393  492.6498
 394  466.8271
 395  570.9083
 396  525.5579
 397  510.1386
 398  563.4292
 399  576.4669
 400  482.896
 401  505.8482
 402  580.7571
 403  578.286
 404  532.5889
 405  521.1328
 406  552.825
 407  650.6671
 408  599.0462
 409  576.3936
 410  616.2874
 411  598.3601
 412  605.7611
 413  631.0019
 414  611.8099
 415  662.5385
 416  679.5114
 417  635.7942
 418  631.2948
 419  698.9739
 420  706.8633
 421  665.4804
 422  615.3159
 423  650.9959
 424  521.6788
 425  592.9468
 426  576.5665
 427  611.2552
 428  647.4478
 429  609.5125
 430  639.4503
 431  655.8419
 432  511.0065
 433  443.7331
 434  497.2651
 435  543.0399
 436  541.5594
 437  653.8922
 438  605.4184
 439  521.2828
 440  529.9351
 441  609.7865
 442  568.037
 443  528.6808
 444  531.0844
 445  551.2272
 446  475.3519
 447  479.9654
 448  460.5478
 449  520.1265
 450  430.291
 451  423.833
 452  523.3636
 453  452.3203
 454  366.8551
 455  372.7909
 456  365.1198
 457  475.2222
 458  490.7285
 459  488.8077
 460  396.7442
 461  372.5967
 462  366.905
 463  439.1005
 464  426.5485
 465  382.7849
 466  369.0625
 467  408.3527
 468  382.0553
 469  315.4887
 470  292.3152
 471  424.5826
 472  469.2342
 473  496.4153
 474  489.081
 475  494.12
 476  537.9346
 477  533.6389
 478  439.9066
 479  429.74
 480  497.0882
 481  449.516
 482  422.59
 483  524.7064
 484  582.1682
 485  603.412
 486  543.4196
 487  578.7836
 488  610.3326
 489  587.5036
 490  616.1134
 491  637.405
 492  650.783
 493  617.7806
 494  590.4452
 495  592.9457
 496  568.915
 497  599.5394
 498  599.4989
 499  629.2646
 500  650.3524
 501  672.1436
 502  701.5347
 503  637.946
 504  714.2573
 505  757.4792
 506  786.6626
 507  751.0114
 508  822.2433
 509  776.192
 510  927.5197
 511  1078.44
