# Input file       =  1208786440.114979_cleaned.dat
# Candidate        =  PSR_0332+5434
# Telescope        =  AR
# Epoch_topo       =  58234.583589293739
# Epoch_bary       =  N/A
# T_sample         =  0.002
# Data Folded      =  7340032
# Data Avg         =  0.0391816862595282
# Data StdDev      =  1.0000784848899  
# Profile Bins     =  512
# Profile Avg      =  561.741863861129 
# Profile StdDev   =  119.742433610943 
# Reduced chi-sqr  =  1.472
# Prob(Noise)      <  1.73e-11   (~6.6 sigma)
# P_topo (ms)      =  714.550978374756  +/- 0.000252
# P'_topo (s/s)    =  -0                +/- 1.33e-10
# P''_topo (s/s^2) =  0                 +/- 5.87e-14
# P_bary (ms)      =  N/A
# P'_bary (s/s)    =  N/A
# P''_bary (s/s^2) =  N/A
# P_orb (s)        =  N/A
# asin(i)/c (s)    =  N/A
# eccentricity     =  N/A
# w (rad)          =  N/A
# T_peri           =  N/A
######################################################
   0  1227.224
   1  1289.026
   2  1146.615
   3  867.2871
   4  670.6885
   5  576.2444
   6  485.0861
   7  544.8292
   8  600.2732
   9  390.9922
  10  423.1355
  11  552.2064
  12  556.8458
  13  657.0342
  14  652.8256
  15  577.8451
  16  566.9446
  17  591.4647
  18  528.2701
  19  577.7682
  20  558.0651
  21  436.8666
  22  464.641
  23  517.2797
  24  594.2006
  25  594.761
  26  586.4361
  27  520.7056
  28  513.7686
  29  511.038
  30  556.2058
  31  652.2034
  32  655.5963
  33  618.2119
  34  556.3288
  35  618.2531
  36  536.7806
  37  601.9737
  38  630.5555
  39  582.514
  40  625.8317
  41  705.2538
  42  737.2719
  43  645.9094
  44  600.7106
  45  523.7804
  46  582.7593
  47  571.6364
  48  646.8074
  49  695.5633
  50  564.3778
  51  531.3021
  52  477.0455
  53  512.577
  54  636.5894
  55  580.6188
  56  541.5547
  57  618.4978
  58  636.9933
  59  623.4271
  60  462.368
  61  510.5471
  62  565.2329
  63  588.1943
  64  619.1689
  65  504.0984
  66  480.9655
  67  521.9465
  68  582.1579
  69  605.4625
  70  626.2519
  71  630.2452
  72  508.6311
  73  507.4393
  74  645.0781
  75  635.8907
  76  571.8184
  77  733.4349
  78  679.6796
  79  675.7056
  80  703.778
  81  568.1171
  82  545.655
  83  555.2516
  84  546.5264
  85  562.08
  86  521.3101
  87  481.978
  88  519.1141
  89  547.4819
  90  611.1527
  91  520.1887
  92  664.6768
  93  693.7328
  94  581.2047
  95  629.3607
  96  673.3019
  97  580.5811
  98  564.6891
  99  647.6539
 100  587.2337
 101  600.3731
 102  572.2085
 103  518.4555
 104  492.1424
 105  595.0451
 106  514.0502
 107  439.8917
 108  573.5503
 109  536.6583
 110  484.6826
 111  706.7599
 112  629.0133
 113  537.666
 114  628.3375
 115  743.3457
 116  626.3329
 117  560.7312
 118  552.9559
 119  548.2383
 120  561.9276
 121  583.4369
 122  565.6414
 123  579.4119
 124  491.0078
 125  468.0934
 126  432.4886
 127  444.1972
 128  591.5275
 129  552.3358
 130  556.2477
 131  574.6104
 132  629.7126
 133  551.7985
 134  429.6311
 135  455.5717
 136  510.1992
 137  592.181
 138  501.8141
 139  476.8998
 140  466.666
 141  496.085
 142  501.6928
 143  432.3474
 144  536.7229
 145  526.9294
 146  549.726
 147  506.534
 148  591.956
 149  593.7488
 150  547.7538
 151  588.498
 152  468.8371
 153  566.6143
 154  594.3093
 155  472.7634
 156  357.752
 157  545.1798
 158  675.2303
 159  633.5202
 160  516.0421
 161  572.9391
 162  673.234
 163  599.8639
 164  493.4315
 165  626.4258
 166  681.3936
 167  647.0754
 168  548.0391
 169  548.2211
 170  553.2226
 171  583.0259
 172  551.5248
 173  471.8075
 174  536.8043
 175  586.5166
 176  622.7031
 177  569.6422
 178  603.9293
 179  554.4278
 180  514.5144
 181  453.1222
 182  449.2246
 183  437.8009
 184  431.3145
 185  399.7481
 186  402.4418
 187  547.1
 188  542.6785
 189  594.5949
 190  576.8898
 191  606.5705
 192  602.6001
 193  545.1715
 194  484.0494
 195  634.9009
 196  649.5511
 197  586.625
 198  576.2523
 199  504.1232
 200  513.6083
 201  538.858
 202  587.0969
 203  658.2112
 204  573.4921
 205  643.0355
 206  696.7109
 207  550.402
 208  607.951
 209  484.696
 210  522.8735
 211  493.8911
 212  486.3122
 213  547.6438
 214  705.0824
 215  527.4223
 216  546.2794
 217  515.2012
 218  619.8945
 219  728.0029
 220  689.5657
 221  616.623
 222  683.5397
 223  470.0707
 224  504.0078
 225  596.2812
 226  560.8333
 227  454.8103
 228  537.846
 229  609.9135
 230  619.4244
 231  566.3369
 232  604.1768
 233  624.5972
 234  597.4361
 235  615.4473
 236  712.1589
 237  760.1569
 238  664.0226
 239  703.1132
 240  771.7419
 241  695.0495
 242  654.389
 243  595.2679
 244  582.2483
 245  530.0376
 246  595.7251
 247  645.4645
 248  655.3173
 249  648.0863
 250  679.7236
 251  624.7416
 252  625.4922
 253  669.7518
 254  641.0851
 255  678.5338
 256  646.1624
 257  557.3328
 258  479.4121
 259  581.5577
 260  559.3745
 261  412.6583
 262  483.9067
 263  570.5608
 264  577.1766
 265  520.6655
 266  553.3008
 267  658.1137
 268  560.2495
 269  622.1747
 270  618.8901
 271  650.7399
 272  486.0249
 273  635.5234
 274  543.5221
 275  482.2318
 276  514.7584
 277  570.2054
 278  550.0907
 279  386.3711
 280  390.4659
 281  484.3178
 282  418.243
 283  432.9089
 284  538.187
 285  521.4443
 286  513.6431
 287  486.8646
 288  466.7406
 289  501.7663
 290  504.6834
 291  474.8243
 292  559.2186
 293  632.9736
 294  535.7037
 295  539.8281
 296  585.4792
 297  544.4681
 298  455.1378
 299  535.0251
 300  536.5254
 301  540.3058
 302  506.2975
 303  477.7488
 304  519.8079
 305  569.1304
 306  685.7606
 307  691.1621
 308  645.2148
 309  627.832
 310  660.3558
 311  589.7897
 312  518.9875
 313  492.5182
 314  467.8695
 315  512.5919
 316  536.2855
 317  533.1155
 318  427.3539
 319  548.011
 320  648.2915
 321  674.3457
 322  593.6608
 323  578.8264
 324  476.4843
 325  460.0104
 326  535.1225
 327  522.4965
 328  519.148
 329  391.8685
 330  485.8378
 331  560.2933
 332  512.6323
 333  477.2014
 334  481.4414
 335  542.6179
 336  463.9758
 337  423.2269
 338  387.9755
 339  343.7031
 340  431.8669
 341  558.6289
 342  594.1566
 343  534.6901
 344  513.3127
 345  458.255
 346  409.3286
 347  379.8166
 348  468.2851
 349  489.6794
 350  474.1031
 351  553.5128
 352  569.8721
 353  528.4128
 354  621.2697
 355  557.4836
 356  511.0905
 357  477.4994
 358  446.1492
 359  487.191
 360  491.7655
 361  468.5985
 362  389.7844
 363  482.9468
 364  507.1409
 365  467.3707
 366  420.4515
 367  530.7009
 368  434.7696
 369  343.2982
 370  390.4926
 371  469.0374
 372  362.468
 373  279.0579
 374  448.4613
 375  473.281
 376  472.7389
 377  335.1
 378  312.7496
 379  521.3908
 380  430.977
 381  405.6689
 382  513.2878
 383  368.1098
 384  420.4253
 385  552.0177
 386  561.4093
 387  525.1984
 388  577.2424
 389  541.044
 390  526.6262
 391  558.9949
 392  504.8517
 393  504.2802
 394  544.5295
 395  558.7138
 396  553.1299
 397  606.1745
 398  556.0361
 399  550.7702
 400  397.3154
 401  340.6922
 402  385.0688
 403  481.5565
 404  399.8041
 405  282.159
 406  582.0772
 407  604.12
 408  423.5569
 409  440.8876
 410  476.9336
 411  507.3176
 412  451.1996
 413  579.5924
 414  555.7433
 415  452.2734
 416  541.9125
 417  564.7
 418  533.9246
 419  478.0426
 420  534.9415
 421  562.5718
 422  489.0032
 423  488.8205
 424  437.2921
 425  552.6357
 426  546.9953
 427  463.1791
 428  419.2151
 429  442.5205
 430  474.0732
 431  545.3068
 432  543.4235
 433  531.4974
 434  534.3764
 435  532.5624
 436  479.8177
 437  519.2307
 438  557.6134
 439  595.7526
 440  569.7991
 441  518.7845
 442  499.4042
 443  486.2774
 444  558.6396
 445  590.9005
 446  613.3403
 447  586.8833
 448  591.4399
 449  539.3934
 450  533.5428
 451  547.3886
 452  640.39
 453  647.1976
 454  623.7755
 455  716.0778
 456  710.5353
 457  625.1301
 458  571.6266
 459  640.1581
 460  609.9487
 461  561.0309
 462  647.8993
 463  740.4469
 464  657.0491
 465  636.0193
 466  677.468
 467  711.0629
 468  736.2034
 469  568.3065
 470  521.1502
 471  641.6791
 472  847.0111
 473  680.5738
 474  554.6626
 475  550.424
 476  565.4661
 477  624.3741
 478  673.1246
 479  593.6652
 480  604.3425
 481  622.8405
 482  662.954
 483  597.7554
 484  575.5579
 485  529.0605
 486  529.25
 487  619.8472
 488  485.4136
 489  523.0482
 490  606.1697
 491  648.4094
 492  645.3875
 493  584.9034
 494  501.5663
 495  555.0391
 496  710.6635
 497  658.2352
 498  654.2346
 499  721.1016
 500  617.107
 501  483.2837
 502  516.9408
 503  610.2012
 504  628.995
 505  592.6396
 506  682.9048
 507  678.1987
 508  802.3719
 509  973.4142
 510  1010.515
 511  1128.93
