# Input file       =  1208082048.119238_cleaned.dat
# Candidate        =  PSR_0332+5434
# Telescope        =  AR
# Epoch_topo       =  58226.430904157845
# Epoch_bary       =  N/A
# T_sample         =  0.002
# Data Folded      =  7340032
# Data Avg         =  0.0424470206516009
# Data StdDev      =  0.999855107701768
# Profile Bins     =  512
# Profile Avg      =  608.556904163518 
# Profile StdDev   =  119.715687981951 
# Reduced chi-sqr  =  1.579
# Prob(Noise)      <  1.21e-15   (~7.9 sigma)
# P_topo (ms)      =  714.557474600471  +/- 0.00027
# P'_topo (s/s)    =  -0                +/- 1.42e-10
# P''_topo (s/s^2) =  0                 +/- 6.29e-14
# P_bary (ms)      =  N/A
# P'_bary (s/s)    =  N/A
# P''_bary (s/s^2) =  N/A
# P_orb (s)        =  N/A
# asin(i)/c (s)    =  N/A
# eccentricity     =  N/A
# w (rad)          =  N/A
# T_peri           =  N/A
######################################################
   0  1210.032
   1  1051.659
   2  857.8903
   3  767.3829
   4  747.6508
   5  686.2447
   6  635.0947
   7  607.0693
   8  635.4236
   9  587.6275
  10  663.472
  11  686.8215
  12  611.523
  13  646.4213
  14  618.706
  15  641.3713
  16  574.7222
  17  591.8205
  18  588.7446
  19  446.6969
  20  506.2769
  21  514.131
  22  506.1631
  23  463.4803
  24  389.5646
  25  449.1412
  26  451.1019
  27  430.922
  28  392.796
  29  309.4978
  30  397.3619
  31  381.9643
  32  481.5901
  33  489.8237
  34  307.4989
  35  376.3354
  36  421.5162
  37  419.5208
  38  466.3513
  39  534.0977
  40  545.0981
  41  534.1518
  42  544.1847
  43  577.6813
  44  544.6518
  45  457.2604
  46  546.2628
  47  618.5035
  48  606.6324
  49  585.6185
  50  549.9683
  51  688.9892
  52  796.2056
  53  738.6696
  54  674.193
  55  676.9841
  56  714.2084
  57  638.3875
  58  632.8054
  59  726.2175
  60  744.1045
  61  760.3212
  62  792.7587
  63  771.1997
  64  729.9964
  65  639.3855
  66  758.8848
  67  821.3954
  68  756.178
  69  750.0579
  70  659.418
  71  551.2319
  72  628.6262
  73  612.3759
  74  658.1163
  75  650.4163
  76  591.4105
  77  598.6948
  78  473.3693
  79  524.9139
  80  560.42
  81  658.429
  82  659.3931
  83  598.0706
  84  646.2086
  85  640.4295
  86  589.2991
  87  578.3746
  88  655.1741
  89  594.0968
  90  628.9236
  91  589.6724
  92  577.6905
  93  560.0558
  94  568.6615
  95  496.2782
  96  518.0743
  97  529.2925
  98  564.4763
  99  641.1176
 100  652.7609
 101  656.1614
 102  593.7128
 103  616.5562
 104  582.6379
 105  537.2448
 106  559.9171
 107  539.4083
 108  582.843
 109  600.1357
 110  478.8305
 111  402.6306
 112  473.0025
 113  591.4374
 114  565.0933
 115  516.4709
 116  565.6805
 117  640.8927
 118  582.948
 119  610.024
 120  574.1792
 121  593.0093
 122  581.7399
 123  641.6942
 124  623.2004
 125  629.0813
 126  597.4841
 127  643.2796
 128  651.2086
 129  606.9848
 130  708.8461
 131  685.5294
 132  676.9395
 133  662.3924
 134  611.5065
 135  661.4351
 136  697.1269
 137  641.1009
 138  652.886
 139  657.2686
 140  626.2014
 141  604.345
 142  633.0425
 143  624.7306
 144  538.7326
 145  588.0809
 146  674.6055
 147  675.3685
 148  617.2137
 149  577.139
 150  563.5945
 151  546.2635
 152  578.3402
 153  570.3163
 154  546.0922
 155  634.8846
 156  616.3413
 157  535.8781
 158  615.7249
 159  631.5215
 160  647.4786
 161  579.0613
 162  590.0959
 163  626.1439
 164  639.1531
 165  528.5043
 166  488.9926
 167  537.5442
 168  640.2943
 169  547.9213
 170  617.9692
 171  614.2634
 172  516.4413
 173  547.0083
 174  610.3647
 175  594.165
 176  575.1932
 177  564.3586
 178  551.4388
 179  597.9064
 180  613.1823
 181  592.6802
 182  626.0332
 183  596.8351
 184  593.5885
 185  651.9513
 186  660.7642
 187  671.3458
 188  720.2821
 189  695.9332
 190  606.0118
 191  631.7123
 192  647.4196
 193  722.7146
 194  675.413
 195  738.0094
 196  738.7538
 197  668.2456
 198  707.949
 199  761.355
 200  765.2376
 201  779.1184
 202  791.0549
 203  745.0081
 204  763.7679
 205  798.4455
 206  736.741
 207  617.4633
 208  653.144
 209  741.942
 210  675.8416
 211  661.7842
 212  656.5099
 213  625.4904
 214  625.5585
 215  689.9705
 216  683.2783
 217  721.6254
 218  731.6462
 219  679.142
 220  664.2737
 221  719.2288
 222  710.4461
 223  626.1979
 224  578.6331
 225  625.392
 226  640.2297
 227  665.1511
 228  641.5863
 229  660.8734
 230  709.3792
 231  644.3979
 232  602.1467
 233  627.7188
 234  641.4929
 235  658.4764
 236  620.9794
 237  623.4036
 238  677.0223
 239  584.1312
 240  596.5403
 241  592.9587
 242  570.3969
 243  550.5309
 244  496.4626
 245  495.8705
 246  601.3091
 247  604.2337
 248  622.0776
 249  581.1104
 250  570.2408
 251  565.8168
 252  663.4434
 253  679.4565
 254  700.0992
 255  665.1899
 256  635.3618
 257  601.4532
 258  545.417
 259  602.8156
 260  569.2239
 261  582.0052
 262  609.8309
 263  649.6209
 264  688.7068
 265  716.321
 266  708.6284
 267  695.413
 268  700.0901
 269  630.9868
 270  729.6088
 271  815.4738
 272  749.0608
 273  841.0139
 274  804.1951
 275  846.2211
 276  850.9634
 277  814.984
 278  824.2109
 279  776.061
 280  817.9402
 281  755.6092
 282  786.9374
 283  738.3914
 284  723.0569
 285  671.3446
 286  766.0821
 287  854.5804
 288  759.7983
 289  709.5707
 290  755.8318
 291  630.3156
 292  622.0746
 293  604.7519
 294  713.3638
 295  721.1758
 296  678.4265
 297  670.9349
 298  650.6002
 299  655.9127
 300  689.025
 301  591.1723
 302  709.4493
 303  762.1207
 304  746.8069
 305  635.6691
 306  536.2924
 307  676.4168
 308  758.395
 309  661.9413
 310  705.4635
 311  731.1785
 312  639.3129
 313  523.6892
 314  493.2282
 315  585.7719
 316  571.9626
 317  552.7205
 318  585.6987
 319  576.5983
 320  556.9212
 321  479.3618
 322  495.178
 323  601.5052
 324  613.8107
 325  447.8738
 326  428.5187
 327  504.3471
 328  547.0823
 329  529.6038
 330  467.9877
 331  553.9106
 332  587.4547
 333  533.8022
 334  437.0235
 335  434.299
 336  449.6828
 337  541.0126
 338  631.8843
 339  653.5801
 340  697.9905
 341  699.7572
 342  637.621
 343  650.2555
 344  651.6786
 345  610.1074
 346  718.3741
 347  675.6614
 348  688.4056
 349  657.1758
 350  611.2352
 351  693.9177
 352  709.8781
 353  681.476
 354  704.9687
 355  668.6757
 356  660.4188
 357  678.6812
 358  674.8568
 359  631.0171
 360  577.8964
 361  674.9759
 362  683.7704
 363  620.8745
 364  592.8335
 365  531.3531
 366  552.6238
 367  563.9905
 368  550.1074
 369  599.4614
 370  590.1129
 371  589.455
 372  565.5833
 373  568.7759
 374  555.5969
 375  548.0723
 376  616.3364
 377  545.4
 378  529.5848
 379  633.558
 380  662.429
 381  649.6732
 382  567.5849
 383  502.4865
 384  535.6384
 385  555.5571
 386  520.7722
 387  657.3617
 388  657.0809
 389  537.0106
 390  457.3232
 391  458.5989
 392  508.6333
 393  463.1126
 394  521.3141
 395  571.2869
 396  492.9391
 397  549.3143
 398  576.2124
 399  523.3356
 400  482.5674
 401  548.1404
 402  598.7137
 403  548.9119
 404  515.3898
 405  539.4183
 406  591.8244
 407  655.2342
 408  544.6223
 409  632.6719
 410  600.973
 411  593.827
 412  625.9233
 413  613.2368
 414  640.5482
 415  665.5892
 416  672.763
 417  616.7286
 418  677.9321
 419  704.2084
 420  685.6629
 421  619.4606
 422  658.47
 423  571.6071
 424  559.4733
 425  585.9039
 426  590.0114
 427  634.6486
 428  631.647
 429  614.867
 430  667.8088
 431  589.3251
 432  449.3963
 433  470.471
 434  526.019
 435  538.449
 436  584.0197
 437  662.07
 438  542.9186
 439  526.723
 440  566.8286
 441  604.8541
 442  536.7628
 443  528.4741
 444  552.0471
 445  511.8123
 446  463.8217
 447  477.1829
 448  485.9811
 449  485.8063
 450  400.9878
 451  488.2752
 452  500.782
 453  394.1441
 454  365.6468
 455  367.2797
 456  417.4891
 457  495.5993
 458  499.6649
 459  438.9525
 460  368.215
 461  376.475
 462  391.4696
 463  462.7482
 464  381.59
 465  378.3428
 466  380.6643
 467  407.736
 468  347.9589
 469  287.4895
 470  367.4125
 471  467.768
 472  472.6755
 473  503.3926
 474  486.2439
 475  508.0348
 476  554.147
 477  476.3496
 478  421.9806
 479  477.6338
 480  472.7112
 481  422.8661
 482  463.5919
 483  579.5887
 484  598.764
 485  581.323
 486  535.1049
 487  613.3337
 488  590.288
 489  591.6894
 490  641.044
 491  639.3925
 492  647.0016
 493  587.2204
 494  603.0457
 495  564.7479
 496  603.0108
 497  586.9507
 498  624.8696
 499  629.6997
 500  663.2303
 501  697.8774
 502  670.843
 503  658.476
 504  745.7052
 505  775.7578
 506  767.8042
 507  789.8817
 508  797.34
 509  835.2735
 510  1021.816
 511  1172.671
