# Input file       =  1208584535.106913_cleaned.dat
# Candidate        =  PSR_0332+5434
# Telescope        =  AR
# Epoch_topo       =  58232.246725774457
# Epoch_bary       =  N/A
# T_sample         =  0.002
# Data Folded      =  7143424
# Data Avg         =  0.046800175536668
# Data StdDev      =  1.00002143611501 
# Profile Bins     =  512
# Profile Avg      =  652.928934539291 
# Profile StdDev   =  118.121116485429 
# Reduced chi-sqr  =  2.118
# Prob(Noise)      <  3.46e-43   (~13.7 sigma)
# P_topo (ms)      =  714.552626345811  +/- 0.00012
# P'_topo (s/s)    =  -0                +/- 6.49e-11
# P''_topo (s/s^2) =  0                 +/- 2.94e-14
# P_bary (ms)      =  N/A
# P'_bary (s/s)    =  N/A
# P''_bary (s/s^2) =  N/A
# P_orb (s)        =  N/A
# asin(i)/c (s)    =  N/A
# eccentricity     =  N/A
# w (rad)          =  N/A
# T_peri           =  N/A
######################################################
   0  1515.216
   1  1492.136
   2  1329.768
   3  1046.145
   4  887.8437
   5  802.8253
   6  673.5293
   7  805.5172
   8  674.7202
   9  586.4822
  10  667.1884
  11  645.2393
  12  742.1395
  13  777.2753
  14  860.1897
  15  774.1107
  16  681.6949
  17  699.7809
  18  687.8762
  19  579.7227
  20  700.4903
  21  780.02
  22  785.2739
  23  789.5867
  24  649.965
  25  661.3492
  26  715.0477
  27  573.1772
  28  538.0366
  29  646.1321
  30  761.7787
  31  708.5717
  32  648.9377
  33  614.7272
  34  503.0073
  35  458.2977
  36  580.1499
  37  600.1415
  38  615.0516
  39  699.4537
  40  700.9344
  41  661.4768
  42  587.5831
  43  605.0507
  44  583.9626
  45  661.6824
  46  666.0889
  47  687.1277
  48  670.7977
  49  617.3878
  50  576.1361
  51  624.3994
  52  547.5146
  53  571.7499
  54  614.117
  55  589.7565
  56  703.3052
  57  631.3597
  58  470.33
  59  572.7231
  60  613.8298
  61  462.1074
  62  611.6175
  63  632.556
  64  619.5012
  65  569.2778
  66  535.0197
  67  597.368
  68  539.1775
  69  553.2857
  70  602.4529
  71  566.6379
  72  571.2896
  73  585.7307
  74  467.0731
  75  545.2479
  76  717.9692
  77  763.3668
  78  550.809
  79  655.071
  80  637.6846
  81  645.9943
  82  427.6999
  83  508.7252
  84  678.6931
  85  669.9922
  86  735.6203
  87  785.9917
  88  744.3085
  89  786.3489
  90  736.7722
  91  537.911
  92  510.1514
  93  598.8414
  94  579.8295
  95  550.89
  96  632.1954
  97  694.5591
  98  546.832
  99  446.9059
 100  616.4572
 101  571.654
 102  571.6709
 103  623.6666
 104  686.3041
 105  753.4539
 106  696.0334
 107  666.3318
 108  616.7558
 109  637.2349
 110  552.7892
 111  519.5201
 112  662.5045
 113  687.0909
 114  622.3487
 115  663.7172
 116  662.8139
 117  669.8943
 118  755.7007
 119  678.5305
 120  566.5296
 121  670.438
 122  615.0291
 123  626.0432
 124  607.7275
 125  688.0673
 126  554.6602
 127  518.0593
 128  697.8529
 129  722.8808
 130  632.9295
 131  603.7997
 132  526.295
 133  635.2224
 134  710.313
 135  690.4813
 136  650.1248
 137  762.2704
 138  703.7152
 139  621.085
 140  540.0783
 141  512.4326
 142  503.0659
 143  489.2084
 144  634.5112
 145  724.0667
 146  727.863
 147  681.7925
 148  791.423
 149  762.4266
 150  718.4116
 151  670.3209
 152  798.343
 153  897.3734
 154  832.4289
 155  750.3774
 156  693.6387
 157  651.2064
 158  651.8273
 159  635.4405
 160  697.197
 161  635.6617
 162  907.0848
 163  860.7481
 164  618.9749
 165  619.4188
 166  646.978
 167  675.5031
 168  728.2261
 169  778.5931
 170  963.0409
 171  959.3784
 172  778.1425
 173  727.7477
 174  706.688
 175  736.8115
 176  749.3751
 177  849.164
 178  902.0825
 179  901.5802
 180  903.0635
 181  844.8741
 182  768.6754
 183  742.0099
 184  780.5817
 185  748.431
 186  833.3992
 187  911.4614
 188  863.3289
 189  821.1931
 190  766.8058
 191  792.533
 192  718.5966
 193  652.0554
 194  678.6922
 195  656.9358
 196  559.11
 197  587.1327
 198  635.3355
 199  684.8795
 200  688.4269
 201  717.4602
 202  823.6038
 203  757.5883
 204  645.671
 205  680.1639
 206  633.0038
 207  632.5602
 208  676.1163
 209  768.119
 210  785.5031
 211  644.4916
 212  650.0663
 213  673.4034
 214  674.8579
 215  692.6584
 216  559.4606
 217  621.7881
 218  636.4813
 219  706.6364
 220  691.6169
 221  617.3607
 222  643.3056
 223  670.7307
 224  702.3572
 225  725.4858
 226  530.518
 227  501.2563
 228  596.7
 229  676.6401
 230  621.877
 231  636.0755
 232  639.5494
 233  616.9369
 234  698.3102
 235  651.389
 236  557.9429
 237  577.2651
 238  589.9633
 239  519.4801
 240  544.8798
 241  445.5927
 242  496.5785
 243  503.2703
 244  509.233
 245  580.773
 246  562.9589
 247  624.9417
 248  568.3246
 249  682.044
 250  696.895
 251  591.7923
 252  615.7721
 253  695.9652
 254  668.7491
 255  575.4103
 256  584.0598
 257  638.8384
 258  709.2612
 259  687.0613
 260  577.2369
 261  641.522
 262  715.0876
 263  555.6802
 264  495.651
 265  556.9439
 266  590.8411
 267  642.0886
 268  586.5266
 269  710.9799
 270  736.9001
 271  603.3601
 272  502.4791
 273  488.4442
 274  565.0062
 275  503.4301
 276  576.8347
 277  775.7142
 278  772.0765
 279  589.4269
 280  659.1226
 281  621.2514
 282  476.05
 283  704.0004
 284  675.0579
 285  624.8697
 286  661.4414
 287  604.7009
 288  479.5862
 289  437.5238
 290  516.1725
 291  638.0686
 292  598.7266
 293  604.7001
 294  564.6485
 295  602.9796
 296  672.1288
 297  646.0339
 298  560.2666
 299  543.2944
 300  565.1679
 301  651.8052
 302  675.5161
 303  658.7249
 304  587.4118
 305  625.7264
 306  558.0698
 307  641.6083
 308  591.5807
 309  560.665
 310  614.2661
 311  631.9071
 312  552.5841
 313  421.1902
 314  623.6101
 315  725.8933
 316  735.9066
 317  776.2677
 318  776.6576
 319  778.5323
 320  808.4271
 321  738.4641
 322  506.4026
 323  644.0547
 324  600.5895
 325  536.6234
 326  614.3752
 327  784.2944
 328  798.7756
 329  750.2819
 330  757.9678
 331  591.6146
 332  600.2948
 333  681.1637
 334  679.7747
 335  603.9531
 336  665.9796
 337  728.1219
 338  633.9796
 339  579.953
 340  667.8254
 341  552.2708
 342  630.0221
 343  545.0908
 344  711.8746
 345  804.4832
 346  619.6398
 347  673.8991
 348  615.2225
 349  623.6321
 350  702.9886
 351  735.7058
 352  731.7308
 353  766.2944
 354  724.1679
 355  790.9362
 356  783.8846
 357  726.4179
 358  614.7722
 359  592.341
 360  713.6065
 361  763.2789
 362  791.6412
 363  764.7584
 364  677.1061
 365  677.6123
 366  667.7682
 367  684.1506
 368  659.368
 369  663.0323
 370  650.2418
 371  537.9176
 372  614.4989
 373  669.2794
 374  568.1751
 375  613.2073
 376  679.6639
 377  657.3774
 378  584.0312
 379  679.9599
 380  642.0812
 381  776.6074
 382  591.2072
 383  655.5074
 384  725.027
 385  694.9333
 386  685.6401
 387  672.1451
 388  722.603
 389  627.7853
 390  524.8768
 391  571.1937
 392  567.0162
 393  513.2852
 394  604.1765
 395  645.0107
 396  512.8818
 397  437.4286
 398  467.5759
 399  548.7117
 400  615.5837
 401  532.9421
 402  705.6807
 403  700.1327
 404  503.9974
 405  593.5033
 406  654.5799
 407  727.9437
 408  574.9124
 409  596.1801
 410  686.6702
 411  679.361
 412  575.0084
 413  545.7287
 414  611.2496
 415  633.8411
 416  709.1231
 417  720.5934
 418  809.1757
 419  803.5424
 420  756.2844
 421  629.4886
 422  525.4153
 423  582.2223
 424  560.4884
 425  567.6358
 426  666.4943
 427  665.8781
 428  508.0992
 429  515.093
 430  685.0092
 431  674.0642
 432  620.0588
 433  627.3596
 434  701.2147
 435  665.8072
 436  631.9521
 437  680.8264
 438  687.9304
 439  722.5532
 440  688.3046
 441  659.3441
 442  766.0721
 443  703.1738
 444  554.343
 445  602.8812
 446  661.5767
 447  583.7475
 448  675.3032
 449  640.4842
 450  672.9882
 451  637.1342
 452  661.5977
 453  629.4418
 454  593.207
 455  590.55
 456  519.1531
 457  494.3546
 458  503.2315
 459  673.5604
 460  747.9077
 461  553.1874
 462  557.6302
 463  580.6176
 464  470.4464
 465  484.9924
 466  640.001
 467  691.3757
 468  694.0335
 469  636.7959
 470  548.4176
 471  481.8293
 472  554.6801
 473  620.8203
 474  495.9897
 475  574.1393
 476  596.184
 477  463.4161
 478  431.609
 479  423.1349
 480  515.0951
 481  404.3746
 482  472.5801
 483  628.8565
 484  645.2593
 485  514.9893
 486  381.2143
 487  379.8134
 488  496.8104
 489  586.5593
 490  591.1597
 491  564.0615
 492  636.4899
 493  658.981
 494  647.118
 495  565.4491
 496  557.0852
 497  531.6595
 498  568.3859
 499  619.3408
 500  679.7928
 501  713.7136
 502  658.6547
 503  675.1558
 504  738.932
 505  718.6688
 506  627.7991
 507  770.751
 508  845.7772
 509  1085.391
 510  1341.069
 511  1408.376
