# Input file       =  1208843057.118752_cleaned.dat
# Candidate        =  PSR_0332+5434
# Telescope        =  AR
# Epoch_topo       =  58235.238878689262
# Epoch_bary       =  N/A
# T_sample         =  0.002
# Data Folded      =  7208960
# Data Avg         =  0.0578155346266429
# Data StdDev      =  1.00039667639609 
# Profile Bins     =  512
# Profile Avg      =  814.041756884505 
# Profile StdDev   =  118.706245087747 
# Reduced chi-sqr  =  1.323
# Prob(Noise)      <  1.22e-06   (~4.7 sigma)
# P_topo (ms)      =  714.550043400249  +/- 0.000204
# P'_topo (s/s)    =  -0                +/- 1.1e-10
# P''_topo (s/s^2) =  0                 +/- 4.93e-14
# P_bary (ms)      =  N/A
# P'_bary (s/s)    =  N/A
# P''_bary (s/s^2) =  N/A
# P_orb (s)        =  N/A
# asin(i)/c (s)    =  N/A
# eccentricity     =  N/A
# w (rad)          =  N/A
# T_peri           =  N/A
######################################################
   0  1541.226
   1  1397.11
   2  1353.6
   3  1053.84
   4  946.4031
   5  750.2631
   6  796.7214
   7  830.7905
   8  911.7724
   9  917.7613
  10  870.2195
  11  871.8813
  12  728.1584
  13  795.9293
  14  809.5936
  15  822.03
  16  818.2495
  17  707.0717
  18  830.6738
  19  748.7632
  20  700.15
  21  781.4354
  22  847.9215
  23  859.7599
  24  835.6556
  25  743.777
  26  840.6002
  27  851.7816
  28  852.1188
  29  894.2519
  30  825.2615
  31  834.6712
  32  803.504
  33  792.6667
  34  871.0751
  35  793.9915
  36  781.0844
  37  766.1885
  38  744.932
  39  770.0106
  40  816.8949
  41  765.2745
  42  800.5925
  43  870.8458
  44  749.6078
  45  875.7472
  46  892.8474
  47  958.1476
  48  1017.482
  49  855.1873
  50  857.7172
  51  713.0723
  52  879.8469
  53  931.7015
  54  955.7172
  55  906.3464
  56  967.3952
  57  907.8112
  58  832.3602
  59  924.6329
  60  905.4472
  61  818.436
  62  784.2684
  63  758.2591
  64  791.2136
  65  808.8303
  66  879.163
  67  965.9365
  68  775.9949
  69  740.0739
  70  855.9899
  71  786.1869
  72  737.7025
  73  785.6483
  74  881.2321
  75  776.4962
  76  755.5806
  77  725.1694
  78  781.6857
  79  910.7639
  80  936.8558
  81  811.8561
  82  683.6216
  83  802.1013
  84  801.8766
  85  792.9107
  86  822.5328
  87  824.3905
  88  787.6202
  89  728.7979
  90  700.5129
  91  843.0608
  92  813.1119
  93  868.3701
  94  787.9958
  95  816.8828
  96  845.7776
  97  750.8729
  98  842.6794
  99  997.7689
 100  972.3279
 101  883.8468
 102  883.4396
 103  731.9824
 104  737.6657
 105  856.4874
 106  717.7598
 107  766.1979
 108  873.5469
 109  767.6728
 110  783.0557
 111  740.1909
 112  879.5706
 113  857.9135
 114  845.1628
 115  871.0122
 116  814.2617
 117  758.7397
 118  758.0679
 119  748.9786
 120  741.7288
 121  744.7519
 122  719.9183
 123  789.3933
 124  739.3505
 125  791.2615
 126  819.4193
 127  754.9496
 128  747.9839
 129  741.5021
 130  778.5341
 131  875.9559
 132  919.8892
 133  767.0599
 134  710.3032
 135  827.9785
 136  809.276
 137  826.9876
 138  802.5746
 139  814.0158
 140  714.6725
 141  812.8668
 142  917.2227
 143  930.6426
 144  812.782
 145  855.4213
 146  781.8724
 147  779.476
 148  777.3682
 149  824.9891
 150  732.5671
 151  710.3514
 152  745.3045
 153  753.2244
 154  776.5002
 155  749.3868
 156  851.3378
 157  817.9011
 158  863.7291
 159  774.5785
 160  730.1318
 161  708.0565
 162  735.0641
 163  744.5148
 164  821.9352
 165  863.5734
 166  826.779
 167  843.6799
 168  885.2405
 169  831.4388
 170  815.8193
 171  664.704
 172  825.1796
 173  804.501
 174  796.1851
 175  866.0972
 176  901.2159
 177  899.7323
 178  754.5017
 179  804.3458
 180  825.9897
 181  804.4646
 182  890.9344
 183  895.7961
 184  785.0273
 185  766.1968
 186  724.8289
 187  627.8804
 188  783.6501
 189  749.0536
 190  772.7113
 191  725.7986
 192  795.0873
 193  757.2554
 194  719.3303
 195  706.5845
 196  717.3134
 197  823.7574
 198  790.2349
 199  747.6409
 200  739.1819
 201  807.1521
 202  907.9341
 203  931.2512
 204  814.6755
 205  795.3713
 206  777.763
 207  838.6609
 208  901.7063
 209  892.4872
 210  842.5696
 211  718.3118
 212  774.798
 213  920.9704
 214  761.7233
 215  774.0855
 216  811.9861
 217  813.9434
 218  777.5256
 219  771.9452
 220  810.9528
 221  746.3379
 222  765.1009
 223  848.5797
 224  764.2226
 225  763.1312
 226  794.9515
 227  786.1584
 228  955.5707
 229  929.4325
 230  856.1046
 231  838.8908
 232  948.4146
 233  788.8802
 234  854.2563
 235  862.499
 236  850.7038
 237  908.1724
 238  868.1328
 239  891.9153
 240  814.8369
 241  854.0771
 242  905.4689
 243  851.4009
 244  886.2469
 245  823.7415
 246  983.3988
 247  990.3176
 248  920.002
 249  841.8461
 250  854.569
 251  827.1005
 252  696.2808
 253  769.5698
 254  851.3608
 255  962.0714
 256  1006.99
 257  884.9266
 258  968.459
 259  968.9104
 260  856.0344
 261  833.4875
 262  970.4738
 263  944.762
 264  805.5956
 265  804.5025
 266  869.0458
 267  929.8058
 268  792.3508
 269  696.7529
 270  743.7124
 271  863.2374
 272  905.1605
 273  913.6238
 274  953.5599
 275  909.0421
 276  895.2684
 277  812.913
 278  793.0513
 279  855.8181
 280  900.3217
 281  780.5887
 282  741.1008
 283  682.8224
 284  734.843
 285  750.4228
 286  694.1675
 287  643.4445
 288  784.5725
 289  882.8669
 290  920.5333
 291  885.2319
 292  901.1085
 293  866.8845
 294  727.7936
 295  780.9423
 296  828.256
 297  773.2819
 298  759.2563
 299  880.3561
 300  888.6318
 301  841.1639
 302  722.4227
 303  631.7339
 304  826.6152
 305  759.5067
 306  733.4987
 307  814.0042
 308  846.4879
 309  819.2296
 310  813.7574
 311  934.7368
 312  951.6876
 313  986.9119
 314  845.1433
 315  834.8094
 316  804.9349
 317  739.7878
 318  709.9108
 319  733.8009
 320  839.9528
 321  810.2015
 322  828.4634
 323  840.5283
 324  834.1569
 325  846.4324
 326  796.7449
 327  721.7503
 328  791.9333
 329  925.2458
 330  881.6776
 331  965.7224
 332  803.075
 333  895.2368
 334  877.2242
 335  749.5149
 336  694.8268
 337  726.273
 338  779.3475
 339  879.3661
 340  819.9902
 341  859.9756
 342  798.2758
 343  762.0908
 344  746.8893
 345  835.0358
 346  854.7515
 347  815.0181
 348  769.3756
 349  842.4996
 350  928.9568
 351  804.4835
 352  865.9828
 353  1006.429
 354  1050.481
 355  872.137
 356  913.195
 357  923.0873
 358  871.1033
 359  840.9009
 360  850.5922
 361  844.9805
 362  769.0358
 363  829.8348
 364  812.6428
 365  899.296
 366  880.6117
 367  824.0245
 368  905.5029
 369  846.3561
 370  871.9722
 371  900.8963
 372  872.9622
 373  804.3536
 374  796.2229
 375  855.5844
 376  860.6395
 377  718.3425
 378  773.6361
 379  789.3354
 380  823.7506
 381  957.756
 382  1005.779
 383  896.8517
 384  799.4536
 385  777.3308
 386  756.4821
 387  734.1514
 388  728.4593
 389  798.2075
 390  707.5318
 391  771.6987
 392  831.3524
 393  906.7411
 394  779.6069
 395  651.2845
 396  737.4659
 397  731.071
 398  857.0644
 399  699.748
 400  678.4276
 401  777.8884
 402  806.8734
 403  755.7786
 404  673.0027
 405  645.1014
 406  642.466
 407  685.8113
 408  690.5104
 409  615.6501
 410  682.9221
 411  728.6628
 412  769.2339
 413  755.9467
 414  678.0465
 415  616.0436
 416  700.887
 417  820.1774
 418  725.7864
 419  745.0854
 420  892.412
 421  760.4022
 422  670.2597
 423  793.9533
 424  893.9631
 425  759.1645
 426  720.696
 427  751.6024
 428  824.3317
 429  634.6377
 430  757.2191
 431  792.2731
 432  735.986
 433  683.1984
 434  697.6453
 435  736.9507
 436  798.6143
 437  740.4059
 438  602.4047
 439  633.9382
 440  673.4069
 441  684.5793
 442  732.1826
 443  677.8148
 444  808.127
 445  807.9307
 446  802.3102
 447  801.645
 448  700.4202
 449  757.723
 450  672.7811
 451  626.534
 452  720.5355
 453  780.4081
 454  697.2032
 455  643.7544
 456  794.6971
 457  819.9753
 458  858.5227
 459  782.1158
 460  824.978
 461  714.3934
 462  775.5004
 463  805.1894
 464  825.8616
 465  790.8157
 466  801.8128
 467  754.1692
 468  813.8104
 469  767.6459
 470  678.6061
 471  632.9648
 472  786.2967
 473  769.7927
 474  804.2579
 475  650.2523
 476  678.1029
 477  846.8492
 478  850.5839
 479  844.0713
 480  827.5303
 481  849.055
 482  684.5661
 483  723.2175
 484  718.5245
 485  684.2029
 486  789.4019
 487  787.6059
 488  717.6479
 489  704.3403
 490  828.3132
 491  807.1939
 492  817.0119
 493  901.2466
 494  819.2166
 495  832.9995
 496  861.4839
 497  819.2964
 498  806.6905
 499  706.6398
 500  803.5743
 501  710.0429
 502  756.3188
 503  767.8626
 504  843.9966
 505  833.0001
 506  845.8521
 507  903.4909
 508  892.1296
 509  1014.051
 510  1253.84
 511  1504.38
