# Input file       =  1208067354.11976_cleaned.dat
# Candidate        =  PSR_0332+5434
# Telescope        =  AR
# Epoch_topo       =  58226.260834719447
# Epoch_bary       =  N/A
# T_sample         =  0.002
# Data Folded      =  7208960
# Data Avg         =  0.0346037508541981
# Data StdDev      =  1.00003665228516 
# Profile Bins     =  512
# Profile Avg      =  487.237816576427 
# Profile StdDev   =  118.663524923478 
# Reduced chi-sqr  =  1.663
# Prob(Noise)      <  2.8e-19   (~8.9 sigma)
# P_topo (ms)      =  714.557591910817  +/- 0.000147
# P'_topo (s/s)    =  -0                +/- 7.9e-11
# P''_topo (s/s^2) =  0                 +/- 3.55e-14
# P_bary (ms)      =  N/A
# P'_bary (s/s)    =  N/A
# P''_bary (s/s^2) =  N/A
# P_orb (s)        =  N/A
# asin(i)/c (s)    =  N/A
# eccentricity     =  N/A
# w (rad)          =  N/A
# T_peri           =  N/A
######################################################
   0  1234.233
   1  1183.879
   2  831.4005
   3  562.1678
   4  432.257
   5  399.1626
   6  399.3618
   7  450.9632
   8  588.1071
   9  585.752
  10  475.505
  11  601.2704
  12  467.3064
  13  465.5037
  14  377.2361
  15  438.9675
  16  599.0977
  17  656.7473
  18  667.2071
  19  564.9372
  20  535.0397
  21  447.9961
  22  551.9686
  23  541.5452
  24  572.7387
  25  558.375
  26  411.7076
  27  434.7744
  28  389.511
  29  502.7786
  30  604.7451
  31  665.9504
  32  579.7712
  33  594.0121
  34  576.1872
  35  544.958
  36  424.3666
  37  484.0547
  38  534.0952
  39  557.0377
  40  527.3038
  41  452.6786
  42  497.0156
  43  588.9583
  44  657.3062
  45  630.8521
  46  473.5696
  47  492.8175
  48  491.4302
  49  501.6259
  50  527.7184
  51  496.2109
  52  425.3971
  53  413.7781
  54  518.881
  55  489.3522
  56  484.9521
  57  561.2636
  58  527.1832
  59  398.6659
  60  463.7556
  61  517.4747
  62  365.6502
  63  269.5991
  64  307.3566
  65  372.631
  66  410.1898
  67  463.4062
  68  345.8558
  69  514.9213
  70  494.5785
  71  477.0668
  72  347.9614
  73  463.0567
  74  453.8077
  75  472.4863
  76  378.3182
  77  477.0351
  78  537.9181
  79  602.4114
  80  457.2618
  81  330.5607
  82  420.3014
  83  491.57
  84  423.307
  85  368.9162
  86  391.8415
  87  493.4555
  88  450.5368
  89  518.2975
  90  436.5965
  91  469.9408
  92  437.1192
  93  517.4803
  94  557.4944
  95  431.9724
  96  469.1767
  97  457.3842
  98  606.8893
  99  521.7488
 100  392.7911
 101  491.3076
 102  685.8541
 103  609.2206
 104  514.0224
 105  598.2526
 106  701.6629
 107  624.3328
 108  590.6618
 109  414.9886
 110  558.4687
 111  645.1409
 112  692.7672
 113  649.6478
 114  605.1061
 115  597.4426
 116  556.6282
 117  524.8187
 118  510.926
 119  488.0317
 120  497.5339
 121  540.754
 122  575.051
 123  592.212
 124  612.7216
 125  582.1591
 126  555.7036
 127  434.1695
 128  452.9307
 129  506.9569
 130  624.6108
 131  520.0873
 132  554.4439
 133  625.4119
 134  528.814
 135  463.2332
 136  535.7079
 137  494.4742
 138  409.5497
 139  499.1147
 140  529.8963
 141  498.1931
 142  363.0604
 143  463.9022
 144  437.7735
 145  355.1939
 146  374.2791
 147  409.9494
 148  542.9581
 149  423.1681
 150  309.9818
 151  384.372
 152  339.7865
 153  287.4326
 154  443.7534
 155  434.9896
 156  310.1982
 157  320.9678
 158  469.7262
 159  578.8356
 160  506.2891
 161  532.9199
 162  418.128
 163  314.1784
 164  297.0423
 165  448.4485
 166  298.2757
 167  338.9144
 168  446.1637
 169  295.8683
 170  325.2694
 171  333.272
 172  429.2922
 173  475.737
 174  421.04
 175  576.1942
 176  553.2144
 177  451.671
 178  370.7715
 179  513.0052
 180  424.0241
 181  312.8206
 182  434.4064
 183  478.6823
 184  364.5176
 185  500.6274
 186  647.3965
 187  616.2596
 188  517.3105
 189  467.5101
 190  546.5472
 191  467.0131
 192  513.5412
 193  554.7637
 194  503.8696
 195  544.2944
 196  482.3735
 197  492.0255
 198  419.9135
 199  513.5206
 200  495.3252
 201  475.5579
 202  563.082
 203  542.8917
 204  604.9798
 205  562.2568
 206  666.6879
 207  680.1104
 208  577.7056
 209  525.3076
 210  500.7269
 211  472.7044
 212  472.8769
 213  522.389
 214  349.4975
 215  477.1088
 216  495.0745
 217  505.4608
 218  417.9169
 219  507.4714
 220  583.4095
 221  566.7833
 222  484.4701
 223  494.9923
 224  636.4349
 225  662.1357
 226  608.6959
 227  627.9113
 228  592.3992
 229  514.8547
 230  507.8579
 231  475.9136
 232  383.9946
 233  360.7734
 234  398.6754
 235  495.8676
 236  472.4583
 237  446.1183
 238  376.9665
 239  431.0345
 240  524.6146
 241  416.8553
 242  432.3407
 243  389.6144
 244  353.9282
 245  350.1097
 246  366.4313
 247  394.2855
 248  320.4572
 249  341.1112
 250  423.9686
 251  415.49
 252  414.5423
 253  381.0023
 254  391.5583
 255  407.5526
 256  397.6236
 257  434.6801
 258  557.1894
 259  584.9984
 260  632.1255
 261  537.5073
 262  491.8361
 263  388.2557
 264  595.3516
 265  592.4301
 266  606.5321
 267  387.5212
 268  428.9876
 269  322.8819
 270  359.5508
 271  454.3015
 272  498.2452
 273  560.225
 274  502.7642
 275  436.9291
 276  295.9109
 277  361.099
 278  432.2571
 279  497.2477
 280  511.5617
 281  514.4252
 282  454.4222
 283  414.8347
 284  394.203
 285  592.972
 286  575.7996
 287  333.2742
 288  452.2319
 289  518.5934
 290  372.3055
 291  393.1178
 292  437.0175
 293  482.2484
 294  555.3593
 295  504.9061
 296  567.7295
 297  539.8295
 298  474.3014
 299  426.7754
 300  469.1665
 301  608.3795
 302  515.6633
 303  361.278
 304  368.2317
 305  443.6147
 306  566.5672
 307  679.54
 308  535.634
 309  517.6088
 310  539.2545
 311  584.8574
 312  533.9296
 313  511.6495
 314  547.4504
 315  539.9008
 316  338.2602
 317  394.4147
 318  324.8959
 319  459.5051
 320  492.0842
 321  609.4125
 322  603.0676
 323  682.8322
 324  574.5438
 325  464.2091
 326  490.3028
 327  557.5466
 328  421.6696
 329  356.0129
 330  466.095
 331  466.7537
 332  530.8922
 333  545.6533
 334  580.7368
 335  528.1889
 336  360.1983
 337  271.4253
 338  435.0564
 339  620.5264
 340  573.4868
 341  540.9747
 342  658.0126
 343  628.4422
 344  356.1726
 345  374.4697
 346  406.021
 347  607.4656
 348  550.9029
 349  413.4626
 350  310.1099
 351  407.5585
 352  504.7965
 353  453.9723
 354  396.0411
 355  437.1233
 356  431.2709
 357  389.963
 358  337.5717
 359  477.6797
 360  542.0773
 361  605.9055
 362  521.1092
 363  470.2125
 364  560.5571
 365  363.872
 366  383.0747
 367  298.691
 368  268.0081
 369  354.3398
 370  455.0075
 371  569.354
 372  544.9595
 373  513.2844
 374  493.5376
 375  402.8554
 376  441.5505
 377  581.5188
 378  427.9609
 379  388.1708
 380  312.152
 381  334.4639
 382  341.0509
 383  324.6503
 384  479.7075
 385  399.7998
 386  300.7267
 387  350.9879
 388  539.1279
 389  471.9637
 390  485.8461
 391  379.4776
 392  322.0279
 393  323.8515
 394  341.8894
 395  404.0835
 396  498.4223
 397  491.9213
 398  476.7726
 399  396.3535
 400  374.7759
 401  344.6728
 402  481.6112
 403  478.497
 404  656.8784
 405  659.2917
 406  485.6921
 407  427.0968
 408  491.7838
 409  509.2788
 410  368.7354
 411  240.4527
 412  385.3944
 413  498.3899
 414  489.8533
 415  492.2799
 416  558.147
 417  672.7221
 418  462.8454
 419  470.265
 420  444.8945
 421  472.7454
 422  477.3787
 423  556.5556
 424  571.4911
 425  546.0138
 426  429.8712
 427  443.5123
 428  528.2217
 429  542.2525
 430  534.1357
 431  498.4224
 432  421.7094
 433  432.4929
 434  545.3428
 435  491.0926
 436  484.4092
 437  597.9111
 438  656.5162
 439  510.8815
 440  561.7624
 441  548.5931
 442  569.9769
 443  578.2158
 444  481.3603
 445  317.9586
 446  435.5293
 447  502.6338
 448  546.6302
 449  506.7905
 450  505.7768
 451  364.4634
 452  455.0385
 453  553.4286
 454  518.4047
 455  500.5254
 456  454.298
 457  461.304
 458  423.5174
 459  485.8196
 460  411.2784
 461  334.4984
 462  514.9119
 463  572.4421
 464  392.5095
 465  447.0226
 466  470.2163
 467  409.4086
 468  262.2991
 469  439.2426
 470  622.2963
 471  647.4598
 472  547.4008
 473  429.9333
 474  407.6059
 475  468.3072
 476  556.2935
 477  566.0115
 478  555.1769
 479  495.3004
 480  432.4627
 481  474.0961
 482  339.4255
 483  432.8716
 484  484.9617
 485  499.7153
 486  433.2559
 487  416.0141
 488  477.6822
 489  435.5861
 490  503.6775
 491  620.705
 492  537.6467
 493  440.9018
 494  585.4501
 495  504.4398
 496  395.6738
 497  368.7705
 498  473.4512
 499  389.4807
 500  361.1596
 501  590.8038
 502  561.8369
 503  636.652
 504  580.3992
 505  466.5626
 506  393.5533
 507  655.3563
 508  721.5392
 509  834.491
 510  1051.901
 511  1141.941
