# Input file       =  1208685322.118577_cleaned.dat
# Candidate        =  PSR_0332+5434
# Telescope        =  AR
# Epoch_topo       =  58233.413242113158
# Epoch_bary       =  N/A
# T_sample         =  0.002
# Data Folded      =  7340032
# Data Avg         =  0.0526798389973209
# Data StdDev      =  1.00022203310365 
# Profile Bins     =  512
# Profile Avg      =  755.254001092805 
# Profile StdDev   =  119.759621074442 
# Reduced chi-sqr  =  1.372
# Prob(Noise)      <  4.34e-08   (~5.4 sigma)
# P_topo (ms)      =  714.55165018845   +/- 0.000579
# P'_topo (s/s)    =  -0                +/- 3.06e-10
# P''_topo (s/s^2) =  0                 +/- 1.35e-13
# P_bary (ms)      =  N/A
# P'_bary (s/s)    =  N/A
# P''_bary (s/s^2) =  N/A
# P_orb (s)        =  N/A
# asin(i)/c (s)    =  N/A
# eccentricity     =  N/A
# w (rad)          =  N/A
# T_peri           =  N/A
######################################################
   0  1384.668
   1  1316.232
   2  1200.127
   3  956.2201
   4  816.4124
   5  744.3715
   6  695.3521
   7  699.282
   8  749.6627
   9  775.5413
  10  853.2759
  11  796.6288
  12  791.6854
  13  756.0155
  14  852.5064
  15  900.4737
  16  828.9406
  17  788.1909
  18  797.6094
  19  771.5396
  20  630.2388
  21  601.816
  22  722.3724
  23  678.7867
  24  614.9084
  25  637.3747
  26  634.1893
  27  590.6194
  28  622.5377
  29  650.8116
  30  667.3801
  31  658.003
  32  618.6445
  33  646.3361
  34  610.3682
  35  660.8171
  36  706.5934
  37  691.9278
  38  659.5786
  39  693.7234
  40  678.0016
  41  634.5811
  42  723.2825
  43  714.5963
  44  696.2455
  45  702.4785
  46  681.5972
  47  682.7374
  48  703.0996
  49  734.7822
  50  792.2527
  51  846.8773
  52  743.8303
  53  691.6162
  54  711.9833
  55  704.3654
  56  755.4659
  57  718.9817
  58  696.5861
  59  669.1176
  60  724.6536
  61  706.276
  62  619.8628
  63  686.0906
  64  728.1367
  65  751.5684
  66  715.058
  67  770.5005
  68  755.8028
  69  790.7404
  70  680.1428
  71  677.3475
  72  674.5468
  73  771.2033
  74  791.1332
  75  779.2374
  76  894.7993
  77  863.3208
  78  822.3508
  79  923.9225
  80  856.7477
  81  779.293
  82  839.3327
  83  868.0485
  84  876.7846
  85  795.7396
  86  788.9533
  87  803.7438
  88  778.387
  89  758.7628
  90  719.6911
  91  737.3658
  92  719.2244
  93  737.1573
  94  864.4847
  95  868.1598
  96  803.9254
  97  755.9453
  98  718.0707
  99  776.4801
 100  808.1916
 101  777.1606
 102  771.5883
 103  741.765
 104  760.9785
 105  738.9888
 106  854.1782
 107  913.0836
 108  901.789
 109  844.0591
 110  892.9316
 111  813.8629
 112  833.9307
 113  814.6881
 114  758.0295
 115  789.3697
 116  809.777
 117  761.3801
 118  750.0806
 119  830.0659
 120  855.3138
 121  841.4703
 122  838.1537
 123  882.5777
 124  896.009
 125  861.2844
 126  758.8686
 127  805.0315
 128  765.7343
 129  746.0343
 130  680.2336
 131  714.3391
 132  684.4753
 133  751.8856
 134  815.7027
 135  783.0971
 136  740.0902
 137  739.8915
 138  760.2136
 139  732.9971
 140  761.5983
 141  764.965
 142  785.1407
 143  729.4089
 144  658.1553
 145  716.7425
 146  757.1067
 147  739.3643
 148  839.9763
 149  742.6259
 150  773.9871
 151  823.2864
 152  828.0551
 153  876.7363
 154  852.1349
 155  790.7484
 156  733.9392
 157  688.1158
 158  768.2767
 159  803.6178
 160  723.7509
 161  785.1893
 162  776.7219
 163  798.5696
 164  813.9104
 165  741.6002
 166  668.7208
 167  646.1924
 168  661.1808
 169  690.6631
 170  729.538
 171  751.9026
 172  699.7515
 173  715.6375
 174  652.344
 175  631.9987
 176  629.3704
 177  656.9231
 178  628.0991
 179  693.5374
 180  684.3849
 181  672.5016
 182  629.1394
 183  670.3726
 184  701.3429
 185  666.0625
 186  827.3431
 187  728.461
 188  723.9062
 189  738.048
 190  764.4843
 191  891.4247
 192  832.713
 193  719.1324
 194  781.9292
 195  801.4989
 196  765.5389
 197  770.8457
 198  787.2787
 199  818.7134
 200  808.8687
 201  773.7833
 202  751.0497
 203  714.7593
 204  638.9125
 205  761.7383
 206  647.6702
 207  602.9612
 208  685.2928
 209  713.9542
 210  650.7428
 211  665.6287
 212  752.4208
 213  795.1683
 214  699.1697
 215  666.2339
 216  787.1263
 217  774.3197
 218  744.7675
 219  785.4691
 220  784.8774
 221  789.5976
 222  824.7593
 223  815.2321
 224  780.7814
 225  743.1106
 226  777.4688
 227  744.786
 228  764.3394
 229  828.986
 230  889.257
 231  789.2587
 232  700.9438
 233  723.8925
 234  724.7133
 235  665.1295
 236  620.7108
 237  680.7364
 238  773.7222
 239  749.3474
 240  760.1671
 241  726.2543
 242  714.1594
 243  734.7663
 244  690.5497
 245  681.559
 246  656.3356
 247  670.3875
 248  660.7771
 249  730.145
 250  652.2111
 251  594.1912
 252  660.8547
 253  643.7054
 254  724.3055
 255  738.0286
 256  746.3021
 257  754.513
 258  759.1476
 259  785.5838
 260  881.3044
 261  863.5161
 262  837.2946
 263  758.5624
 264  744.9073
 265  777.6401
 266  708.4084
 267  695.3291
 268  779.2235
 269  724.0495
 270  781.3236
 271  811.1514
 272  834.5823
 273  784.2792
 274  787.7515
 275  819.2125
 276  907.2897
 277  880.2585
 278  914.9879
 279  963.7605
 280  932.8542
 281  923.0191
 282  879.7547
 283  890.3147
 284  879.5922
 285  933.048
 286  908.5451
 287  908.5208
 288  935.2005
 289  855.1491
 290  854.3585
 291  858.1105
 292  870.6254
 293  821.6063
 294  901.1979
 295  908.9252
 296  927.4471
 297  813.553
 298  845.041
 299  793.4791
 300  818.3282
 301  890.3222
 302  795.113
 303  820.5358
 304  873.804
 305  808.6904
 306  771.3644
 307  813.9164
 308  731.4412
 309  714.6467
 310  742.3262
 311  814.7795
 312  722.881
 313  699.2871
 314  772.5344
 315  793.8504
 316  774.7186
 317  819.3373
 318  776.8784
 319  684.395
 320  659.9029
 321  727.4529
 322  830.7079
 323  822.7568
 324  735.3563
 325  740.074
 326  792.2231
 327  784.3775
 328  762.6883
 329  790.14
 330  766.7185
 331  725.7135
 332  754.1104
 333  732.9771
 334  706.9708
 335  715.6558
 336  764.0643
 337  713.7994
 338  764.6146
 339  709.2996
 340  673.0687
 341  765.9159
 342  808.6159
 343  785.3108
 344  863.8068
 345  808.6524
 346  848.5744
 347  814.3008
 348  799.2752
 349  800.0695
 350  818.6922
 351  848.0523
 352  812.6658
 353  749.4532
 354  778.9424
 355  831.0137
 356  779.3782
 357  790.6269
 358  760.8494
 359  740.8234
 360  820.7111
 361  816.1743
 362  777.7665
 363  790.645
 364  791.5569
 365  821.4331
 366  760.886
 367  800.4271
 368  806.8008
 369  831.7804
 370  835.762
 371  755.3716
 372  792.5344
 373  803.9437
 374  802.7812
 375  775.7772
 376  791.7131
 377  810.8941
 378  832.3986
 379  804.915
 380  797.8459
 381  844.3257
 382  857.2908
 383  870.5012
 384  771.2093
 385  655.416
 386  695.8931
 387  776.4518
 388  749.5596
 389  708.6119
 390  688.9666
 391  725.8234
 392  719.4315
 393  663.1148
 394  658.0234
 395  718.1523
 396  681.1532
 397  721.4304
 398  755.1768
 399  736.8563
 400  634.6388
 401  594.9382
 402  634.9389
 403  665.5551
 404  694.7443
 405  695.7151
 406  646.8571
 407  648.8445
 408  639.0644
 409  631.7815
 410  667.7422
 411  686.2545
 412  643.6537
 413  673.9435
 414  630.0809
 415  635.8804
 416  674.9818
 417  651.1418
 418  585.2487
 419  591.091
 420  619.4842
 421  606.0765
 422  625.2436
 423  645.4564
 424  622.9758
 425  624.2414
 426  661.4999
 427  562.0877
 428  604.6048
 429  670.7763
 430  687.4639
 431  673.1953
 432  703.6446
 433  654.8772
 434  648.6088
 435  596.3356
 436  643.7014
 437  690.2839
 438  592.7571
 439  649.2725
 440  616.6968
 441  610.2342
 442  564.335
 443  551.0142
 444  656.9747
 445  599.7278
 446  588.9534
 447  621.5331
 448  649.1573
 449  603.2015
 450  537.3134
 451  547.1805
 452  541.5497
 453  633.5971
 454  676.3467
 455  672.3167
 456  670.897
 457  657.4417
 458  686.7959
 459  686.5651
 460  596.3604
 461  587.2244
 462  612.4344
 463  690.9792
 464  679.6135
 465  563.0815
 466  676.4925
 467  636.4399
 468  589.1718
 469  630.5458
 470  695.7804
 471  767.6332
 472  687.1094
 473  648.119
 474  651.3979
 475  673.4337
 476  730.5023
 477  739.0768
 478  724.2072
 479  720.2041
 480  684.3879
 481  825.9524
 482  789.0054
 483  758.1902
 484  823.3087
 485  773.9195
 486  777.739
 487  795.8934
 488  813.8988
 489  771.3354
 490  802.157
 491  935.9401
 492  941.2657
 493  1089.004
 494  1063.028
 495  959.5463
 496  838.436
 497  842.3395
 498  938.0676
 499  880.9219
 500  867.782
 501  896.6461
 502  895.8533
 503  828.5157
 504  781.6454
 505  801.6907
 506  858.2048
 507  911.2114
 508  937.1944
 509  1041.879
 510  1132.621
 511  1292.752
