# Input file       =  1208614060.115285_cleaned.dat
# Candidate        =  PSR_0332+5434
# Telescope        =  AR
# Epoch_topo       =  58232.588450408388
# Epoch_bary       =  N/A
# T_sample         =  0.002
# Data Folded      =  7340032
# Data Avg         =  0.0339105423044897
# Data StdDev      =  1.00006015921408 
# Profile Bins     =  512
# Profile Avg      =  486.023568562447 
# Profile StdDev   =  119.740239422134 
# Reduced chi-sqr  =  1.507
# Prob(Noise)      <  8.64e-13   (~7.1 sigma)
# P_topo (ms)      =  714.552696972165  +/- 0.000228
# P'_topo (s/s)    =  -0                +/- 1.2e-10
# P''_topo (s/s^2) =  0                 +/- 5.31e-14
# P_bary (ms)      =  N/A
# P'_bary (s/s)    =  N/A
# P''_bary (s/s^2) =  N/A
# P_orb (s)        =  N/A
# asin(i)/c (s)    =  N/A
# eccentricity     =  N/A
# w (rad)          =  N/A
# T_peri           =  N/A
######################################################
   0  1111.79
   1  1032.947
   2  917.7252
   3  717.4398
   4  610.619
   5  446.8823
   6  447.6238
   7  479.0521
   8  601.6898
   9  444.4671
  10  416.5727
  11  578.7623
  12  687.3614
  13  617.8619
  14  629.2292
  15  569.827
  16  487.4999
  17  538.0188
  18  599.0945
  19  605.703
  20  593.1993
  21  520.8023
  22  394.4092
  23  365.5024
  24  435.7137
  25  348.5875
  26  425.4155
  27  359.3898
  28  377.174
  29  402.8669
  30  319.6517
  31  305.0019
  32  346.7368
  33  428.3069
  34  472.296
  35  411.7527
  36  496.7269
  37  480.792
  38  507.7497
  39  533.3321
  40  459.5219
  41  408.9343
  42  406.9999
  43  386.0945
  44  369.4156
  45  517.706
  46  583.4827
  47  498.9149
  48  465.9722
  49  410.445
  50  353.9502
  51  397.3671
  52  444.1887
  53  411.012
  54  449.9843
  55  482.2726
  56  462.1612
  57  415.8659
  58  381.7337
  59  301.3323
  60  366.8138
  61  405.3559
  62  462.9155
  63  509.217
  64  526.0604
  65  473.4092
  66  344.6887
  67  355.4706
  68  427.5394
  69  357.9619
  70  291.9761
  71  334.964
  72  417.3317
  73  497.0301
  74  541.696
  75  410.48
  76  421.768
  77  438.6742
  78  381.8913
  79  451.8722
  80  461.7139
  81  362.7237
  82  362.103
  83  364.1559
  84  458.218
  85  580.1541
  86  491.3848
  87  483.8022
  88  503.2538
  89  549.4398
  90  489.5658
  91  447.4532
  92  454.684
  93  493.8263
  94  433.6129
  95  470.9941
  96  570.0746
  97  548.4459
  98  560.4755
  99  484.3181
 100  504.8911
 101  444.6163
 102  385.3428
 103  367.3217
 104  539.9442
 105  497.8748
 106  536.2836
 107  572.5452
 108  543.2853
 109  421.7504
 110  348.9005
 111  505.3273
 112  538.3716
 113  445.5242
 114  405.462
 115  415.6952
 116  485.9091
 117  537.2244
 118  411.2789
 119  354.1874
 120  362.8319
 121  445.3637
 122  504.187
 123  432.8677
 124  513.3873
 125  457.0448
 126  376.8189
 127  498.6209
 128  497.093
 129  434.0017
 130  569.1883
 131  461.2904
 132  312.3876
 133  309.4219
 134  445.7943
 135  407.1252
 136  449.4872
 137  478.6528
 138  534.1597
 139  501.4356
 140  461.411
 141  399.8637
 142  366.949
 143  295.8602
 144  352.9394
 145  436.1893
 146  422.1022
 147  411.647
 148  293.2544
 149  450.9178
 150  439.0046
 151  402.8365
 152  418.0599
 153  301.4427
 154  318.4801
 155  214.6345
 156  270.9619
 157  348.808
 158  425.9477
 159  533.2885
 160  641.4233
 161  473.7047
 162  358.6972
 163  344.5473
 164  465.0668
 165  377.6476
 166  404.9987
 167  462.6359
 168  465.5782
 169  415.0001
 170  548.0521
 171  544.1982
 172  519.9155
 173  465.3323
 174  399.302
 175  443.2648
 176  468.165
 177  435.438
 178  568.3281
 179  488.3203
 180  497.6592
 181  474.6909
 182  392.6823
 183  364.4849
 184  432.9093
 185  383.5142
 186  508.9276
 187  569.9905
 188  542.6359
 189  469.6779
 190  432.8055
 191  558.9319
 192  631.8486
 193  578.6804
 194  606.111
 195  581.9677
 196  561.2262
 197  633.2847
 198  585.899
 199  586.1879
 200  495.907
 201  469.6506
 202  434.7213
 203  499.9194
 204  579.1588
 205  492.6256
 206  434.9517
 207  449.4883
 208  289.7459
 209  281.0052
 210  440.5057
 211  438.3307
 212  398.1216
 213  368.8885
 214  329.0303
 215  348.4543
 216  353.2721
 217  256.8394
 218  288.1356
 219  441.7187
 220  380.4793
 221  340.3622
 222  430.138
 223  447.949
 224  448.9848
 225  474.3601
 226  428.9608
 227  435.9139
 228  309.0864
 229  339.2827
 230  457.1802
 231  478.5939
 232  504.158
 233  508.441
 234  495.7677
 235  470.7646
 236  547.1163
 237  554.4699
 238  484.7224
 239  459.1837
 240  429.0544
 241  528.6812
 242  564.236
 243  542.7585
 244  536.5752
 245  581.0902
 246  580.2304
 247  633.4204
 248  513.9496
 249  435.6841
 250  482.7321
 251  618.9542
 252  706.2286
 253  529.4361
 254  435.7849
 255  513.1956
 256  560.2181
 257  559.4453
 258  538.3835
 259  469.6178
 260  420.8157
 261  356.9487
 262  262.4254
 263  306.23
 264  313.7588
 265  345.2992
 266  302.6022
 267  367.2634
 268  403.4895
 269  441.3316
 270  545.9698
 271  487.1059
 272  433.8031
 273  484.0777
 274  414.349
 275  504.45
 276  481.3059
 277  447.5099
 278  412.9225
 279  546.6709
 280  560.8229
 281  587.8014
 282  562.7172
 283  534.2426
 284  466.7168
 285  448.692
 286  474.5177
 287  530.6735
 288  598.9755
 289  612.4864
 290  603.3953
 291  631.6061
 292  620.7729
 293  698.537
 294  683.6333
 295  651.7186
 296  510.5157
 297  512.1119
 298  420.8244
 299  382.7089
 300  433.894
 301  509.0137
 302  528.8878
 303  387.6451
 304  390.2211
 305  510.7204
 306  421.9542
 307  460.7105
 308  453.536
 309  502.6218
 310  445.64
 311  464.6239
 312  542.7009
 313  548.8939
 314  391.0846
 315  484.1311
 316  566.1613
 317  599.0513
 318  627.052
 319  455.3139
 320  392.2707
 321  445.2094
 322  509.4774
 323  492.8741
 324  575.9138
 325  697.8827
 326  571.1977
 327  504.3097
 328  547.9632
 329  417.2607
 330  482.3359
 331  489.3779
 332  512.9142
 333  526.5407
 334  652.6412
 335  625.8734
 336  556.7073
 337  597.9797
 338  569.4991
 339  492.8386
 340  584.694
 341  410.9367
 342  404.1118
 343  559.203
 344  607.1694
 345  507.2335
 346  452.7127
 347  426.645
 348  531.5774
 349  554.3227
 350  673.2993
 351  659.9581
 352  455.925
 353  557.0652
 354  586.666
 355  561.5979
 356  563.5378
 357  454.5419
 358  460.4186
 359  467.3369
 360  414.7301
 361  501.9128
 362  624.4156
 363  504.7053
 364  553.779
 365  585.59
 366  506.3721
 367  473.5147
 368  544.6526
 369  486.938
 370  427.9429
 371  435.0639
 372  538.3638
 373  535.8627
 374  561.9561
 375  491.7576
 376  394.7679
 377  324.8961
 378  401.7303
 379  367.7115
 380  485.0999
 381  471.4199
 382  536.31
 383  564.9736
 384  455.5863
 385  461.3879
 386  505.2528
 387  421.4422
 388  389.7469
 389  486.1411
 390  630.8699
 391  608.6893
 392  510.5905
 393  448.9867
 394  285.9253
 395  370.872
 396  446.6516
 397  426.7208
 398  409.4991
 399  508.2638
 400  446.4427
 401  409.7885
 402  491.7474
 403  501.2567
 404  500.1627
 405  575.1472
 406  521.5173
 407  450.1371
 408  474.7822
 409  417.8053
 410  355.2144
 411  428.2176
 412  525.2365
 413  538.9428
 414  555.2894
 415  523.7227
 416  508.9319
 417  635.1367
 418  464.3149
 419  376.2823
 420  515.343
 421  574.1204
 422  536.3082
 423  435.0642
 424  379.2949
 425  435.8079
 426  435.5114
 427  422.4992
 428  444.2391
 429  470.8793
 430  460.453
 431  460.721
 432  556.95
 433  508.6544
 434  428.6915
 435  423.1942
 436  435.528
 437  502.4919
 438  496.6509
 439  576.9399
 440  553.446
 441  639.0505
 442  559.0453
 443  413.4539
 444  428.9415
 445  482.4193
 446  534.1116
 447  473.0063
 448  443.7504
 449  458.7887
 450  654.4375
 451  695.1558
 452  543.2332
 453  574.8895
 454  535.3963
 455  585.5912
 456  415.3381
 457  545.9202
 458  586.3648
 459  476.7621
 460  408.3069
 461  526.6477
 462  558.7451
 463  560.5361
 464  534.546
 465  526.3311
 466  502.5059
 467  438.6797
 468  469.0558
 469  483.3825
 470  456.6592
 471  385.2568
 472  417.9922
 473  522.7853
 474  477.8064
 475  430.7155
 476  454.8633
 477  550.6332
 478  504.2719
 479  423.7895
 480  494.89
 481  490.1724
 482  453.2185
 483  544.2204
 484  593.5673
 485  517.0168
 486  466.2458
 487  606.9621
 488  527.7985
 489  506.9318
 490  480.9242
 491  607.0876
 492  642.4838
 493  644.2787
 494  589.7832
 495  560.9611
 496  548.8206
 497  452.7483
 498  467.6974
 499  505.9465
 500  594.4587
 501  543.5224
 502  515.1248
 503  491.3698
 504  531.3763
 505  625.9628
 506  630.4386
 507  551.9763
 508  630.6334
 509  880.7126
 510  1126.637
 511  1243.566
