# Input file       =  1208584535.106913_cleaned.dat
# Candidate        =  PSR_0332+5434
# Telescope        =  AR
# Epoch_topo       =  58232.246725774457
# Epoch_bary       =  N/A
# T_sample         =  0.002
# Data Folded      =  7143424
# Data Avg         =  0.046800175536668
# Data StdDev      =  1.00002143611501 
# Profile Bins     =  512
# Profile Avg      =  652.928934535126 
# Profile StdDev   =  118.121116485429 
# Reduced chi-sqr  =  2.117
# Prob(Noise)      <  4.37e-43   (~13.7 sigma)
# P_topo (ms)      =  714.552626167324  +/- 0.000119
# P'_topo (s/s)    =  -0                +/- 6.45e-11
# P''_topo (s/s^2) =  0                 +/- 2.93e-14
# P_bary (ms)      =  N/A
# P'_bary (s/s)    =  N/A
# P''_bary (s/s^2) =  N/A
# P_orb (s)        =  N/A
# asin(i)/c (s)    =  N/A
# eccentricity     =  N/A
# w (rad)          =  N/A
# T_peri           =  N/A
######################################################
   0  1531.291
   1  1417.57
   2  1167.632
   3  948.5704
   4  832.0482
   5  723.1971
   6  737.7609
   7  772.1976
   8  586.1273
   9  640.5625
  10  651.257
  11  694.6675
  12  750.0979
  13  838.2418
  14  834.0821
  15  697.5332
  16  695.5935
  17  692.375
  18  637.2822
  19  599.7664
  20  792.1052
  21  756.8397
  22  810.5463
  23  711.2682
  24  636.2921
  25  715.2264
  26  652.618
  27  511.7887
  28  592.1859
  29  721.8666
  30  768.2795
  31  659.1409
  32  635.3857
  33  558.689
  34  440.9609
  35  551.2473
  36  577.6435
  37  634.7993
  38  620.9144
  39  741.296
  40  661.4754
  41  618.0582
  42  610.9543
  43  574.2121
  44  634.2909
  45  673.2273
  46  663.8143
  47  699.3808
  48  635.4828
  49  577.1928
  50  614.3471
  51  585.4171
  52  536.3953
  53  618.5284
  54  565.3074
  55  679.0441
  56  686.9319
  57  532.395
  58  491.6795
  59  637.8573
  60  513.0004
  61  529.653
  62  642.2698
  63  623.3226
  64  596.6022
  65  542.5751
  66  558.6551
  67  589.0023
  68  514.2341
  69  599.5382
  70  585.5663
  71  573.3267
  72  579.6818
  73  525.3118
  74  465.5837
  75  659.0472
  76  784.9178
  77  630.7333
  78  584.2845
  79  649.662
  80  659.3125
  81  538.8701
  82  422.0638
  83  613.8877
  84  697.4036
  85  674.4632
  86  815.6724
  87  736.4116
  88  762.153
  89  776.6655
  90  617.059
  91  506.0266
  92  563.4146
  93  610.6076
  94  539.5768
  95  587.0577
  96  695.8985
  97  637.9576
  98  451.5111
  99  525.5987
 100  624.2335
 101  539.3141
 102  625.9213
 103  627.0903
 104  755.5294
 105  718.7936
 106  696.1901
 107  616.9322
 108  620.3895
 109  607.2893
 110  511.6516
 111  599.6044
 112  695.8976
 113  648.9891
 114  645.9941
 115  671.01
 116  642.8076
 117  716.02
 118  742.3102
 119  588.3121
 120  625.8269
 121  653.4946
 122  617.9149
 123  608.1586
 124  657.863
 125  642.1854
 126  494.4997
 127  597.8542
 128  764.4385
 129  639.2345
 130  658.3746
 131  531.3612
 132  563.6837
 133  694.369
 134  705.1921
 135  672.1572
 136  697.7039
 137  740.5187
 138  652.373
 139  590.2711
 140  518.0607
 141  519.4019
 142  471.4798
 143  553.9811
 144  708.3604
 145  722.5121
 146  707.8329
 147  716.6628
 148  797.431
 149  750.9233
 150  684.3184
 151  716.6801
 152  881.5734
 153  859.0891
 154  797.0986
 155  709.9974
 156  674.0316
 157  649.8794
 158  639.8331
 159  677.399
 160  654.2667
 161  746.7914
 162  963.9663
 163  682.0539
 164  611.1846
 165  636.7526
 166  650.0076
 167  739.9917
 168  720.6491
 169  904.9797
 170  972.7847
 171  858.3487
 172  739.9485
 173  703.9844
 174  737.9916
 175  725.4209
 176  804.018
 177  876.3776
 178  916.9352
 179  903.0837
 180  889.7006
 181  787.2948
 182  747.4153
 183  761.9594
 184  763.7646
 185  777.3331
 186  887.2295
 187  891.1615
 188  851.9666
 189  782.4456
 190  777.1218
 191  763.1207
 192  656.0507
 193  685.1685
 194  667.774
 195  607.2014
 196  563.3025
 197  622.433
 198  671.0607
 199  671.2212
 200  697.8361
 201  772.1197
 202  828.8651
 203  679.572
 204  644.6709
 205  673.524
 206  606.3597
 207  677.5659
 208  711.1642
 209  815.2175
 210  697.8973
 211  621.5558
 212  674.4454
 213  643.5211
 214  731.9072
 215  599.2634
 216  593.0331
 217  632.3717
 218  657.5232
 219  732.3399
 220  615.7155
 221  642.6135
 222  650.4686
 223  693.7049
 224  745.386
 225  613.0928
 226  485.7246
 227  531.8019
 228  670.409
 229  648.9017
 230  633.5714
 231  622.837
 232  657.4057
 233  624.5463
 234  726.0257
 235  552.5674
 236  569.936
 237  605.6462
 238  530.6903
 239  565.9124
 240  456.6736
 241  482.5042
 242  489.5095
 243  504.5524
 244  555.3384
 245  577.0181
 246  595.0718
 247  595.3768
 248  617.8015
 249  709.9999
 250  646.5101
 251  560.8136
 252  690.917
 253  698.9734
 254  602.7432
 255  575.2606
 256  597.0389
 257  700.6901
 258  710.9128
 259  629.3689
 260  578.5474
 261  707.8625
 262  635.417
 263  489.3144
 264  540.8219
 265  564.3276
 266  651.7647
 267  587.938
 268  645.7114
 269  742.3398
 270  673.3165
 271  542.0949
 272  473.8641
 273  544.7328
 274  529.0433
 275  521.2366
 276  689.4355
 277  822.5746
 278  652.3266
 279  610.3123
 280  675.9191
 281  506.0197
 282  580.3116
 283  738.3277
 284  621.4998
 285  654.2324
 286  637.3808
 287  537.6874
 288  438.7511
 289  469.8729
 290  596.5978
 291  624.3306
 292  606.1395
 293  572.3224
 294  586.6406
 295  624.6693
 296  689.7234
 297  584.3998
 298  556.2211
 299  538.3845
 300  617.9741
 301  656.6249
 302  687.004
 303  604.5853
 304  617.0948
 305  585.9112
 306  590.7932
 307  637.2531
 308  553.5891
 309  592.0963
 310  624.7769
 311  633.2225
 312  440.5594
 313  532.0466
 314  679.815
 315  727.3558
 316  746.4672
 317  793.6549
 318  781.033
 319  781.2899
 320  811.167
 321  577.9963
 322  566.2408
 323  663.7332
 324  534.0019
 325  566.9648
 326  715.6359
 327  815.2235
 328  766.3193
 329  762.9789
 330  670.0076
 331  576.4944
 332  634.6205
 333  711.8322
 334  613.3112
 335  632.759
 336  720.5345
 337  691.3723
 338  566.8589
 339  651.6343
 340  576.0406
 341  621.4953
 342  576.429
 343  621.5101
 344  786.1268
 345  703.8699
 346  624.6133
 347  679.5023
 348  579.0026
 349  680.3942
 350  715.1022
 351  754.2243
 352  742.5382
 353  750.9114
 354  743.5963
 355  803.5456
 356  764.1385
 357  670.5299
 358  558.9501
 359  672.0102
 360  729.563
 361  803.408
 362  775.8096
 363  718.9156
 364  665.0383
 365  672.3331
 366  672.7587
 367  678.7627
 368  647.4982
 369  689.6312
 370  563.1403
 371  578.3686
 372  649.7592
 373  622.2061
 374  565.2527
 375  657.2511
 376  700.4628
 377  579.4973
 378  656.4362
 379  644.0256
 380  735.538
 381  699.789
 382  558.1073
 383  729.0042
 384  697.7554
 385  696.6553
 386  679.0653
 387  698.3944
 388  698.7471
 389  557.4305
 390  537.8539
 391  601.8937
 392  505.9602
 393  560.188
 394  629.3599
 395  596.1257
 396  443.0056
 397  449.3455
 398  500.4455
 399  617.0887
 400  560.9495
 401  608.2471
 402  742.8843
 403  569.6278
 404  544.4477
 405  636.2882
 406  705.8552
 407  653.5538
 408  541.856
 409  671.2317
 410  689.9305
 411  626.4478
 412  530.4489
 413  590.8312
 414  631.9763
 415  668.6123
 416  716.2545
 417  764.5096
 418  823.9275
 419  781.8499
 420  695.7255
 421  548.1061
 422  547.0151
 423  592.9534
 424  545.2395
 425  624.3646
 426  684.2666
 427  577.864
 428  467.4634
 429  622.6539
 430  705.8241
 431  635.6773
 432  615.2646
 433  666.6185
 434  697.8815
 435  655.0354
 436  638.8915
 437  698.1766
 438  682.8038
 439  737.1951
 440  646.0945
 441  718.7703
 442  767.4069
 443  596.8915
 444  560.0168
 445  669.7708
 446  595.241
 447  634.3879
 448  658.9413
 449  655.528
 450  680.7543
 451  620.6659
 452  670.9257
 453  592.1467
 454  605.6615
 455  535.1738
 456  503.3779
 457  483.6386
 458  593.0093
 459  753.5283
 460  654.7402
 461  522.9443
 462  597.1509
 463  507.2569
 464  462.4349
 465  560.2386
 466  701.8004
 467  680.5909
 468  685.3978
 469  575.1151
 470  508.1584
 471  499.0697
 472  627.7491
 473  538.1445
 474  522.5071
 475  608.1269
 476  515.3992
 477  450.666
 478  402.31
 479  505.2393
 480  435.9721
 481  421.5035
 482  557.6694
 483  667.8233
 484  584.0455
 485  422.1607
 486  378.8543
 487  426.8065
 488  568.5953
 489  572.8967
 490  588.2039
 491  591.1266
 492  673.0502
 493  651.1979
 494  607.2313
 495  551.7457
 496  549.8564
 497  548.2009
 498  584.4485
 499  649.0242
 500  709.45
 501  684.6033
 502  671.4442
 503  697.2633
 504  754.2308
 505  638.4037
 506  699.2452
 507  819.3209
 508  953.3391
 509  1246.27
 510  1394.645
 511  1454.749
