# Input file       =  1208168225.105342_cleaned.dat
# Candidate        =  PSR_0332+5434
# Telescope        =  AR
# Epoch_topo       =  58227.428322978492
# Epoch_bary       =  N/A
# T_sample         =  0.002
# Data Folded      =  7340032
# Data Avg         =  0.039010534852979
# Data StdDev      =  0.999986513001872
# Profile Bins     =  512
# Profile Avg      =  558.8701056859   
# Profile StdDev   =  119.731421537529 
# Reduced chi-sqr  =  1.883
# Prob(Noise)      <  4.87e-30   (~11.3 sigma)
# P_topo (ms)      =  714.556667974325  +/- 0.000331
# P'_topo (s/s)    =  -0                +/- 1.75e-10
# P''_topo (s/s^2) =  0                 +/- 7.7e-14
# P_bary (ms)      =  N/A
# P'_bary (s/s)    =  N/A
# P''_bary (s/s^2) =  N/A
# P_orb (s)        =  N/A
# asin(i)/c (s)    =  N/A
# eccentricity     =  N/A
# w (rad)          =  N/A
# T_peri           =  N/A
######################################################
   0  1269.725
   1  1156.895
   2  1108.323
   3  932.4547
   4  700.5847
   5  552.0986
   6  590.346
   7  597.6234
   8  598.746
   9  560.8732
  10  526.4012
  11  567.8758
  12  623.0953
  13  577.3954
  14  564.0519
  15  552.6659
  16  577.9558
  17  615.3621
  18  557.5182
  19  507.0324
  20  443.2047
  21  577.6208
  22  606.838
  23  610.0675
  24  630.1842
  25  647.4565
  26  680.856
  27  630.8939
  28  612.0035
  29  572.7717
  30  540.4713
  31  566.4683
  32  532.6407
  33  494.8647
  34  574.1519
  35  621.5095
  36  608.845
  37  616.3187
  38  613.482
  39  588.2202
  40  444.3554
  41  499.1045
  42  623.2238
  43  608.5335
  44  539.3702
  45  563.4837
  46  497.6707
  47  507.7345
  48  589.6417
  49  679.0771
  50  694.6151
  51  727.9203
  52  775.6829
  53  753.0838
  54  751.7764
  55  748.2888
  56  734.5378
  57  755.3665
  58  716.08
  59  659.3195
  60  652.3994
  61  643.6739
  62  675.2474
  63  702.3318
  64  676.4172
  65  667.8284
  66  677.6432
  67  677.098
  68  641.8914
  69  557.2147
  70  615.7969
  71  668.8234
  72  623.2037
  73  629.4024
  74  640.8191
  75  600.7698
  76  567.5195
  77  513.0817
  78  472.9051
  79  450.7032
  80  461.3842
  81  462.9075
  82  508.1052
  83  469.6365
  84  507.1213
  85  549.4526
  86  586.412
  87  502.256
  88  474.4588
  89  466.112
  90  544.9183
  91  548.3831
  92  597.1005
  93  638.8849
  94  555.8404
  95  509.6571
  96  552.1725
  97  534.015
  98  526.2448
  99  636.6112
 100  571.9772
 101  543.6298
 102  513.0424
 103  519.8771
 104  540.1906
 105  578.7264
 106  554.5728
 107  536.3914
 108  511.646
 109  590.2255
 110  608.2218
 111  552.7464
 112  504.9746
 113  557.3362
 114  524.3157
 115  578.7621
 116  601.4638
 117  651.3134
 118  638.629
 119  605.5975
 120  631.8959
 121  505.0175
 122  536.5988
 123  572.8608
 124  636.814
 125  648.6943
 126  609.1224
 127  664.1309
 128  600.8944
 129  596.7365
 130  600.2563
 131  603.7974
 132  655.5198
 133  697.123
 134  641.1075
 135  604.0593
 136  589.9059
 137  541.8215
 138  543.3942
 139  581.8784
 140  562.9188
 141  519.1085
 142  472.1895
 143  450.6715
 144  476.9276
 145  468.1896
 146  412.0537
 147  439.1073
 148  365.0947
 149  419.6253
 150  442.7367
 151  383.9469
 152  420.2409
 153  433.2401
 154  476.6582
 155  532.9326
 156  510.2209
 157  523.666
 158  538.656
 159  495.1004
 160  505.4712
 161  495.6297
 162  460.2466
 163  434.4417
 164  488.6939
 165  534.3394
 166  465.38
 167  432.5094
 168  451.0641
 169  421.1981
 170  414.9506
 171  397.9507
 172  429.5912
 173  447.7746
 174  467.0194
 175  508.9854
 176  415.0726
 177  429.173
 178  419.0469
 179  482.7853
 180  441.5564
 181  507.6483
 182  499.88
 183  486.7054
 184  467.7078
 185  464.5949
 186  504.1467
 187  467.6396
 188  457.3383
 189  483.5872
 190  435.5864
 191  458.1616
 192  613.5191
 193  668.7683
 194  555.0263
 195  528.6797
 196  614.5465
 197  593.4815
 198  590.5115
 199  616.5338
 200  628.345
 201  647.6744
 202  629.0822
 203  621.9366
 204  646.623
 205  696.6739
 206  742.461
 207  689.4943
 208  615.6303
 209  533.5434
 210  545.007
 211  633.5881
 212  578.901
 213  540.217
 214  653.7823
 215  617.3907
 216  444.7656
 217  486.6733
 218  604.9441
 219  567.1607
 220  512.0322
 221  451.9076
 222  442.1028
 223  416.5877
 224  489.5742
 225  603.538
 226  621.1104
 227  570.3644
 228  516.9827
 229  548.4026
 230  482.2795
 231  487.8165
 232  492.7323
 233  558.0837
 234  509.046
 235  468.7065
 236  572.0719
 237  491.1081
 238  598.2576
 239  578.689
 240  540.4853
 241  555.7709
 242  659.6754
 243  590.2719
 244  525.2974
 245  576.5042
 246  564.6826
 247  669.767
 248  619.6323
 249  511.4724
 250  548.0609
 251  581.0987
 252  582.1786
 253  592.6742
 254  620.5941
 255  537.3434
 256  536.9733
 257  505.1989
 258  550.6768
 259  589.1451
 260  594.0431
 261  557.543
 262  609.6173
 263  529.2132
 264  546.5607
 265  638.5945
 266  613.7891
 267  614.6989
 268  695.5275
 269  650.5504
 270  602.1113
 271  542.4465
 272  593.3311
 273  615.3354
 274  705.0083
 275  726.6827
 276  665.6103
 277  615.8522
 278  611.4673
 279  648.5049
 280  544.7257
 281  513.4163
 282  664.2448
 283  762.717
 284  577.4077
 285  455.6812
 286  529.7617
 287  567.8323
 288  544.2595
 289  545.4706
 290  667.385
 291  686.4558
 292  595.6964
 293  549.4077
 294  582.3037
 295  565.8042
 296  575.9555
 297  524.787
 298  609.0276
 299  649.5002
 300  556.3333
 301  461.593
 302  459.7066
 303  533.441
 304  496.2836
 305  503.8049
 306  530.7748
 307  557.2609
 308  611.2916
 309  526.2935
 310  453.8037
 311  498.528
 312  611.7767
 313  574.2355
 314  557.2837
 315  570.8575
 316  448.0971
 317  487.5131
 318  583.686
 319  623.862
 320  597.6067
 321  639.8707
 322  649.7457
 323  626.7939
 324  557.7377
 325  611.2479
 326  600.3178
 327  592.7424
 328  581.3367
 329  577.2463
 330  692.1395
 331  633.3718
 332  545.5283
 333  559.4487
 334  537.2028
 335  579.4003
 336  626.0544
 337  623.255
 338  603.0273
 339  656.5654
 340  530.0561
 341  558.4159
 342  601.4257
 343  629.7988
 344  588.5927
 345  669.3013
 346  730.9351
 347  590.292
 348  533.5986
 349  609.7423
 350  608.567
 351  616.8379
 352  684.8671
 353  591.4956
 354  666.2368
 355  673.036
 356  610.2317
 357  668.2501
 358  659.4059
 359  550.3562
 360  457.6193
 361  422.2336
 362  553.3942
 363  605.1294
 364  524.5209
 365  547.9598
 366  523.66
 367  538.9523
 368  560.5075
 369  567.134
 370  421.6206
 371  460.2573
 372  451.9623
 373  356.8849
 374  425.645
 375  453.4064
 376  374.2854
 377  260.1913
 378  326.622
 379  288.2072
 380  294.7663
 381  345.3738
 382  317.2104
 383  228.138
 384  283.7509
 385  393.5434
 386  376.9651
 387  327.0714
 388  290.7889
 389  366.0861
 390  382.1342
 391  363.5502
 392  384.6259
 393  373.1142
 394  413.7917
 395  407.2636
 396  487.7051
 397  475.2893
 398  486.4134
 399  480.6313
 400  490.8337
 401  425.8546
 402  438.3437
 403  443.3155
 404  407.171
 405  517.2316
 406  559.8488
 407  554.0069
 408  600.1034
 409  543.192
 410  582.6981
 411  592.0418
 412  686.3546
 413  717.9978
 414  498.7671
 415  463.942
 416  473.0202
 417  580.9745
 418  526.809
 419  495.0145
 420  576.6095
 421  610.8893
 422  523.9067
 423  575.3155
 424  654.9967
 425  593.6517
 426  646.7103
 427  598.2241
 428  543.2227
 429  535.2844
 430  515.9712
 431  497.7866
 432  496.8611
 433  492.8752
 434  506.7579
 435  535.6279
 436  458.8736
 437  435.1705
 438  474.0067
 439  444.9955
 440  453.0187
 441  455.2903
 442  440.8109
 443  470.5523
 444  514.1951
 445  427.6541
 446  434.2129
 447  463.9688
 448  472.2429
 449  393.7393
 450  382.5664
 451  413.3869
 452  370.9397
 453  355.5302
 454  300.0809
 455  370.5963
 456  519.8126
 457  468.8461
 458  407.7697
 459  423.4893
 460  418.9502
 461  351.0272
 462  389.8618
 463  402.0155
 464  429.344
 465  470.7968
 466  485.4606
 467  453.7432
 468  488.7141
 469  457.9685
 470  463.3444
 471  481.4608
 472  507.8042
 473  442.6082
 474  517.9715
 475  521.5442
 476  471.1216
 477  494.2106
 478  472.7699
 479  486.4199
 480  518.3984
 481  583.5266
 482  594.3677
 483  536.7054
 484  540.6262
 485  525.6617
 486  693.1463
 487  663.379
 488  651.6646
 489  660.5227
 490  640.1978
 491  652.0301
 492  731.8682
 493  787.5985
 494  760.6978
 495  782.2649
 496  826.8239
 497  844.6367
 498  801.4022
 499  732.8276
 500  748.976
 501  766.8661
 502  746.1219
 503  787.6073
 504  729.1907
 505  774.7119
 506  709.028
 507  764.0416
 508  840.6331
 509  937.6989
 510  1100.283
 511  1252.158
