# Input file       =  1208928641.108855_cleaned.dat
# Candidate        =  PSR_0332+5434
# Telescope        =  AR
# Epoch_topo       =  58236.229434130270
# Epoch_bary       =  N/A
# T_sample         =  0.002
# Data Folded      =  7208960
# Data Avg         =  0.0426321915054105
# Data StdDev      =  1.00001463589334 
# Profile Bins     =  512
# Profile Avg      =  600.228257781156 
# Profile StdDev   =  118.660912476571 
# Reduced chi-sqr  =  1.745
# Prob(Noise)      <  4.3e-23   (~9.8 sigma)
# P_topo (ms)      =  714.549182730959  +/- 0.000118
# P'_topo (s/s)    =  -0                +/- 6.32e-11
# P''_topo (s/s^2) =  0                 +/- 2.84e-14
# P_bary (ms)      =  N/A
# P'_bary (s/s)    =  N/A
# P''_bary (s/s^2) =  N/A
# P_orb (s)        =  N/A
# asin(i)/c (s)    =  N/A
# eccentricity     =  N/A
# w (rad)          =  N/A
# T_peri           =  N/A
######################################################
   0  1296.249
   1  1310.661
   2  1251.297
   3  938.7026
   4  630.6495
   5  554.8068
   6  572.9865
   7  598.4031
   8  591.0321
   9  636.6084
  10  641.6595
  11  571.1027
  12  632.3687
  13  668.2859
  14  787.9817
  15  785.3759
  16  828.501
  17  661.2748
  18  525.8314
  19  576.9205
  20  622.1332
  21  551.0823
  22  416.1876
  23  391.1986
  24  454.8439
  25  469.4027
  26  412.317
  27  462.4275
  28  539.7856
  29  594.0018
  30  668.8981
  31  630.8409
  32  516.572
  33  443.9521
  34  505.8623
  35  430.5778
  36  488.8864
  37  537.874
  38  436.649
  39  484.2475
  40  636.6407
  41  520.649
  42  449.2119
  43  537.8815
  44  644.0602
  45  559.0172
  46  615.6683
  47  679.1953
  48  689.2428
  49  515.4399
  50  395.8438
  51  453.8833
  52  637.3728
  53  581.4948
  54  510.2343
  55  519.6692
  56  452.7403
  57  566.514
  58  549.7583
  59  551.6668
  60  550.8162
  61  548.3813
  62  465.9175
  63  551.4162
  64  679.5336
  65  599.2878
  66  610.0935
  67  626.2562
  68  672.1998
  69  714.7347
  70  753.4522
  71  614.7222
  72  596.6032
  73  475.7447
  74  502.0562
  75  545.8903
  76  524.4753
  77  639.3804
  78  666.7175
  79  653.8226
  80  587.3602
  81  632.2216
  82  630.9849
  83  477.7465
  84  611.9075
  85  562.4901
  86  596.5174
  87  694.95
  88  648.9942
  89  646.4239
  90  573.134
  91  646.663
  92  650.839
  93  669.0314
  94  620.9359
  95  569.6556
  96  601.0546
  97  672.4741
  98  550.4106
  99  470.5963
 100  467.641
 101  490.0283
 102  533.1555
 103  596.1755
 104  674.6573
 105  476.1868
 106  408.817
 107  502.4661
 108  674.2863
 109  556.6678
 110  536.9642
 111  669.4044
 112  590.0361
 113  544.2476
 114  546.1523
 115  509.5938
 116  566.5909
 117  612.5861
 118  692.3409
 119  667.0682
 120  547.7841
 121  476.4776
 122  537.6007
 123  618.6815
 124  617.1987
 125  458.1065
 126  561.3893
 127  575.3448
 128  633.5758
 129  667.4896
 130  637.9766
 131  621.4859
 132  562.3323
 133  485.1964
 134  525.8264
 135  599.9168
 136  590.3119
 137  620.5333
 138  486.2126
 139  427.194
 140  335.128
 141  398.8419
 142  663.2109
 143  652.2154
 144  587.7645
 145  665.6188
 146  634.3151
 147  591.9542
 148  561.6465
 149  565.4172
 150  484.4158
 151  427.8989
 152  522.7333
 153  657.7086
 154  716.8444
 155  576.6218
 156  584.7605
 157  581.0535
 158  573.4019
 159  522.0213
 160  526.8784
 161  642.372
 162  746.5327
 163  801.5234
 164  627.6093
 165  588.591
 166  616.1179
 167  674.957
 168  646.8305
 169  549.0809
 170  559.2091
 171  610.2265
 172  524.091
 173  495.7259
 174  458.793
 175  523.5521
 176  571.008
 177  607.1768
 178  504.8742
 179  470.9124
 180  606.5964
 181  581.7973
 182  585.6369
 183  576.5526
 184  646.3913
 185  645.7049
 186  562.4232
 187  526.4202
 188  475.8225
 189  508.8587
 190  611.9814
 191  539.0244
 192  523.6728
 193  642.8777
 194  685.1996
 195  494.2128
 196  605.6799
 197  651.5356
 198  601.2398
 199  586.2786
 200  629.1831
 201  655.8947
 202  680.2758
 203  593.0883
 204  462.6131
 205  468.9045
 206  435.757
 207  526.5743
 208  656.5146
 209  797.1761
 210  598.5927
 211  667.1541
 212  644.4561
 213  475.7254
 214  484.0363
 215  546.2775
 216  603.1252
 217  607.217
 218  685.437
 219  679.1807
 220  579.8098
 221  542.5538
 222  517.3052
 223  537.9116
 224  564.7753
 225  584.678
 226  513.3503
 227  568.2963
 228  590.6022
 229  593.1009
 230  674.7984
 231  642.4116
 232  624.4236
 233  531.6131
 234  506.6318
 235  605.8029
 236  617.4807
 237  595.3892
 238  432.0968
 239  509.3611
 240  493.4815
 241  526.7416
 242  552.3068
 243  672.6335
 244  632.6535
 245  573.0036
 246  563.3032
 247  524.1219
 248  497.4029
 249  536.6536
 250  549.5975
 251  504.2146
 252  532.7282
 253  552.1614
 254  566.1012
 255  468.8279
 256  536.0789
 257  583.7441
 258  597.2789
 259  530.2303
 260  606.9816
 261  689.7527
 262  730.3047
 263  720.8471
 264  743.4175
 265  608.5156
 266  680.4114
 267  637.2944
 268  581.9401
 269  549.5361
 270  687.4883
 271  664.4097
 272  595.9514
 273  527.6201
 274  535.9362
 275  693.7086
 276  554.4604
 277  675.3831
 278  726.669
 279  663.8596
 280  632.9149
 281  554.3006
 282  601.6884
 283  560.737
 284  510.23
 285  544.3107
 286  597.4762
 287  521.7085
 288  558.9022
 289  493.2325
 290  516.3368
 291  699.2606
 292  763.1146
 293  639.6611
 294  594.0092
 295  689.8324
 296  672.0001
 297  610.5864
 298  599.7354
 299  479.1365
 300  562.5592
 301  601.8659
 302  565.8204
 303  526.3035
 304  642.889
 305  560.5317
 306  677.3319
 307  722.9329
 308  798.1686
 309  821.7
 310  793.959
 311  788.972
 312  701.0494
 313  594.3168
 314  499.7883
 315  458.8285
 316  542.2753
 317  667.8531
 318  536.1773
 319  612.3444
 320  610.2903
 321  469.8153
 322  465.8256
 323  444.2374
 324  557.1406
 325  505.8235
 326  680.3179
 327  648.3409
 328  733.3086
 329  710.977
 330  557.7286
 331  420.9747
 332  498.9089
 333  572.9534
 334  576.1474
 335  525.0454
 336  542.3405
 337  540.9703
 338  489.5387
 339  444.0541
 340  454.2756
 341  544.5703
 342  617.9711
 343  628.8986
 344  579.7988
 345  592.9884
 346  642.7581
 347  597.6116
 348  547.3301
 349  410.1115
 350  497.658
 351  464.629
 352  442.8883
 353  490.6245
 354  535.7617
 355  469.7118
 356  533.6463
 357  634.5585
 358  685.2419
 359  605.6495
 360  592.8321
 361  606.5511
 362  608.8214
 363  486.3049
 364  515.768
 365  667.3622
 366  728.2275
 367  635.0798
 368  597.8006
 369  613.2597
 370  634.2267
 371  640.1388
 372  700.9315
 373  768.6394
 374  615.7562
 375  604.6023
 376  771.1504
 377  695.3909
 378  556.0663
 379  567.6853
 380  514.2842
 381  441.0255
 382  642.9749
 383  731.8612
 384  669.4916
 385  540.072
 386  465.5823
 387  515.0176
 388  548.0941
 389  637.8658
 390  695.9038
 391  851.7946
 392  855.5889
 393  778.9218
 394  743.1766
 395  645.9872
 396  507.3055
 397  489.3726
 398  500.2443
 399  624.5801
 400  656.0058
 401  572.365
 402  655.6017
 403  677.9737
 404  629.0316
 405  651.3878
 406  547.304
 407  554.8317
 408  620.0724
 409  675.3827
 410  657.7492
 411  661.8546
 412  704.8489
 413  603.9828
 414  470.0349
 415  619.6074
 416  675.0177
 417  635.3017
 418  569.6015
 419  681.3065
 420  644.4313
 421  609.6545
 422  663.1276
 423  638.1378
 424  752.8525
 425  766.6805
 426  612.1899
 427  696.1171
 428  614.7181
 429  557.5565
 430  622.8199
 431  608.2909
 432  538.257
 433  580.8956
 434  630.3405
 435  660.4532
 436  627.2
 437  571.6574
 438  584.1279
 439  735.1887
 440  661.1637
 441  599.8546
 442  605.1468
 443  736.8193
 444  707.5719
 445  804.6438
 446  674.3148
 447  670.8505
 448  752.902
 449  741.1707
 450  701.0874
 451  545.9603
 452  796.4816
 453  650.0016
 454  556.2462
 455  616.7148
 456  737.417
 457  641.8995
 458  734.6031
 459  833.5273
 460  876.9369
 461  745.0301
 462  585.1624
 463  538.1445
 464  614.2169
 465  570.1458
 466  671.7477
 467  591.6177
 468  551.6102
 469  481.4892
 470  478.9939
 471  478.2855
 472  540.2502
 473  547.1179
 474  668.6896
 475  619.9862
 476  570.4179
 477  566.9032
 478  605.6799
 479  619.9313
 480  508.6674
 481  366.6777
 482  446.2275
 483  623.9478
 484  591.7347
 485  561.6888
 486  552.195
 487  416.6869
 488  383.6735
 489  584.7527
 490  690.451
 491  623.0015
 492  540.199
 493  689.2984
 494  689.0264
 495  543.6424
 496  508.2693
 497  411.5329
 498  445.9289
 499  667.3204
 500  751.1298
 501  668.2475
 502  466.3724
 503  569.9094
 504  610.1978
 505  602.7053
 506  639.0698
 507  701.2455
 508  921.8803
 509  1032.128
 510  1173.888
 511  1257.39
