# Input file       =  1208700228.101068_cleaned.dat
# Candidate        =  PSR_0332+5434
# Telescope        =  AR
# Epoch_topo       =  58233.585765058655
# Epoch_bary       =  N/A
# T_sample         =  0.002
# Data Folded      =  7340032
# Data Avg         =  0.042091965508998
# Data StdDev      =  1.00008428433663 
# Profile Bins     =  512
# Profile Avg      =  603.324999857848 
# Profile StdDev   =  119.74312799631  
# Reduced chi-sqr  =  1.395
# Prob(Noise)      <  7.94e-09   (~5.7 sigma)
# P_topo (ms)      =  714.551840551143  +/- 0.000247
# P'_topo (s/s)    =  -0                +/- 1.3e-10
# P''_topo (s/s^2) =  0                 +/- 5.75e-14
# P_bary (ms)      =  N/A
# P'_bary (s/s)    =  N/A
# P''_bary (s/s^2) =  N/A
# P_orb (s)        =  N/A
# asin(i)/c (s)    =  N/A
# eccentricity     =  N/A
# w (rad)          =  N/A
# T_peri           =  N/A
######################################################
   0  1251.334
   1  1202.552
   2  1009.176
   3  791.244
   4  706.7607
   5  639.1492
   6  642.4811
   7  662.4642
   8  701.6161
   9  721.2358
  10  680.0245
  11  649.0758
  12  629.4497
  13  612.4868
  14  660.6642
  15  712.5255
  16  732.8558
  17  661.857
  18  618.5551
  19  536.7778
  20  569.9439
  21  460.909
  22  600.2392
  23  673.0005
  24  581.2219
  25  665.7416
  26  669.6586
  27  648.5298
  28  678.82
  29  522.5172
  30  484.5193
  31  579.8958
  32  625.4495
  33  747.3646
  34  539.8562
  35  509.9301
  36  587.7495
  37  593.9794
  38  513.811
  39  560.9955
  40  602.8356
  41  584.9069
  42  549.53
  43  495.6429
  44  624.6251
  45  664.1631
  46  558.2703
  47  536.1425
  48  504.0174
  49  526.146
  50  488.7694
  51  472.8582
  52  577.177
  53  653.2356
  54  625.8436
  55  534.5753
  56  519.269
  57  521.6472
  58  472.9162
  59  498.9801
  60  491.7595
  61  575.1003
  62  606.389
  63  597.1707
  64  623.3881
  65  535.2527
  66  556.2747
  67  465.5398
  68  618.4656
  69  555.5748
  70  466.9484
  71  603.1733
  72  502.4464
  73  455.1576
  74  594.028
  75  521.5742
  76  429.4887
  77  439.031
  78  424.3785
  79  524.3561
  80  539.7728
  81  545.5172
  82  493.7513
  83  501.0145
  84  637.2087
  85  641.1199
  86  656.3901
  87  607.3715
  88  554.3007
  89  603.4133
  90  479.4691
  91  444.8136
  92  425.351
  93  375.1712
  94  564.3987
  95  555.8558
  96  535.8015
  97  429.052
  98  527.6819
  99  577.2076
 100  569.9727
 101  536.0428
 102  488.1237
 103  550.2569
 104  599.1457
 105  589.5801
 106  619.3543
 107  649.6763
 108  632.2151
 109  661.8637
 110  593.5519
 111  601.2979
 112  569.3641
 113  559.4164
 114  622.7383
 115  597.5502
 116  533.9538
 117  551.5091
 118  557.4109
 119  601.2129
 120  578.249
 121  705.2576
 122  678.5255
 123  583.5666
 124  547.6826
 125  494.9067
 126  614.9354
 127  734.5766
 128  636.0178
 129  642.3875
 130  604.6809
 131  524.7089
 132  568.843
 133  602.8392
 134  597.7277
 135  569.6912
 136  483.0163
 137  471.7227
 138  457.1339
 139  486.3348
 140  462.8612
 141  574.9642
 142  608.6227
 143  505.3295
 144  448.6054
 145  603.0598
 146  596.8499
 147  701.5947
 148  697.2474
 149  748.6237
 150  767.8894
 151  738.8242
 152  675.9047
 153  606.6135
 154  680.9863
 155  679.9738
 156  622.9842
 157  670.4845
 158  661.6918
 159  558.6361
 160  535.3314
 161  571.7645
 162  572.5643
 163  576.5823
 164  611.7567
 165  625.0959
 166  537.8049
 167  440.0728
 168  503.1466
 169  624.9926
 170  631.8833
 171  602.1541
 172  546.424
 173  559.6644
 174  535.0865
 175  563.7433
 176  491.8877
 177  539.0677
 178  455.7817
 179  472.5984
 180  490.2397
 181  532.1046
 182  532.4755
 183  520.774
 184  482.0077
 185  484.3489
 186  481.5884
 187  545.6526
 188  564.0984
 189  616.1308
 190  504.3262
 191  573.7004
 192  602.2528
 193  551.0713
 194  449.3
 195  439.3381
 196  482.0947
 197  499.8751
 198  621.1326
 199  655.324
 200  512.1633
 201  532.8664
 202  552.3267
 203  552.9725
 204  600.4652
 205  530.4548
 206  516.9531
 207  489.137
 208  462.0185
 209  461.0999
 210  466.2879
 211  550.3829
 212  524.0328
 213  535.6647
 214  599.7433
 215  638.8074
 216  626.8126
 217  622.064
 218  645.3846
 219  651.272
 220  644.7872
 221  618.3522
 222  544.6843
 223  491.6964
 224  532.6353
 225  583.5594
 226  575.8412
 227  621.2435
 228  576.5073
 229  454.9236
 230  588.4704
 231  601.1071
 232  476.614
 233  580.9025
 234  659.6165
 235  617.9357
 236  711.2748
 237  676.7607
 238  560.8033
 239  556.7685
 240  610.9362
 241  589.4373
 242  573.7299
 243  524.6033
 244  556.0107
 245  547.5126
 246  571.9163
 247  531.4211
 248  558.2623
 249  602.0812
 250  566.8503
 251  503.7719
 252  445.8163
 253  477.0395
 254  432.5285
 255  427.7128
 256  618.2145
 257  563.6522
 258  563.0312
 259  591.0647
 260  588.265
 261  508.6118
 262  517.1157
 263  529.8007
 264  573.048
 265  517.5918
 266  597.0568
 267  504.2715
 268  591.0993
 269  634.5019
 270  531.2344
 271  561.6716
 272  554.6561
 273  550.7224
 274  555.7385
 275  520.1525
 276  437.617
 277  547.4597
 278  557.3713
 279  523.1804
 280  558.1605
 281  583.1885
 282  500.4981
 283  515.7951
 284  550.8226
 285  672.2078
 286  669.709
 287  650.2766
 288  572.9411
 289  553.0709
 290  629.5703
 291  642.5082
 292  619.4072
 293  635.2906
 294  578.7532
 295  531.0915
 296  590.0182
 297  553.2856
 298  514.0017
 299  674.9305
 300  592.9561
 301  621.3541
 302  727.8568
 303  725.9494
 304  646.1705
 305  730.0758
 306  714.3252
 307  811.1257
 308  807.7784
 309  723.0857
 310  692.4181
 311  773.7832
 312  802.7555
 313  692.8356
 314  684.6918
 315  681.4928
 316  656.8908
 317  506.988
 318  519.7244
 319  556.9669
 320  516.9772
 321  653.158
 322  712.6777
 323  684.0369
 324  692.453
 325  622.7201
 326  595.8877
 327  652.5474
 328  601.0103
 329  684.4
 330  700.4778
 331  750.4778
 332  636.6525
 333  669.2812
 334  812.0464
 335  807.8878
 336  857.2038
 337  781.7087
 338  677.6208
 339  635.936
 340  688.6498
 341  787.2989
 342  705.0349
 343  685.6876
 344  670.0789
 345  648.2573
 346  635.3403
 347  486.6182
 348  513.5829
 349  671.1456
 350  666.7559
 351  737.8387
 352  681.6836
 353  709.8509
 354  714.0751
 355  676.1388
 356  679.1998
 357  671.602
 358  578.585
 359  605.0868
 360  548.4329
 361  614.1808
 362  550.4475
 363  587.9993
 364  665.137
 365  680.2049
 366  655.3102
 367  625.8179
 368  650.0682
 369  763.1112
 370  793.7531
 371  705.751
 372  669.6545
 373  721.1979
 374  713.7399
 375  742.6462
 376  747.0903
 377  681.3372
 378  618.9602
 379  598.2607
 380  521.8827
 381  556.069
 382  609.6849
 383  575.1616
 384  561.7363
 385  589.9846
 386  611.1978
 387  581.6061
 388  666.8616
 389  632.4809
 390  572.5638
 391  607.2489
 392  650.4882
 393  659.4656
 394  737.8799
 395  624.1433
 396  592.0532
 397  694.9691
 398  703.131
 399  679.741
 400  717.9878
 401  695.3497
 402  606.7238
 403  670.7277
 404  530.4184
 405  349.5529
 406  493.6408
 407  611.6404
 408  590.8844
 409  650.0784
 410  661.5387
 411  568.6557
 412  623.3513
 413  583.9153
 414  567.0367
 415  569.572
 416  691.5008
 417  769.887
 418  702.4499
 419  631.6503
 420  566.4686
 421  493.1498
 422  606.3301
 423  649.0933
 424  630.5919
 425  677.4316
 426  674.9093
 427  727.8059
 428  668.9945
 429  700.0596
 430  658.5161
 431  599.5701
 432  607.9766
 433  617.8945
 434  647.821
 435  580.4311
 436  562.0176
 437  550.1805
 438  562.3497
 439  644.5496
 440  730.9118
 441  707.9503
 442  613.4069
 443  579.2659
 444  587.2438
 445  595.4825
 446  546.9403
 447  652.7566
 448  597.3396
 449  486.8228
 450  661.1324
 451  744.0461
 452  639.1104
 453  682.4946
 454  591.7715
 455  604.2161
 456  590.886
 457  608.7152
 458  664.1005
 459  580.7573
 460  514.8972
 461  583.3463
 462  516.6445
 463  542.8543
 464  541.7781
 465  472.6236
 466  573.0259
 467  570.8315
 468  454.1076
 469  474.6695
 470  478.6295
 471  504.6678
 472  434.1328
 473  517.9319
 474  582.4703
 475  437.535
 476  432.0096
 477  542.0283
 478  610.1321
 479  588.1849
 480  691.2599
 481  561.0356
 482  581.1464
 483  524.8002
 484  576.5731
 485  631.962
 486  619.8674
 487  679.1937
 488  710.7364
 489  610.4245
 490  542.6744
 491  613.2104
 492  686.8422
 493  730.8462
 494  673.9044
 495  562.146
 496  648.7846
 497  642.7606
 498  533.5742
 499  528.5969
 500  645.9411
 501  575.2686
 502  672.4788
 503  677.9615
 504  742.3723
 505  836.4879
 506  812.0197
 507  859.176
 508  785.9354
 509  860.1454
 510  1126.945
 511  1288.591
