# Input file       =  1209962704.113044_cleaned.dat
# Candidate        =  PSR_0332+5434
# Telescope        =  AR
# Epoch_topo       =  58248.197755938010
# Epoch_bary       =  N/A
# T_sample         =  0.002
# Data Folded      =  7143424
# Data Avg         =  0.036619355546821
# Data StdDev      =  1.00006990089891 
# Profile Bins     =  512
# Profile Avg      =  510.989554028954 
# Profile StdDev   =  118.126841077101 
# Reduced chi-sqr  =  2.252
# Prob(Noise)      <  2.84e-51   (~15.0 sigma)
# P_topo (ms)      =  714.538206409591  +/- 0.000125
# P'_topo (s/s)    =  -0                +/- 6.8e-11
# P''_topo (s/s^2) =  0                 +/- 3.08e-14
# P_bary (ms)      =  N/A
# P'_bary (s/s)    =  N/A
# P''_bary (s/s^2) =  N/A
# P_orb (s)        =  N/A
# asin(i)/c (s)    =  N/A
# eccentricity     =  N/A
# w (rad)          =  N/A
# T_peri           =  N/A
######################################################
   0  1464.618
   1  1411.016
   2  1054.788
   3  799.0226
   4  610.0554
   5  547.5582
   6  425.0238
   7  548.6476
   8  640.4807
   9  557.0921
  10  568.3322
  11  536.537
  12  465.8787
  13  522.2906
  14  626.2298
  15  695.0308
  16  673.0256
  17  640.7909
  18  552.9382
  19  540.6721
  20  509.1849
  21  505.3354
  22  596.3641
  23  566.3711
  24  435.1999
  25  488.5602
  26  358.5676
  27  459.3814
  28  569.9619
  29  599.7778
  30  648.1531
  31  548.6221
  32  578.655
  33  592.3813
  34  463.0172
  35  441.2987
  36  493.9118
  37  534.9548
  38  468.9064
  39  520.2445
  40  505.2679
  41  414.7581
  42  405.0618
  43  447.1966
  44  525.7482
  45  494.7235
  46  517.0562
  47  641.552
  48  550.0991
  49  511.2723
  50  436.6434
  51  433.0243
  52  587.9616
  53  540.5414
  54  384.3759
  55  450.3737
  56  411.6603
  57  449.715
  58  342.9641
  59  402.0186
  60  583.1422
  61  468.1583
  62  428.1444
  63  507.0726
  64  543.4301
  65  493.5565
  66  449.9163
  67  490.5036
  68  551.8776
  69  548.9642
  70  483.3996
  71  539.9425
  72  462.3203
  73  416.1346
  74  397.8993
  75  401.5654
  76  408.6669
  77  438.0263
  78  445.2303
  79  447.446
  80  337.593
  81  344.6441
  82  492.5459
  83  644.0844
  84  661.877
  85  556.3053
  86  595.2563
  87  445.7161
  88  595.7687
  89  545.7128
  90  520.3276
  91  433.8445
  92  415.1597
  93  476.7834
  94  515.4071
  95  587.7822
  96  608.6402
  97  602.4604
  98  455.644
  99  502.4763
 100  477.8773
 101  569.4255
 102  552.7808
 103  376.9943
 104  451.1742
 105  521.0011
 106  551.895
 107  513.6993
 108  507.6624
 109  563.9623
 110  566.0259
 111  601.2646
 112  570.2303
 113  375.3104
 114  502.8024
 115  683.7975
 116  514.9189
 117  548.0347
 118  584.4368
 119  607.0875
 120  391.3917
 121  356.0498
 122  464.5328
 123  334.0634
 124  409.5658
 125  617.0001
 126  746.0361
 127  498.753
 128  442.5748
 129  508.4808
 130  626.9018
 131  670.5713
 132  511.1714
 133  645.0985
 134  677.1142
 135  635.9707
 136  630.824
 137  523.7047
 138  593.961
 139  616.0891
 140  503.9733
 141  398.1131
 142  429.149
 143  648.7249
 144  690.3582
 145  555.0101
 146  515.3699
 147  547.0853
 148  582.6555
 149  634.2933
 150  639.02
 151  605.1972
 152  551.3665
 153  481.3907
 154  566.28
 155  639.2554
 156  623.763
 157  543.4778
 158  467.1483
 159  479.1987
 160  630.2744
 161  845.141
 162  721.6326
 163  649.4538
 164  566.6207
 165  654.0345
 166  670.5027
 167  685.4761
 168  592.5397
 169  638.5206
 170  604.5612
 171  605.8273
 172  657.8549
 173  540.2966
 174  544.5286
 175  644.3893
 176  656.0168
 177  493.9368
 178  625.6195
 179  744.5884
 180  644.2344
 181  409.6938
 182  307.6434
 183  350.2065
 184  564.7476
 185  677.3204
 186  567.8997
 187  515.4381
 188  502.9809
 189  484.0182
 190  621.9022
 191  550.4567
 192  515.8592
 193  516.8727
 194  489.3304
 195  410.2677
 196  448.233
 197  493.0586
 198  494.1443
 199  569.3723
 200  630.8423
 201  699.1783
 202  423.2124
 203  349.7262
 204  334.026
 205  362.947
 206  377.1588
 207  541.4084
 208  504.7376
 209  517.6262
 210  509.4479
 211  421.6865
 212  376.4256
 213  388.6438
 214  402.5339
 215  452.5865
 216  566.2755
 217  462.9492
 218  414.5598
 219  481.7711
 220  433.8924
 221  404.4099
 222  438.8929
 223  379.3526
 224  380.8964
 225  398.2858
 226  450.1684
 227  584.6414
 228  592.5932
 229  508.4323
 230  562.257
 231  496.1808
 232  493.5149
 233  539.6089
 234  674.1908
 235  560.4393
 236  530.1577
 237  660.5739
 238  402.5914
 239  288.9321
 240  330.5362
 241  439.8226
 242  574.3274
 243  555.1562
 244  468.3242
 245  487.2132
 246  425.1424
 247  497.2708
 248  512.1844
 249  478.2884
 250  576.2111
 251  448.6191
 252  446.703
 253  435.1168
 254  475.2408
 255  489.3097
 256  429.405
 257  489.4997
 258  546.3651
 259  559.2128
 260  465.4641
 261  577.5798
 262  676.9717
 263  739.1895
 264  704.0894
 265  619.1378
 266  474.4881
 267  497.4947
 268  541.6016
 269  538.1667
 270  577.4728
 271  493.1005
 272  343.8687
 273  324.3962
 274  494.3692
 275  631.2955
 276  614.872
 277  484.8806
 278  296.8928
 279  392.3291
 280  440.0832
 281  599.1375
 282  634.1221
 283  754.9664
 284  656.1907
 285  594.2229
 286  691.4613
 287  627.143
 288  523.1002
 289  550.443
 290  642.9694
 291  509.3603
 292  431.7372
 293  540.6635
 294  527.1646
 295  526.4039
 296  548.2996
 297  580.201
 298  539.2675
 299  595.0514
 300  642.558
 301  565.338
 302  525.701
 303  550.6733
 304  534.1066
 305  416.4066
 306  447.9525
 307  567.1405
 308  582.7798
 309  625.1743
 310  402.115
 311  509.6805
 312  592.4892
 313  676.967
 314  607.4529
 315  453.1734
 316  592.913
 317  567.2996
 318  543.2048
 319  523.264
 320  542.8986
 321  441.1171
 322  337.5092
 323  306.391
 324  426.8758
 325  538.347
 326  448.505
 327  554.3837
 328  598.0745
 329  529.5502
 330  484.7459
 331  555.8969
 332  631.2958
 333  562.2231
 334  504.3571
 335  405.3392
 336  435.6571
 337  433.4321
 338  440.7348
 339  440.0925
 340  312.3412
 341  346.4269
 342  397.3708
 343  489.8488
 344  451.631
 345  483.3019
 346  527.2662
 347  410.5673
 348  412.9625
 349  508.8476
 350  576.3943
 351  367.3289
 352  374.9878
 353  390.1905
 354  424.6042
 355  413.5707
 356  363.8311
 357  422.1013
 358  520.6815
 359  519.8583
 360  306.8463
 361  397.0206
 362  411.4847
 363  478.7141
 364  381.2723
 365  427.012
 366  571.9805
 367  471.0648
 368  431.8199
 369  413.2868
 370  544.2175
 371  614.4409
 372  484.4967
 373  530.1334
 374  551.0703
 375  563.7336
 376  463.11
 377  503.7306
 378  556.2283
 379  567.7297
 380  605.6793
 381  598.8842
 382  596.5178
 383  558.0446
 384  505.9306
 385  505.9677
 386  451.7947
 387  454.814
 388  477.5767
 389  421.163
 390  442.2597
 391  576.091
 392  571.9019
 393  491.5153
 394  513.5051
 395  589.7465
 396  613.3723
 397  590.7397
 398  498.1811
 399  568.7941
 400  505.35
 401  398.483
 402  367.194
 403  441.6082
 404  493.0182
 405  359.4105
 406  423.8905
 407  479.024
 408  412.0229
 409  264.4978
 410  354.6856
 411  433.8727
 412  496.5899
 413  559.1358
 414  540.7101
 415  506.6948
 416  455.0485
 417  461.2147
 418  398.0775
 419  399.953
 420  365.7444
 421  400.5717
 422  450.641
 423  409.708
 424  436.171
 425  424.6859
 426  500.6689
 427  532.7692
 428  498.2135
 429  543.4963
 430  471.9426
 431  462.7749
 432  539.5315
 433  546.6158
 434  475.8852
 435  445.603
 436  498.6792
 437  445.7866
 438  433.2444
 439  436.7233
 440  433.725
 441  455.9251
 442  384.3813
 443  439.8954
 444  429.395
 445  441.544
 446  418.4901
 447  399.4329
 448  459.9588
 449  435.8958
 450  449.8922
 451  411.8548
 452  408.0863
 453  364.9135
 454  261.7299
 455  219.4126
 456  300.071
 457  369.1748
 458  306.5352
 459  450.0952
 460  431.975
 461  476.372
 462  402.7039
 463  421.7087
 464  348.8913
 465  377.5247
 466  515.6972
 467  325.0881
 468  259.2622
 469  245.7833
 470  298.0869
 471  282.5541
 472  325.7547
 473  410.2383
 474  461.4243
 475  429.121
 476  494.3457
 477  494.6837
 478  485.638
 479  512.3845
 480  449.0288
 481  483.8498
 482  498.3511
 483  462.0467
 484  472.6574
 485  392.7365
 486  341.0801
 487  363.5435
 488  400.4485
 489  531.4389
 490  570.6083
 491  538.078
 492  515.7305
 493  460.8407
 494  496.7314
 495  499.2516
 496  397.437
 497  488.993
 498  524.936
 499  485.4279
 500  502.245
 501  492.5634
 502  567.0438
 503  531.022
 504  579.8524
 505  587.0863
 506  667.3436
 507  672.3499
 508  741.2969
 509  951.9083
 510  1338.534
 511  1390.57
