# Input file       =  1209704165.112302_cleaned.dat
# Candidate        =  PSR_0332+5434
# Telescope        =  AR
# Epoch_topo       =  58245.205406392386
# Epoch_bary       =  N/A
# T_sample         =  0.002
# Data Folded      =  7208960
# Data Avg         =  0.0430683440915991
# Data StdDev      =  1.0000489222068  
# Profile Bins     =  512
# Profile Avg      =  606.378801144116 
# Profile StdDev   =  118.664980862268 
# Reduced chi-sqr  =  2.229
# Prob(Noise)      <  7.79e-50   (~14.8 sigma)
# P_topo (ms)      =  714.54103209643   +/- 4.58e-05
# P'_topo (s/s)    =  -0                +/- 2.46e-11
# P''_topo (s/s^2) =  0                 +/- 1.11e-14
# P_bary (ms)      =  N/A
# P'_bary (s/s)    =  N/A
# P''_bary (s/s^2) =  N/A
# P_orb (s)        =  N/A
# asin(i)/c (s)    =  N/A
# eccentricity     =  N/A
# w (rad)          =  N/A
# T_peri           =  N/A
######################################################
   0  1320.679
   1  1268.114
   2  1162.554
   3  868.1424
   4  618.1073
   5  602.131
   6  701.5041
   7  592.7813
   8  502.9676
   9  501.1687
  10  529.8279
  11  727.9668
  12  846.125
  13  817.1165
  14  781.1964
  15  658.0592
  16  666.6467
  17  596.9244
  18  567.9438
  19  714.1057
  20  636.3533
  21  595.7205
  22  536.3628
  23  407.9431
  24  417.8597
  25  584.8438
  26  696.7261
  27  629.4199
  28  544.498
  29  720.2078
  30  726.4214
  31  527.3743
  32  513.3868
  33  516.4504
  34  556.205
  35  574.8943
  36  584.3963
  37  538.1609
  38  539.4116
  39  529.5752
  40  563.5623
  41  556.2039
  42  461.657
  43  596.2165
  44  765.5564
  45  818.0154
  46  780.7752
  47  662.1624
  48  618.0166
  49  582.1769
  50  664.1663
  51  675.7673
  52  519.1299
  53  567.9452
  54  578.3033
  55  612.7044
  56  517.7419
  57  511.6474
  58  492.0602
  59  568.272
  60  697.1983
  61  763.3359
  62  774.7522
  63  747.9019
  64  678.9651
  65  623.632
  66  581.8672
  67  613.6238
  68  595.3889
  69  515.5328
  70  536.916
  71  645.1375
  72  589.8629
  73  578.6474
  74  519.0841
  75  496.9966
  76  669.2775
  77  659.359
  78  690.0922
  79  578.1757
  80  503.8558
  81  528.9491
  82  436.6847
  83  512.5214
  84  513.3762
  85  486.2351
  86  620.7035
  87  628.9448
  88  605.1028
  89  498.2869
  90  367.4739
  91  386.8901
  92  523.5104
  93  646.6973
  94  757.0681
  95  749.132
  96  733.7341
  97  535.1087
  98  405.9609
  99  382.3086
 100  412.4828
 101  537.0305
 102  529.0415
 103  540.1022
 104  434.7223
 105  513.3737
 106  534.3598
 107  551.7855
 108  519.5668
 109  510.1203
 110  529.8997
 111  536.6054
 112  638.1765
 113  555.1155
 114  569.6791
 115  458.9037
 116  351.7298
 117  249.3627
 118  346.1963
 119  508.9725
 120  541.9123
 121  465.9709
 122  503.6898
 123  483.4194
 124  466.7873
 125  474.8795
 126  499.9339
 127  490.791
 128  617.2982
 129  585.2409
 130  610.8004
 131  546.5931
 132  466.6264
 133  459.6367
 134  419.2133
 135  410.3715
 136  650.6873
 137  680.4001
 138  584.3408
 139  486.1347
 140  512.0018
 141  604.3245
 142  609.5103
 143  646.7492
 144  550.4005
 145  559.5918
 146  654.6707
 147  604.4932
 148  616.0853
 149  541.5113
 150  414.4196
 151  398.6773
 152  605.9587
 153  611.873
 154  609.5082
 155  531.9044
 156  437.6853
 157  510.5346
 158  612.1124
 159  837.9802
 160  863.0332
 161  727.525
 162  612.5226
 163  557.174
 164  573.618
 165  563.4266
 166  705.4423
 167  593.6119
 168  599.9183
 169  615.6321
 170  466.1509
 171  560.519
 172  630.6111
 173  587.5867
 174  627.7726
 175  580.2253
 176  670.746
 177  567.6452
 178  614.3751
 179  635.037
 180  561.6628
 181  627.7678
 182  637.059
 183  502.7904
 184  514.943
 185  560.8472
 186  711.3645
 187  575.3754
 188  502.7988
 189  548.7501
 190  554.3075
 191  507.8912
 192  671.7402
 193  602.5104
 194  602.4539
 195  534.9805
 196  652.278
 197  648.1893
 198  606.548
 199  510.8309
 200  538.9749
 201  695.5287
 202  817.1025
 203  799.6437
 204  594.5607
 205  536.1803
 206  536.427
 207  429.7279
 208  529.7622
 209  527.2573
 210  724.9589
 211  739.3526
 212  721.6132
 213  703.4482
 214  534.4952
 215  443.9619
 216  441.4183
 217  506.7696
 218  599.0817
 219  548.6028
 220  462.9579
 221  542.2527
 222  465.6249
 223  462.184
 224  592.0383
 225  750.7549
 226  737.6011
 227  547.9242
 228  534.3758
 229  578.9777
 230  610.022
 231  565.5732
 232  424.5851
 233  583.7018
 234  539.4539
 235  485.4514
 236  551.6154
 237  522.7195
 238  485.1127
 239  490.7623
 240  465.3198
 241  414.4979
 242  702.8437
 243  726.0159
 244  758.4741
 245  808.2656
 246  600.9045
 247  553.4269
 248  636.0967
 249  582.3868
 250  551.7971
 251  556.6204
 252  504.8611
 253  500.8251
 254  374.8278
 255  498.2071
 256  544.8875
 257  483.4062
 258  547.736
 259  698.7488
 260  713.259
 261  585.088
 262  674.3365
 263  605.0751
 264  410.2513
 265  473.9933
 266  646.033
 267  763.455
 268  706.4393
 269  561.0536
 270  473.7253
 271  433.8299
 272  510.3062
 273  555.1389
 274  485.1329
 275  459.97
 276  658.5903
 277  831.9631
 278  778.5569
 279  707.4276
 280  530.2134
 281  541.3163
 282  574.1693
 283  709.8946
 284  725.4913
 285  740.1293
 286  619.9575
 287  622.1258
 288  658.1059
 289  577.7076
 290  618.0951
 291  615.7397
 292  734.0424
 293  839.8512
 294  811.3319
 295  779.2391
 296  589.6045
 297  445.2742
 298  402.3742
 299  398.9092
 300  538.0585
 301  747.3588
 302  768.5657
 303  705.2098
 304  582.239
 305  554.948
 306  443.6901
 307  563.921
 308  686.1623
 309  662.3375
 310  639.4158
 311  697.3783
 312  629.6737
 313  620.4462
 314  623.8675
 315  589.3345
 316  677.3806
 317  611.9173
 318  559.1145
 319  465.9865
 320  495.0913
 321  570.4334
 322  464.0451
 323  437.5986
 324  557.6216
 325  586.3555
 326  652.1492
 327  629.3582
 328  593.5864
 329  621.3936
 330  601.5912
 331  585.2461
 332  542.3635
 333  524.7425
 334  562.6943
 335  611.984
 336  621.5299
 337  495.6501
 338  548.8653
 339  479.9921
 340  470.812
 341  616.2192
 342  753.0135
 343  754.7093
 344  664.4828
 345  576.1422
 346  620.5639
 347  622.1507
 348  616.0304
 349  625.5961
 350  688.8309
 351  690.094
 352  643.6707
 353  625.739
 354  403.9962
 355  418.9727
 356  541.4573
 357  568.6623
 358  553.3814
 359  647.3431
 360  667.6057
 361  656.032
 362  520.8913
 363  554.818
 364  484.3864
 365  538.632
 366  588.3286
 367  576.016
 368  649.0514
 369  686.0543
 370  693.4791
 371  421.8318
 372  493.0651
 373  546.7022
 374  776.8615
 375  864.623
 376  802.0062
 377  739.7813
 378  681.4083
 379  680.1133
 380  571.4653
 381  608.4871
 382  624.658
 383  714.8613
 384  797.0963
 385  664.626
 386  616.2131
 387  523.077
 388  604.9956
 389  525.876
 390  607.6777
 391  724.6093
 392  775.5612
 393  661.9517
 394  579.473
 395  604.3901
 396  634.9106
 397  620.4496
 398  551.1795
 399  718.721
 400  812.7247
 401  787.5606
 402  714.8964
 403  685.2218
 404  675.9783
 405  549.8755
 406  539.1449
 407  597.0295
 408  763.9097
 409  761.2479
 410  747.6584
 411  709.7322
 412  545.2085
 413  509.7257
 414  474.1945
 415  588.3593
 416  663.7735
 417  732.7354
 418  591.5524
 419  486.3272
 420  533.2598
 421  536.1727
 422  590.5579
 423  599.1891
 424  519.2001
 425  637.842
 426  809.4215
 427  908.7672
 428  714.2526
 429  541.2603
 430  639.1198
 431  543.2557
 432  536.7435
 433  569.0292
 434  600.5147
 435  631.3921
 436  618.1269
 437  553.696
 438  596.2545
 439  495.134
 440  634.4974
 441  760.6445
 442  721.4302
 443  728.2568
 444  651.8035
 445  613.5496
 446  482.5184
 447  434.4155
 448  450.8805
 449  387.2311
 450  527.6288
 451  710.527
 452  529.6306
 453  470.9893
 454  494.2068
 455  558.1281
 456  599.4289
 457  630.1697
 458  616.192
 459  679.5755
 460  710.579
 461  642.8392
 462  542.4689
 463  485.4949
 464  534.9095
 465  529.9313
 466  587.8282
 467  692.0483
 468  596.1316
 469  508.9518
 470  445.9791
 471  521.0978
 472  636.8985
 473  648.7491
 474  710.7686
 475  749.2762
 476  761.3439
 477  717.6692
 478  718.0427
 479  633.2854
 480  553.4052
 481  573.1549
 482  566.2806
 483  691.3595
 484  701.8028
 485  678.949
 486  636.0178
 487  527.3955
 488  505.6949
 489  570.5488
 490  727.7584
 491  863.2691
 492  783.0749
 493  686.2759
 494  757.1638
 495  666.5804
 496  648.7448
 497  595.3798
 498  690.4069
 499  754.7908
 500  718.2526
 501  660.0771
 502  642.7545
 503  576.1276
 504  601.4187
 505  694.5687
 506  814.2519
 507  852.8892
 508  1006.619
 509  1179.006
 510  1358.702
 511  1393.895
