# Input file       =  1209617964.103228_cleaned.dat
# Candidate        =  PSR_0332+5434
# Telescope        =  AR
# Epoch_topo       =  58244.207709528106
# Epoch_bary       =  N/A
# T_sample         =  0.002
# Data Folded      =  7208960
# Data Avg         =  0.0617766168111831
# Data StdDev      =  1.00004710327844 
# Profile Bins     =  512
# Profile Avg      =  869.812889946326 
# Profile StdDev   =  118.664765029728 
# Reduced chi-sqr  =  1.589
# Prob(Noise)      <  4.61e-16   (~8.0 sigma)
# P_topo (ms)      =  714.541963128431  +/- 4.61e-05
# P'_topo (s/s)    =  -0                +/- 2.47e-11
# P''_topo (s/s^2) =  0                 +/- 1.11e-14
# P_bary (ms)      =  N/A
# P'_bary (s/s)    =  N/A
# P''_bary (s/s^2) =  N/A
# P_orb (s)        =  N/A
# asin(i)/c (s)    =  N/A
# eccentricity     =  N/A
# w (rad)          =  N/A
# T_peri           =  N/A
######################################################
   0  1528.523
   1  1562.989
   2  1437.012
   3  1168.804
   4  935.3991
   5  838.8065
   6  771.0811
   7  916.3279
   8  837.6743
   9  880.7975
  10  807.7405
  11  882.476
  12  942.9207
  13  910.7051
  14  960.9254
  15  949.4272
  16  892.7142
  17  784.6098
  18  760.4868
  19  877.0192
  20  978.6859
  21  1046.484
  22  1011.76
  23  935.44
  24  856.472
  25  893.227
  26  809.866
  27  863.9905
  28  980.7355
  29  920.2372
  30  998.9591
  31  977.1299
  32  984.201
  33  893.2523
  34  835.4524
  35  908.3077
  36  921.8337
  37  822.5804
  38  937.9695
  39  1079.604
  40  1058.912
  41  947.2706
  42  860.257
  43  922.1707
  44  896.0654
  45  791.7517
  46  848.3144
  47  1015.336
  48  974.5922
  49  920.8333
  50  872.6861
  51  948.8152
  52  1109.924
  53  1057.229
  54  928.1085
  55  842.0359
  56  892.8475
  57  874.5482
  58  866.3468
  59  796.8179
  60  762.5184
  61  836.6401
  62  886.6403
  63  892.1045
  64  875.2456
  65  880.423
  66  828.2024
  67  768.7116
  68  835.2218
  69  944.1076
  70  863.8863
  71  854.8889
  72  929.2685
  73  858.0004
  74  677.9281
  75  637.4308
  76  732.4764
  77  750.0307
  78  853.5121
  79  959.0041
  80  898.0628
  81  863.2203
  82  866.1976
  83  888.3625
  84  831.6536
  85  765.4478
  86  844.2748
  87  872.9577
  88  870.106
  89  790.2267
  90  795.6241
  91  807.5229
  92  777.9826
  93  792.5251
  94  825.006
  95  886.3652
  96  845.9839
  97  871.1646
  98  980.6763
  99  897.3047
 100  811.2349
 101  808.5615
 102  754.1069
 103  830.4881
 104  955.0648
 105  992.8401
 106  829.7507
 107  738.5247
 108  689.4515
 109  786.3023
 110  832.5694
 111  849.1396
 112  903.7089
 113  873.8924
 114  884.619
 115  853.081
 116  915.1978
 117  917.737
 118  855.575
 119  934.611
 120  1058.484
 121  1084.338
 122  1035.475
 123  945.1171
 124  872.7382
 125  761.7723
 126  725.6833
 127  799.71
 128  931.437
 129  989.7234
 130  1013.279
 131  927.8058
 132  901.4438
 133  831.2527
 134  901.4421
 135  959.9029
 136  984.1803
 137  946.9611
 138  1029.151
 139  1081.526
 140  956.5594
 141  808.4389
 142  928.1846
 143  865.4517
 144  841.9172
 145  1027.506
 146  1115.418
 147  1046.236
 148  977.8074
 149  942.7917
 150  863.3828
 151  804.4457
 152  1063.386
 153  1024.073
 154  925.5792
 155  967.8457
 156  860.8049
 157  864.5463
 158  894.627
 159  880.5261
 160  883.3763
 161  924.9101
 162  949.285
 163  884.4771
 164  870.6198
 165  814.712
 166  755.5218
 167  754.5346
 168  741.2325
 169  782.9601
 170  747.7775
 171  834.7638
 172  797.2692
 173  768.7332
 174  750.1288
 175  658.7187
 176  704.1378
 177  812.4318
 178  964.3032
 179  932.1556
 180  958.5194
 181  819.6039
 182  797.8122
 183  828.4352
 184  837.6452
 185  712.3171
 186  833.1519
 187  933.1227
 188  890.8892
 189  848.217
 190  786.1146
 191  731.9426
 192  709.6474
 193  751.7273
 194  844.6592
 195  874.5238
 196  970.3785
 197  986.2743
 198  890.4155
 199  704.0543
 200  798.0086
 201  765.6821
 202  838.4257
 203  835.4588
 204  738.7639
 205  731.6548
 206  880.2975
 207  848.4097
 208  781.9052
 209  654.3156
 210  668.2177
 211  816.6609
 212  769.8272
 213  791.9075
 214  814.3334
 215  796.9883
 216  850.152
 217  852.9167
 218  835.7552
 219  787.1718
 220  713.6168
 221  807.6181
 222  777.2368
 223  708.9815
 224  861.1734
 225  723.6754
 226  613.9167
 227  756.6633
 228  948.8819
 229  1019.814
 230  907.6342
 231  898.6309
 232  858.0844
 233  799.2114
 234  834.3099
 235  906.8821
 236  864.3153
 237  846.8058
 238  872.8746
 239  745.5267
 240  836.0915
 241  765.8468
 242  730.3498
 243  761.8362
 244  952.7811
 245  1063.9
 246  945.332
 247  826.363
 248  757.0446
 249  840.3112
 250  849.6345
 251  856.7183
 252  918.024
 253  1001.627
 254  969.0375
 255  860.7549
 256  921.83
 257  835.809
 258  892.5327
 259  879.4114
 260  830.3409
 261  971.0417
 262  1022.523
 263  925.4396
 264  789.0004
 265  745.7789
 266  756.6567
 267  823.7491
 268  822.4255
 269  931.5148
 270  1010.547
 271  1025.066
 272  965.5
 273  841.3435
 274  723.1318
 275  877.172
 276  789.8597
 277  776.1834
 278  849.7278
 279  819.4597
 280  812.8039
 281  945.2945
 282  841.9789
 283  800.8359
 284  850.7744
 285  826.2333
 286  876.6789
 287  903.9161
 288  881.6597
 289  785.3564
 290  773.0527
 291  837.5792
 292  733.8533
 293  894.1172
 294  978.1476
 295  884.0349
 296  853.7396
 297  802.6672
 298  786.778
 299  779.3027
 300  705.1223
 301  755.327
 302  909.7237
 303  946.1713
 304  1022.802
 305  875.1131
 306  776.9741
 307  718.6497
 308  680.3132
 309  941.257
 310  906.063
 311  843.0923
 312  951.3833
 313  944.2307
 314  880.923
 315  733.9261
 316  826.6319
 317  865.6687
 318  943.7862
 319  1057.987
 320  854.0365
 321  745.751
 322  843.0541
 323  788.311
 324  821.8937
 325  784.1288
 326  891.848
 327  1014.7
 328  898.0894
 329  819.1273
 330  877.627
 331  848.8004
 332  802.467
 333  817.5374
 334  933.2261
 335  953.7275
 336  947.4632
 337  1044.25
 338  900.4282
 339  798.2712
 340  755.2593
 341  865.3216
 342  817.6849
 343  904.0356
 344  942.3708
 345  964.8127
 346  923.5607
 347  780.49
 348  740.2708
 349  784.8557
 350  812.2621
 351  903.5771
 352  961.559
 353  865.7827
 354  674.1699
 355  690.8611
 356  727.5037
 357  716.8672
 358  835.252
 359  923.0975
 360  912.6819
 361  894.3005
 362  928.7901
 363  966.1699
 364  916.787
 365  835.3627
 366  747.2421
 367  843.9545
 368  916.6719
 369  920.6323
 370  952.0361
 371  939.4768
 372  807.0297
 373  833.8282
 374  956.79
 375  921.2062
 376  953.7454
 377  923.3848
 378  985.6444
 379  938.8829
 380  917.0784
 381  881.9878
 382  903.6945
 383  834.7893
 384  909.5809
 385  923.9249
 386  894.3998
 387  900.9764
 388  809.5931
 389  836.8612
 390  812.7436
 391  828.0929
 392  905.2064
 393  951.3465
 394  976.5501
 395  942.3685
 396  918.3533
 397  899.4404
 398  826.7958
 399  812.4717
 400  873.697
 401  901.8341
 402  887.4006
 403  783.4364
 404  676.7573
 405  728.9616
 406  784.9835
 407  822.8514
 408  828.4142
 409  825.4478
 410  869.3188
 411  920.6478
 412  808.0786
 413  850.6185
 414  812.7285
 415  863.153
 416  913.5468
 417  944.5466
 418  891.1606
 419  860.6818
 420  878.1981
 421  807.0885
 422  770.623
 423  771.9623
 424  863.7902
 425  846.6769
 426  868.4426
 427  812.2784
 428  831.5061
 429  691.8959
 430  757.6176
 431  804.5451
 432  850.6949
 433  919.8605
 434  873.3314
 435  937.6783
 436  960.8237
 437  784.8144
 438  701.3477
 439  707.5544
 440  772.7384
 441  704.2383
 442  748.4591
 443  894.4076
 444  945.3459
 445  812.7441
 446  689.9044
 447  716.9467
 448  676.8854
 449  788.8228
 450  967.7929
 451  977.6786
 452  991.3936
 453  811.8582
 454  751.2772
 455  786.7388
 456  887.0682
 457  824.2839
 458  952.0575
 459  916.9624
 460  980.6319
 461  964.3403
 462  888.5274
 463  815.7097
 464  870.1484
 465  867.3742
 466  845.228
 467  822.5679
 468  873.6802
 469  920.7988
 470  829.8419
 471  799.2364
 472  739.9167
 473  867.2704
 474  825.3016
 475  872.4364
 476  894.7898
 477  955.3787
 478  995.9401
 479  857.9919
 480  672.1149
 481  624.1092
 482  798.1248
 483  979.7795
 484  910.1998
 485  921.4295
 486  903.4391
 487  806.5136
 488  741.8985
 489  852.4381
 490  847.9562
 491  885.6999
 492  932.3868
 493  954.6759
 494  996.2868
 495  935.9231
 496  865.3354
 497  720.287
 498  708.983
 499  844.1226
 500  821.7888
 501  932.6693
 502  955.7151
 503  933.944
 504  897.0152
 505  913.2223
 506  886.3733
 507  909.3722
 508  979.5892
 509  1133.717
 510  1331.266
 511  1557.248
