# Input file       =  1209617964.103228_cleaned.dat
# Candidate        =  PSR_0332+5434
# Telescope        =  AR
# Epoch_topo       =  58244.207709528106
# Epoch_bary       =  N/A
# T_sample         =  0.002
# Data Folded      =  7208960
# Data Avg         =  0.0617766168111831
# Data StdDev      =  1.00004710327844 
# Profile Bins     =  512
# Profile Avg      =  869.812890099066 
# Profile StdDev   =  118.664765029728 
# Reduced chi-sqr  =  1.590
# Prob(Noise)      <  3.99e-16   (~8.1 sigma)
# P_topo (ms)      =  714.541963062665  +/- 4.67e-05
# P'_topo (s/s)    =  -0                +/- 2.51e-11
# P''_topo (s/s^2) =  0                 +/- 1.13e-14
# P_bary (ms)      =  N/A
# P'_bary (s/s)    =  N/A
# P''_bary (s/s^2) =  N/A
# P_orb (s)        =  N/A
# asin(i)/c (s)    =  N/A
# eccentricity     =  N/A
# w (rad)          =  N/A
# T_peri           =  N/A
######################################################
   0  1519.328
   1  1551.169
   2  1273.605
   3  1036.245
   4  873.3889
   5  772.931
   6  854.7291
   7  891.9415
   8  850.7756
   9  871.1422
  10  804.5007
  11  948.7009
  12  922.4132
  13  921.3138
  14  975.3839
  15  895.7278
  16  852.386
  17  739.4875
  18  816.8196
  19  957.9102
  20  1012.602
  21  1047.77
  22  971.4344
  23  858.16
  24  893.5623
  25  837.2612
  26  842.4944
  27  941.8094
  28  961.5539
  29  925.0782
  30  1015.215
  31  966.5428
  32  961.4684
  33  833.9128
  34  862.2522
  35  948.4052
  36  855.0724
  37  864.0781
  38  1016.535
  39  1097.183
  40  1004.834
  41  896.6155
  42  876.4705
  43  927.6989
  44  829.9062
  45  782.4963
  46  975.4536
  47  987.376
  48  956.8901
  49  868.443
  50  909.8426
  51  1052.775
  52  1097.5
  53  996.3776
  54  852.701
  55  877.6005
  56  897.7697
  57  850.1949
  58  845.3247
  59  746.3745
  60  801.3541
  61  882.0565
  62  891.9188
  63  889.7569
  64  882.5048
  65  859.738
  66  781.2258
  67  785.428
  68  899.6821
  69  930.1985
  70  828.7411
  71  906.9896
  72  900.2764
  73  769.2469
  74  622.085
  75  702.2315
  76  747.1316
  77  793.5491
  78  928.8306
  79  922.7811
  80  881.7623
  81  841.8849
  82  893.9245
  83  856.5014
  84  798.0707
  85  802.6793
  86  855.3683
  87  891.4004
  88  802.9374
  89  802.4325
  90  799.4034
  91  803.9633
  92  787.5651
  93  789.4251
  94  863.916
  95  877.317
  96  833.53
  97  954.4656
  98  929.7068
  99  853.409
 100  812.4403
 101  773.7197
 102  780.6793
 103  894.3912
 104  1013.277
 105  909.3668
 106  753.2274
 107  712.2593
 108  724.0325
 109  840.8618
 110  823.7231
 111  898.4669
 112  870.7903
 113  894.5208
 114  854.9274
 115  886.8005
 116  939.0239
 117  849.2224
 118  895.6389
 119  994.7881
 120  1112.37
 121  1064.339
 122  991.7062
 123  888.0603
 124  821.8384
 125  724.6067
 126  778.3849
 127  839.7748
 128  988.4008
 129  994.1069
 130  994.5512
 131  895.8026
 132  864.4581
 133  839.7989
 134  958.7317
 135  965.9786
 136  981.0821
 137  952.4279
 138  1093.498
 139  1028.711
 140  847.0569
 141  866.3063
 142  917.9561
 143  830.7691
 144  936.8948
 145  1091.439
 146  1081.974
 147  999.5876
 148  954.9969
 149  931.7826
 150  785.9729
 151  935.5154
 152  1104.207
 153  917.8539
 154  988.9207
 155  896.1321
 156  864.2874
 157  866.7165
 158  900.425
 159  872.7088
 160  910.5214
 161  934.6797
 162  921.6729
 163  863.2614
 164  869.2756
 165  765.0233
 166  749.7114
 167  749.4108
 168  768.0659
 169  757.4833
 170  799.9899
 171  826.5417
 172  768.5365
 173  764.3113
 174  699.5934
 175  671.9934
 176  752.0408
 177  891.1324
 178  971.0189
 179  935.1945
 180  921.504
 181  768.5645
 182  811.9648
 183  861.9023
 184  753.2838
 185  762.1426
 186  900.9426
 187  911.4925
 188  864.8476
 189  829.5594
 190  739.4379
 191  729.2178
 192  704.6534
 193  821.5382
 194  855.5456
 195  925.2527
 196  989.4133
 197  967.9927
 198  748.6658
 199  763.9446
 200  769.2975
 201  804.9683
 202  850.128
 203  792.1361
 204  707.7032
 205  820.1877
 206  876.9413
 207  813.1802
 208  725.3063
 209  628.9742
 210  756.0641
 211  806.5739
 212  763.5906
 213  833.1153
 214  774.6525
 215  829.1453
 216  833.4813
 217  878.253
 218  809.2861
 219  744.2584
 220  721.6692
 221  846.6264
 222  692.4297
 223  828.9858
 224  806.088
 225  629.3887
 226  667.7219
 227  874.5004
 228  1016.712
 229  965.6457
 230  873.6251
 231  898.2871
 232  803.8934
 233  820.435
 234  881.5932
 235  890.3557
 236  830.6632
 237  873.5334
 238  812.1541
 239  777.7006
 240  834.6594
 241  709.2843
 242  742.3497
 243  859.1761
 244  1047.666
 245  1014.894
 246  857.7219
 247  778.5728
 248  801.1693
 249  852.8611
 250  853.999
 251  874.9159
 252  976.8466
 253  1011.885
 254  878.4416
 255  896.6595
 256  880.0146
 257  847.6436
 258  915.5154
 259  829.0532
 260  884.3868
 261  1045.203
 262  963.1658
 263  856.7383
 264  744.3117
 265  731.9435
 266  817.6307
 267  818.1022
 268  890.9188
 269  967.6353
 270  1036.073
 271  982.2515
 272  934.1062
 273  722.3706
 274  823.7853
 275  831.0131
 276  788.0928
 277  812.8751
 278  853.9678
 279  770.3136
 280  890.1859
 281  919.2128
 282  798.145
 283  835.328
 284  827.2783
 285  858.6857
 286  895.7985
 287  909.098
 288  814.0604
 289  758.7277
 290  822.3143
 291  789.186
 292  792.2258
 293  996.2427
 294  914.48
 295  870.3165
 296  815.6505
 297  794.0188
 298  783.2797
 299  737.8303
 300  703.721
 301  851.0214
 302  935.9489
 303  989.3607
 304  969.6473
 305  796.2994
 306  767.562
 307  650.5084
 308  827.5907
 309  954.6244
 310  847.8812
 311  911.0495
 312  943.3434
 313  938.7521
 314  778.9124
 315  770.7494
 316  854.9672
 317  880.5596
 318  1047.649
 319  954.1486
 320  772.3522
 321  791.1364
 322  843.8077
 323  775.6708
 324  824.528
 325  814.0915
 326  1000.541
 327  961.0909
 328  827.3926
 329  838.4977
 330  869.1706
 331  831.8367
 332  786.2937
 333  885.2444
 334  965.1024
 335  922.7642
 336  1026.537
 337  974.7158
 338  841.0992
 339  749.6498
 340  820.1796
 341  862.292
 342  842.0065
 343  926.0263
 344  947.6202
 345  955.2142
 346  838.2296
 347  752.75
 348  760.7126
 349  818.9527
 350  842.6591
 351  955.3083
 352  941.3532
 353  746.466
 354  664.5357
 355  714.7798
 356  715.9528
 357  773.79
 358  888.2584
 359  924.3936
 360  896.8964
 361  903.7406
 362  968.9115
 363  951.0034
 364  861.597
 365  784.4708
 366  766.1082
 367  928.3541
 368  894.605
 369  961.3482
 370  927.5233
 371  893.9488
 372  765.2018
 373  934.4039
 374  928.6234
 375  939.7278
 376  942.6177
 377  950.5884
 378  977.2507
 379  908.6956
 380  901.8318
 381  903.3642
 382  850.1965
 383  881.4374
 384  916.298
 385  923.7985
 386  886.1082
 387  859.4957
 388  803.3791
 389  854.2888
 390  798.2354
 391  888.1552
 392  899.6908
 393  987.4871
 394  950.3174
 395  933.5233
 396  910.1938
 397  855.4423
 398  805.2761
 399  853.5985
 400  888.7169
 401  928.6552
 402  813.7748
 403  720.5252
 404  680.6743
 405  773.8342
 406  809.9312
 407  819.6186
 408  831.1086
 409  829.9149
 410  937.1318
 411  841.1091
 412  827.6472
 413  816.962
 414  837.323
 415  906.5488
 416  943.4326
 417  920.7814
 418  837.9495
 419  893.0046
 420  839.9158
 421  793.5711
 422  735.2085
 423  846.0335
 424  842.6087
 425  882.566
 426  815.7916
 427  852.8388
 428  753.9205
 429  690.853
 430  812.423
 431  787.9858
 432  933.2411
 433  871.6785
 434  911.1331
 435  981.3773
 436  867.5838
 437  717.9711
 438  690.1251
 439  756.6764
 440  739.9844
 441  723.387
 442  787.9609
 443  980.4122
 444  849.2911
 445  766.7208
 446  681.1849
 447  709.0142
 448  702.3044
 449  900.3694
 450  993.4657
 451  979.5284
 452  908.9195
 453  744.9649
 454  758.1979
 455  882.7962
 456  833.2457
 457  906.3868
 458  931.196
 459  960.8671
 460  968.7337
 461  932.3073
 462  819.4925
 463  832.332
 464  899.0708
 465  855.4977
 466  839.2316
 467  822.6943
 468  920.1047
 469  879.0381
 470  809.2611
 471  760.5255
 472  794.8445
 473  874.7393
 474  833.3724
 475  888.6539
 476  909.4409
 477  1003.204
 478  935.8167
 479  751.8218
 480  608.6819
 481  699.5955
 482  920.4281
 483  964.3207
 484  900.944
 485  928.8469
 486  862.9448
 487  735.7968
 488  809.6425
 489  850.9904
 490  868.4836
 491  899.9708
 492  955.2512
 493  981.427
 494  973.7791
 495  909.7424
 496  769.8727
 497  682.2314
 498  800.6679
 499  833.8607
 500  883.0356
 501  936.9185
 502  957.9357
 503  893.9388
 504  938.8273
 505  885.1512
 506  905.6117
 507  922.1412
 508  1074.915
 509  1225.333
 510  1482.949
 511  1548.937
