# Input file       =  1209704165.112302_cleaned.dat
# Candidate        =  PSR_0332+5434
# Telescope        =  AR
# Epoch_topo       =  58245.205406392386
# Epoch_bary       =  N/A
# T_sample         =  0.002
# Data Folded      =  7208960
# Data Avg         =  0.0430683440915991
# Data StdDev      =  1.0000489222068  
# Profile Bins     =  512
# Profile Avg      =  606.378801019061 
# Profile StdDev   =  118.664980862268 
# Reduced chi-sqr  =  2.234
# Prob(Noise)      <  3.5e-50   (~14.8 sigma)
# P_topo (ms)      =  714.541031962798  +/- 4.65e-05
# P'_topo (s/s)    =  -0                +/- 2.5e-11
# P''_topo (s/s^2) =  0                 +/- 1.12e-14
# P_bary (ms)      =  N/A
# P'_bary (s/s)    =  N/A
# P''_bary (s/s^2) =  N/A
# P_orb (s)        =  N/A
# asin(i)/c (s)    =  N/A
# eccentricity     =  N/A
# w (rad)          =  N/A
# T_peri           =  N/A
######################################################
   0  1376.65
   1  1266.71
   2  1257.258
   3  1041.71
   4  736.7
   5  585.0522
   6  639.1199
   7  680.7031
   8  527.0158
   9  501.5098
  10  523.3981
  11  582.7941
  12  829.9162
  13  816.7398
  14  817.2427
  15  729.9117
  16  627.4182
  17  682.9343
  18  529.0763
  19  665.89
  20  690.924
  21  608.1978
  22  565.1416
  23  495.0979
  24  368.3586
  25  507.065
  26  640.6715
  27  695.7964
  28  560.9291
  29  600.4855
  30  767.3847
  31  642.4293
  32  491.8404
  33  528.1845
  34  519.0047
  35  589.8588
  36  572.2131
  37  562.9991
  38  533.1464
  39  538.2915
  40  534.129
  41  583.6424
  42  490.1915
  43  500.8253
  44  679.848
  45  795.8681
  46  818.8107
  47  721.067
  48  650.0095
  49  586.5208
  50  620.083
  51  691.7687
  52  599.2592
  53  519.2098
  54  578.4379
  55  612.0931
  56  566.4268
  57  513.0051
  58  482.4789
  59  515.2178
  60  632.4268
  61  724.4345
  62  796.1602
  63  757.9207
  64  742.3259
  65  630.7001
  66  616.2039
  67  575.181
  68  644.9749
  69  531.6769
  70  510.8461
  71  579.5524
  72  640.6359
  73  571.5224
  74  571.1755
  75  473.9995
  76  575.1828
  77  680.9105
  78  675.6159
  79  667.2333
  80  525.7208
  81  514.9034
  82  495.955
  83  436.4184
  84  545.9162
  85  470.2228
  86  549.5828
  87  654.8068
  88  601.6597
  89  599.3792
  90  411.2861
  91  375.2581
  92  405.9684
  93  608.5785
  94  673.5341
  95  783.1849
  96  738.6328
  97  663.6071
  98  469.9467
  99  379.2482
 100  390.2309
 101  464.2666
 102  539.0524
 103  547.3982
 104  487.929
 105  457.6993
 106  530.9328
 107  540.831
 108  530.5726
 109  534.9107
 110  497.9742
 111  548.2737
 112  569.8738
 113  613.7058
 114  560.8942
 115  527.6967
 116  417.9447
 117  286.4873
 118  290.7894
 119  414.0072
 120  545.6972
 121  496.617
 122  473.3743
 123  523.4028
 124  453.8111
 125  480.1964
 126  471.3996
 127  508.9502
 128  526.054
 129  632.8903
 130  572.0105
 131  606.7468
 132  502.7063
 133  454.5044
 134  466.8442
 135  377.9168
 136  511.8904
 137  684.8273
 138  662.6942
 139  519.1597
 140  495.3525
 141  539.0314
 142  622.1538
 143  603.1667
 144  642.1851
 145  511.6134
 146  634.3306
 147  618.8173
 148  604.0649
 149  596.1282
 150  492.6701
 151  383.4295
 152  492.9408
 153  628.86
 154  607.1487
 155  579.7344
 156  486.7215
 157  434.9086
 158  569.6739
 159  695.2033
 160  894.2562
 161  808.5443
 162  664.3978
 163  581.0196
 164  548.1337
 165  576.9283
 166  620.8779
 167  704.0046
 168  549.8133
 169  629.7458
 170  544.9755
 171  457.8604
 172  649.5439
 173  582.2489
 174  635.5521
 175  561.8636
 176  657.5319
 177  621.9782
 178  578.7733
 179  625.8627
 180  608.4884
 181  574.2089
 182  664.8709
 183  576.8886
 184  492.2283
 185  527.5992
 186  636.1578
 187  680.0389
 188  507.2734
 189  512.5143
 190  592.4965
 191  481.2904
 192  627.3242
 193  604.7349
 194  640.2065
 195  525.4483
 196  600.0731
 197  674.4728
 198  624.5777
 199  569.6619
 200  492.5067
 201  594.9729
 202  773.0305
 203  823.3012
 204  723.3542
 205  545.8229
 206  548.8854
 207  491.5857
 208  446.8477
 209  526.0471
 210  593.3654
 211  773.0203
 212  708.5934
 213  758.9432
 214  612.913
 215  500.3813
 216  429.3955
 217  468.2594
 218  545.0273
 219  600.6331
 220  480.4257
 221  499.0251
 222  519.0027
 223  435.0461
 224  521.5869
 225  660.7714
 226  803.519
 227  631.4944
 228  525.0715
 229  544.9487
 230  593.9939
 231  624.4095
 232  476.4711
 233  482.0481
 234  597.4788
 235  501.1836
 236  509.976
 237  558.9476
 238  477.7224
 239  501.2843
 240  468.8169
 241  446.3162
 242  508.1299
 243  784.0023
 244  686.8602
 245  831.3787
 246  708.473
 247  545.2017
 248  604.3935
 249  616.2526
 250  570.0286
 251  545.6774
 252  535.867
 253  513.6635
 254  435.8044
 255  422.8509
 256  524.3866
 257  544.1018
 258  451.1979
 259  649.1748
 260  707.4297
 261  660.763
 262  610.6324
 263  676.9743
 264  515.8111
 265  393.1387
 266  564.4137
 267  706.9446
 268  754.0574
 269  636.8878
 270  513.0255
 271  447.9028
 272  448.2999
 273  552.8147
 274  544.9789
 275  460.9225
 276  517.7728
 277  756.9457
 278  824.3878
 279  744.9402
 280  635.9681
 281  506.6751
 282  559.1322
 283  607.9501
 284  749.4656
 285  730.3847
 286  724.8578
 287  575.6844
 288  661.0388
 289  615.1709
 290  592.903
 291  622.9816
 292  651.0125
 293  782.8314
 294  842.1209
 295  787.614
 296  749.0031
 297  465.9024
 298  448.4062
 299  362.106
 300  468.3711
 301  636.1761
 302  791.0473
 303  737.9423
 304  640.1966
 305  572.7518
 306  484.9221
 307  482.8765
 308  615.6289
 309  710.6095
 310  629.4114
 311  684.2951
 312  683.7863
 313  609.5356
 314  635.5495
 315  578.1306
 316  636.0056
 317  654.9988
 318  599.0293
 319  511.1986
 320  456.9099
 321  537.0224
 322  550.5693
 323  411.3646
 324  501.4587
 325  573.936
 326  606.9938
 327  656.6984
 328  594.9449
 329  617.0887
 330  632.5267
 331  579.2201
 332  573.7989
 333  519.8804
 334  538.6026
 335  591.2327
 336  635.8
 337  556.3559
 338  512.2862
 339  528.1299
 340  471.9597
 341  498.0054
 342  705.4133
 343  756.9243
 344  719.4494
 345  623.4893
 346  566.9627
 347  666.2209
 348  590.4956
 349  642.6699
 350  632.6976
 351  721.0389
 352  637.6595
 353  663.7831
 354  533.6346
 355  365.9987
 356  482.8884
 357  561.7409
 358  556.4702
 359  592.5587
 360  663.9728
 361  681.1923
 362  573.5823
 363  540.9114
 364  518.0305
 365  513.1767
 366  558.3932
 367  582.791
 368  597.1526
 369  666.918
 370  714.8464
 371  577.6228
 372  413.4302
 373  537.4948
 374  633.4982
 375  840.1936
 376  846.0665
 377  756.7333
 378  712.545
 379  687.8259
 380  631.0287
 381  592.4478
 382  607.7373
 383  664.7415
 384  761.9458
 385  762.9879
 386  620.9299
 387  570.566
 388  549.7649
 389  594.4481
 390  532.1277
 391  670.5752
 392  750.7745
 393  731.7903
 394  605.477
 395  599.592
 396  600.3384
 397  660.2222
 398  570.9836
 399  619.2293
 400  788.7512
 401  791.355
 402  756.4709
 403  684.6542
 404  699.3516
 405  621.7184
 406  520.472
 407  572.7774
 408  661.9117
 409  791.2217
 410  732.7202
 411  747.3892
 412  636.277
 413  525.6215
 414  468.795
 415  525.6645
 416  618.4339
 417  719.1035
 418  697.6862
 419  517.1917
 420  505.3947
 421  535.825
 422  538.8462
 423  643.2034
 424  518.6202
 425  582.2817
 426  685.5288
 427  903.7659
 428  846.2654
 429  589.9484
 430  582.0112
 431  610.5583
 432  527.9131
 433  562.4219
 434  574.3069
 435  618.3427
 436  614.3915
 437  600.4484
 438  565.3865
 439  586.9839
 440  484.9994
 441  745.7999
 442  713.6634
 443  762.5204
 444  689.1329
 445  639.7247
 446  559.6694
 447  446.9134
 448  446.5945
 449  426.5559
 450  392.8694
 451  650.6781
 452  650.298
 453  478.5309
 454  480.299
 455  503.2321
 456  586.8887
 457  625.8068
 458  638.7676
 459  630.2175
 460  704.1083
 461  678.4425
 462  606.3178
 463  490.5648
 464  508.4117
 465  541.932
 466  534.7307
 467  649.2137
 468  676.8536
 469  529.2811
 470  499.6837
 471  426.566
 472  607.9138
 473  624.4272
 474  693.0204
 475  726.3355
 476  766.892
 477  737.0851
 478  729.7253
 479  675.2933
 480  600.473
 481  541.5585
 482  592.7505
 483  591.0814
 484  733.5107
 485  674.8714
 486  676.0454
 487  588.9641
 488  508.0798
 489  532.768
 490  614.6517
 491  819.8309
 492  836.283
 493  729.9102
 494  697.7385
 495  723.1801
 496  660.7987
 497  618.6442
 498  636.5733
 499  715.9029
 500  760.2843
 501  681.5334
 502  673.7789
 503  599.8076
 504  593.897
 505  600.7333
 506  780.5033
 507  799.8137
 508  931.3516
 509  1070.646
 510  1290.335
 511  1381.203
