# Input file       =  1209790337.117914_cleaned.dat
# Candidate        =  PSR_0332+5434
# Telescope        =  AR
# Epoch_topo       =  58246.202767568451
# Epoch_bary       =  N/A
# T_sample         =  0.002
# Data Folded      =  7208960
# Data Avg         =  0.0395060831862373
# Data StdDev      =  1.0000497539487  
# Profile Bins     =  512
# Profile Avg      =  556.082576827136 
# Profile StdDev   =  118.665079556076 
# Reduced chi-sqr  =  2.230
# Prob(Noise)      <  6.79e-50   (~14.8 sigma)
# P_topo (ms)      =  714.540095875817  +/- 3.06e-05
# P'_topo (s/s)    =  -0                +/- 1.64e-11
# P''_topo (s/s^2) =  0                 +/- 7.39e-15
# P_bary (ms)      =  N/A
# P'_bary (s/s)    =  N/A
# P''_bary (s/s^2) =  N/A
# P_orb (s)        =  N/A
# asin(i)/c (s)    =  N/A
# eccentricity     =  N/A
# w (rad)          =  N/A
# T_peri           =  N/A
######################################################
   0  1337.277
   1  1174.449
   2  1123.542
   3  1025.797
   4  810.85
   5  598.6184
   6  599.707
   7  588.9122
   8  506.1203
   9  510.5619
  10  560.2304
  11  641.2822
  12  800.3367
  13  884.5916
  14  803.9109
  15  751.7928
  16  721.6598
  17  560.9684
  18  491.0996
  19  572.5336
  20  624.7681
  21  758.2443
  22  717.724
  23  632.9037
  24  493.3085
  25  292.5828
  26  471.1521
  27  589.5499
  28  683.5264
  29  666.8278
  30  777.8644
  31  793.7848
  32  650.3597
  33  603.2092
  34  436.8767
  35  523.3256
  36  709.8129
  37  763.8182
  38  655.2032
  39  557.8076
  40  525.246
  41  373.6768
  42  479.6158
  43  606.963
  44  534.5266
  45  659.5303
  46  660.2322
  47  645.4532
  48  672.3938
  49  618.7028
  50  516.7551
  51  458.7827
  52  507.5761
  53  603.8055
  54  636.1243
  55  699.3701
  56  781.7402
  57  579.337
  58  506.6362
  59  511.0682
  60  697.7431
  61  703.6118
  62  688.7336
  63  768.7197
  64  738.2401
  65  492.9112
  66  543.2487
  67  567.3102
  68  547.73
  69  570.4965
  70  526.0514
  71  666.0852
  72  649.5122
  73  606.1387
  74  508.1367
  75  405.9168
  76  506.7553
  77  646.3001
  78  827.4902
  79  674.0723
  80  640.8455
  81  680.3491
  82  566.8113
  83  477.9632
  84  335.6083
  85  430.3213
  86  631.3221
  87  678.5775
  88  731.2073
  89  510.3752
  90  397.3699
  91  374.9786
  92  450.5989
  93  495.604
  94  616.0095
  95  789.2994
  96  740.6908
  97  737.4625
  98  636.7381
  99  495.7382
 100  349.881
 101  435.2928
 102  526.064
 103  620.705
 104  720.1307
 105  708.4603
 106  369.7166
 107  276.6842
 108  399.7412
 109  567.3351
 110  584.2121
 111  658.8286
 112  741.9268
 113  780.9114
 114  638.2798
 115  534.4902
 116  374.5794
 117  453.9276
 118  521.4235
 119  583.0374
 120  634.9655
 121  560.7728
 122  629.5398
 123  644.5269
 124  445.4883
 125  315.7322
 126  466.7251
 127  630.2711
 128  627.2097
 129  644.1351
 130  654.5939
 131  535.3261
 132  532.3248
 133  532.5477
 134  484.2629
 135  499.3227
 136  538.3868
 137  578.9223
 138  525.6136
 139  575.3938
 140  497.5257
 141  560.4594
 142  454.4109
 143  621.1155
 144  667.1799
 145  601.2549
 146  546.2064
 147  392.3131
 148  504.684
 149  516.9579
 150  564.9331
 151  524.4473
 152  539.8203
 153  593.7356
 154  525.6901
 155  495.1497
 156  461.7173
 157  520.4295
 158  528.9919
 159  549.2325
 160  619.6503
 161  589.7599
 162  726.5051
 163  559.5179
 164  549.3955
 165  492.1556
 166  502.6094
 167  586.8967
 168  559.6647
 169  679.7957
 170  660.0268
 171  614.1638
 172  456.6324
 173  487.9717
 174  513.5305
 175  461.9359
 176  509.4103
 177  671.3257
 178  743.6329
 179  729.4408
 180  643.2829
 181  526.6812
 182  466.6884
 183  530.4948
 184  583.094
 185  542.819
 186  584.3364
 187  485.8565
 188  438.695
 189  491.4973
 190  437.2401
 191  474.6021
 192  566.1983
 193  695.5853
 194  760.9977
 195  694.813
 196  627.3978
 197  486.7761
 198  445.0075
 199  439.0414
 200  554.136
 201  541.7946
 202  519.7245
 203  620.5676
 204  698.0475
 205  611.8806
 206  403.0836
 207  413.4863
 208  506.236
 209  452.1525
 210  471.2562
 211  605.2977
 212  523.1901
 213  570.0834
 214  402.487
 215  358.7074
 216  347.9373
 217  408.9943
 218  504.8612
 219  461.2868
 220  488.6543
 221  491.9495
 222  584.024
 223  493.0899
 224  447.0583
 225  531.067
 226  547.8586
 227  612.3325
 228  667.9333
 229  667.7242
 230  422.1792
 231  373.9756
 232  410.4897
 233  528.46
 234  568.2905
 235  516.4315
 236  573.6582
 237  505.4292
 238  523.4598
 239  516.1526
 240  554.152
 241  467.5748
 242  674.2377
 243  798.9467
 244  808.7203
 245  694.8376
 246  545.5317
 247  583.5134
 248  428.15
 249  454.8252
 250  531.5224
 251  496.6043
 252  634.1917
 253  580.9069
 254  490.0352
 255  541.5774
 256  531.5605
 257  400.4277
 258  583.9771
 259  593.7913
 260  568.6707
 261  675.2271
 262  627.9867
 263  636.2355
 264  477.8232
 265  419.3188
 266  410.1873
 267  367.629
 268  529.5579
 269  518.8272
 270  444.5072
 271  519.1861
 272  500.2715
 273  461.9728
 274  556.5625
 275  629.1026
 276  634.2261
 277  670.6257
 278  657.2117
 279  571.1168
 280  528.4644
 281  482.5462
 282  475.624
 283  535.2642
 284  575.1549
 285  533.9117
 286  489.3681
 287  464.5377
 288  520.1917
 289  451.5276
 290  337.3631
 291  443.0231
 292  513.7824
 293  535.8486
 294  570.8804
 295  584.4499
 296  496.0788
 297  398.2557
 298  371.8217
 299  351.7709
 300  376.0879
 301  537.1138
 302  541.3831
 303  514.586
 304  381.7493
 305  380.9455
 306  407.1024
 307  508.1494
 308  580.4361
 309  621.2573
 310  584.3914
 311  645.0035
 312  610.2444
 313  546.5264
 314  397.324
 315  329.1182
 316  389.8782
 317  381.2651
 318  407.6064
 319  497.1158
 320  460.7178
 321  439.4071
 322  314.3535
 323  352.6492
 324  530.4443
 325  681.8721
 326  667.3278
 327  612.2463
 328  492.251
 329  349.0052
 330  354.5883
 331  379.8976
 332  446.1998
 333  478.6841
 334  651.4805
 335  606.3311
 336  548.8427
 337  481.4799
 338  423.0941
 339  441.7812
 340  414.5214
 341  383.1954
 342  548.7627
 343  787.8585
 344  795.6601
 345  647.2442
 346  585.4545
 347  485.9898
 348  420.0385
 349  534.0066
 350  490.8617
 351  510.033
 352  539.5388
 353  507.7842
 354  475.3418
 355  391.2616
 356  419.7086
 357  550.3891
 358  665.8568
 359  619.3867
 360  676.1241
 361  639.5081
 362  750.2641
 363  557.1035
 364  458.3763
 365  457.3572
 366  533.013
 367  433.1694
 368  379.1977
 369  421.546
 370  544.4133
 371  507.9858
 372  469.5608
 373  534.1779
 374  571.9103
 375  606.1053
 376  667.6896
 377  621.4315
 378  596.4495
 379  512.6235
 380  437.6704
 381  399.1919
 382  400.0485
 383  388.7715
 384  555.7596
 385  702.6577
 386  703.0145
 387  603.6072
 388  518.558
 389  511.7973
 390  657.9097
 391  653.6407
 392  707.0054
 393  678.0163
 394  692.944
 395  636.8
 396  590.4042
 397  574.4165
 398  581.5722
 399  482.4872
 400  570.667
 401  570.2304
 402  682.8965
 403  525.0415
 404  488.709
 405  337.873
 406  481.5579
 407  530.8715
 408  600.0302
 409  731.4529
 410  733.7087
 411  617.951
 412  559.6359
 413  560.3879
 414  587.8867
 415  507.4915
 416  625.2459
 417  582.5223
 418  665.6901
 419  530.0528
 420  435.1938
 421  492.2514
 422  562.403
 423  603.1031
 424  608.7756
 425  680.9082
 426  765.5396
 427  691.2554
 428  597.7746
 429  483.2487
 430  395.4462
 431  468.0369
 432  468.1907
 433  464.7751
 434  647.0959
 435  611.7747
 436  526.6245
 437  585.432
 438  506.6955
 439  462.6306
 440  541.5936
 441  629.9011
 442  648.647
 443  647.0658
 444  547.705
 445  492.8525
 446  421.4204
 447  309.1508
 448  416.4537
 449  350.2725
 450  491.935
 451  686.136
 452  717.939
 453  533.2443
 454  379.6736
 455  370.4344
 456  393.4341
 457  467.312
 458  506.4332
 459  592.5967
 460  609.1191
 461  578.4237
 462  458.0475
 463  448.306
 464  461.8831
 465  468.0676
 466  448.2293
 467  559.9883
 468  571.9594
 469  480.3671
 470  425.2725
 471  428.1152
 472  438.4853
 473  568.6595
 474  498.8517
 475  589.2078
 476  668.6146
 477  632.6096
 478  545.8067
 479  399.9312
 480  364.9133
 481  380.6403
 482  495.7763
 483  532.2573
 484  490.0558
 485  619.011
 486  532.1262
 487  500.8033
 488  455.8959
 489  543.2029
 490  555.389
 491  532.7473
 492  749.5092
 493  703.5774
 494  551.5584
 495  433.2226
 496  519.9352
 497  542.6591
 498  548.5516
 499  593.3375
 500  511.0442
 501  392.1668
 502  290.769
 503  448.5665
 504  487.0595
 505  487.6519
 506  746.9153
 507  787.0226
 508  835.1948
 509  914.7914
 510  1082.12
 511  1200.296
