# Input file       =  1209460304.110143_cleaned.dat
# Candidate        =  PSR_0332+5434
# Telescope        =  AR
# Epoch_topo       =  58242.382941089614
# Epoch_bary       =  N/A
# T_sample         =  0.002
# Data Folded      =  7340032
# Data Avg         =  0.0797127881564425
# Data StdDev      =  1.00014513442998 
# Profile Bins     =  512
# Profile Avg      =  1142.39414094484 
# Profile StdDev   =  119.75041376275  
# Reduced chi-sqr  =  0.672
# Prob(Noise)      <  1   (~0.0 sigma)
# P_topo (ms)      =  714.543659417531  +/- 0.000836
# P'_topo (s/s)    =  -0                +/- 4.41e-10
# P''_topo (s/s^2) =  0                 +/- 1.95e-13
# P_bary (ms)      =  N/A
# P'_bary (s/s)    =  N/A
# P''_bary (s/s^2) =  N/A
# P_orb (s)        =  N/A
# asin(i)/c (s)    =  N/A
# eccentricity     =  N/A
# w (rad)          =  N/A
# T_peri           =  N/A
######################################################
   0  1521.035
   1  1489.223
   2  1398.568
   3  1252.713
   4  1088.517
   5  1092.715
   6  1095.045
   7  1157.815
   8  1051.309
   9  1057.694
  10  1120.045
  11  1095.051
  12  1139.198
  13  1180.399
  14  1180.557
  15  1210.822
  16  1264.68
  17  1197.586
  18  1159.394
  19  1181.195
  20  1170.094
  21  1238.484
  22  1223.531
  23  1243.413
  24  1206.151
  25  1162.32
  26  1188.705
  27  1246.886
  28  1221.203
  29  1206.638
  30  1202.89
  31  1281.521
  32  1186.446
  33  1223.247
  34  1258.719
  35  1231.347
  36  1214.451
  37  1243.258
  38  1211.997
  39  1259.154
  40  1288.787
  41  1221.969
  42  1247.088
  43  1196.969
  44  1212.878
  45  1221.974
  46  1105.438
  47  1167.486
  48  1153.494
  49  1158.294
  50  1228.013
  51  1234.671
  52  1176.486
  53  1149.657
  54  1160.848
  55  1134.82
  56  1167.418
  57  1279.667
  58  1252.863
  59  1174.815
  60  1224.662
  61  1248.802
  62  1316.866
  63  1267.448
  64  1178.137
  65  1179.97
  66  1228.585
  67  1202.138
  68  1188.973
  69  1200.587
  70  1166.935
  71  1108.017
  72  1125.481
  73  1204.634
  74  1193.012
  75  1236.337
  76  1168.141
  77  1163.133
  78  1226.762
  79  1217.354
  80  1203.292
  81  1194.492
  82  1133.977
  83  1164.54
  84  1125.452
  85  1079.694
  86  1202.256
  87  1210.461
  88  1184.788
  89  1123.191
  90  1067.906
  91  1020.131
  92  1058.253
  93  1154.698
  94  1146.26
  95  1123.382
  96  1139.549
  97  1132.83
  98  1042.489
  99  971.4514
 100  1062.439
 101  1093.053
 102  1055.869
 103  1095.09
 104  1140.174
 105  1105.831
 106  1146.263
 107  1163.605
 108  1159.026
 109  1126.859
 110  1108.557
 111  1070.735
 112  1145.96
 113  1161.427
 114  1114.051
 115  1131.63
 116  1136.192
 117  1062.116
 118  1090.395
 119  1057.674
 120  1085.396
 121  1132.187
 122  1148.084
 123  1109.564
 124  1104.498
 125  1076.728
 126  1069.15
 127  1141.615
 128  1143.261
 129  1075.972
 130  1085.803
 131  1054.193
 132  1109.658
 133  1116.63
 134  1075.794
 135  1173.485
 136  1182.971
 137  1186.772
 138  1157.639
 139  1114.415
 140  1113.069
 141  1121.25
 142  1125.843
 143  1102.224
 144  1153.165
 145  1120.618
 146  1040.176
 147  1150.788
 148  1132.047
 149  1005.651
 150  1068.336
 151  1105.457
 152  1096.828
 153  1118.967
 154  1125.679
 155  1058.586
 156  1095.681
 157  1109.078
 158  1082.746
 159  1145.026
 160  1103.098
 161  1156.374
 162  1207.004
 163  1206.449
 164  1209.24
 165  1164.755
 166  1156.5
 167  1146.492
 168  1204.877
 169  1178.975
 170  1189.683
 171  1183.867
 172  1214.168
 173  1116.184
 174  1101.902
 175  1179.198
 176  1184.03
 177  1167.509
 178  1181.13
 179  1184.689
 180  1120.035
 181  1114.125
 182  1096.09
 183  1061.73
 184  1065.415
 185  1092.338
 186  1068.241
 187  994.5665
 188  982.65
 189  985.1971
 190  1003.183
 191  1045.413
 192  1052.987
 193  1102.096
 194  1112.495
 195  1107.439
 196  1193.764
 197  1164.81
 198  1134.01
 199  1091.04
 200  1089.843
 201  1084.255
 202  1083.88
 203  1064.259
 204  1070.718
 205  1098.472
 206  1074.442
 207  1111.18
 208  1110.025
 209  1084.495
 210  1104.031
 211  1094.582
 212  1051.265
 213  1023.091
 214  1015.249
 215  973.9454
 216  971.326
 217  1008.643
 218  979.7911
 219  1013.346
 220  1072.803
 221  1010.644
 222  1038.85
 223  1101.147
 224  1068.694
 225  1054.341
 226  1074.248
 227  1105.164
 228  1120.082
 229  1128.265
 230  1115.738
 231  1107.99
 232  1033.028
 233  1034.561
 234  1093.172
 235  1056.623
 236  1030.916
 237  1065.026
 238  1063.062
 239  1114.365
 240  1110.771
 241  1053.054
 242  1112.16
 243  1131.466
 244  1116.98
 245  1150.507
 246  1085.263
 247  988.0876
 248  1000.705
 249  1026.07
 250  1101.694
 251  1029.499
 252  1067.24
 253  1122.39
 254  1047.92
 255  1059.488
 256  1105.325
 257  1115.355
 258  1116.039
 259  1135.543
 260  1102.143
 261  1079.631
 262  1151.667
 263  1151.815
 264  1185.786
 265  1094.659
 266  1051.685
 267  1133.641
 268  1191.665
 269  1160.334
 270  1130.986
 271  1164.006
 272  1180.01
 273  1218.899
 274  1222.145
 275  1192.287
 276  1187.773
 277  1263.734
 278  1190.899
 279  1186.544
 280  1239.712
 281  1238.17
 282  1218.197
 283  1196.128
 284  1196.378
 285  1228.956
 286  1264.357
 287  1391.618
 288  1343.727
 289  1211.176
 290  1243.259
 291  1249.162
 292  1190.797
 293  1200.953
 294  1239.998
 295  1272.347
 296  1196.59
 297  1153.969
 298  1106.353
 299  1081.079
 300  1121.188
 301  1171.604
 302  1165.651
 303  1093.23
 304  1083.999
 305  1107.277
 306  1094.864
 307  1091.784
 308  1094.788
 309  1179.309
 310  1120.347
 311  1144.703
 312  1160.096
 313  1137.561
 314  1107.314
 315  1110.653
 316  1162.866
 317  1140.044
 318  1089.929
 319  1142.933
 320  1131.841
 321  1092.295
 322  1131.032
 323  1194.081
 324  1189.639
 325  1129.693
 326  1164.348
 327  1148.628
 328  1163.608
 329  1130.306
 330  1128.673
 331  1153.778
 332  1163.649
 333  1125.727
 334  1135.856
 335  1041.389
 336  1054.901
 337  1150.888
 338  1212.535
 339  1255.268
 340  1179.871
 341  1161.61
 342  1084.859
 343  1101.972
 344  1110.176
 345  1152.912
 346  1190.112
 347  1198.422
 348  1150.482
 349  1175.413
 350  1099.486
 351  1076.907
 352  1073.691
 353  1091.032
 354  1140.101
 355  1140.458
 356  1150.972
 357  1076.343
 358  1091.459
 359  1135.839
 360  1105.503
 361  1151.876
 362  1207.547
 363  1219.979
 364  1217.095
 365  1114.841
 366  1020.464
 367  1064.427
 368  1136.601
 369  1220.025
 370  1191.017
 371  1165.052
 372  1133.553
 373  1173.866
 374  1155.814
 375  1186.957
 376  1277.623
 377  1226.241
 378  1191.609
 379  1222.4
 380  1257.095
 381  1199.31
 382  1173.788
 383  1125.966
 384  1119.405
 385  1117.28
 386  1057.401
 387  1163.548
 388  1187.035
 389  1092.286
 390  1070.364
 391  1071.609
 392  1082.071
 393  1119.708
 394  1123.518
 395  1169.691
 396  1139.608
 397  1154.685
 398  1073.701
 399  1041.237
 400  1060.755
 401  1106.171
 402  1112.786
 403  1159.578
 404  1167.66
 405  1134.91
 406  1145.457
 407  1163.211
 408  1128.363
 409  1180.89
 410  1182.76
 411  1143.073
 412  1179.969
 413  1193.717
 414  1084.35
 415  1035.35
 416  1095.82
 417  1141.805
 418  1127.221
 419  1112.738
 420  1116.171
 421  1058.431
 422  1130.33
 423  1156.977
 424  1168.197
 425  1209.964
 426  1146.721
 427  1143.434
 428  1117.044
 429  1113.679
 430  1143.127
 431  1154.357
 432  1100.137
 433  1099.932
 434  1208.697
 435  1155.119
 436  1158.124
 437  1144.321
 438  1118.122
 439  1151.535
 440  1239.233
 441  1284.693
 442  1252.202
 443  1121.076
 444  1050.266
 445  1063.847
 446  1134.221
 447  1144.631
 448  1156.621
 449  1080.926
 450  1081.382
 451  1152.051
 452  1153.847
 453  1183.061
 454  1201.879
 455  1199.147
 456  1126.714
 457  1110.503
 458  1176.519
 459  1123.772
 460  1072.229
 461  1161.328
 462  1196.739
 463  1202.732
 464  1262.287
 465  1270.119
 466  1207.147
 467  1165.19
 468  1104.093
 469  1141.451
 470  1215.881
 471  1170.714
 472  1114.679
 473  1159.457
 474  1189.632
 475  1218.051
 476  1185.911
 477  1129.244
 478  1146.453
 479  1144.658
 480  1072.87
 481  1042.312
 482  1119.09
 483  1100.609
 484  1066.326
 485  1023.498
 486  1032.262
 487  1098.516
 488  1085.234
 489  1058.214
 490  1161.538
 491  1124.818
 492  1157.329
 493  1139.76
 494  1043.791
 495  1093.902
 496  1179.567
 497  1157.042
 498  1113.416
 499  1069.742
 500  1136.602
 501  1150.294
 502  1133.101
 503  1140.638
 504  1127.156
 505  1147.574
 506  1255.007
 507  1224.275
 508  1213.427
 509  1258.771
 510  1386.54
 511  1472.007
