# Input file       =  1209389081.116451_cleaned.dat
# Candidate        =  PSR_0332+5434
# Telescope        =  AR
# Epoch_topo       =  58241.558600884848
# Epoch_bary       =  N/A
# T_sample         =  0.002
# Data Folded      =  7340032
# Data Avg         =  0.0407786354152728
# Data StdDev      =  1.00008973607797 
# Profile Bins     =  512
# Profile Avg      =  584.408840613017 
# Profile StdDev   =  119.743780749854 
# Reduced chi-sqr  =  1.673
# Prob(Noise)      <  9.84e-20   (~9.0 sigma)
# P_topo (ms)      =  714.544748752165  +/- 0.000292
# P'_topo (s/s)    =  -0                +/- 1.54e-10
# P''_topo (s/s^2) =  0                 +/- 6.81e-14
# P_bary (ms)      =  N/A
# P'_bary (s/s)    =  N/A
# P''_bary (s/s^2) =  N/A
# P_orb (s)        =  N/A
# asin(i)/c (s)    =  N/A
# eccentricity     =  N/A
# w (rad)          =  N/A
# T_peri           =  N/A
######################################################
   0  1285.715
   1  1330.612
   2  1261.606
   3  992.4296
   4  793.8957
   5  732.9424
   6  631.9045
   7  662.744
   8  740.0053
   9  629.2682
  10  635.2823
  11  541.6774
  12  630.9966
  13  689.8558
  14  690.2656
  15  718.2029
  16  583.9896
  17  518.532
  18  471.1182
  19  544.0226
  20  583.2538
  21  522.7274
  22  529.6593
  23  480.1432
  24  475.553
  25  427.9264
  26  477.1876
  27  549.5417
  28  491.9367
  29  498.3283
  30  563.3178
  31  532.1446
  32  400.9671
  33  398.4648
  34  565.435
  35  583.6533
  36  504.2903
  37  597.1646
  38  723.7875
  39  608.6888
  40  567.509
  41  503.8055
  42  561.278
  43  678.0717
  44  604.3937
  45  604.339
  46  596.9186
  47  635.7664
  48  445.9173
  49  499.0581
  50  574.5723
  51  596.998
  52  564.2089
  53  582.1666
  54  488.0842
  55  452.5
  56  549.7467
  57  531.6923
  58  455.129
  59  509.375
  60  567.8629
  61  647.8723
  62  636.8115
  63  562.7089
  64  536.0361
  65  601.6279
  66  609.4444
  67  703.9631
  68  728.9508
  69  733.0327
  70  678.6896
  71  721.0743
  72  695.6104
  73  654.5138
  74  686.332
  75  571.9863
  76  508.2054
  77  528.8501
  78  625.3712
  79  560.0438
  80  428.2824
  81  392.5352
  82  479.2203
  83  504.8099
  84  525.9793
  85  549.6653
  86  423.9469
  87  421.5956
  88  437.4022
  89  402.3291
  90  376.6841
  91  445.3914
  92  483.8701
  93  614.0964
  94  697.1271
  95  717.6005
  96  767.3428
  97  532.4354
  98  511.5413
  99  544.9525
 100  526.7326
 101  518.491
 102  596.1345
 103  574.9338
 104  594.5342
 105  519.386
 106  491.2212
 107  585.021
 108  590.0902
 109  642.8424
 110  567.0607
 111  539.8385
 112  559.5369
 113  547.7418
 114  563.4576
 115  552.3019
 116  605.1
 117  538.6395
 118  619.5904
 119  605.775
 120  429.6305
 121  433.824
 122  499.0344
 123  655.5404
 124  696.1912
 125  748.1935
 126  639.5324
 127  584.3084
 128  592.9077
 129  583.6728
 130  548.5391
 131  613.323
 132  595.5361
 133  612.3858
 134  647.0236
 135  722.6813
 136  680.2622
 137  551.0375
 138  506.6403
 139  630.5135
 140  776.2961
 141  767.1776
 142  737.227
 143  624.7285
 144  605.8596
 145  571.171
 146  601.4891
 147  548.3503
 148  569.699
 149  663.3938
 150  694.9404
 151  589.6062
 152  571.3437
 153  564.9788
 154  561.621
 155  549.7138
 156  590.1102
 157  554.0442
 158  524.5648
 159  563.7603
 160  594.9016
 161  494.8181
 162  517.9962
 163  407.6502
 164  413.2988
 165  553.3325
 166  586.1071
 167  546.5167
 168  581.3591
 169  468.3758
 170  556.1374
 171  568.5295
 172  510.071
 173  508.1931
 174  461.9568
 175  540.0836
 176  425.0461
 177  450.7625
 178  429.6335
 179  398.9954
 180  474.7729
 181  436.0824
 182  497.6956
 183  592.7781
 184  597.0979
 185  506.1488
 186  490.7854
 187  618.5114
 188  569.5519
 189  562.7381
 190  597.192
 191  616.2275
 192  582.7665
 193  591.913
 194  642.485
 195  640.3929
 196  607.2476
 197  644.5132
 198  663.7113
 199  610.3354
 200  598.2388
 201  628.0162
 202  701.544
 203  689.348
 204  692.7693
 205  698.1042
 206  628.8107
 207  642.4394
 208  596.5082
 209  605.0129
 210  523.9885
 211  668.8781
 212  629.2733
 213  555.8849
 214  515.7266
 215  680.3909
 216  722.9246
 217  620.2465
 218  601.736
 219  657.9958
 220  593.5031
 221  504.5619
 222  504.7483
 223  623.5547
 224  646.1976
 225  524.9553
 226  568.0763
 227  652.4597
 228  530.0118
 229  446.0888
 230  409.8029
 231  443.3285
 232  525.4283
 233  528.9883
 234  530.4139
 235  475.4257
 236  545.517
 237  454.6631
 238  492.2957
 239  611.2153
 240  514.5786
 241  430.087
 242  467.0441
 243  593.9842
 244  636.6197
 245  476.808
 246  512.2747
 247  498.5556
 248  439.6892
 249  530.5586
 250  604.5564
 251  569.1485
 252  593.2094
 253  472.5453
 254  412.5361
 255  386.5342
 256  456.6053
 257  473.2584
 258  469.8573
 259  463.5637
 260  415.2589
 261  365.3635
 262  464.3659
 263  466.5049
 264  557.8068
 265  557.8362
 266  599.7634
 267  508.8159
 268  442.5573
 269  446.2925
 270  621.2585
 271  645.3134
 272  524.4991
 273  596.0475
 274  605.7834
 275  489.2944
 276  564.9884
 277  562.8552
 278  632.8829
 279  708.4755
 280  708.5416
 281  724.0104
 282  672.2115
 283  668.4153
 284  617.2007
 285  627.7485
 286  758.3788
 287  677.5131
 288  732.8779
 289  731.6558
 290  682.5458
 291  613.6351
 292  617.2516
 293  696.7747
 294  576.0643
 295  563.8017
 296  703.2796
 297  654.8373
 298  691.9871
 299  643.6533
 300  640.1154
 301  596.9573
 302  632.9841
 303  578.2396
 304  561.9922
 305  645.564
 306  642.3229
 307  596.6945
 308  570.312
 309  595.895
 310  673.2543
 311  611.8514
 312  608.168
 313  640.5676
 314  504.436
 315  509.3592
 316  504.934
 317  503.7185
 318  470.1334
 319  701.8077
 320  710.1767
 321  689.7769
 322  628.3359
 323  691.7911
 324  621.7502
 325  714.9769
 326  627.8608
 327  627.3707
 328  695.0245
 329  728.0106
 330  758.0798
 331  694.2026
 332  615.8807
 333  523.205
 334  508.1958
 335  546.6252
 336  583.4661
 337  617.836
 338  675.7513
 339  626.7736
 340  592.4384
 341  556.9415
 342  593.158
 343  514.3411
 344  684.2051
 345  767.0589
 346  714.594
 347  667.8848
 348  718.7551
 349  728.6282
 350  678.2995
 351  754.2545
 352  759.8693
 353  649.2096
 354  646.1008
 355  710.8124
 356  571.727
 357  537.7278
 358  551.0827
 359  628.6962
 360  721.3233
 361  644.5356
 362  691.6823
 363  728.4373
 364  680.9803
 365  633.9515
 366  558.8051
 367  602.4044
 368  621.2798
 369  567.457
 370  611.9562
 371  527.8024
 372  406.0696
 373  499.8646
 374  585.8818
 375  661.237
 376  663.899
 377  488.2147
 378  496.8005
 379  524.9366
 380  609.8008
 381  476.1018
 382  531.8355
 383  515.1255
 384  417.1009
 385  381.2844
 386  412.0227
 387  509.9982
 388  472.5483
 389  436.7758
 390  496.587
 391  447.9534
 392  464.9438
 393  497.8084
 394  515.1973
 395  550.7488
 396  503.21
 397  496.8694
 398  580.8646
 399  617.8527
 400  562.0533
 401  622.7377
 402  601.7856
 403  540.7054
 404  487.106
 405  470.7635
 406  623.9369
 407  724.7786
 408  567.7734
 409  510.1323
 410  583.4543
 411  545.6617
 412  399.8248
 413  453.9949
 414  604.6488
 415  642.7703
 416  597.3109
 417  557.9316
 418  561.3917
 419  583.2783
 420  709.6927
 421  686.9568
 422  612.2242
 423  665.4615
 424  683.6129
 425  601.6794
 426  624.2546
 427  581.6956
 428  672.8657
 429  581.3063
 430  635.6379
 431  736.6855
 432  619.1915
 433  566.6683
 434  597.0258
 435  666.2646
 436  589.4224
 437  529.9952
 438  581.4802
 439  525.2155
 440  567.9665
 441  670.3144
 442  635.6737
 443  540.0269
 444  614.1746
 445  549.9894
 446  576.9271
 447  526.5746
 448  649.675
 449  575.0813
 450  415.8988
 451  476.1249
 452  568.9935
 453  535.6508
 454  449.8745
 455  521.3263
 456  464.715
 457  534.9001
 458  509.1395
 459  536.3519
 460  556.5332
 461  509.0222
 462  515.3316
 463  604.3379
 464  544.1521
 465  564.6997
 466  521.356
 467  452.0173
 468  478.429
 469  596.9118
 470  635.3073
 471  455.951
 472  387.2939
 473  606.7841
 474  479.6996
 475  347.5757
 476  435.5794
 477  483.4406
 478  485.8937
 479  497.9641
 480  511.4917
 481  492.2288
 482  552.8571
 483  529.8564
 484  501.7294
 485  482.7067
 486  402.0989
 487  509.6086
 488  601.5105
 489  495.9425
 490  514.7706
 491  544.6295
 492  644.7295
 493  662.2443
 494  555.8201
 495  542.1094
 496  574.7689
 497  636.4433
 498  629.5398
 499  615.9885
 500  640.2401
 501  765.6503
 502  728.3881
 503  663.1567
 504  763.1703
 505  843.865
 506  748.512
 507  869.9615
 508  886.4037
 509  851.1252
 510  1009.803
 511  1184.617
