# Input file       =  1209531821.109581_cleaned.dat
# Candidate        =  PSR_0332+5434
# Telescope        =  AR
# Epoch_topo       =  58243.210684138670
# Epoch_bary       =  N/A
# T_sample         =  0.002
# Data Folded      =  7143424
# Data Avg         =  0.0495158583241595
# Data StdDev      =  1.00005654124119 
# Profile Bins     =  512
# Profile Avg      =  690.863376485829 
# Profile StdDev   =  118.125263053242 
# Reduced chi-sqr  =  1.974
# Prob(Noise)      <  6.18e-35   (~12.3 sigma)
# P_topo (ms)      =  714.54288680763   +/- 0.000163
# P'_topo (s/s)    =  -0                +/- 8.84e-11
# P''_topo (s/s^2) =  0                 +/- 4.01e-14
# P_bary (ms)      =  N/A
# P'_bary (s/s)    =  N/A
# P''_bary (s/s^2) =  N/A
# P_orb (s)        =  N/A
# asin(i)/c (s)    =  N/A
# eccentricity     =  N/A
# w (rad)          =  N/A
# T_peri           =  N/A
######################################################
   0  1556.886
   1  1550.001
   2  1451.893
   3  1206.667
   4  1054.361
   5  931.92
   6  837.3793
   7  727.6612
   8  766.5841
   9  829.5343
  10  825.2191
  11  788.2673
  12  781.3009
  13  775.7336
  14  825.0424
  15  792.3402
  16  801.7
  17  748.6055
  18  732.1626
  19  631.4111
  20  563.2945
  21  668.2034
  22  759.1688
  23  780.2755
  24  762.2748
  25  706.1073
  26  646.6006
  27  567.3088
  28  604.9882
  29  663.3232
  30  648.1195
  31  680.3992
  32  808.1528
  33  750.8157
  34  708.8557
  35  579.7405
  36  646.6127
  37  762.7271
  38  850.7173
  39  771.3034
  40  748.0759
  41  673.8436
  42  702.5053
  43  693.3288
  44  597.3517
  45  561.5818
  46  714.894
  47  782.8418
  48  766.7248
  49  686.4067
  50  657.1688
  51  676.0904
  52  571.6559
  53  662.8849
  54  653.1881
  55  808.3546
  56  745.5001
  57  627.071
  58  583.7383
  59  630.1846
  60  563.5874
  61  616.1452
  62  670.462
  63  684.5773
  64  710.3027
  65  592.5367
  66  645.9089
  67  672.869
  68  851.6356
  69  701.3749
  70  724.3528
  71  845.8503
  72  874.4485
  73  810.1672
  74  798.0742
  75  671.5278
  76  519.5383
  77  649.2716
  78  698.5629
  79  846.9493
  80  721.0153
  81  595.3958
  82  610.723
  83  683.9756
  84  828.7914
  85  718.1336
  86  683.2113
  87  707.0228
  88  750.9724
  89  703.6439
  90  546.5068
  91  532.2626
  92  543.7587
  93  492.553
  94  551.9572
  95  570.6047
  96  536.7711
  97  638.6411
  98  692.7318
  99  650.8223
 100  597.0791
 101  503.0701
 102  639.5693
 103  623.8601
 104  650.553
 105  803.1273
 106  732.7751
 107  575.6187
 108  626.1146
 109  638.8955
 110  617.7819
 111  715.6104
 112  662.4818
 113  745.4663
 114  758.5896
 115  701.9048
 116  498.1362
 117  510.889
 118  516.9774
 119  605.7327
 120  703.8953
 121  753.4318
 122  635.2708
 123  549.3382
 124  547.0622
 125  516.3331
 126  468.1531
 127  497.3516
 128  428.5716
 129  489.8406
 130  600.7955
 131  602.3394
 132  675.4225
 133  676.2076
 134  641.3386
 135  728.0237
 136  766.4236
 137  754.2942
 138  735.8708
 139  760.8824
 140  565.6271
 141  544.9222
 142  713.9484
 143  581.5103
 144  584.902
 145  659.218
 146  622.4723
 147  596.6429
 148  536.5638
 149  709.8314
 150  715.4905
 151  714.2631
 152  644.8162
 153  738.6315
 154  767.5542
 155  699.5696
 156  645.1707
 157  660.4334
 158  702.5115
 159  731.1389
 160  645.3002
 161  567.5317
 162  611.3386
 163  720.9003
 164  730.4506
 165  653.3579
 166  650.1815
 167  676.9689
 168  597.1847
 169  638.701
 170  725.3189
 171  698.9426
 172  655.4501
 173  555.1114
 174  503.4948
 175  668.5765
 176  802.9732
 177  692.8379
 178  740.1542
 179  639.5068
 180  596.0822
 181  589.8515
 182  466.8517
 183  599.3657
 184  695.6997
 185  723.2111
 186  720.7619
 187  798.6865
 188  803.9636
 189  545.651
 190  560.3754
 191  700.1177
 192  690.6096
 193  631.0332
 194  660.3215
 195  643.3395
 196  668.4154
 197  751.9019
 198  505.8846
 199  547.0424
 200  553.13
 201  650.2915
 202  635.6739
 203  696.6447
 204  722.7778
 205  711.7297
 206  680.3244
 207  624.5059
 208  617.6874
 209  701.3248
 210  674.148
 211  578.9294
 212  602.2266
 213  684.9263
 214  697.181
 215  750.0648
 216  676.1725
 217  568.4684
 218  675.9592
 219  819.8445
 220  668.1981
 221  596.7542
 222  583.2475
 223  666.1488
 224  572.9722
 225  662.1403
 226  639.3086
 227  564.0304
 228  585.6845
 229  570.0389
 230  606.3281
 231  682.8369
 232  671.3333
 233  592.2154
 234  513.3304
 235  553.9888
 236  635.2802
 237  591.7491
 238  615.4542
 239  718.9496
 240  780.5934
 241  839.7135
 242  694.5403
 243  566.5848
 244  523.0886
 245  690.347
 246  691.8474
 247  643.0724
 248  611.3196
 249  635.6076
 250  659.2938
 251  637.5662
 252  647.264
 253  596.4487
 254  609.4753
 255  581.3268
 256  595.4069
 257  587.9228
 258  508.6373
 259  589.5462
 260  647.9739
 261  709.8031
 262  676.8824
 263  648.2576
 264  741.4576
 265  715.3381
 266  628.7776
 267  657.0546
 268  689.2241
 269  843.8143
 270  745.3743
 271  678.6315
 272  684.1555
 273  639.3345
 274  571.3934
 275  464.6953
 276  581.9108
 277  544.3935
 278  594.0963
 279  659.8444
 280  660.9588
 281  516.8672
 282  548.952
 283  613.5475
 284  631.7963
 285  609.7534
 286  675.5607
 287  720.4854
 288  766.9548
 289  677.1774
 290  579.5319
 291  720.6358
 292  775.0807
 293  731.2474
 294  611.2994
 295  543.8099
 296  653.4816
 297  634.9932
 298  670.123
 299  575.2391
 300  574.7895
 301  580.406
 302  608.2957
 303  708.352
 304  654.7845
 305  625.9595
 306  604.8442
 307  550.5087
 308  546.5001
 309  557.7372
 310  585.0927
 311  631.5889
 312  686.9297
 313  626.8994
 314  622.6138
 315  678.879
 316  653.489
 317  683.2451
 318  605.1602
 319  798.8419
 320  829.4315
 321  735.0032
 322  673.9316
 323  574.9657
 324  668.1932
 325  646.8835
 326  748.3938
 327  708.9434
 328  676.11
 329  702.9464
 330  655.3287
 331  632.042
 332  627.4188
 333  646.353
 334  719.9911
 335  754.808
 336  761.9429
 337  782.9564
 338  779.7028
 339  824.2213
 340  787.605
 341  644.98
 342  607.6841
 343  685.6462
 344  766.5516
 345  793.9146
 346  922.9747
 347  838.922
 348  617.2651
 349  600.8705
 350  718.0497
 351  756.7057
 352  772.3973
 353  806.0543
 354  788.1674
 355  655.0647
 356  652.2763
 357  692.0751
 358  624.2253
 359  663.3158
 360  677.5626
 361  786.4663
 362  910.801
 363  834.6341
 364  849.7871
 365  793.0612
 366  653.1751
 367  732.8892
 368  812.5223
 369  818.9652
 370  851.3963
 371  833.5917
 372  760.2047
 373  680.8898
 374  675.4234
 375  618.9427
 376  672.3495
 377  688.5616
 378  735.6046
 379  574.3985
 380  628.1207
 381  638.4265
 382  645.8574
 383  600.3463
 384  511.7493
 385  680.4985
 386  692.6155
 387  681.313
 388  597.4575
 389  700.4102
 390  748.0336
 391  624.2889
 392  577.0309
 393  676.3903
 394  665.8866
 395  779.6302
 396  845.584
 397  690.098
 398  688.2696
 399  592.6447
 400  719.7281
 401  837.2975
 402  747.0839
 403  585.9073
 404  668.2744
 405  733.5535
 406  653.7845
 407  601.9808
 408  534.0001
 409  607.2407
 410  629.8735
 411  601.6025
 412  714.0137
 413  784.956
 414  757.0958
 415  598.4868
 416  603.3714
 417  709.2316
 418  754.2521
 419  656.1752
 420  737.7867
 421  667.6755
 422  511.2944
 423  480.712
 424  643.7039
 425  695.8307
 426  661.8246
 427  727.9713
 428  734.4406
 429  799.3672
 430  778.8395
 431  689.0976
 432  758.7231
 433  761.113
 434  772.2683
 435  854.5966
 436  779.7365
 437  619.0685
 438  660.0573
 439  656.1917
 440  643.6147
 441  664.809
 442  708.0345
 443  778.7551
 444  738.0665
 445  641.8415
 446  626.5274
 447  651.563
 448  853.999
 449  871.7419
 450  783.2969
 451  773.8837
 452  695.0132
 453  757.5318
 454  786.4097
 455  702.5051
 456  749.2636
 457  834.6417
 458  797.36
 459  591.9595
 460  645.5742
 461  738.8038
 462  726.7704
 463  680.2863
 464  687.7084
 465  693.97
 466  634.4167
 467  674.613
 468  744.6931
 469  731.178
 470  711.6166
 471  737.1359
 472  872.0333
 473  747.2411
 474  636.9097
 475  665.4205
 476  761.6425
 477  840.046
 478  767.3608
 479  756.1179
 480  709.0939
 481  679.0089
 482  724.1268
 483  779.5125
 484  825.2474
 485  766.2153
 486  657.5608
 487  677.9629
 488  792.2644
 489  710.2595
 490  694.259
 491  733.5715
 492  785.6626
 493  748.731
 494  825.6455
 495  658.9982
 496  688.9739
 497  751.9739
 498  773.3217
 499  682.4684
 500  761.3118
 501  915.7184
 502  962.1046
 503  817.1367
 504  866.7197
 505  836.4526
 506  763.455
 507  830.0148
 508  992.6385
 509  1045.359
 510  1186.031
 511  1332.631
