# Input file       =  1209359564.108885_cleaned.dat
# Candidate        =  PSR_0332+5434
# Telescope        =  AR
# Epoch_topo       =  58241.216968852837
# Epoch_bary       =  N/A
# T_sample         =  0.002
# Data Folded      =  7143424
# Data Avg         =  0.0503773103543276
# Data StdDev      =  1.00006679237984 
# Profile Bins     =  512
# Profile Avg      =  702.836220298838 
# Profile StdDev   =  118.126473903228 
# Reduced chi-sqr  =  1.769
# Prob(Noise)      <  2.84e-24   (~10.1 sigma)
# P_topo (ms)      =  714.544715450555  +/- 0.000213
# P'_topo (s/s)    =  -0                +/- 1.16e-10
# P''_topo (s/s^2) =  0                 +/- 5.25e-14
# P_bary (ms)      =  N/A
# P'_bary (s/s)    =  N/A
# P''_bary (s/s^2) =  N/A
# P_orb (s)        =  N/A
# asin(i)/c (s)    =  N/A
# eccentricity     =  N/A
# w (rad)          =  N/A
# T_peri           =  N/A
######################################################
   0  1407.995
   1  1510.683
   2  1308.1
   3  1011.636
   4  881.0603
   5  677.8076
   6  704.3881
   7  741.5216
   8  737.7325
   9  804.0863
  10  775.3979
  11  767.9023
  12  606.7113
  13  717.6124
  14  868.9763
  15  691.933
  16  665.5359
  17  740.4891
  18  672.8377
  19  650.1158
  20  860.5886
  21  772.5245
  22  695.5721
  23  685.2981
  24  674.383
  25  659.4528
  26  643.7333
  27  671.619
  28  715.073
  29  782.5685
  30  811.7932
  31  679.2173
  32  630.1351
  33  705.4998
  34  786.9943
  35  733.4562
  36  744.2932
  37  667.3882
  38  632.0143
  39  624.6642
  40  658.3272
  41  640.7081
  42  606.6333
  43  480.4696
  44  446.7439
  45  480.9995
  46  578.4277
  47  563.5706
  48  687.7777
  49  655.0646
  50  666.175
  51  650.4485
  52  844.9153
  53  844.2021
  54  620.0268
  55  683.1635
  56  702.7112
  57  656.8658
  58  591.8818
  59  596.5477
  60  669.9673
  61  691.6693
  62  633.3713
  63  644.4958
  64  610.8684
  65  637.5716
  66  654.4743
  67  546.178
  68  680.3199
  69  713.9779
  70  683.4836
  71  657.469
  72  705.1611
  73  554.433
  74  593.153
  75  653.5518
  76  685.2863
  77  616.5435
  78  603.9103
  79  578.7053
  80  606.0214
  81  769.3467
  82  747.9597
  83  556.5167
  84  659.4412
  85  636.9428
  86  610.4615
  87  707.2791
  88  723.967
  89  643.0179
  90  540.0727
  91  572.3276
  92  545.1074
  93  638.8001
  94  759.8146
  95  634.6238
  96  634.4977
  97  614.3168
  98  593.8044
  99  556.5558
 100  644.2695
 101  681.4844
 102  798.4432
 103  819.4592
 104  699.5055
 105  661.4678
 106  552.101
 107  504.3618
 108  534.7592
 109  494.6906
 110  448.1523
 111  587.647
 112  641.1926
 113  626.5856
 114  560.008
 115  640.1542
 116  613.6811
 117  736.2912
 118  626.45
 119  670.573
 120  753.464
 121  645.0338
 122  560.8898
 123  505.3591
 124  625.4796
 125  627.2051
 126  673.3315
 127  745.0285
 128  670.3681
 129  751.7083
 130  638.4924
 131  626.6484
 132  619.0375
 133  592.37
 134  645.3226
 135  595.0932
 136  543.131
 137  643.5222
 138  699.9416
 139  527.3176
 140  559.1466
 141  672.4112
 142  745.7969
 143  614.9284
 144  607.0571
 145  632.1927
 146  525.2019
 147  717.4158
 148  729.1978
 149  669.1298
 150  749.0864
 151  803.382
 152  779.1663
 153  720.1816
 154  687.6683
 155  648.5806
 156  628.68
 157  556.6021
 158  665.6537
 159  644.4076
 160  523.8244
 161  527.4584
 162  571.5823
 163  685.7297
 164  635.7322
 165  642.6578
 166  721.4488
 167  815.8547
 168  845.7167
 169  677.3946
 170  673.0241
 171  702.1722
 172  687.5573
 173  626.5385
 174  589.8796
 175  670.7288
 176  793.2534
 177  743.9072
 178  679.3989
 179  873.8416
 180  935.6403
 181  679.1084
 182  677.327
 183  758.5862
 184  908.9102
 185  758.8224
 186  861.6922
 187  911.8518
 188  657.1947
 189  616.2924
 190  666.1473
 191  677.4008
 192  633.7476
 193  688.5742
 194  804.8702
 195  746.5518
 196  720.6167
 197  758.2048
 198  690.6983
 199  710.3087
 200  770.9456
 201  764.2249
 202  786.9535
 203  876.5165
 204  807.4689
 205  759.6037
 206  771.7042
 207  770.0692
 208  716.4322
 209  720.4249
 210  756.9201
 211  760.5933
 212  650.0046
 213  724.2832
 214  754.6382
 215  718.5107
 216  683.3062
 217  622.9742
 218  680.6957
 219  785.1986
 220  720.6528
 221  704.1439
 222  792.8276
 223  772.8588
 224  739.7118
 225  706.7303
 226  728.6426
 227  813.9704
 228  800.8255
 229  770.1428
 230  725.7122
 231  681.0068
 232  762.2048
 233  756.4921
 234  758.8684
 235  774.4454
 236  821.6169
 237  883.3316
 238  818.6321
 239  779.18
 240  804.8438
 241  727.0105
 242  747.3125
 243  611.2285
 244  733.6592
 245  680.602
 246  755.2195
 247  805.7112
 248  771.9865
 249  790.1215
 250  882.4763
 251  879.2275
 252  722.9047
 253  767.3503
 254  706.3489
 255  589.6217
 256  634.0005
 257  749.8203
 258  733.5591
 259  698.9693
 260  715.4755
 261  662.6373
 262  749.3989
 263  609.2472
 264  608.6833
 265  779.6099
 266  765.545
 267  728.5284
 268  769.5705
 269  781.5083
 270  690.5793
 271  678.9714
 272  746.972
 273  614.0636
 274  634.8792
 275  544.3107
 276  614.1705
 277  748.5476
 278  703.4814
 279  644.7685
 280  574.028
 281  511.6425
 282  587.7606
 283  633.2739
 284  717.3802
 285  724.9669
 286  726.7238
 287  639.3571
 288  594.421
 289  582.3773
 290  631.5366
 291  690.8728
 292  645.8836
 293  631.8174
 294  733.5718
 295  702.5496
 296  547.1941
 297  640.9855
 298  700.3301
 299  782.5098
 300  881.0048
 301  779.9594
 302  699.301
 303  640.7889
 304  628.7288
 305  780.3443
 306  659.2076
 307  637.6739
 308  727.1575
 309  755.2106
 310  776.9476
 311  668.5972
 312  535.1293
 313  541.0267
 314  575.5503
 315  760.5998
 316  728.8111
 317  679.7127
 318  693.6622
 319  774.1631
 320  729.4969
 321  630.0251
 322  679.0191
 323  713.3353
 324  585.3979
 325  604.7902
 326  702.7969
 327  747.9084
 328  646.8575
 329  678.2033
 330  634.5812
 331  697.0364
 332  728.369
 333  784.6436
 334  778.3287
 335  727.2924
 336  792.3442
 337  705.2415
 338  653.9149
 339  791.6835
 340  832.3987
 341  700.0338
 342  738.0085
 343  805.8601
 344  727.7859
 345  601.0175
 346  684.6965
 347  717.9218
 348  887.0751
 349  931.8772
 350  796.9352
 351  758.4412
 352  790.6934
 353  611.7642
 354  604.7526
 355  614.7811
 356  628.2653
 357  743.8544
 358  766.3548
 359  723.3871
 360  771.2881
 361  849.1708
 362  802.826
 363  784.2252
 364  783.3445
 365  773.3239
 366  737.2781
 367  701.6042
 368  731.4812
 369  760.2179
 370  653.655
 371  671.5796
 372  590.4193
 373  713.0087
 374  583.9304
 375  587.0704
 376  718.9482
 377  623.0677
 378  715.8829
 379  621.0227
 380  717.895
 381  813.6802
 382  718.5012
 383  742.7909
 384  707.2625
 385  771.9885
 386  763.6531
 387  709.6081
 388  650.3731
 389  661.3649
 390  635.2329
 391  586.7353
 392  707.611
 393  682.2926
 394  613.1406
 395  587.8486
 396  640.975
 397  620.1691
 398  513.4532
 399  628.2369
 400  789.0195
 401  818.7376
 402  661.5662
 403  719.0112
 404  645.2194
 405  642.2609
 406  607.0302
 407  617.2886
 408  719.6551
 409  644.4136
 410  758.1735
 411  656.3845
 412  848.4421
 413  744.4941
 414  749.6501
 415  668.0367
 416  586.3764
 417  688.4839
 418  655.7291
 419  647.8204
 420  713.4792
 421  629.4985
 422  671.2255
 423  686.9025
 424  766.4191
 425  794.9932
 426  638.0543
 427  618.8939
 428  711.079
 429  615.2216
 430  660.9973
 431  726.3983
 432  694.2278
 433  623.3084
 434  757.7761
 435  748.3713
 436  715.4692
 437  699.0865
 438  591.6092
 439  545.0374
 440  660.1474
 441  753.0212
 442  748.3347
 443  738.7851
 444  836.0923
 445  768.7038
 446  703.821
 447  693.1888
 448  681.2072
 449  696.132
 450  630.0642
 451  620.7781
 452  635.9827
 453  745.3813
 454  681.1812
 455  555.7924
 456  514.1173
 457  683.4714
 458  805.004
 459  728.9819
 460  672.9817
 461  708.6723
 462  829.8364
 463  714.1764
 464  819.6937
 465  841.2985
 466  758.6402
 467  773.9551
 468  621.2202
 469  648.3799
 470  739.7844
 471  777.0687
 472  707.7763
 473  535.5165
 474  650.5316
 475  755.9177
 476  669.5091
 477  561.1461
 478  636.5688
 479  842.2031
 480  658.2762
 481  590.1145
 482  624.0223
 483  602.2371
 484  598.1684
 485  712.3583
 486  647.8644
 487  661.5977
 488  651.6921
 489  662.3383
 490  748.0854
 491  707.7917
 492  815.2501
 493  826.5829
 494  827.6531
 495  800.6124
 496  802.0604
 497  746.9828
 498  842.744
 499  802.9817
 500  768.1371
 501  686.8605
 502  807.6118
 503  809.6998
 504  808.5616
 505  735.4888
 506  817.0096
 507  1003.152
 508  1006.53
 509  1126.427
 510  1317.647
 511  1516.154
