# Input file       =  1209977319.111644_cleaned.dat
# Candidate        =  PSR_0332+5434
# Telescope        =  AR
# Epoch_topo       =  58248.366911014396
# Epoch_bary       =  N/A
# T_sample         =  0.002
# Data Folded      =  7340032
# Data Avg         =  0.0415551795982631
# Data StdDev      =  1.00018779659049 
# Profile Bins     =  512
# Profile Avg      =  595.74611266484  
# Profile StdDev   =  119.755521832766 
# Reduced chi-sqr  =  1.237
# Prob(Noise)      <  0.000199   (~3.5 sigma)
# P_topo (ms)      =  714.538056695526  +/- 0.000436
# P'_topo (s/s)    =  -0                +/- 2.3e-10
# P''_topo (s/s^2) =  0                 +/- 1.01e-13
# P_bary (ms)      =  N/A
# P'_bary (s/s)    =  N/A
# P''_bary (s/s^2) =  N/A
# P_orb (s)        =  N/A
# asin(i)/c (s)    =  N/A
# eccentricity     =  N/A
# w (rad)          =  N/A
# T_peri           =  N/A
######################################################
   0  1280.855
   1  1178.203
   2  1116.14
   3  896.1558
   4  705.5981
   5  715.2654
   6  730.1406
   7  611.0602
   8  540.6338
   9  543.9481
  10  623.2074
  11  678.8178
  12  663.6014
  13  649.87
  14  619.8044
  15  610.6786
  16  643.4719
  17  613.1725
  18  491.6272
  19  476.5525
  20  519.7496
  21  621.2533
  22  634.3317
  23  613.0002
  24  566.1868
  25  563.1512
  26  544.4855
  27  550.6669
  28  592.9297
  29  621.5716
  30  632.108
  31  580.1083
  32  581.9213
  33  544.0409
  34  616.3253
  35  650.8052
  36  665.0058
  37  618.6308
  38  639.4257
  39  649.5707
  40  734.0231
  41  686.1885
  42  621.8293
  43  641.4084
  44  646.3814
  45  610.4739
  46  623.6644
  47  606.6489
  48  610.4032
  49  672.4303
  50  756.8742
  51  714.3613
  52  676.6228
  53  769.6288
  54  671.0485
  55  648.9213
  56  747.5971
  57  736.6337
  58  768.1685
  59  778.9273
  60  735.0313
  61  765.1689
  62  719.6777
  63  630.6594
  64  670.0762
  65  764.0142
  66  873.6486
  67  811.3323
  68  750.2956
  69  676.0142
  70  638.2609
  71  656.3681
  72  691.6608
  73  742.6042
  74  748.449
  75  708.5648
  76  643.5109
  77  649.8644
  78  690.2701
  79  648.8483
  80  650.5545
  81  658.3928
  82  675.2354
  83  593.5831
  84  589.7228
  85  612.3647
  86  620.8636
  87  560.8057
  88  574.243
  89  631.6492
  90  646.2747
  91  601.6212
  92  561.1065
  93  605.1617
  94  570.3223
  95  569.1271
  96  580.4996
  97  554.5258
  98  516.424
  99  464.7556
 100  492.6712
 101  512.7308
 102  467.0609
 103  448.7417
 104  436.8041
 105  440.2385
 106  479.1812
 107  498.8112
 108  474.8564
 109  515.7321
 110  554.8699
 111  501.2831
 112  483.9418
 113  557.5483
 114  593.9639
 115  625.322
 116  616.5817
 117  644.5493
 118  589.6617
 119  526.1218
 120  514.8
 121  484.6829
 122  523.1378
 123  533.8489
 124  592.4437
 125  589.1119
 126  559.8192
 127  540.5305
 128  509.2525
 129  481.097
 130  480.3658
 131  473.4114
 132  524.1207
 133  536.3514
 134  570.816
 135  596.0168
 136  611.858
 137  553.1514
 138  531.8024
 139  540.0013
 140  534.6494
 141  531.3378
 142  582.5673
 143  587.8835
 144  593.6338
 145  588.8211
 146  598.4613
 147  601.6956
 148  607.5152
 149  600.8253
 150  580.45
 151  534.2102
 152  555.3878
 153  527.3474
 154  604.3492
 155  636.1939
 156  542.4225
 157  554.1689
 158  508.4278
 159  573.7206
 160  594.6263
 161  595.0974
 162  614.8519
 163  577.6693
 164  544.9354
 165  487.95
 166  527.1929
 167  562.1625
 168  509.7559
 169  564.3969
 170  609.5594
 171  575.6406
 172  508.5888
 173  505.3727
 174  387.0697
 175  476.545
 176  614.8084
 177  561.2781
 178  517.5522
 179  551.2324
 180  534.294
 181  566.034
 182  625.7008
 183  596.6872
 184  551.4903
 185  520.0049
 186  471.3647
 187  458.9447
 188  454.9111
 189  457.3897
 190  549.2327
 191  634.3539
 192  613.9636
 193  504.7307
 194  519.1663
 195  607.5623
 196  586.6861
 197  607.771
 198  620.3643
 199  564.66
 200  556.5542
 201  588.8959
 202  566.5361
 203  608.1583
 204  557.8979
 205  515.2634
 206  440.3718
 207  459.315
 208  582.3098
 209  540.601
 210  437.1962
 211  419.9197
 212  439.7245
 213  402.7787
 214  471.6413
 215  538.864
 216  530.0616
 217  491.976
 218  454.0132
 219  514.6439
 220  524.339
 221  594.6004
 222  577.8154
 223  556.1064
 224  628.4324
 225  635.5148
 226  569.4666
 227  524.6699
 228  533.8597
 229  537.912
 230  465.11
 231  542.6771
 232  507.9329
 233  504.2002
 234  481.3853
 235  392.0556
 236  460.8377
 237  504.3024
 238  471.3392
 239  520.8417
 240  570.8256
 241  612.0421
 242  593.5582
 243  616.4072
 244  612.2428
 245  593.3963
 246  617.4231
 247  584.0319
 248  524.4718
 249  534.4106
 250  506.3315
 251  513.5402
 252  494.4909
 253  502.9762
 254  570.8914
 255  583.3962
 256  617.0464
 257  636.4562
 258  600.1069
 259  585.7947
 260  615.1594
 261  634.6926
 262  598.3506
 263  660.9139
 264  630.4342
 265  582.4626
 266  625.8566
 267  617.7321
 268  623.4069
 269  568.0876
 270  648.8004
 271  705.7399
 272  666.0123
 273  705.6104
 274  671.7656
 275  642.6883
 276  596.1815
 277  651.7312
 278  653.2657
 279  618.2565
 280  678.8182
 281  657.756
 282  623.6134
 283  610.8831
 284  634.2251
 285  584.7044
 286  670.0693
 287  634.4817
 288  548.8373
 289  573.869
 290  517.2665
 291  528.4855
 292  589.4266
 293  580.785
 294  598.2175
 295  631.025
 296  679.2325
 297  644.6049
 298  591.5437
 299  693.2153
 300  692.1583
 301  622.0498
 302  706.5015
 303  669.683
 304  642.1114
 305  620.4056
 306  663.463
 307  638.6247
 308  595.0679
 309  541.0842
 310  656.0891
 311  558.8218
 312  588.1979
 313  615.9414
 314  684.2166
 315  694.9566
 316  693.5865
 317  662.6538
 318  704.6359
 319  680.8251
 320  660.1762
 321  684.7449
 322  605.1363
 323  638.1418
 324  702.6079
 325  729.8234
 326  615.8442
 327  603.1011
 328  619.2032
 329  563.33
 330  542.2678
 331  583.1292
 332  571.4745
 333  554.2354
 334  533.6791
 335  567.0131
 336  502.0613
 337  545.6597
 338  517.4232
 339  519.6753
 340  528.4633
 341  582.3557
 342  533.584
 343  562.2294
 344  583.2488
 345  608.1992
 346  598.6198
 347  587.1322
 348  642.1376
 349  627.3001
 350  576.4189
 351  583.7584
 352  553.9086
 353  551.6614
 354  554.6075
 355  545.8134
 356  557.9367
 357  602.3657
 358  649.2679
 359  640.0377
 360  538.7122
 361  614.4722
 362  622.9247
 363  657.2968
 364  672.2448
 365  658.2169
 366  658.2637
 367  619.9136
 368  577.8041
 369  612.631
 370  584.456
 371  545.0327
 372  491.3957
 373  531.1982
 374  483.0844
 375  434.9981
 376  484.2415
 377  529.1877
 378  550.4393
 379  541.3148
 380  473.1359
 381  575.2653
 382  553.3481
 383  483.1368
 384  519.2354
 385  574.4066
 386  590.9091
 387  604.548
 388  588.6344
 389  570.6952
 390  599.7816
 391  553.816
 392  555.2579
 393  583.4553
 394  556.6556
 395  516.7007
 396  497.9308
 397  535.2308
 398  608.1855
 399  556.3436
 400  525.7192
 401  505.1581
 402  520.5736
 403  565.3379
 404  583.9416
 405  671.3378
 406  610.4972
 407  667.8898
 408  648.5833
 409  588.8935
 410  578.9559
 411  592.0079
 412  585.0588
 413  627.437
 414  563.64
 415  600.3501
 416  617.3033
 417  613.6974
 418  645.8775
 419  609.0353
 420  610.0173
 421  609.4628
 422  612.3836
 423  561.1144
 424  548.1838
 425  475.7153
 426  534.6008
 427  571.2759
 428  611.8305
 429  500.8058
 430  461.4301
 431  498.4773
 432  600.9359
 433  547.7495
 434  519.0786
 435  541.9897
 436  541.5429
 437  529.2007
 438  506.1661
 439  496.3315
 440  624.7744
 441  556.0217
 442  468.1397
 443  433.1649
 444  510.1943
 445  539.7584
 446  517.8417
 447  605.1426
 448  630.169
 449  616.0498
 450  569.9337
 451  584.9753
 452  568.8762
 453  594.088
 454  532.7573
 455  490.9807
 456  467.1204
 457  485.041
 458  473.6236
 459  547.6343
 460  588.6959
 461  636.8578
 462  634.8859
 463  591.0541
 464  672.9093
 465  632.9357
 466  527.6447
 467  601.6902
 468  679.5534
 469  607.5208
 470  543.6909
 471  603.9301
 472  631.9987
 473  570.2593
 474  580.6688
 475  586.885
 476  622.5948
 477  659.2372
 478  609.8579
 479  565.0732
 480  582.2277
 481  542.574
 482  509.7388
 483  627.8134
 484  605.195
 485  632.4481
 486  680.8137
 487  623.4965
 488  598.2174
 489  651.2029
 490  650.3922
 491  619.3791
 492  693.4625
 493  692.2803
 494  658.0823
 495  654.579
 496  736.4366
 497  635.0931
 498  633.3349
 499  720.1108
 500  610.4727
 501  612.7021
 502  680.2438
 503  695.5656
 504  684.5913
 505  619.138
 506  734.4417
 507  809.4385
 508  856.5682
 509  979.8713
 510  1147.185
 511  1258.758
