# Input file       =  1209891182.120269_cleaned.dat
# Candidate        =  PSR_0332+5434
# Telescope        =  AR
# Epoch_topo       =  58247.369955095710
# Epoch_bary       =  N/A
# T_sample         =  0.002
# Data Folded      =  7340032
# Data Avg         =  0.0764907244847506
# Data StdDev      =  1.00012384413869 
# Profile Bins     =  512
# Profile Avg      =  1097.11862851186 
# Profile StdDev   =  119.747864611529 
# Reduced chi-sqr  =  1.195
# Prob(Noise)      <  0.00159   (~2.9 sigma)
# P_topo (ms)      =  714.539004730054  +/- 0.000583
# P'_topo (s/s)    =  -0                +/- 3.08e-10
# P''_topo (s/s^2) =  0                 +/- 1.36e-13
# P_bary (ms)      =  N/A
# P'_bary (s/s)    =  N/A
# P''_bary (s/s^2) =  N/A
# P_orb (s)        =  N/A
# asin(i)/c (s)    =  N/A
# eccentricity     =  N/A
# w (rad)          =  N/A
# T_peri           =  N/A
######################################################
   0  1681.116
   1  1485.893
   2  1295.841
   3  1191.019
   4  1121.077
   5  1121.47
   6  978.3547
   7  958.1428
   8  1005.681
   9  989.3006
  10  1049.541
  11  1063.304
  12  1063.573
  13  1028.586
  14  1034.468
  15  997.7297
  16  1036.372
  17  1009.192
  18  1010.513
  19  1044.193
  20  1099.479
  21  1122.547
  22  1056.207
  23  932.0651
  24  898.8424
  25  945.5688
  26  1020.636
  27  1062.532
  28  1138.481
  29  1142.691
  30  1057.246
  31  1075.731
  32  1006.222
  33  1080.911
  34  1062.227
  35  1141.424
  36  1090.642
  37  1040.81
  38  1111.521
  39  1112.861
  40  1149.576
  41  1173.941
  42  1243.488
  43  1180.436
  44  1142.049
  45  1116.868
  46  1078.219
  47  1124.305
  48  1150.538
  49  1155.304
  50  1087.818
  51  1137.162
  52  1190.339
  53  1210.193
  54  1163.632
  55  1127.925
  56  1103.034
  57  1083.382
  58  1150.317
  59  1126.376
  60  1099.631
  61  1070.766
  62  1093.655
  63  1115.365
  64  1187.269
  65  1141.248
  66  1072.363
  67  1128.238
  68  1208.833
  69  1129.794
  70  1085.723
  71  1147.222
  72  1197.413
  73  1202.208
  74  1097.571
  75  1115.94
  76  1163.535
  77  1202.13
  78  1173.531
  79  1121.135
  80  1134.997
  81  1070.314
  82  1125.223
  83  1125.991
  84  1122.885
  85  1126.211
  86  1151.812
  87  1086.714
  88  1104.599
  89  1170.245
  90  1169.727
  91  1133.03
  92  1079.036
  93  1134.568
  94  1058.159
  95  1114.854
  96  1124.731
  97  1183.189
  98  1136.361
  99  1128.922
 100  1083.294
 101  1018.581
 102  1089.659
 103  1024.631
 104  1101.035
 105  1113.039
 106  1099.849
 107  1102.925
 108  1106.639
 109  1134.681
 110  1094.572
 111  1096.245
 112  1183.565
 113  1227.879
 114  1219.915
 115  1192.92
 116  1167.883
 117  1113.8
 118  1103.446
 119  1080.911
 120  1058.576
 121  1088.044
 122  1131.567
 123  1138.062
 124  1126.389
 125  1137.541
 126  1121.35
 127  1058.984
 128  990.5459
 129  1033.652
 130  1006.133
 131  1012.265
 132  1042.543
 133  1118.535
 134  1069.986
 135  1035.063
 136  956.3364
 137  1066.602
 138  1107.159
 139  1102.889
 140  980.3066
 141  986.1991
 142  1057.123
 143  1076.698
 144  1021.472
 145  994.0059
 146  1067.345
 147  1084.409
 148  1072.366
 149  1041.591
 150  1025.899
 151  1071.89
 152  1063.226
 153  1039.588
 154  1093.202
 155  1071.549
 156  1069.925
 157  1017.704
 158  1032.694
 159  1173.633
 160  1190.815
 161  1145.345
 162  1157.531
 163  1184.226
 164  1187.57
 165  1264.035
 166  1208.45
 167  1204.052
 168  1185.75
 169  1214.962
 170  1217.188
 171  1202.633
 172  1166.737
 173  1184.661
 174  1192.622
 175  1200.985
 176  1201.208
 177  1245.1
 178  1275.403
 179  1332.414
 180  1299.8
 181  1256.286
 182  1248.571
 183  1265.149
 184  1240.593
 185  1231.617
 186  1251.254
 187  1244.77
 188  1241.6
 189  1238.37
 190  1176.282
 191  1259.005
 192  1218.959
 193  1191.497
 194  1237.271
 195  1213.385
 196  1233.92
 197  1199.06
 198  1119.411
 199  1208.019
 200  1337.34
 201  1309.409
 202  1196.344
 203  1139.448
 204  1174.503
 205  1211.135
 206  1229.613
 207  1280.749
 208  1237.987
 209  1173.28
 210  1206.22
 211  1246.22
 212  1133.499
 213  1182.669
 214  1115.36
 215  1165.218
 216  1228.192
 217  1174.613
 218  1150.659
 219  1104.9
 220  1090.191
 221  1180.275
 222  1238.791
 223  1169.392
 224  1049.352
 225  1182.876
 226  1182.872
 227  1168.278
 228  1132.775
 229  1142.482
 230  1244.571
 231  1138.786
 232  1090.411
 233  1119.878
 234  1096.453
 235  1115.933
 236  1127.009
 237  1072.266
 238  1101.828
 239  1150.71
 240  1141.451
 241  1031.239
 242  964.7313
 243  1015.903
 244  1053.854
 245  1014.917
 246  1073.591
 247  1110.368
 248  1085.27
 249  993.9408
 250  1045.864
 251  1095.232
 252  1047.713
 253  1079.633
 254  1104.022
 255  1040.293
 256  1044.473
 257  1083.305
 258  1110.687
 259  1086.655
 260  1058.495
 261  996.9717
 262  976.417
 263  1042.803
 264  1020.878
 265  937.3932
 266  980.7697
 267  977.9959
 268  978.6606
 269  1012.392
 270  1068.861
 271  1063.61
 272  1017.298
 273  975.1443
 274  969.9208
 275  1050.727
 276  1115.275
 277  1080.566
 278  966.9213
 279  1006.405
 280  976.3998
 281  1033.95
 282  1009.443
 283  984.8377
 284  986.4579
 285  979.6025
 286  920.9161
 287  919.5484
 288  949.5519
 289  956.7853
 290  961.485
 291  975.5798
 292  1036.328
 293  1036.216
 294  1067.816
 295  1046.447
 296  1004.566
 297  1007.786
 298  1019.831
 299  966.3368
 300  914.6098
 301  942.1061
 302  917.0417
 303  915.0958
 304  950.6475
 305  952.3857
 306  872.8887
 307  887.9563
 308  916.9266
 309  881.238
 310  887.1275
 311  952.5323
 312  960.5062
 313  983.386
 314  999.4315
 315  1048.342
 316  1040.513
 317  1015.147
 318  1043.881
 319  1037.524
 320  1107.937
 321  1094.515
 322  1052.786
 323  1067.373
 324  996.1202
 325  978.7557
 326  1013.619
 327  997.4918
 328  1001.027
 329  1028.749
 330  1081.221
 331  1080.636
 332  1043.817
 333  1018.367
 334  1025.583
 335  1040.686
 336  1156.29
 337  1116.349
 338  1111.361
 339  1066.088
 340  1109.463
 341  1038.554
 342  975.1041
 343  1109.267
 344  1051.304
 345  1073.598
 346  1071.974
 347  1043.773
 348  988.5464
 349  969.2385
 350  1076.81
 351  1048.599
 352  1013.814
 353  1033.537
 354  1077.144
 355  1080.424
 356  1042.094
 357  995.5208
 358  1155.872
 359  1154.213
 360  1091.175
 361  1002.263
 362  989.3418
 363  1031.45
 364  1000.802
 365  990.0017
 366  969.3878
 367  1011.034
 368  1078.936
 369  1089.401
 370  1000.635
 371  1008.961
 372  1053.245
 373  1009.406
 374  997.1613
 375  1048.371
 376  1037.254
 377  1049.44
 378  1080.059
 379  1014.066
 380  1028.033
 381  1115.662
 382  1036.173
 383  965.6885
 384  1002.087
 385  1036.034
 386  1007.517
 387  1068.521
 388  1038.553
 389  956.0831
 390  987.4785
 391  1011.409
 392  973.1361
 393  1089.842
 394  1098.972
 395  1046.131
 396  1159.031
 397  1161.761
 398  1092.504
 399  1094.524
 400  1092.124
 401  1105.183
 402  1114.664
 403  1111.628
 404  1138.852
 405  1087.822
 406  1079.098
 407  1099.676
 408  1083.644
 409  1104.504
 410  1092.938
 411  1210.166
 412  1183.332
 413  1195.976
 414  1257.71
 415  1209.663
 416  1176.737
 417  1094.563
 418  1114.324
 419  1179.193
 420  1162.468
 421  1193.701
 422  1194.063
 423  1164.485
 424  1112.669
 425  1092.832
 426  1065.486
 427  1104.181
 428  1131.503
 429  1043.14
 430  994.9019
 431  1058.218
 432  1150.07
 433  1189.14
 434  1085.739
 435  1068.875
 436  1112.325
 437  1053.563
 438  1094.27
 439  1137.622
 440  1169.206
 441  1190.176
 442  1214.504
 443  1157.629
 444  1052.305
 445  1083.717
 446  1086.798
 447  1067.493
 448  1054.369
 449  1130.121
 450  1193.722
 451  1070.26
 452  930.4169
 453  970.8803
 454  1064.161
 455  1087.708
 456  1082.821
 457  1067.132
 458  962.7815
 459  1013.596
 460  1088.372
 461  1039.166
 462  1081.186
 463  1099.908
 464  1099.053
 465  1119.672
 466  1108.404
 467  1034.351
 468  1085.118
 469  1084.726
 470  1094.841
 471  1027.309
 472  1131.555
 473  1039.042
 474  1047.278
 475  1105.42
 476  1162.594
 477  1100.555
 478  1145.616
 479  1121.361
 480  1083.41
 481  1101.871
 482  1107.449
 483  1045.923
 484  986.6666
 485  1109.598
 486  1193.609
 487  1150.674
 488  1195.458
 489  1101.638
 490  1086.72
 491  1107.802
 492  1125.885
 493  1107.676
 494  1102.895
 495  1176.584
 496  1078.736
 497  1067.115
 498  1054.74
 499  1111.871
 500  1053.828
 501  1109.537
 502  1145.207
 503  1159.108
 504  1104.298
 505  1147.142
 506  1237.019
 507  1294.921
 508  1324.288
 509  1402.546
 510  1567.376
 511  1666.241
