# Input file       =  1209101040.113664_cleaned.dat
# Candidate        =  PSR_0332+5434
# Telescope        =  AR
# Epoch_topo       =  58238.224792982219
# Epoch_bary       =  N/A
# T_sample         =  0.002
# Data Folded      =  7208960
# Data Avg         =  0.0445696422444628
# Data StdDev      =  1.00006546860919 
# Profile Bins     =  512
# Profile Avg      =  627.516875861958 
# Profile StdDev   =  118.666944244738 
# Reduced chi-sqr  =  1.565
# Prob(Noise)      <  4.29e-15   (~7.8 sigma)
# P_topo (ms)      =  714.547414324102  +/- 6.48e-05
# P'_topo (s/s)    =  -0                +/- 3.48e-11
# P''_topo (s/s^2) =  0                 +/- 1.56e-14
# P_bary (ms)      =  N/A
# P'_bary (s/s)    =  N/A
# P''_bary (s/s^2) =  N/A
# P_orb (s)        =  N/A
# asin(i)/c (s)    =  N/A
# eccentricity     =  N/A
# w (rad)          =  N/A
# T_peri           =  N/A
######################################################
   0  1378.513
   1  1271.6
   2  1095.751
   3  731.937
   4  632.3037
   5  745.5701
   6  617.5808
   7  617.1985
   8  664.6403
   9  568.6215
  10  537.6321
  11  572.2088
  12  568.8721
  13  645.8777
  14  789.9014
  15  732.4804
  16  653.5082
  17  629.3654
  18  613.4917
  19  638.2247
  20  695.6481
  21  760.9409
  22  613.6742
  23  664.8827
  24  724.296
  25  603.042
  26  582.0494
  27  645.7994
  28  790.5754
  29  687.4794
  30  685.118
  31  623.9105
  32  638.6746
  33  621.753
  34  698.9417
  35  674.2098
  36  532.2164
  37  727.9233
  38  754.8298
  39  768.6432
  40  688.8257
  41  664.4975
  42  625.2826
  43  641.6614
  44  650.3373
  45  554.5737
  46  623.7097
  47  738.7957
  48  637.3354
  49  622.4319
  50  464.5588
  51  478.8973
  52  557.5285
  53  564.1087
  54  655.2297
  55  631.0825
  56  572.3481
  57  588.7885
  58  604.8369
  59  602.9127
  60  514.4579
  61  525.6642
  62  569.1205
  63  739.0389
  64  635.857
  65  611.236
  66  564.2763
  67  635.3987
  68  569.696
  69  662.5328
  70  563.631
  71  490.2226
  72  640.9061
  73  610.4698
  74  545.7689
  75  484.3469
  76  472.4587
  77  554.1435
  78  635.1541
  79  571.8778
  80  661.5002
  81  685.6371
  82  609.0403
  83  662.6455
  84  676.6753
  85  733.2443
  86  679.233
  87  664.6064
  88  747.8868
  89  631.494
  90  607.4152
  91  470.4058
  92  487.7959
  93  539.1525
  94  530.9349
  95  567.9545
  96  640.09
  97  663.2767
  98  596.811
  99  600.644
 100  638.8063
 101  717.6648
 102  612.9056
 103  648.4803
 104  681.5031
 105  769.321
 106  712.1655
 107  713.4079
 108  769.4452
 109  756.7673
 110  698.4604
 111  714.7298
 112  724.5341
 113  700.0272
 114  589.7638
 115  731.0184
 116  783.5242
 117  697.8053
 118  641.6298
 119  665.4105
 120  739.7358
 121  629.4982
 122  661.8329
 123  760.0145
 124  739.8292
 125  559.9064
 126  498.9364
 127  581.6445
 128  771.8918
 129  680.4742
 130  588.4982
 131  520.7114
 132  601.1707
 133  529.0099
 134  514.8283
 135  648.0069
 136  656.027
 137  683.1272
 138  566.7557
 139  666.6143
 140  642.4634
 141  580.1433
 142  493.2492
 143  627.0387
 144  539.7859
 145  566.8505
 146  609.5503
 147  481.2643
 148  463.3543
 149  515.3607
 150  605.1089
 151  643.2205
 152  668.4009
 153  682.6914
 154  685.9935
 155  672.476
 156  591.5319
 157  643.973
 158  615.0717
 159  562.5284
 160  531.1556
 161  571.9493
 162  704.0973
 163  724.3405
 164  647.2185
 165  566.5318
 166  675.7763
 167  587.6166
 168  498.3525
 169  654.9943
 170  756.7612
 171  720.8936
 172  693.707
 173  683.6591
 174  740.0639
 175  770.7128
 176  702.0407
 177  682.3539
 178  752.4333
 179  873.3406
 180  760.7175
 181  634.2598
 182  676.7271
 183  677.7495
 184  689.6376
 185  875.7566
 186  759.2856
 187  830.6093
 188  791.6378
 189  658.5581
 190  640.8468
 191  648.0196
 192  665.4216
 193  609.7991
 194  641.2496
 195  644.0014
 196  718.7212
 197  803.3951
 198  566.2952
 199  707.7351
 200  667.597
 201  630.447
 202  665.549
 203  828.6361
 204  742.4996
 205  645.2569
 206  655.4398
 207  558.8705
 208  551.3535
 209  571.3499
 210  616.7508
 211  698.2349
 212  725.7952
 213  698.8139
 214  632.683
 215  663.1331
 216  588.3202
 217  611.7721
 218  634.2048
 219  653.4496
 220  745.173
 221  681.819
 222  586.1547
 223  524.1479
 224  554.7073
 225  425.3105
 226  524.4257
 227  667.2017
 228  676.3133
 229  637.8738
 230  571.708
 231  601.5297
 232  548.0644
 233  686.5218
 234  657.6575
 235  639.1326
 236  654.4399
 237  475.9378
 238  519.4142
 239  634.7491
 240  607.2057
 241  580.1162
 242  495.2814
 243  500.3766
 244  598.3394
 245  581.9548
 246  619.9199
 247  737.2559
 248  707.6982
 249  643.6458
 250  573.6031
 251  541.1101
 252  582.6807
 253  654.3241
 254  736.4207
 255  548.2917
 256  627.676
 257  636.7596
 258  414.5929
 259  481.666
 260  706.0482
 261  822.887
 262  647.5315
 263  717.9147
 264  742.816
 265  601.8422
 266  516.0569
 267  542.5156
 268  628.1812
 269  683.3508
 270  808.4807
 271  613.6605
 272  578.5206
 273  569.5637
 274  513.5091
 275  553.4125
 276  645.0518
 277  551.309
 278  646.8549
 279  688.889
 280  712.6653
 281  630.2069
 282  467.2235
 283  455.7522
 284  475.6506
 285  554.403
 286  508.7124
 287  557.2114
 288  604.3112
 289  575.5477
 290  431.5397
 291  492.0491
 292  368.7818
 293  488.3956
 294  538.7096
 295  532.7562
 296  552.4977
 297  536.0638
 298  582.4365
 299  443.5963
 300  501.3682
 301  567.157
 302  619.9987
 303  667.0748
 304  565.29
 305  481.0368
 306  437.3944
 307  468.8494
 308  448.4786
 309  426.127
 310  473.4489
 311  596.2714
 312  629.5828
 313  604.9623
 314  675.8826
 315  748.0601
 316  712.1553
 317  589.2278
 318  516.5477
 319  623.7057
 320  665.6301
 321  720.8027
 322  657.8272
 323  609.3427
 324  569.4856
 325  529.9752
 326  439.3063
 327  563.8926
 328  534.4984
 329  616.1784
 330  728.4351
 331  537.6127
 332  485.2906
 333  545.8457
 334  467.2051
 335  584.5964
 336  755.3345
 337  781.1605
 338  676.2642
 339  635.2445
 340  501.6076
 341  274.7444
 342  366.1726
 343  576.0129
 344  557.2702
 345  511.1487
 346  631.8832
 347  713.6998
 348  683.3577
 349  605.4703
 350  614.1897
 351  709.5149
 352  641.1618
 353  580.4127
 354  601.3413
 355  592.5235
 356  523.5983
 357  508.7542
 358  509.2937
 359  486.9544
 360  605.1912
 361  720.2676
 362  765.5759
 363  608.5933
 364  648.9341
 365  490.2632
 366  546.6417
 367  691.2802
 368  631.0926
 369  648.8939
 370  637.4203
 371  601.3793
 372  592.7374
 373  496.9419
 374  519.4194
 375  518.0266
 376  540.3531
 377  555.2568
 378  541.4994
 379  595.6461
 380  455.9651
 381  374.5972
 382  381.385
 383  532.7767
 384  546.9611
 385  449.3241
 386  555.3895
 387  598.5214
 388  606.5646
 389  456.9204
 390  486.6612
 391  466.4433
 392  499.6772
 393  655.9812
 394  533.5305
 395  545.568
 396  609.3842
 397  775.8076
 398  671.1938
 399  667.6311
 400  713.5948
 401  633.0679
 402  649.8229
 403  655.016
 404  680.1733
 405  686.3566
 406  638.0418
 407  532.0125
 408  563.0646
 409  605.9943
 410  663.8028
 411  663.5165
 412  590.3383
 413  549.0015
 414  532.0442
 415  430.3933
 416  575.7396
 417  538.4326
 418  630.7399
 419  643.4999
 420  668.9631
 421  637.9109
 422  628.2888
 423  579.161
 424  457.5989
 425  561.5958
 426  697.6913
 427  680.4042
 428  724.8046
 429  698.3874
 430  637.9681
 431  553.7684
 432  607.3807
 433  549.5906
 434  656.2385
 435  678.7813
 436  697.6235
 437  632.432
 438  562.3597
 439  430.3894
 440  572.8557
 441  628.3708
 442  721.0336
 443  795.4265
 444  823.9156
 445  640.3849
 446  512.8265
 447  673.0997
 448  589.9316
 449  609.206
 450  685.5706
 451  632.278
 452  589.3193
 453  603.0706
 454  674.8208
 455  615.6672
 456  516.5328
 457  531.2466
 458  559.5434
 459  670.218
 460  743.0266
 461  703.0448
 462  680.2277
 463  694.7557
 464  626.4869
 465  586.973
 466  657.2662
 467  734.9712
 468  729.8027
 469  752.8777
 470  753.6415
 471  641.2149
 472  655.6422
 473  652.2301
 474  600.9713
 475  701.8316
 476  764.6578
 477  725.2931
 478  768.5441
 479  681.3678
 480  632.5305
 481  566.0531
 482  632.2434
 483  613.1127
 484  668.9736
 485  661.7442
 486  583.637
 487  666.6566
 488  628.3244
 489  551.0896
 490  513.586
 491  577.5046
 492  631.8166
 493  726.7809
 494  806.364
 495  712.2021
 496  561.9421
 497  514.2288
 498  593.1367
 499  745.0963
 500  674.9355
 501  679.1336
 502  700.8091
 503  746.1001
 504  701.7907
 505  646.1592
 506  631.5491
 507  729.9138
 508  843.4232
 509  959.4213
 510  1091.368
 511  1186.563
