# Input file       =  1210135029.122591_cleaned.dat
# Candidate        =  PSR_0332+5434
# Telescope        =  AR
# Epoch_topo       =  58250.192258363320
# Epoch_bary       =  N/A
# T_sample         =  0.002
# Data Folded      =  7208960
# Data Avg         =  0.0340013378504026
# Data StdDev      =  1.0000490993196  
# Profile Bins     =  512
# Profile Avg      =  478.744882515447 
# Profile StdDev   =  118.665001878326 
# Reduced chi-sqr  =  1.908
# Prob(Noise)      <  2.31e-31   (~11.6 sigma)
# P_topo (ms)      =  714.536297253581  +/- 0.000155
# P'_topo (s/s)    =  -0                +/- 8.34e-11
# P''_topo (s/s^2) =  0                 +/- 3.75e-14
# P_bary (ms)      =  N/A
# P'_bary (s/s)    =  N/A
# P''_bary (s/s^2) =  N/A
# P_orb (s)        =  N/A
# asin(i)/c (s)    =  N/A
# eccentricity     =  N/A
# w (rad)          =  N/A
# T_peri           =  N/A
######################################################
   0  1425.642
   1  1324.431
   2  888.3921
   3  709.4889
   4  581.6059
   5  466.4571
   6  471.4789
   7  526.168
   8  468.5083
   9  311.7286
  10  570.8207
  11  505.329
  12  470.4925
  13  517.64
  14  442.2184
  15  306.593
  16  344.6559
  17  439.2167
  18  514.054
  19  612.5839
  20  490.9416
  21  569.937
  22  495.606
  23  386.0714
  24  362.4917
  25  439.971
  26  555.2502
  27  532.1974
  28  517.7941
  29  405.2589
  30  484.3219
  31  468.929
  32  504.4176
  33  624.6035
  34  513.6302
  35  500.3332
  36  343.7833
  37  418.1203
  38  502.2556
  39  480.8577
  40  462.4672
  41  422.6852
  42  442.087
  43  314.939
  44  469.2185
  45  566.5269
  46  543.3593
  47  444.86
  48  489.5973
  49  354.1617
  50  270.416
  51  503.066
  52  741.1716
  53  694.8684
  54  461.3555
  55  497.5734
  56  588.8787
  57  418.591
  58  384.6344
  59  453.5578
  60  602.0737
  61  487.6516
  62  393.2553
  63  511.4522
  64  440.1948
  65  359.0129
  66  507.101
  67  356.5135
  68  346.6842
  69  547.3038
  70  569.9465
  71  438.2795
  72  459.4515
  73  430.1568
  74  357.8176
  75  364.1827
  76  552.4103
  77  545.1362
  78  565.3202
  79  450.1854
  80  376.0081
  81  465.4806
  82  407.9254
  83  401.1856
  84  455.9208
  85  411.7492
  86  428.1789
  87  585.0251
  88  513.8308
  89  431.5262
  90  524.3306
  91  556.1268
  92  464.1926
  93  434.4029
  94  399.3283
  95  492.2651
  96  483.1043
  97  555.1445
  98  459.3391
  99  412.3091
 100  478.8049
 101  549.3482
 102  556.3835
 103  475.5838
 104  510.0891
 105  582.8461
 106  465.587
 107  441.8102
 108  445.2259
 109  381.4849
 110  336.4824
 111  379.1165
 112  522.5069
 113  470.0549
 114  472.0211
 115  515.95
 116  590.7745
 117  397.0213
 118  493.0976
 119  683.1818
 120  718.8988
 121  618.8722
 122  427.7945
 123  484.1741
 124  570.6802
 125  408.8267
 126  426.9581
 127  409.6166
 128  458.2542
 129  472.1428
 130  345.8092
 131  384.8239
 132  334.0943
 133  387.5412
 134  540.8736
 135  587.6903
 136  603.4068
 137  563.0145
 138  569.6393
 139  480.6478
 140  391.1912
 141  360.5724
 142  407.0156
 143  473.9934
 144  557.9813
 145  560.3082
 146  478.7899
 147  494.7348
 148  457.2019
 149  461.4061
 150  429.8155
 151  533.4277
 152  438.3615
 153  431.136
 154  506.0739
 155  513.7179
 156  404.4597
 157  364.4178
 158  360.0019
 159  443.1311
 160  509.0835
 161  420.1414
 162  481.0166
 163  416.9985
 164  420.2321
 165  372.8888
 166  448.3239
 167  598.6409
 168  637.2067
 169  702.8109
 170  507.2812
 171  462.154
 172  479.0988
 173  437.9029
 174  430.12
 175  462.6042
 176  500.0865
 177  541.3259
 178  614.3608
 179  606.2159
 180  470.1983
 181  319.6099
 182  352.5852
 183  419.0549
 184  432.844
 185  468.5385
 186  429.5655
 187  503.703
 188  547.1666
 189  545.7064
 190  471.2137
 191  424.4486
 192  423.1868
 193  378.6035
 194  425.775
 195  372.2607
 196  395.5682
 197  359.7753
 198  407.7355
 199  362.5524
 200  403.671
 201  508.4721
 202  457.9172
 203  358.1456
 204  406.5115
 205  440.3366
 206  485.1815
 207  372.4279
 208  375.954
 209  374.2463
 210  396.943
 211  460.6068
 212  527.009
 213  529.4856
 214  492.8978
 215  481.2108
 216  426.5005
 217  541.076
 218  509.5567
 219  473.1877
 220  495.2014
 221  479.7118
 222  378.6455
 223  364.3362
 224  487.8982
 225  507.3348
 226  385.8903
 227  436.8085
 228  530.3621
 229  639.1255
 230  462.7311
 231  420.6104
 232  392.1111
 233  432.2722
 234  560.3414
 235  482.4838
 236  499.9766
 237  491.5289
 238  508.9014
 239  542.94
 240  410.5362
 241  368.9932
 242  503.4802
 243  580.3444
 244  393.7148
 245  536.7753
 246  481.5692
 247  472.0763
 248  582.324
 249  639.619
 250  622.7253
 251  474.5571
 252  627.7927
 253  656.7866
 254  512.7446
 255  557.3766
 256  500.7523
 257  515.3477
 258  660.7237
 259  619.5714
 260  739.5646
 261  634.2829
 262  688.2619
 263  570.7896
 264  527.9317
 265  472.2536
 266  557.438
 267  389.9431
 268  519.0473
 269  548.2676
 270  666.4576
 271  563.7715
 272  587.6267
 273  421.0128
 274  477.0757
 275  557.4025
 276  607.7975
 277  593.5072
 278  421.8753
 279  421.5628
 280  492.6956
 281  534.0007
 282  530.7249
 283  460.4452
 284  487.6683
 285  566.2371
 286  493.0725
 287  551.7988
 288  486.9638
 289  380.6693
 290  404.2522
 291  505.5595
 292  520.4942
 293  557.9076
 294  675.2799
 295  618.1026
 296  483.2695
 297  535.2017
 298  523.7143
 299  423.558
 300  380.1875
 301  445.8247
 302  587.4597
 303  565.7721
 304  335.1494
 305  432.7248
 306  523.7239
 307  508.4409
 308  460.0513
 309  485.672
 310  311.2978
 311  367.8007
 312  446.0327
 313  412.1416
 314  387.612
 315  402.5461
 316  443.1721
 317  462.1829
 318  482.3199
 319  429.3663
 320  435.7614
 321  365.5383
 322  295.4363
 323  303.5871
 324  415.3793
 325  433.3477
 326  561.502
 327  491.5597
 328  383.5092
 329  468.3616
 330  469.1747
 331  375.1464
 332  400.7834
 333  520.1061
 334  484.0824
 335  475.3377
 336  517.6995
 337  368.7801
 338  406.2895
 339  369.506
 340  339.0924
 341  492.0651
 342  515.9896
 343  427.4521
 344  470.0225
 345  455.0771
 346  281.4699
 347  322.9633
 348  363.6734
 349  461.7857
 350  405.274
 351  454.0515
 352  509.8371
 353  467.3896
 354  355.2644
 355  418.9623
 356  439.5196
 357  371.8503
 358  494.0898
 359  424.141
 360  365.9176
 361  433.5443
 362  457.6955
 363  454.1746
 364  361.3792
 365  383.4383
 366  464.676
 367  395.6242
 368  468.7133
 369  450.6654
 370  526.4511
 371  510.2942
 372  409.2292
 373  452.8661
 374  551.2013
 375  521.1982
 376  517.9342
 377  470.8015
 378  469.4528
 379  419.0219
 380  433.2016
 381  418.8574
 382  443.3865
 383  449.8567
 384  383.9347
 385  525.9254
 386  448.4922
 387  450.9734
 388  409.3028
 389  384.7732
 390  313.8269
 391  392.1094
 392  449.784
 393  462.0437
 394  549.4953
 395  577.9128
 396  305.318
 397  505.0172
 398  466.8683
 399  431.176
 400  378.1135
 401  281.393
 402  313.788
 403  342.865
 404  346.7296
 405  274.6098
 406  415.1765
 407  444.9805
 408  545.235
 409  386.6909
 410  347.8271
 411  357.3705
 412  388.4612
 413  457.1078
 414  443.0329
 415  408.456
 416  570.0388
 417  553.5424
 418  497.2275
 419  510.622
 420  433.9049
 421  436.015
 422  488.6321
 423  516.8598
 424  547.28
 425  531.3254
 426  287.7993
 427  176.1882
 428  280.683
 429  397.9476
 430  424.4682
 431  298.9058
 432  572.6896
 433  530.0007
 434  444.4391
 435  460.3282
 436  468.0966
 437  388.6808
 438  298.1537
 439  332.21
 440  281.6066
 441  279.0486
 442  474.7117
 443  506.535
 444  383.9569
 445  332.6882
 446  308.1998
 447  405.9662
 448  539.5223
 449  503.8867
 450  502.058
 451  479.8599
 452  539.2779
 453  521.8671
 454  532.1224
 455  514.7908
 456  547.2349
 457  407.5769
 458  377.4739
 459  496.8578
 460  475.114
 461  422.6499
 462  370.2998
 463  439.0867
 464  573.1868
 465  439.5236
 466  416.6047
 467  544.3658
 468  543.358
 469  487.4222
 470  358.6527
 471  412.8823
 472  471.0714
 473  543.624
 474  499.153
 475  538.2999
 476  549.0931
 477  498.4339
 478  555.7662
 479  503.7
 480  477.8929
 481  547.2302
 482  587.201
 483  564.2922
 484  549.6917
 485  478.7328
 486  496.57
 487  400.1071
 488  398.4265
 489  441.1096
 490  552.681
 491  540.8246
 492  393.8952
 493  485.2428
 494  518.3825
 495  462.9384
 496  476.6874
 497  530.0281
 498  582.4125
 499  585.7228
 500  530.2103
 501  475.4765
 502  590.228
 503  519.9226
 504  533.6257
 505  555.8079
 506  675.9182
 507  720.7274
 508  792.6135
 509  920.0434
 510  1285.816
 511  1361.55
