# Input file       =  1210063501.123266_cleaned.dat
# Candidate        =  PSR_0332+5434
# Telescope        =  AR
# Epoch_topo       =  58249.364388000766
# Epoch_bary       =  N/A
# T_sample         =  0.002
# Data Folded      =  7340032
# Data Avg         =  0.071519817789976
# Data StdDev      =  0.999983619174005
# Profile Bins     =  512
# Profile Avg      =  1025.07483706146 
# Profile StdDev   =  119.731075050731 
# Reduced chi-sqr  =  1.991
# Prob(Noise)      <  7.48e-36   (~12.4 sigma)
# P_topo (ms)      =  714.537103634586  +/- 0.000509
# P'_topo (s/s)    =  -0                +/- 2.68e-10
# P''_topo (s/s^2) =  0                 +/- 1.18e-13
# P_bary (ms)      =  N/A
# P'_bary (s/s)    =  N/A
# P''_bary (s/s^2) =  N/A
# P_orb (s)        =  N/A
# asin(i)/c (s)    =  N/A
# eccentricity     =  N/A
# w (rad)          =  N/A
# T_peri           =  N/A
######################################################
   0  1783.099
   1  1690.536
   2  1501.019
   3  1248.796
   4  1139.985
   5  1082.73
   6  1076.725
   7  1148.537
   8  1061.013
   9  1016.115
  10  1085.945
  11  1033.467
  12  1145.909
  13  1221.521
  14  1180.515
  15  1167.981
  16  1115.466
  17  1098.269
  18  1028.549
  19  1088.47
  20  1194.682
  21  1144.176
  22  1108.4
  23  1105.872
  24  1160.384
  25  1070.915
  26  1099.163
  27  1065.848
  28  1142.747
  29  1123.664
  30  1097.776
  31  1028.272
  32  978.5814
  33  1010.004
  34  1018.611
  35  1023.013
  36  1044.016
  37  1067.295
  38  1047.1
  39  1077.191
  40  1058.159
  41  1027.933
  42  1033.676
  43  1003.48
  44  1016.751
  45  1058.898
  46  1123.511
  47  1069.208
  48  1017.816
  49  1079.49
  50  1063.753
  51  977.8311
  52  1042.236
  53  1068.404
  54  1065.733
  55  993.7155
  56  895.4727
  57  868.832
  58  1007.861
  59  1011.083
  60  904.9868
  61  1005.714
  62  1043.573
  63  1006.561
  64  994.9581
  65  1071.461
  66  1041.038
  67  1052.443
  68  1021.701
  69  1066.778
  70  1051.043
  71  986.8859
  72  1015.89
  73  1042.103
  74  1149.454
  75  1098.607
  76  1029.707
  77  1023.677
  78  993.5908
  79  1053.244
  80  983.9772
  81  893.1014
  82  918.3561
  83  1039.618
  84  1026.434
  85  1037.154
  86  982.4549
  87  949.2711
  88  843.5526
  89  840.5227
  90  944.301
  91  978.3254
  92  929.4878
  93  926.3977
  94  972.8187
  95  973.4879
  96  1006.988
  97  966.3128
  98  923.1415
  99  1035.286
 100  971.9136
 101  869.6565
 102  853.2304
 103  1001.975
 104  936.4622
 105  999.2499
 106  960.9059
 107  985.6254
 108  977.7617
 109  959.6033
 110  944.9943
 111  931.672
 112  844.0166
 113  863.0037
 114  815.3868
 115  845.6947
 116  815.7593
 117  806.2819
 118  844.1512
 119  916.3385
 120  932.6664
 121  963.516
 122  913.1376
 123  835.3202
 124  917.9969
 125  932.8549
 126  846.4891
 127  965.7911
 128  967.5015
 129  910.3996
 130  826.6105
 131  851.9142
 132  886.6695
 133  974.4883
 134  825.6398
 135  851.3373
 136  983.9615
 137  1073.88
 138  990.9663
 139  973.7011
 140  1010.767
 141  932.5333
 142  842.853
 143  777.6396
 144  767.4675
 145  806.7224
 146  970.6784
 147  960.2025
 148  947.0992
 149  971.7746
 150  973.7633
 151  1013.217
 152  1092.883
 153  993.918
 154  888.9134
 155  913.525
 156  977.0314
 157  1032.859
 158  1032.889
 159  1029.347
 160  1007.456
 161  905.3983
 162  862.3785
 163  920.9101
 164  953.7448
 165  970.7178
 166  951.6896
 167  840.7546
 168  890.8864
 169  908.8087
 170  878.8044
 171  843.5051
 172  835.1428
 173  830.6569
 174  826.7264
 175  827.2973
 176  836.2953
 177  897.927
 178  871.0522
 179  843.8779
 180  804.995
 181  765.4366
 182  821.3313
 183  876.7862
 184  801.2426
 185  779.2708
 186  818.2296
 187  790.8388
 188  863.2431
 189  930.7327
 190  877.6061
 191  908.0005
 192  881.7395
 193  889.8882
 194  930.1104
 195  902.6371
 196  963.3648
 197  1023.203
 198  983.5399
 199  955.4064
 200  955.4862
 201  1036.729
 202  1014.911
 203  955.8858
 204  978.9134
 205  945.8313
 206  862.8751
 207  867.7818
 208  874.1994
 209  889.7127
 210  904.4606
 211  949.999
 212  946.0809
 213  896.1688
 214  865.4015
 215  933.1044
 216  926.1319
 217  933.05
 218  844.6569
 219  897.2837
 220  931.965
 221  889.11
 222  897.7352
 223  929.317
 224  934.4695
 225  904.9675
 226  965.2656
 227  912.3051
 228  937.4199
 229  934.7748
 230  978.6467
 231  956.8266
 232  1055.925
 233  1129.614
 234  1031.649
 235  1049.041
 236  1015.415
 237  1048.514
 238  1046.808
 239  1037.319
 240  1135.481
 241  991.5997
 242  1031.212
 243  1084.475
 244  988.3858
 245  990.3239
 246  932.5817
 247  978.439
 248  994.9581
 249  1024.464
 250  984.5815
 251  855.9414
 252  903.0523
 253  966.6457
 254  910.6943
 255  878.204
 256  903.1199
 257  928.7949
 258  891.6346
 259  1034.882
 260  960.0583
 261  938.2596
 262  983.7642
 263  959.6351
 264  924.3623
 265  961.4604
 266  1014.982
 267  1050.244
 268  1056.943
 269  1008.494
 270  1016.401
 271  943.4854
 272  1052.696
 273  1037.241
 274  1072.623
 275  1029.137
 276  1071.67
 277  1128.306
 278  1045.18
 279  1054.113
 280  1044.203
 281  1053.541
 282  1066.291
 283  1048.281
 284  1027.763
 285  1009.946
 286  996.8981
 287  987.9275
 288  989.9418
 289  1023.567
 290  989.4998
 291  1044.777
 292  1008.006
 293  931.9622
 294  961.832
 295  989.0994
 296  967.044
 297  971.3663
 298  1024.645
 299  917.7003
 300  888.324
 301  944.2105
 302  890.217
 303  936.2401
 304  987.6644
 305  906.6159
 306  963.715
 307  1086.77
 308  1072.208
 309  1051.004
 310  1088.793
 311  1083.55
 312  1111.789
 313  1086.297
 314  1139.329
 315  1097.244
 316  1061.436
 317  1014.591
 318  1059.948
 319  1113.345
 320  1110.475
 321  1121.256
 322  1158.653
 323  1092.63
 324  1114.027
 325  990.1783
 326  1007.727
 327  1037.351
 328  949.7813
 329  920.3422
 330  946.2584
 331  1027.926
 332  990.273
 333  1031.919
 334  1002.046
 335  951.5928
 336  929.6481
 337  951.6205
 338  959.0829
 339  982.1985
 340  1004.071
 341  1001.609
 342  1059.265
 343  1014.111
 344  1012.189
 345  967.0193
 346  877.9388
 347  869.5657
 348  892.462
 349  934.3992
 350  952.1187
 351  964.1058
 352  968.7156
 353  985.0263
 354  933.9041
 355  967.5651
 356  1004.01
 357  963.4393
 358  940.9938
 359  991.6169
 360  1064.12
 361  1086.91
 362  1036.329
 363  1112.553
 364  1206.252
 365  1162.96
 366  1064.871
 367  1104.359
 368  1073.404
 369  1072.166
 370  1118.646
 371  1101.297
 372  1062.495
 373  1094.594
 374  1194.602
 375  1125.862
 376  1032.491
 377  990.4466
 378  975.4264
 379  1082.828
 380  1108.276
 381  1072.74
 382  1098.362
 383  1096.846
 384  1097.104
 385  960.7697
 386  967.6936
 387  1081.895
 388  1091.216
 389  1091.833
 390  1116.309
 391  1070.275
 392  1172.806
 393  1182.835
 394  1123.119
 395  1141.357
 396  1082.548
 397  1127.76
 398  1109.974
 399  1085.581
 400  1178.191
 401  1153.217
 402  1125.93
 403  1146.885
 404  1117.973
 405  1123.206
 406  1108.925
 407  1115.862
 408  1180.456
 409  1151.371
 410  1123.615
 411  1139.829
 412  1114.532
 413  1196.729
 414  1185.824
 415  1171.007
 416  1135.222
 417  1074.503
 418  1119.658
 419  1175.274
 420  1072.968
 421  1097.359
 422  1073.206
 423  1072.063
 424  1041.429
 425  1046.923
 426  1082.73
 427  1006.17
 428  999.205
 429  1054.481
 430  1122.05
 431  1123.568
 432  1087.482
 433  1154.333
 434  1104.751
 435  1094.773
 436  1016.763
 437  1071.945
 438  1104.277
 439  1090.827
 440  1126.32
 441  1209.351
 442  1174.14
 443  1154.709
 444  1132.104
 445  1195.631
 446  1166.401
 447  1061.499
 448  1137.681
 449  1181.522
 450  1203.666
 451  1203.569
 452  1212.727
 453  1161.976
 454  1188.332
 455  1244.965
 456  1217.681
 457  1205.853
 458  1206.581
 459  1221.036
 460  1226.212
 461  1224.001
 462  1147.422
 463  1200.369
 464  1164.647
 465  1089.54
 466  1034.217
 467  1101.269
 468  1067.436
 469  1106.451
 470  1030.251
 471  1035.524
 472  1000.147
 473  1013.174
 474  1089.846
 475  1033.248
 476  976.8575
 477  976.5475
 478  938.974
 479  922.361
 480  1030.129
 481  1030.687
 482  974.8395
 483  920.2603
 484  971.6904
 485  1114.864
 486  1076.578
 487  1039.207
 488  1034.155
 489  1074.587
 490  1140.399
 491  1155.432
 492  1174.749
 493  1156.547
 494  1116.94
 495  1157.308
 496  1151.441
 497  1128.477
 498  1128.27
 499  1132.343
 500  1161.681
 501  1122.441
 502  1157.76
 503  1127.422
 504  1150.286
 505  1160.68
 506  1205.819
 507  1247.511
 508  1260.568
 509  1458.417
 510  1668.801
 511  1818.547
