# Input file       =  1210767789.121276_cleaned.dat
# Candidate        =  PSR_0332+5434
# Telescope        =  AR
# Epoch_topo       =  58257.515869459210
# Epoch_bary       =  N/A
# T_sample         =  0.002
# Data Folded      =  7340032
# Data Avg         =  0.0318168063712321
# Data StdDev      =  1.0001275017691  
# Profile Bins     =  512
# Profile Avg      =  456.127038111302 
# Profile StdDev   =  119.748302550724 
# Reduced chi-sqr  =  1.149
# Prob(Noise)      <  0.011   (~2.3 sigma)
# P_topo (ms)      =  714.529502953092  +/- 0.000275
# P'_topo (s/s)    =  -0                +/- 1.45e-10
# P''_topo (s/s^2) =  0                 +/- 6.41e-14
# P_bary (ms)      =  N/A
# P'_bary (s/s)    =  N/A
# P''_bary (s/s^2) =  N/A
# P_orb (s)        =  N/A
# asin(i)/c (s)    =  N/A
# eccentricity     =  N/A
# w (rad)          =  N/A
# T_peri           =  N/A
######################################################
   0  1022.047
   1  852.4731
   2  693.5516
   3  611.6738
   4  460.3061
   5  427.373
   6  476.2382
   7  605.3698
   8  626.1436
   9  599.9492
  10  613.4567
  11  488.8221
  12  492.8012
  13  575.9775
  14  611.4948
  15  511.487
  16  526.6718
  17  517.5573
  18  471.1976
  19  577.6358
  20  574.7574
  21  611.6953
  22  571.0178
  23  614.5421
  24  555.9162
  25  500.6455
  26  599.8615
  27  595.9055
  28  432.2519
  29  429.5632
  30  534.8416
  31  482.2983
  32  489.3679
  33  590.4496
  34  532.419
  35  397.5591
  36  425.7392
  37  455.9087
  38  490.9041
  39  488.6339
  40  516.2988
  41  460.4843
  42  345.9856
  43  376.1967
  44  422.8812
  45  469.1175
  46  408.6349
  47  377.9779
  48  475.6611
  49  377.704
  50  471.7051
  51  520.5151
  52  484.4106
  53  495.1029
  54  522.6239
  55  623.416
  56  653.4497
  57  492.6442
  58  531.0393
  59  608.7955
  60  601.9777
  61  555.3427
  62  480.8716
  63  411.1691
  64  533.071
  65  535.0817
  66  488.9404
  67  464.4616
  68  469.3097
  69  536.0765
  70  515.2972
  71  604.1119
  72  477.3195
  73  526.0212
  74  524.9652
  75  509.6039
  76  503.9898
  77  488.3845
  78  491.0693
  79  492.1579
  80  473.1922
  81  567.2223
  82  535.5264
  83  508.2054
  84  585.3459
  85  370.7974
  86  455.9961
  87  587.0241
  88  550.2905
  89  466.2978
  90  497.9708
  91  538.0178
  92  606.2909
  93  508.3733
  94  430.9035
  95  458.0086
  96  540.8785
  97  539.6861
  98  490.7855
  99  492.4495
 100  527.007
 101  403.4598
 102  389.6164
 103  399.8614
 104  617.6746
 105  536.0347
 106  522.27
 107  533.8184
 108  454.417
 109  450.1626
 110  424.3828
 111  341.8441
 112  448.5274
 113  482.4533
 114  381.1783
 115  385.5341
 116  294.9048
 117  397.5435
 118  416.0449
 119  451.0254
 120  467.3075
 121  459.0258
 122  393.4764
 123  312.1973
 124  315.371
 125  410.9861
 126  431.2233
 127  434.0151
 128  481.3134
 129  403.4777
 130  375.3151
 131  360.2177
 132  283.6707
 133  317.93
 134  364.1622
 135  380.789
 136  514.4809
 137  636.9744
 138  530.4879
 139  493.8096
 140  398.2466
 141  350.7197
 142  501.4468
 143  541.1055
 144  499.5541
 145  465.7341
 146  433.2157
 147  346.7834
 148  286.5606
 149  463.2641
 150  557.3834
 151  519.5025
 152  481.9126
 153  480.5716
 154  500.471
 155  508.7123
 156  515.7302
 157  434.0649
 158  355.8137
 159  418.637
 160  495.5482
 161  504.911
 162  551.4813
 163  512.3192
 164  500.8488
 165  437.7799
 166  440.3177
 167  491.9699
 168  364.5545
 169  362.7542
 170  438.4429
 171  511.1177
 172  565.7781
 173  569.2438
 174  549.2985
 175  449.0897
 176  394.1892
 177  410.1409
 178  412.4538
 179  457.8159
 180  627.8882
 181  623.3007
 182  518.7219
 183  445.5348
 184  392.9845
 185  401.4368
 186  378.7594
 187  487.3186
 188  529.8786
 189  417.4421
 190  527.3605
 191  555.1584
 192  276.8044
 193  315.7972
 194  446.3341
 195  484.8092
 196  493.5863
 197  497.8294
 198  459.8201
 199  361.1245
 200  359.2959
 201  365.0534
 202  380.7307
 203  359.2751
 204  393.8189
 205  490.0326
 206  395.5244
 207  338.6841
 208  318.6085
 209  432.7489
 210  461.1339
 211  517.5038
 212  434.498
 213  403.9325
 214  391.3969
 215  324.2563
 216  413.265
 217  427.8549
 218  475.3886
 219  435.218
 220  423.644
 221  520.6466
 222  551.7941
 223  512.0303
 224  524.5769
 225  540.1134
 226  434.2021
 227  400.5405
 228  357.4775
 229  378.9843
 230  332.6757
 231  527.447
 232  532.3266
 233  436.9709
 234  362.8022
 235  375.6896
 236  459.6364
 237  449.6955
 238  504.6298
 239  481.9784
 240  448.3922
 241  501.6873
 242  506.8738
 243  465.2671
 244  442.7767
 245  424.8774
 246  301.4499
 247  380.1891
 248  437.0873
 249  513.8563
 250  436.4939
 251  368.0622
 252  476.6233
 253  531.3262
 254  491.7539
 255  521.3741
 256  590.6132
 257  514.1239
 258  427.5148
 259  342.3453
 260  397.6001
 261  499.5227
 262  542.2531
 263  490.855
 264  460.3863
 265  397.0287
 266  421.5175
 267  600.8833
 268  532.8895
 269  507.0158
 270  485.6278
 271  444.9468
 272  413.0815
 273  445.5049
 274  429.7958
 275  466.911
 276  456.4807
 277  405.3183
 278  396.076
 279  498.3982
 280  362.0911
 281  219.0264
 282  324.3495
 283  363.5013
 284  361.6573
 285  352.4823
 286  375.6721
 287  311.3507
 288  336.7397
 289  391.7549
 290  432.4711
 291  466.084
 292  360.269
 293  299.7884
 294  385.6656
 295  367.0264
 296  359.5294
 297  386.7964
 298  410.7189
 299  451.8689
 300  356.7805
 301  354.8017
 302  512.8098
 303  515.922
 304  395.9051
 305  385.8788
 306  451.3873
 307  372.9143
 308  371.4086
 309  464.1843
 310  508.3195
 311  564.7688
 312  512.2306
 313  328.3635
 314  427.1487
 315  503.7252
 316  418.6132
 317  508.0928
 318  415.1356
 319  438.6598
 320  345.5468
 321  490.0297
 322  456.6499
 323  356.0961
 324  320.6746
 325  411.5446
 326  417.146
 327  346.1762
 328  438.9969
 329  354.128
 330  296.1373
 331  305.2458
 332  328.3032
 333  354.4235
 334  381.9005
 335  367.7124
 336  388.0362
 337  354.7379
 338  358.6053
 339  372.7306
 340  368.806
 341  427.8438
 342  477.2619
 343  445.2354
 344  490.7192
 345  345.1468
 346  306.3351
 347  429.4363
 348  375.2847
 349  333.7866
 350  426.0507
 351  510.9836
 352  439.7438
 353  505.3287
 354  458.3891
 355  369.0787
 356  353.3188
 357  436.5958
 358  422.2926
 359  351.8741
 360  433.2091
 361  506.7125
 362  496.886
 363  425.0066
 364  297.3079
 365  302.912
 366  311.2959
 367  395.0557
 368  467.5192
 369  439.9022
 370  412.8706
 371  414.5782
 372  542.8731
 373  512.0153
 374  560.3116
 375  522.5396
 376  536.7453
 377  533.4478
 378  561.5104
 379  505.8159
 380  395.0333
 381  324.8512
 382  402.7867
 383  492.6633
 384  513.3453
 385  475.5413
 386  503.4838
 387  466.9178
 388  502.7889
 389  364.954
 390  341.683
 391  359.0038
 392  277.9854
 393  302.8535
 394  324.5838
 395  397.6604
 396  438.8881
 397  509.8051
 398  540.7068
 399  463.3053
 400  489.2981
 401  561.1199
 402  577.7632
 403  543.0057
 404  536.1644
 405  430.7007
 406  485.148
 407  545.1227
 408  522.0377
 409  531.8541
 410  456.428
 411  408.3193
 412  413.5873
 413  467.7993
 414  494.2063
 415  449.5607
 416  492.6738
 417  518.8195
 418  396.6858
 419  383.5663
 420  406.7103
 421  448.2872
 422  403.7028
 423  508.4738
 424  515.0714
 425  482.5417
 426  465.6302
 427  363.6085
 428  470.1694
 429  531.8035
 430  499.4998
 431  322.2538
 432  397.9247
 433  512.9675
 434  353.597
 435  307.6942
 436  290.8487
 437  321.1954
 438  277.292
 439  469.5833
 440  503.6128
 441  488.8686
 442  446.8734
 443  518.0621
 444  478.971
 445  428.7939
 446  455.0576
 447  506.1978
 448  483.8904
 449  351.994
 450  420.5368
 451  493.5254
 452  464.7575
 453  518.388
 454  495.4472
 455  563.602
 456  516.1821
 457  420.8688
 458  418.5077
 459  475.774
 460  489.5362
 461  485.7403
 462  445.5911
 463  329.0706
 464  300.4629
 465  500.0674
 466  467.4153
 467  437.0554
 468  512.2606
 469  427.1142
 470  366.5093
 471  487.9552
 472  538.5406
 473  490.5707
 474  401.7282
 475  271.6886
 476  318.9134
 477  453.6873
 478  458.6105
 479  410.3115
 480  341.6038
 481  335.9893
 482  410.5098
 483  473.9604
 484  507.2548
 485  377.8526
 486  393.4194
 487  419.318
 488  380.6884
 489  280.5742
 490  332.6198
 491  445.6089
 492  493.9517
 493  505.1818
 494  505.3904
 495  375.3087
 496  409.681
 497  406.0188
 498  438.8687
 499  350.7426
 500  319.0429
 501  390.7003
 502  378.4601
 503  499.3711
 504  492.5121
 505  450.9094
 506  515.4501
 507  590.2568
 508  664.1107
 509  766.8563
 510  942.8807
 511  1055.048
