# Input file       =  1210595454.117564_cleaned.dat
# Candidate        =  PSR_0332+5434
# Telescope        =  AR
# Epoch_topo       =  58255.521251360697
# Epoch_bary       =  N/A
# T_sample         =  0.002
# Data Folded      =  7340032
# Data Avg         =  0.0408627542356087
# Data StdDev      =  1.00012303114914 
# Profile Bins     =  512
# Profile Avg      =  585.812203128992 
# Profile StdDev   =  119.747767269821 
# Reduced chi-sqr  =  1.452
# Prob(Noise)      <  9.06e-11   (~6.4 sigma)
# P_topo (ms)      =  714.531460887374  +/- 0.000249
# P'_topo (s/s)    =  -0                +/- 1.31e-10
# P''_topo (s/s^2) =  0                 +/- 5.8e-14
# P_bary (ms)      =  N/A
# P'_bary (s/s)    =  N/A
# P''_bary (s/s^2) =  N/A
# P_orb (s)        =  N/A
# asin(i)/c (s)    =  N/A
# eccentricity     =  N/A
# w (rad)          =  N/A
# T_peri           =  N/A
######################################################
   0  1379.851
   1  1295.146
   2  1045.021
   3  865.938
   4  780.6352
   5  663.1431
   6  590.0133
   7  564.8549
   8  590.2765
   9  604.0502
  10  587.6948
  11  581.3104
  12  671.1801
  13  773.2582
  14  740.7704
  15  740.1833
  16  712.2692
  17  600.3148
  18  664.6129
  19  695.5117
  20  677.2367
  21  613.4988
  22  541.4558
  23  497.3635
  24  453.4398
  25  500.4735
  26  460.5863
  27  534.4578
  28  470.279
  29  592.4656
  30  580.2645
  31  444.1081
  32  358.6947
  33  401.7548
  34  486.144
  35  486.4608
  36  593.6384
  37  629.0768
  38  567.1594
  39  577.4383
  40  528.1605
  41  396.252
  42  389.957
  43  599.6048
  44  570.9709
  45  483.0238
  46  531.9515
  47  481.2493
  48  515.8702
  49  581.4038
  50  587.609
  51  590.8885
  52  646.924
  53  539.4262
  54  480.7327
  55  551.7978
  56  666.4888
  57  623.0726
  58  596.5784
  59  552.2034
  60  578.9887
  61  639.7958
  62  539.212
  63  554.1603
  64  514.3327
  65  440.7432
  66  407.2306
  67  450.6457
  68  387.8515
  69  431.7709
  70  590.4767
  71  558.2589
  72  451.5286
  73  438.3887
  74  416.2437
  75  422.9912
  76  410.9003
  77  590.4689
  78  553.9467
  79  598.8432
  80  573.1599
  81  605.2181
  82  553.3028
  83  494.4946
  84  489.4849
  85  477.2079
  86  515.5439
  87  510.6071
  88  559.1775
  89  480.0071
  90  557.8729
  91  565.6309
  92  542.9138
  93  685.3873
  94  685.3871
  95  596.4871
  96  523.0893
  97  496.3849
  98  592.1219
  99  611.6019
 100  720.5458
 101  634.1266
 102  621.576
 103  542.1345
 104  546.996
 105  543.3412
 106  608.1498
 107  714.9503
 108  651.2113
 109  457.2926
 110  597.7966
 111  601.3804
 112  581.8231
 113  542.4245
 114  502.1987
 115  526.6371
 116  497.6038
 117  448.7334
 118  444.4819
 119  393.294
 120  457.8564
 121  468.7942
 122  528.9042
 123  597.3133
 124  581.414
 125  576.5142
 126  582.9103
 127  581.9271
 128  515.8922
 129  564.5172
 130  512.0369
 131  538.1226
 132  496.4345
 133  475.2462
 134  559.4952
 135  614.7151
 136  645.4294
 137  633.3938
 138  605.8259
 139  606.3661
 140  598.3376
 141  644.5289
 142  812.234
 143  669.5055
 144  469.9892
 145  546.3553
 146  594.1114
 147  623.6754
 148  589.2365
 149  643.6562
 150  701.6845
 151  685.7584
 152  688.3553
 153  631.3759
 154  539.3734
 155  524.9747
 156  527.7925
 157  575.8376
 158  523.0954
 159  490.8636
 160  489.393
 161  530.1491
 162  702.4977
 163  580.7971
 164  698.7147
 165  613.8248
 166  484.0851
 167  501.7129
 168  488.7061
 169  570.6741
 170  533.4673
 171  539.9874
 172  456.6072
 173  627.0344
 174  592.642
 175  517.2247
 176  506.3005
 177  539.5909
 178  562.8445
 179  609.4968
 180  540.8645
 181  495.225
 182  469.8524
 183  526.6166
 184  626.0077
 185  520.8389
 186  550.5896
 187  676.373
 188  642.6885
 189  598.3928
 190  638.5543
 191  687.4248
 192  641.1921
 193  610.7332
 194  529.2574
 195  574.11
 196  622.6736
 197  537.1144
 198  489.0576
 199  478.0852
 200  478.4953
 201  517.9865
 202  482.3499
 203  449.2602
 204  508.1513
 205  539.4387
 206  469.1093
 207  474.7042
 208  588.5411
 209  528.8848
 210  469.8098
 211  446.4763
 212  546.8937
 213  460.5813
 214  546.1199
 215  532.4776
 216  523.1019
 217  642.0099
 218  559.9032
 219  611.9183
 220  647.7405
 221  605.2015
 222  693.4183
 223  637.2493
 224  660.1926
 225  588.5358
 226  674.423
 227  636.7302
 228  606.3971
 229  554.5723
 230  553.4124
 231  511.7372
 232  582.9949
 233  500.6889
 234  593.7839
 235  657.6158
 236  586.124
 237  707.4017
 238  742.4128
 239  737.2796
 240  595.6008
 241  559.5591
 242  690.0886
 243  690.0052
 244  675.0233
 245  622.9045
 246  716.2838
 247  706.4343
 248  661.2212
 249  749.8669
 250  703.8103
 251  684.8816
 252  691.4453
 253  641.8497
 254  581.5068
 255  579.4748
 256  508.3842
 257  615.7795
 258  673.0619
 259  577.1622
 260  632.9322
 261  629.3763
 262  600.3712
 263  602.5735
 264  658.3796
 265  696.809
 266  618.181
 267  667.6721
 268  652.3311
 269  664.8208
 270  804.1749
 271  709.7805
 272  617.3063
 273  672.3023
 274  771.7136
 275  678.853
 276  712.3615
 277  731.8187
 278  646.4858
 279  574.2427
 280  656.7007
 281  601.5826
 282  491.9528
 283  495.1024
 284  573.9921
 285  691.678
 286  731.1285
 287  563.5799
 288  620.3578
 289  631.2057
 290  530.047
 291  431.5706
 292  418.485
 293  445.8893
 294  421.5421
 295  610.1363
 296  506.6098
 297  516.8249
 298  404.1786
 299  476.1632
 300  654.8955
 301  565.2501
 302  461.0266
 303  441.5567
 304  526.5734
 305  497.8115
 306  545.0638
 307  585.825
 308  601.1553
 309  612.452
 310  608.2289
 311  529.5308
 312  572.9381
 313  562.5146
 314  536.467
 315  584.0518
 316  551.2596
 317  504.8341
 318  453.5653
 319  558.6136
 320  498.4437
 321  501.9145
 322  536.69
 323  497.4824
 324  549.3732
 325  526.3028
 326  588.5325
 327  651.4177
 328  645.5678
 329  517.2412
 330  471.7239
 331  467.0358
 332  487.7375
 333  597.9666
 334  585.7681
 335  505.8488
 336  441.4384
 337  523.2444
 338  655.3416
 339  547.472
 340  506.3966
 341  487.0859
 342  484.8528
 343  579.1497
 344  586.7756
 345  473.8207
 346  528.8796
 347  614.2921
 348  522.5455
 349  596.064
 350  536.2192
 351  539.7401
 352  588.2523
 353  615.9709
 354  579.4587
 355  516.7323
 356  525.0389
 357  503.3684
 358  482.9876
 359  561.0286
 360  585.069
 361  567.6015
 362  495.3531
 363  461.7579
 364  536.6204
 365  614.0921
 366  552.6196
 367  576.193
 368  647.9313
 369  652.3408
 370  510.5983
 371  615.1771
 372  457.3145
 373  493.493
 374  425.3458
 375  422.7575
 376  388.4837
 377  550.3973
 378  593.071
 379  650.4358
 380  543.433
 381  551.7586
 382  586.8256
 383  574.4006
 384  530.0355
 385  594.009
 386  591.6459
 387  682.8203
 388  667.6641
 389  603.6684
 390  659.54
 391  630.0176
 392  683.2669
 393  730.607
 394  785.9598
 395  824.8684
 396  746.9862
 397  705.8447
 398  682.8447
 399  693.3503
 400  750.4496
 401  730.88
 402  658.1161
 403  585.9687
 404  717.2736
 405  676.188
 406  755.8468
 407  754.4847
 408  731.2338
 409  663.0069
 410  536.7009
 411  503.8821
 412  604.4893
 413  664.4757
 414  741.9523
 415  671.8087
 416  735.0782
 417  636.8441
 418  612.302
 419  659.5984
 420  665.6407
 421  553.593
 422  628.3725
 423  577.1547
 424  543.5024
 425  652.6793
 426  653.8209
 427  744.9384
 428  702.5101
 429  640.5847
 430  663.8591
 431  657.5981
 432  638.8416
 433  481.5001
 434  489.4086
 435  599.0683
 436  744.2362
 437  719.821
 438  671.4591
 439  527.2592
 440  491.9525
 441  604.1409
 442  638.6185
 443  581.8221
 444  519.1377
 445  595.054
 446  551.4025
 447  652.0768
 448  598.063
 449  620.2675
 450  608.1767
 451  613.3669
 452  564.7714
 453  536.3063
 454  568.253
 455  613.8503
 456  535.4688
 457  567.8589
 458  727.8571
 459  713.519
 460  509.5318
 461  476.8705
 462  499.5208
 463  608.5005
 464  548.6459
 465  477.7389
 466  400.7392
 467  420.2059
 468  481.4348
 469  548.1042
 470  607.2421
 471  595.2883
 472  593.9
 473  562.749
 474  608.9316
 475  604.1978
 476  476.8369
 477  486.3621
 478  610.752
 479  651.5522
 480  628.1009
 481  608.1942
 482  618.9092
 483  604.4498
 484  598.3915
 485  581.0911
 486  659.1268
 487  469.3318
 488  468.2803
 489  654.6166
 490  664.1183
 491  693.1176
 492  698.3983
 493  782.8335
 494  574.2265
 495  521.3256
 496  653.2162
 497  557.6075
 498  504.2876
 499  514.5399
 500  561.2818
 501  682.8928
 502  593.4199
 503  485.9412
 504  547.5787
 505  567.4271
 506  625.2701
 507  597.3119
 508  683.2811
 509  786.0656
 510  948.2488
 511  1180.766
