# Input file       =  1210221222.103815_cleaned.dat
# Candidate        =  PSR_0332+5434
# Telescope        =  AR
# Epoch_topo       =  58251.189862312676
# Epoch_bary       =  N/A
# T_sample         =  0.002
# Data Folded      =  7208960
# Data Avg         =  0.0422374674878121
# Data StdDev      =  0.999991071909131
# Profile Bins     =  512
# Profile Avg      =  594.683226707437 
# Profile StdDev   =  118.658116393627 
# Reduced chi-sqr  =  2.040
# Prob(Noise)      <  1.25e-38   (~12.9 sigma)
# P_topo (ms)      =  714.535334730907  +/- 0.00012
# P'_topo (s/s)    =  -0                +/- 6.43e-11
# P''_topo (s/s^2) =  0                 +/- 2.89e-14
# P_bary (ms)      =  N/A
# P'_bary (s/s)    =  N/A
# P''_bary (s/s^2) =  N/A
# P_orb (s)        =  N/A
# asin(i)/c (s)    =  N/A
# eccentricity     =  N/A
# w (rad)          =  N/A
# T_peri           =  N/A
######################################################
   0  1522.412
   1  1391.919
   2  1081.457
   3  637.9846
   4  474.7274
   5  456.6191
   6  483.0837
   7  517.3506
   8  526.8244
   9  520.2408
  10  546.9715
  11  637.4088
  12  547.913
  13  514.0955
  14  543.1335
  15  740.3204
  16  745.0684
  17  563.1899
  18  408.6531
  19  369.8841
  20  334.7648
  21  377.9472
  22  404.8568
  23  511.2253
  24  624.4299
  25  637.9329
  26  643.2079
  27  582.2968
  28  485.0679
  29  518.898
  30  652.7272
  31  567.549
  32  563.4759
  33  585.6661
  34  599.6775
  35  624.3216
  36  576.4572
  37  464.5197
  38  428.8205
  39  537.0986
  40  583.5182
  41  530.9815
  42  547.17
  43  445.7282
  44  397.4237
  45  548.8433
  46  567.8657
  47  554.1874
  48  550.6326
  49  569.7714
  50  597.9778
  51  503.8273
  52  458.8852
  53  579.079
  54  576.9412
  55  578.0812
  56  480.2583
  57  500.4435
  58  576.5228
  59  667.1005
  60  617.4247
  61  565.101
  62  487.2347
  63  551.4789
  64  616.6757
  65  624.0992
  66  577.5918
  67  534.2749
  68  390.3984
  69  384.5798
  70  445.4396
  71  551.9638
  72  513.4957
  73  560.7708
  74  684.0445
  75  722.6712
  76  624.4278
  77  485.0506
  78  518.2119
  79  523.1433
  80  415.9683
  81  461.857
  82  543.8948
  83  395.5794
  84  321.8732
  85  478.0472
  86  536.3231
  87  424.7991
  88  447.2141
  89  473.9037
  90  572.6794
  91  561.9157
  92  565.5748
  93  607.0911
  94  560.4463
  95  431.2666
  96  465.977
  97  669.7527
  98  645.8031
  99  655.825
 100  520.2737
 101  516.4311
 102  404.7231
 103  421.6284
 104  349.2942
 105  407.3472
 106  596.7623
 107  574.1097
 108  383.0283
 109  511.7711
 110  620.3605
 111  557.1227
 112  564.6582
 113  498.5381
 114  485.4279
 115  517.5797
 116  578.0763
 117  476.8531
 118  443.919
 119  543.6605
 120  593.2449
 121  636.727
 122  610.0027
 123  675.7053
 124  691.2167
 125  604.7376
 126  581.6628
 127  545.976
 128  600.8574
 129  576.8424
 130  543.986
 131  615.6477
 132  649.7696
 133  639.3357
 134  445.641
 135  451.7415
 136  532.2421
 137  678.4899
 138  641.3376
 139  573.1228
 140  632.0706
 141  593.1734
 142  589.2215
 143  632.4393
 144  616.3699
 145  589.2919
 146  594.5948
 147  560.7756
 148  543.2742
 149  505.9823
 150  520.1853
 151  627.64
 152  639.093
 153  660.3812
 154  678.1469
 155  714.7102
 156  711.6547
 157  677.0705
 158  640.1304
 159  586.3283
 160  572.5364
 161  650.7383
 162  572.4902
 163  530.9537
 164  636.1191
 165  690.371
 166  631.2512
 167  571.9498
 168  637.9895
 169  602.893
 170  521.1896
 171  512.943
 172  602.2768
 173  582.8446
 174  717.7528
 175  788.0148
 176  623.5845
 177  532.9133
 178  493.6799
 179  615.1163
 180  624.1025
 181  599.0417
 182  605.5545
 183  492.1262
 184  351.8894
 185  545.3018
 186  641.0245
 187  657.6232
 188  708.4651
 189  703.6323
 190  643.2224
 191  546.9393
 192  593.9132
 193  540.6074
 194  612.2896
 195  776.5326
 196  675.7859
 197  556.6057
 198  667.3599
 199  644.0568
 200  561.17
 201  594.5922
 202  633.6699
 203  642.4591
 204  625.8955
 205  742.8005
 206  730.1922
 207  724.2139
 208  766.7657
 209  798.1874
 210  671.7057
 211  677.2868
 212  733.613
 213  628.8337
 214  626.9894
 215  635.9928
 216  746.6537
 217  616.606
 218  571.7039
 219  620.8525
 220  593.6153
 221  586.2604
 222  713.0466
 223  816.3651
 224  673.3697
 225  583.3282
 226  643.9473
 227  698.2838
 228  691.311
 229  600.755
 230  684.5728
 231  754.92
 232  672.3464
 233  612.2137
 234  702.3538
 235  645.5606
 236  695.9908
 237  717.8867
 238  741.7859
 239  801.2305
 240  656.0311
 241  649.051
 242  635.6528
 243  559.3156
 244  620.1302
 245  676.6884
 246  625.3207
 247  649.2728
 248  644.5784
 249  750.523
 250  708.2229
 251  732.2
 252  710.7444
 253  750.0707
 254  570.0541
 255  619.1953
 256  752.6778
 257  796.764
 258  733.2816
 259  640.2964
 260  734.7027
 261  664.4532
 262  623.6152
 263  765.7218
 264  710.9569
 265  553.4407
 266  592.8586
 267  630.6382
 268  736.0746
 269  693.6407
 270  697.6624
 271  709.0829
 272  699.0491
 273  696.2783
 274  667.9061
 275  573.2936
 276  626.5145
 277  526.6256
 278  592.175
 279  569.058
 280  662.0987
 281  684.0306
 282  688.1181
 283  616.7835
 284  520.4855
 285  581.3854
 286  566.5873
 287  646.4893
 288  796.9133
 289  821.6406
 290  671.7263
 291  523.0327
 292  578.8102
 293  602.4462
 294  542.4158
 295  661.4075
 296  742.9396
 297  736.7596
 298  683.9264
 299  676.907
 300  691.0191
 301  748.9021
 302  617.7143
 303  601.3177
 304  686.0541
 305  697.5302
 306  649.4949
 307  573.9631
 308  547.2305
 309  611.4198
 310  628.0009
 311  561.3416
 312  581.678
 313  583.3217
 314  637.2632
 315  574.206
 316  598.4142
 317  591.8399
 318  577.5298
 319  556.8715
 320  524.5649
 321  548.8131
 322  647.6898
 323  654.8878
 324  593.0306
 325  610.0546
 326  643.6182
 327  660.2388
 328  585.8593
 329  565.0923
 330  649.0242
 331  613.3368
 332  513.1107
 333  637.1146
 334  633.4529
 335  516.0081
 336  644.1558
 337  811.7668
 338  811.2762
 339  700.8144
 340  546.8721
 341  413.1885
 342  557.1965
 343  675.033
 344  555.9839
 345  529.1028
 346  563.713
 347  569.8223
 348  468.9789
 349  435.09
 350  397.9775
 351  496.7809
 352  506.5649
 353  574.7411
 354  590.5993
 355  619.9294
 356  627.0427
 357  675.7255
 358  604.9152
 359  679.8333
 360  723.2081
 361  644.5743
 362  536.0015
 363  513.7992
 364  691.569
 365  592.8101
 366  545.8276
 367  573.9474
 368  550.0136
 369  589.9739
 370  567.0459
 371  575.213
 372  590.2406
 373  475.0125
 374  477.3486
 375  641.3348
 376  551.0814
 377  507.6223
 378  551.5569
 379  526.6458
 380  638.0264
 381  642.1077
 382  520.4294
 383  477.6639
 384  443.0263
 385  619.1694
 386  484.8734
 387  445.79
 388  637.3847
 389  653.5654
 390  578.0362
 391  630.7263
 392  569.0521
 393  523.0373
 394  549.7403
 395  503.1658
 396  511.239
 397  499.3347
 398  486.3615
 399  514.7714
 400  515.8301
 401  447.3943
 402  654.5637
 403  693.5375
 404  659.0391
 405  532.6033
 406  627.49
 407  637.5516
 408  669.2653
 409  650.5782
 410  662.7082
 411  578.1154
 412  547.3079
 413  543.5838
 414  521.302
 415  540.9606
 416  519.1393
 417  617.7701
 418  549.9496
 419  585.3677
 420  672.0662
 421  670.5947
 422  623.6248
 423  588.113
 424  643.0363
 425  558.3629
 426  443.1726
 427  590.1957
 428  641.2424
 429  530.6901
 430  537.3848
 431  597.1868
 432  620.9422
 433  579.8545
 434  468.0923
 435  633.384
 436  648.9986
 437  637.2739
 438  647.7134
 439  675.7992
 440  605.1035
 441  533.7763
 442  572.2581
 443  576.4012
 444  532.8713
 445  656.0226
 446  670.7837
 447  629.3881
 448  631.5516
 449  599.4128
 450  458.4681
 451  532.9822
 452  515.1733
 453  654.5596
 454  725.0858
 455  654.8087
 456  647.184
 457  475.186
 458  476.4305
 459  617.5735
 460  597.0082
 461  628.2549
 462  652.7451
 463  522.5553
 464  525.6915
 465  510.2825
 466  409.2941
 467  379.6542
 468  539.4193
 469  496.9471
 470  490.1689
 471  569.6543
 472  504.0747
 473  551.3939
 474  591.1523
 475  568.2149
 476  477.1619
 477  484.578
 478  499.1422
 479  593.6772
 480  478.1905
 481  565.5511
 482  440.8723
 483  353.9437
 484  436.6816
 485  480.7571
 486  457.0591
 487  510.1592
 488  522.8024
 489  558.0429
 490  406.6945
 491  443.4405
 492  529.8503
 493  604.9238
 494  547.5132
 495  469.4727
 496  421.3131
 497  437.8439
 498  453.2085
 499  430.4493
 500  514.4818
 501  502.1213
 502  551.7031
 503  606.9087
 504  647.9919
 505  627.4212
 506  702.5687
 507  661.0295
 508  713.6625
 509  1021.271
 510  1370.591
 511  1617.549
