# Input file       =  1210250771.112735_cleaned.dat
# Candidate        =  PSR_0332+5434
# Telescope        =  AR
# Epoch_topo       =  58251.531864730729
# Epoch_bary       =  N/A
# T_sample         =  0.002
# Data Folded      =  7340032
# Data Avg         =  0.0311693048197865
# Data StdDev      =  1.0000666502102  
# Profile Bins     =  512
# Profile Avg      =  446.706619698044 
# Profile StdDev   =  119.741016608808 
# Reduced chi-sqr  =  1.468
# Prob(Noise)      <  2.44e-11   (~6.6 sigma)
# P_topo (ms)      =  714.535350320489  +/- 0.000446
# P'_topo (s/s)    =  -0                +/- 2.35e-10
# P''_topo (s/s^2) =  0                 +/- 1.04e-13
# P_bary (ms)      =  N/A
# P'_bary (s/s)    =  N/A
# P''_bary (s/s^2) =  N/A
# P_orb (s)        =  N/A
# asin(i)/c (s)    =  N/A
# eccentricity     =  N/A
# w (rad)          =  N/A
# T_peri           =  N/A
######################################################
   0  1188.242
   1  1154.41
   2  975.5134
   3  797.1793
   4  535.2248
   5  491.5137
   6  384.7923
   7  394.3547
   8  535.0779
   9  604.6992
  10  563.2805
  11  517.6434
  12  536.7385
  13  623.2828
  14  660.8374
  15  473.4764
  16  501.676
  17  562.5832
  18  463.8786
  19  434.288
  20  508.485
  21  485.5305
  22  500.1397
  23  428.1573
  24  377.2693
  25  359.2437
  26  419.4149
  27  389.6575
  28  384.1028
  29  431.493
  30  408.0067
  31  389.1502
  32  398.4138
  33  335.3068
  34  391.3172
  35  466.4664
  36  462.3531
  37  400.6002
  38  465.2137
  39  496.1399
  40  474.5109
  41  468.8302
  42  409.9766
  43  421.4314
  44  503.6898
  45  514.8716
  46  458.5473
  47  569.8878
  48  583.1556
  49  412.9881
  50  444.8213
  51  456.8239
  52  487.0477
  53  470.8741
  54  419.0033
  55  440.308
  56  456.5912
  57  477.9931
  58  561.5057
  59  471.2622
  60  473.2963
  61  373.2343
  62  374.8462
  63  473.0887
  64  369.2284
  65  300.7107
  66  425.0932
  67  470.9774
  68  370.6003
  69  327.331
  70  369.3182
  71  382.978
  72  332.5956
  73  250.8596
  74  229.0843
  75  302.0187
  76  381.4884
  77  480.9267
  78  394.7408
  79  382.4165
  80  373.262
  81  280.0622
  82  329.2943
  83  296.4041
  84  273.7219
  85  341.6707
  86  295.7152
  87  382.1358
  88  436.1955
  89  345.1134
  90  405.4719
  91  525.4061
  92  375.4443
  93  367.8473
  94  408.1429
  95  500.843
  96  430.1967
  97  417.8664
  98  447.7871
  99  523.1206
 100  564.9371
 101  557.6179
 102  481.6914
 103  454.4369
 104  541.5343
 105  458.166
 106  442.7987
 107  494.5352
 108  517.5935
 109  528.6161
 110  454.8333
 111  323.8322
 112  336.6947
 113  430.4172
 114  504.1739
 115  403.7538
 116  356.2175
 117  390.3759
 118  400.6947
 119  417.8915
 120  456.2435
 121  437.3831
 122  356.3979
 123  326.0684
 124  387.1009
 125  471.287
 126  423.2429
 127  506.1332
 128  458.1376
 129  285.6481
 130  399.7151
 131  588.8282
 132  608.2869
 133  474.867
 134  427.9576
 135  393.2956
 136  464.778
 137  542.6319
 138  497.3166
 139  490.4065
 140  458.6815
 141  595.887
 142  483.5653
 143  433.6604
 144  565.7657
 145  514.6005
 146  503.6608
 147  533.0658
 148  413.4169
 149  424.1664
 150  472.6451
 151  480.3242
 152  362.6831
 153  319.8134
 154  463.9272
 155  424.0363
 156  453.9195
 157  380.6089
 158  364.0997
 159  320.8876
 160  390.2423
 161  382.2754
 162  367.7749
 163  355.619
 164  417.561
 165  310.1897
 166  428.6122
 167  429.3916
 168  337.169
 169  417.3517
 170  447.6654
 171  476.5145
 172  405.4348
 173  322.0529
 174  451.7043
 175  426.6791
 176  425.8788
 177  409.6518
 178  564.2902
 179  618.5023
 180  588.2404
 181  461.093
 182  376.7201
 183  395.4006
 184  424.4124
 185  484.5733
 186  504.7278
 187  450.5997
 188  439.9561
 189  396.3409
 190  489.6051
 191  457.8197
 192  402.0405
 193  465.25
 194  452.8571
 195  356.1912
 196  479.7513
 197  508.2505
 198  549.1859
 199  482.6284
 200  572.8792
 201  653.5317
 202  526.9758
 203  427.1452
 204  443.9476
 205  488.4037
 206  526.6386
 207  424.3875
 208  323.9078
 209  346.2625
 210  412.8434
 211  385.5121
 212  401.6011
 213  399.9156
 214  308.852
 215  261.7931
 216  422.3105
 217  417.8332
 218  318.9781
 219  346.7033
 220  595.7704
 221  533.3316
 222  439.479
 223  453.4161
 224  485.4758
 225  466.0042
 226  488.6871
 227  459.7993
 228  409.2166
 229  531.4156
 230  610.8473
 231  525.0413
 232  500.1476
 233  476.4206
 234  486.8017
 235  488.807
 236  469.4523
 237  523.4383
 238  581.8772
 239  525.1527
 240  507.114
 241  585.0485
 242  536.8334
 243  517.5077
 244  493.0384
 245  511.166
 246  527.8923
 247  322.3211
 248  237.1084
 249  286.6177
 250  425.7256
 251  451.2571
 252  373.9164
 253  428.5485
 254  467.4329
 255  334.5588
 256  246.2613
 257  402.3957
 258  451.8008
 259  431.5523
 260  430.3112
 261  411.4315
 262  419.196
 263  446.5073
 264  520.3846
 265  588.5201
 266  608.3322
 267  513.1415
 268  521.6315
 269  411.9924
 270  435.1139
 271  555.7169
 272  477.0832
 273  429.1999
 274  415.318
 275  496.5756
 276  497.8878
 277  403.4131
 278  422.6374
 279  432.3185
 280  571.1943
 281  503.2347
 282  505.24
 283  415.412
 284  289.4575
 285  446.3933
 286  383.2843
 287  405.749
 288  406.8669
 289  417.0769
 290  452.6852
 291  515.7493
 292  571.265
 293  494.5515
 294  524.8487
 295  566.384
 296  424.1618
 297  423.1102
 298  431.7082
 299  390.8132
 300  426.5047
 301  530.9278
 302  544.7137
 303  410.5828
 304  465.6317
 305  534.4738
 306  421.2758
 307  551.1157
 308  544.2925
 309  422.0738
 310  417.8081
 311  443.1304
 312  464.5188
 313  414.3192
 314  557.5613
 315  597.1105
 316  524.7349
 317  511.5997
 318  564.6116
 319  527.4787
 320  543.7905
 321  534.5325
 322  503.3902
 323  556.4258
 324  577.2615
 325  462.3172
 326  352.6425
 327  484.5008
 328  463.8811
 329  431.0016
 330  499.2627
 331  475.448
 332  412.1082
 333  417.4275
 334  370.2056
 335  272.1028
 336  298.1099
 337  489.3236
 338  456.1099
 339  236.7132
 340  446.5225
 341  514.6682
 342  486.9948
 343  342.2251
 344  296.0077
 345  376.6039
 346  391.3757
 347  373.4073
 348  418.276
 349  396.536
 350  443.427
 351  455.5452
 352  446.8649
 353  457.7263
 354  450.3771
 355  494.4828
 356  595.1154
 357  521.6365
 358  354.1711
 359  315.7877
 360  421.6917
 361  532.8147
 362  488.1187
 363  494.683
 364  492.5286
 365  480.4812
 366  497.0881
 367  450.6331
 368  342.1681
 369  320.9341
 370  316.237
 371  311.5866
 372  356.5724
 373  408.8716
 374  277.7396
 375  360.6374
 376  349.0312
 377  275.8162
 378  311.0887
 379  360.8791
 380  316.0775
 381  349.4775
 382  361.8433
 383  277.8683
 384  282.0355
 385  328.5744
 386  308.0089
 387  330.111
 388  278.6905
 389  275.4443
 390  240.5334
 391  422.4855
 392  422.2693
 393  291.5332
 394  468.2326
 395  512.2349
 396  453.8997
 397  417.8712
 398  461.1448
 399  409.7354
 400  365.957
 401  474.2701
 402  499.9123
 403  322.9582
 404  340.2196
 405  443.6848
 406  454.2701
 407  364.662
 408  373.1288
 409  354.4782
 410  305.8124
 411  279.8554
 412  325.1589
 413  335.9669
 414  390.2799
 415  371.0576
 416  532.7614
 417  400.1283
 418  382.9387
 419  420.9254
 420  352.3281
 421  345.9074
 422  320.4186
 423  367.4381
 424  385.7751
 425  365.7274
 426  390.8168
 427  296.6339
 428  347.417
 429  342.505
 430  439.1521
 431  477.7979
 432  459.8226
 433  542.6663
 434  623.2488
 435  558.1371
 436  527.6172
 437  435.4424
 438  430.691
 439  430.3042
 440  514.0735
 441  574.6248
 442  562.5486
 443  573.4932
 444  425.6035
 445  413.0452
 446  425.9017
 447  491.3013
 448  493.4328
 449  468.984
 450  437.8779
 451  469.6398
 452  397.6468
 453  452.2514
 454  555.9226
 455  438.1721
 456  498.769
 457  529.8015
 458  536.2278
 459  443.795
 460  389.0602
 461  429.5349
 462  400.4321
 463  309.0285
 464  554.3466
 465  596.7325
 466  464.4056
 467  458.6774
 468  324.095
 469  414.8728
 470  372.0906
 471  446.017
 472  386.8159
 473  382.157
 474  481.5703
 475  452.48
 476  348.618
 477  318.7004
 478  418.3571
 479  322.8939
 480  470.9526
 481  406.5872
 482  385.5959
 483  398.1337
 484  376.578
 485  403.4211
 486  405.6937
 487  418.1468
 488  484.344
 489  590.5221
 490  478.6785
 491  424.6174
 492  413.4761
 493  577.5554
 494  496.8225
 495  477.2241
 496  475.8262
 497  440.0829
 498  492.0496
 499  330.8786
 500  369.3922
 501  488.3596
 502  625.3138
 503  584.1205
 504  521.4196
 505  432.559
 506  455.4646
 507  594.6826
 508  624.803
 509  755.3825
 510  896.0418
 511  1149.384
