# Input file       =  1210652082.10873_cleaned.dat
# Candidate        =  PSR_0332+5434
# Telescope        =  AR
# Epoch_topo       =  58256.176667925116
# Epoch_bary       =  N/A
# T_sample         =  0.002
# Data Folded      =  7143424
# Data Avg         =  0.0305148927237314
# Data StdDev      =  1.00007838826114 
# Profile Bins     =  512
# Profile Avg      =  425.719649719114 
# Profile StdDev   =  118.127843592313 
# Reduced chi-sqr  =  1.553
# Prob(Noise)      <  1.36e-14   (~7.6 sigma)
# P_topo (ms)      =  714.530470228076  +/- 0.000111
# P'_topo (s/s)    =  -0                +/- 6e-11
# P''_topo (s/s^2) =  0                 +/- 2.72e-14
# P_bary (ms)      =  N/A
# P'_bary (s/s)    =  N/A
# P''_bary (s/s^2) =  N/A
# P_orb (s)        =  N/A
# asin(i)/c (s)    =  N/A
# eccentricity     =  N/A
# w (rad)          =  N/A
# T_peri           =  N/A
######################################################
   0  1138.437
   1  1243.627
   2  1099.941
   3  875.164
   4  651.702
   5  565.6597
   6  466.9115
   7  371.0479
   8  462.9333
   9  513.4841
  10  659.6735
  11  581.4355
  12  388.592
  13  298.0872
  14  396.155
  15  351.4905
  16  393.5806
  17  450.3035
  18  452.7346
  19  468.2853
  20  344.9472
  21  274.7338
  22  260.6011
  23  477.3783
  24  604.0662
  25  349.2751
  26  345.4241
  27  367.4517
  28  369.9062
  29  409.9682
  30  423.062
  31  287.6199
  32  358.9651
  33  434.1896
  34  402.597
  35  408.7223
  36  480.0308
  37  452.3913
  38  341.9477
  39  295.8775
  40  394.3013
  41  577.1758
  42  525.1776
  43  413.4907
  44  447.81
  45  402.5661
  46  361.027
  47  295.2757
  48  272.9942
  49  266.9893
  50  291.2659
  51  451.0858
  52  425.1565
  53  388.7041
  54  363.573
  55  352.8531
  56  319.5292
  57  268.0481
  58  390.9329
  59  566.9089
  60  450.8953
  61  352.2952
  62  371.3715
  63  417.5999
  64  417.736
  65  440.0064
  66  432.6521
  67  353.6464
  68  340.3013
  69  435.042
  70  428.1255
  71  424.087
  72  401.8643
  73  456.9934
  74  428.5674
  75  413.5927
  76  363.1439
  77  377.267
  78  403.6472
  79  275.1677
  80  437.4893
  81  342.2782
  82  366.2496
  83  320.0663
  84  423.0204
  85  521.296
  86  404.2416
  87  322.0033
  88  309.8948
  89  370.8843
  90  393.8398
  91  434.5954
  92  380.5644
  93  409.981
  94  360.2856
  95  284.3563
  96  299.034
  97  333.6233
  98  334.34
  99  295.1929
 100  332.0452
 101  384.9356
 102  395.6205
 103  344.0087
 104  380.4808
 105  286.093
 106  364.8742
 107  397.4082
 108  456.665
 109  315.0635
 110  378.4311
 111  327.2793
 112  219.1879
 113  247.9244
 114  418.3542
 115  285.1652
 116  317.2414
 117  425.8528
 118  391.6731
 119  332.1233
 120  316.283
 121  465.1247
 122  406.8217
 123  371.5428
 124  285.7022
 125  238.6496
 126  458.0405
 127  618.7073
 128  479.6875
 129  366.4646
 130  320.024
 131  299.8598
 132  304.6058
 133  347.0903
 134  308.8001
 135  383.2628
 136  408.7514
 137  479.3879
 138  379.9662
 139  372.4119
 140  378.0116
 141  370.2571
 142  364.5023
 143  376.4158
 144  466.2419
 145  383.496
 146  348.5359
 147  389.3593
 148  384.6086
 149  372.1145
 150  463.4498
 151  494.1868
 152  466.2267
 153  236.1246
 154  222.5396
 155  303.6728
 156  307.5187
 157  302.8667
 158  331.7924
 159  496.9475
 160  432.7349
 161  289.4455
 162  279.4478
 163  275.0182
 164  295.1439
 165  471.1025
 166  442.403
 167  434.6383
 168  406.583
 169  382.2379
 170  320.9023
 171  359.0767
 172  269.3682
 173  298.8133
 174  397.3931
 175  359.2238
 176  329.2995
 177  493.8741
 178  356.5738
 179  535.5465
 180  484.3637
 181  328.0162
 182  342.894
 183  437.9582
 184  374.8883
 185  471.5075
 186  397.7047
 187  383.3494
 188  389.5983
 189  382.911
 190  333.5495
 191  418.4663
 192  526.7547
 193  453.8622
 194  449.6214
 195  575.0482
 196  534.0606
 197  370.8894
 198  305.452
 199  480.8697
 200  468.0119
 201  466.0199
 202  349.4422
 203  400.525
 204  445.2189
 205  428.525
 206  486.6598
 207  459.5618
 208  542.6751
 209  449.4276
 210  507.4986
 211  411.1537
 212  371.4299
 213  424.0381
 214  540.2755
 215  482.7328
 216  437.4813
 217  412.4189
 218  505.296
 219  435.5526
 220  323.2445
 221  291.2725
 222  333.7809
 223  377.7917
 224  384.5341
 225  442.734
 226  515.6808
 227  403.3097
 228  404.464
 229  333.3558
 230  347.075
 231  407.0396
 232  362.3569
 233  346.8639
 234  460.9453
 235  523.7801
 236  462.8956
 237  415.2542
 238  414.0393
 239  434.7227
 240  539.2245
 241  478.7472
 242  277.4716
 243  276.8468
 244  369.0892
 245  258.7497
 246  379.7995
 247  470.1491
 248  391.0869
 249  341.5844
 250  387.6438
 251  407.9253
 252  411.56
 253  518.2914
 254  527.9619
 255  408.4017
 256  334.8356
 257  580.8511
 258  547.0687
 259  554.3133
 260  368.9927
 261  289.5583
 262  367.1872
 263  373.8262
 264  395.4152
 265  270.5838
 266  432.718
 267  658.8262
 268  610.3112
 269  542.2085
 270  438.7677
 271  438.724
 272  391.6637
 273  394.6104
 274  375.8559
 275  505.4531
 276  488.6599
 277  461.4092
 278  376.9953
 279  442.0026
 280  399.217
 281  244.5788
 282  338.8343
 283  482.6668
 284  405.8978
 285  424.0108
 286  385.4012
 287  498.0718
 288  470.3904
 289  370.9694
 290  472.0605
 291  568.086
 292  459.7091
 293  314.1106
 294  428.4785
 295  486.6171
 296  288.4127
 297  267.9995
 298  406.1089
 299  511.8871
 300  608.1722
 301  491.5437
 302  415.338
 303  313.9593
 304  368.1737
 305  272.0202
 306  392.9576
 307  417.5363
 308  413.8036
 309  527.0144
 310  442.8882
 311  471.6031
 312  363.3903
 313  382.7489
 314  520.9298
 315  517.2598
 316  489.9423
 317  456.9465
 318  398.8588
 319  387.8415
 320  493.5742
 321  483.8952
 322  332.2563
 323  406.8606
 324  542.368
 325  530.0352
 326  492.3232
 327  439.7224
 328  392.2615
 329  399.9267
 330  343.243
 331  457.7737
 332  576.458
 333  497.5919
 334  434.5848
 335  450.6612
 336  447.1254
 337  295.1951
 338  373.4921
 339  449.5835
 340  550.5565
 341  535.4593
 342  515.9431
 343  534.8023
 344  461.2272
 345  346.9467
 346  330.8275
 347  538.51
 348  466.2164
 349  512.1691
 350  448.0976
 351  412.2159
 352  405.2773
 353  425.6253
 354  410.2156
 355  355.0777
 356  374.0558
 357  459.457
 358  473.911
 359  504.9055
 360  527.1566
 361  442.3966
 362  374.3995
 363  428.4819
 364  433.8171
 365  433.5322
 366  415.1742
 367  454.3722
 368  541.5361
 369  507.7937
 370  432.5571
 371  462.8641
 372  480.4971
 373  393.1476
 374  394.284
 375  412.272
 376  531.6947
 377  535.1639
 378  481.1055
 379  447.0865
 380  465.8716
 381  391.2229
 382  375.1893
 383  482.9319
 384  527.495
 385  463.6156
 386  402.3793
 387  412.0905
 388  508.8311
 389  499.0833
 390  426.1
 391  403.9527
 392  334.0544
 393  445.752
 394  431.95
 395  435.5215
 396  494.3339
 397  418.4115
 398  422.1192
 399  469.8903
 400  355.9879
 401  387.8813
 402  419.1887
 403  430.353
 404  446.0271
 405  414.6324
 406  530.0706
 407  538.2307
 408  328.7088
 409  390.6336
 410  444.259
 411  403.0512
 412  466.574
 413  451.8781
 414  495.4771
 415  617.0017
 416  626.3013
 417  451.5298
 418  405.5415
 419  486.6596
 420  423.352
 421  483.4273
 422  477.2197
 423  512.7513
 424  457.2265
 425  410.8617
 426  424.557
 427  391.0443
 428  419.741
 429  377.5229
 430  470.2274
 431  504.8932
 432  500.8672
 433  437.6475
 434  354.6342
 435  394.0415
 436  343.0721
 437  367.6645
 438  422.2449
 439  489.2009
 440  471.9418
 441  410.6354
 442  314.1231
 443  334.6673
 444  406.3676
 445  438.9201
 446  437.0027
 447  279.9765
 448  419.8024
 449  416.5113
 450  454.9505
 451  403.509
 452  390.5508
 453  416.9295
 454  425.1313
 455  335.4597
 456  431.7678
 457  489.4359
 458  471.0592
 459  461.4034
 460  538.5907
 461  511.3803
 462  355.6546
 463  330.0908
 464  280.0234
 465  327.1161
 466  436.9809
 467  453.4886
 468  481.1138
 469  501.0805
 470  346.2473
 471  370.2778
 472  548.7237
 473  517.5814
 474  414.6696
 475  375.1692
 476  276.1157
 477  387.8041
 478  499.1434
 479  529.6381
 480  605.1196
 481  574.6547
 482  400.6033
 483  336.0171
 484  353.0752
 485  370.0709
 486  302.7781
 487  418.0906
 488  487.0515
 489  544.7759
 490  504.1921
 491  577.5594
 492  478.9821
 493  442.7395
 494  394.9844
 495  433.6125
 496  465.5504
 497  414.1251
 498  443.8605
 499  418.728
 500  427.3942
 501  444.2754
 502  382.1523
 503  351.4131
 504  371.1412
 505  600.3593
 506  760.9997
 507  684.3185
 508  651.1273
 509  679.2778
 510  810.8332
 511  1022.353
