# Input file       =  1210221222.103815_cleaned.dat
# Candidate        =  PSR_0332+5434
# Telescope        =  AR
# Epoch_topo       =  58251.189862312676
# Epoch_bary       =  N/A
# T_sample         =  0.002
# Data Folded      =  7208960
# Data Avg         =  0.0422374674878121
# Data StdDev      =  0.999991071909131
# Profile Bins     =  512
# Profile Avg      =  594.683226601445 
# Profile StdDev   =  118.658116393627 
# Reduced chi-sqr  =  2.047
# Prob(Noise)      <  4.8e-39   (~13.0 sigma)
# P_topo (ms)      =  714.535334641963  +/- 0.000116
# P'_topo (s/s)    =  -0                +/- 6.24e-11
# P''_topo (s/s^2) =  0                 +/- 2.8e-14
# P_bary (ms)      =  N/A
# P'_bary (s/s)    =  N/A
# P''_bary (s/s^2) =  N/A
# P_orb (s)        =  N/A
# asin(i)/c (s)    =  N/A
# eccentricity     =  N/A
# w (rad)          =  N/A
# T_peri           =  N/A
######################################################
   0  1600.977
   1  1466.599
   2  1292.759
   3  860.8381
   4  525.1629
   5  453.0573
   6  484.2904
   7  493.202
   8  537.455
   9  511.2314
  10  521.057
  11  583.7644
  12  619.4937
  13  529.8563
  14  511.0637
  15  634.1464
  16  762.7006
  17  679.9084
  18  483.6531
  19  386.6762
  20  356.4369
  21  329.411
  22  394.8304
  23  424.0674
  24  601.9047
  25  616.3329
  26  649.4024
  27  609.6522
  28  549.0822
  29  473.523
  30  596.8545
  31  629.2928
  32  542.9789
  33  586.6646
  34  586.5413
  35  614.6775
  36  609.2211
  37  532.163
  38  424.6407
  39  462.3804
  40  594.1025
  41  546.4799
  42  545.9178
  43  510.0808
  44  400.1974
  45  458.7433
  46  585.3091
  47  551.4977
  48  552.7245
  49  562.845
  50  580.4216
  51  574.6033
  52  442.3134
  53  513.7271
  54  593.7709
  55  584.701
  56  544.6887
  57  459.5751
  58  539.0195
  59  633.2079
  60  657.7406
  61  586.1896
  62  505.1057
  63  509.4114
  64  583.901
  65  649.9669
  66  593.6006
  67  565.7614
  68  466.5438
  69  362.1567
  70  422.647
  71  495.1544
  72  550.1258
  73  505.0461
  74  628.5629
  75  730.3547
  76  679.7061
  77  554.6276
  78  457.3026
  79  542.0573
  80  483.3371
  81  419.4376
  82  506.8478
  83  501.9099
  84  317.5747
  85  398.7945
  86  539.6442
  87  493.5829
  88  415.4356
  89  452.4218
  90  514.1406
  91  584.0411
  92  563.5881
  93  574.9048
  94  594.0933
  95  499.1075
  96  412.8383
  97  582.9315
  98  667.7422
  99  648.4368
 100  597.8096
 101  518.3063
 102  474.3657
 103  401.6408
 104  391.3894
 105  348.4712
 106  503.4475
 107  629.4163
 108  474.7219
 109  396.0711
 110  588.5798
 111  583.7668
 112  566.7167
 113  536.071
 114  487.0607
 115  486.2586
 116  565.2484
 117  542.1619
 118  444.1196
 119  473.6564
 120  581.3224
 121  614.3612
 122  639.3156
 123  619.5643
 124  705.3054
 125  644.2629
 126  593.275
 127  560.3597
 128  572.8725
 129  598.7549
 130  553.6368
 131  563.743
 132  647.4953
 133  654.4456
 134  561.3463
 135  404.6799
 136  501.002
 137  583.3894
 138  708.4415
 139  584.6394
 140  599.6863
 141  624.6605
 142  572.4111
 143  603.7714
 144  651.5677
 145  583.6289
 146  595.8621
 147  568.7571
 148  574.0538
 149  523.537
 150  513.3468
 151  545.0874
 152  643.3577
 153  657.6477
 154  661.5515
 155  697.1847
 156  708.6841
 157  700.0516
 158  661.5773
 159  631.8649
 160  555.0135
 161  625.7666
 162  616.4487
 163  552.2973
 164  573.6778
 165  670.3389
 166  687.6437
 167  572.5328
 168  594.092
 169  635.2747
 170  555.3055
 171  520.0237
 172  534.8931
 173  616.0065
 174  602.3763
 175  800.2932
 176  729.3344
 177  551.2631
 178  510.603
 179  533.2318
 180  659.1009
 181  594.7744
 182  611.0471
 183  561.2553
 184  417.7931
 185  400.1941
 186  628.7161
 187  620.6153
 188  699.2244
 189  700.6047
 190  709.7247
 191  583.0676
 192  561.9801
 193  575.2173
 194  532.1312
 195  706.0161
 196  774.3848
 197  585.7495
 198  596.0728
 199  691.1098
 200  597.0115
 201  588.002
 202  597.35
 203  657.3647
 204  598.3124
 205  692.8174
 206  739.7155
 207  734.5154
 208  716.0014
 209  806.0706
 210  742.9139
 211  659.348
 212  714.8198
 213  686.1544
 214  611.6219
 215  622.5557
 216  711.2844
 217  704.2337
 218  574.3771
 219  583.7086
 220  630.5012
 221  562.5172
 222  649.7598
 223  772.4668
 224  776.5642
 225  590.4559
 226  615.7135
 227  663.7925
 228  739.2524
 229  606.3577
 230  641.7534
 231  714.9353
 232  762.3391
 233  609.4783
 234  664.207
 235  671.1211
 236  646.2767
 237  738.2404
 238  702.7994
 239  800.6313
 240  729.8693
 241  628.3898
 242  673.9542
 243  589.7709
 244  558.9899
 245  664.0275
 246  644.1943
 247  643.2476
 248  660.5284
 249  675.918
 250  747.837
 251  693.9377
 252  729.3427
 253  741.8276
 254  681.4539
 255  554.5602
 256  678.2993
 257  802.2642
 258  785.7513
 259  683.0486
 260  662.1337
 261  729.9503
 262  592.3184
 263  697.364
 264  781.5751
 265  632.983
 266  544.4271
 267  614.7577
 268  672.2627
 269  745.0061
 270  665.2036
 271  714.6176
 272  698.5756
 273  707.0973
 274  701.7835
 275  609.6547
 276  596.765
 277  580.699
 278  550.6075
 279  592.6342
 280  598.8527
 281  691.732
 282  673.5652
 283  680.7503
 284  548.7155
 285  553.6371
 286  566.5954
 287  587.4227
 288  712.0452
 289  836.0017
 290  781.0902
 291  579.7285
 292  524.5605
 293  607.8179
 294  571.1287
 295  573.8757
 296  729.5877
 297  727.6533
 298  724.6103
 299  652.3326
 300  693.6786
 301  721.5053
 302  713.5535
 303  574.7446
 304  655.3084
 305  697.5804
 306  683.5628
 307  606.1058
 308  551.2487
 309  575.5721
 310  618.9279
 311  616.455
 312  541.619
 313  608.75
 314  595.9885
 315  622.2964
 316  569.3247
 317  609.2881
 318  576.1042
 319  573.4546
 320  525.446
 321  539.9631
 322  586.3005
 323  670.4507
 324  622.8013
 325  590.7252
 326  635.3937
 327  659.3527
 328  634.7374
 329  550.2001
 330  604.7366
 331  661.9168
 332  554.3787
 333  536.2612
 334  674.8196
 335  568.0862
 336  559.2759
 337  731.1802
 338  829.2531
 339  754.3392
 340  639.3178
 341  471.771
 342  446.0972
 343  643.5381
 344  624.8868
 345  519.7806
 346  555.4974
 347  575.929
 348  545.2625
 349  432.6197
 350  403.6358
 351  427.1958
 352  519.0877
 353  535.4831
 354  587.6451
 355  600.3257
 356  612.5485
 357  675.8683
 358  643.4886
 359  623.8991
 360  689.9811
 361  708.8542
 362  603.6669
 363  508.9129
 364  590.1645
 365  680.1508
 366  534.8237
 367  570.5496
 368  563.4003
 369  559.4321
 370  585.4567
 371  566.7614
 372  579.8819
 373  581.8914
 374  414.478
 375  577.0998
 376  621.7502
 377  499.3408
 378  540.2761
 379  543.7411
 380  546.7012
 381  688.6571
 382  544.9634
 383  534.8736
 384  415.5187
 385  545.5007
 386  584.364
 387  416.009
 388  544.2203
 389  687.5582
 390  613.877
 391  582.1448
 392  624.8276
 393  517.2387
 394  560.6161
 395  514.0991
 396  510.7066
 397  489.3165
 398  520.592
 399  476.3882
 400  562.682
 401  421.9234
 402  549.2181
 403  676.3141
 404  713.1647
 405  577.7314
 406  570.1844
 407  635.0099
 408  664.0651
 409  648.5523
 410  670.4282
 411  629.4655
 412  539.0275
 413  570.4217
 414  515.1412
 415  552.1349
 416  513.6497
 417  558.5253
 418  606.3066
 419  533.0649
 420  653.099
 421  668.499
 422  670.2936
 423  565.6582
 424  621.28
 425  632.8508
 426  489.6502
 427  492.7577
 428  629.2556
 429  601.8642
 430  506.6489
 431  588.5356
 432  585.2415
 433  635.3417
 434  495.3113
 435  542.7553
 436  665.7558
 437  633.0645
 438  628.7092
 439  666.1935
 440  651.6402
 441  569.8209
 442  551.0814
 443  577.8496
 444  551.7153
 445  561.4117
 446  719.4188
 447  630.019
 448  620.2606
 449  628.7109
 450  532.8996
 451  482.0669
 452  552.7012
 453  530.2828
 454  729.2688
 455  663.2104
 456  673.5003
 457  573.946
 458  453.7384
 459  533.5992
 460  636.3618
 461  571.054
 462  689.7676
 463  580.0298
 464  510.7964
 465  528.0327
 466  471.6491
 467  374.146
 468  439.0153
 469  552.6703
 470  448.4977
 471  561.912
 472  539.6487
 473  517.0524
 474  576.7748
 475  580.422
 476  533.9008
 477  470.0045
 478  494.8738
 479  555.2369
 480  534.8235
 481  512.2245
 482  528.2922
 483  398.1028
 484  360.6697
 485  482.712
 486  446.4988
 487  488.0385
 488  532.2077
 489  551.582
 490  479.2489
 491  407.9134
 492  464.8163
 493  600.1662
 494  571.4614
 495  522.0316
 496  422.4734
 497  422.387
 498  456.2767
 499  446.2552
 500  460.1364
 501  524.2875
 502  489.4265
 503  594.1434
 504  615.7438
 505  655.0216
 506  646.4916
 507  703.5024
 508  658.6636
 509  820.5406
 510  1195.416
 511  1509.84
