# Input file       =  1211614446.108927_cleaned.dat
# Candidate        =  PSR_0332+5434
# Telescope        =  AR
# Epoch_topo       =  58267.315140149622
# Epoch_bary       =  N/A
# T_sample         =  0.002
# Data Folded      =  7340032
# Data Avg         =  0.0380719220636322
# Data StdDev      =  1.00013370934277 
# Profile Bins     =  512
# Profile Avg      =  545.845966885842 
# Profile StdDev   =  119.749045802368 
# Reduced chi-sqr  =  1.162
# Prob(Noise)      <  0.00645   (~2.5 sigma)
# P_topo (ms)      =  714.519558499721  +/- 7.29e-05
# P'_topo (s/s)    =  -0                +/- 3.85e-11
# P''_topo (s/s^2) =  0                 +/- 1.7e-14
# P_bary (ms)      =  N/A
# P'_bary (s/s)    =  N/A
# P''_bary (s/s^2) =  N/A
# P_orb (s)        =  N/A
# asin(i)/c (s)    =  N/A
# eccentricity     =  N/A
# w (rad)          =  N/A
# T_peri           =  N/A
######################################################
   0  1198.436
   1  1169.185
   2  1042.589
   3  801.0744
   4  661.3017
   5  524.5701
   6  579.2858
   7  595.3741
   8  614.102
   9  537.074
  10  508.9595
  11  487.892
  12  496.6286
  13  497.8007
  14  499.8709
  15  574.7527
  16  462.2048
  17  430.6017
  18  452.2934
  19  455.305
  20  409.1737
  21  497.2032
  22  563.2984
  23  430.0005
  24  422.1736
  25  500.8921
  26  582.3248
  27  422.2121
  28  473.8084
  29  520.0887
  30  440.8911
  31  394.4862
  32  474.2977
  33  517.1953
  34  506.2043
  35  524.3464
  36  521.9758
  37  520.5092
  38  506.4788
  39  419.7962
  40  452.6853
  41  564.1251
  42  463.6131
  43  410.2374
  44  372.9221
  45  367.524
  46  449.9563
  47  575.068
  48  559.9727
  49  486.769
  50  411.0786
  51  419.6582
  52  506.1474
  53  622.0256
  54  599.4467
  55  570.5831
  56  558.8871
  57  454.1892
  58  501.729
  59  582.7836
  60  580.7448
  61  512.9097
  62  525.5417
  63  487.2586
  64  518.9925
  65  449.1866
  66  526.5723
  67  525.0387
  68  557.5213
  69  492.2243
  70  414.8934
  71  583.9927
  72  561.4297
  73  555.9423
  74  489.5663
  75  463.2768
  76  410.1061
  77  417.5836
  78  458.0615
  79  528.4169
  80  618.9538
  81  513.709
  82  441.6458
  83  488.3726
  84  614.9838
  85  641.3112
  86  635.2415
  87  592.4054
  88  586.9551
  89  400.6393
  90  456.8303
  91  450.0433
  92  538.859
  93  501.7824
  94  410.702
  95  573.5929
  96  598.5237
  97  562.4247
  98  606.3032
  99  724.8818
 100  690.6005
 101  446.7828
 102  485.4506
 103  582.2651
 104  608.8893
 105  559.7689
 106  568.3855
 107  590.4247
 108  660.611
 109  687.8022
 110  584.3641
 111  653.9094
 112  711.2687
 113  680.0261
 114  642.7943
 115  601.6002
 116  623.1971
 117  567.6505
 118  554.3129
 119  522.7802
 120  570.6038
 121  501.8534
 122  485.3714
 123  414.7161
 124  474.6111
 125  482.5334
 126  554.4634
 127  724.4321
 128  554.5197
 129  506.1932
 130  528.8187
 131  533.44
 132  589.507
 133  622.249
 134  622.7114
 135  506.683
 136  445.2201
 137  504.5981
 138  558.1219
 139  583.3348
 140  593.6897
 141  608.7848
 142  667.7819
 143  573.9979
 144  539.71
 145  570.7587
 146  549.7292
 147  576.6658
 148  522.7762
 149  494.8198
 150  519.3377
 151  569.8537
 152  557.0659
 153  529.4119
 154  480.967
 155  487.752
 156  538.6927
 157  624.3843
 158  639.5733
 159  569.6616
 160  481.6781
 161  466.1921
 162  483.3941
 163  579.4847
 164  637.4432
 165  471.0393
 166  465.0068
 167  465.5998
 168  511.401
 169  585.0375
 170  501.5977
 171  597.7413
 172  622.6907
 173  715.6097
 174  564.6369
 175  517.4681
 176  556.0474
 177  492.5762
 178  526.0842
 179  480.188
 180  543.5417
 181  524.1961
 182  411.7687
 183  501.4619
 184  568.7997
 185  544.532
 186  512.3273
 187  526.356
 188  432.6761
 189  381.0247
 190  435.769
 191  508.9559
 192  611.5712
 193  539.8953
 194  467.6703
 195  409.8786
 196  535.5124
 197  559.4969
 198  593.5049
 199  621.908
 200  576.4874
 201  491.5934
 202  478.8462
 203  568.0066
 204  528.9587
 205  545.3659
 206  489.4467
 207  447.1177
 208  590.5965
 209  553.3585
 210  554.4589
 211  574.4246
 212  514.3711
 213  426.1322
 214  419.3151
 215  415.1193
 216  489.3141
 217  540.7567
 218  483.1771
 219  361.2372
 220  411.8835
 221  490.1457
 222  430.383
 223  450.0187
 224  511.611
 225  472.3102
 226  435.2379
 227  426.8199
 228  526.2485
 229  577.9152
 230  555.0731
 231  571.348
 232  649.1245
 233  544.1365
 234  583.145
 235  503.3981
 236  611.2614
 237  599.1128
 238  580.1967
 239  642.9496
 240  545.8846
 241  524.3226
 242  602.1997
 243  651.7615
 244  640.2448
 245  627.5292
 246  512.0682
 247  525.0577
 248  608.1086
 249  626.5717
 250  560.9412
 251  560.5158
 252  615.8807
 253  462.2914
 254  412.7786
 255  449.2368
 256  488.0607
 257  359.5918
 258  466.0293
 259  598.1532
 260  522.9567
 261  575.9612
 262  527.7219
 263  542.0182
 264  597.588
 265  637.8841
 266  546.1643
 267  547.5446
 268  672.6962
 269  616.2159
 270  575.1849
 271  554.1079
 272  512.8628
 273  467.2147
 274  510.5555
 275  498.9425
 276  515.5651
 277  511.8586
 278  516.2888
 279  469.5683
 280  419.6152
 281  431.752
 282  473.6268
 283  602.9801
 284  546.2039
 285  521.955
 286  554.5485
 287  654.3159
 288  585.5175
 289  609.186
 290  654.8466
 291  575.9313
 292  519.5145
 293  640.0779
 294  583.5835
 295  541.5677
 296  569.9933
 297  582.5015
 298  575.1232
 299  671.2215
 300  688.2997
 301  550.1406
 302  541.6167
 303  581.7861
 304  518.2009
 305  525.0662
 306  576.1447
 307  519.0753
 308  654.2733
 309  706.9106
 310  641.3809
 311  518.6554
 312  557.6062
 313  524.9453
 314  573.0894
 315  610.582
 316  609.6158
 317  485.2587
 318  525.1565
 319  637.5703
 320  619.2429
 321  523.7823
 322  624.6658
 323  690.7458
 324  614.5056
 325  530.0959
 326  576.2192
 327  631.8283
 328  675.2574
 329  575.3071
 330  470.0674
 331  526.4946
 332  575.7357
 333  560.9739
 334  517.3816
 335  529.8549
 336  599.6125
 337  649.5894
 338  627.8643
 339  604.7451
 340  552.5223
 341  529.9442
 342  567.8456
 343  603.0501
 344  604.5848
 345  449.7408
 346  371.2534
 347  492.6685
 348  580.0642
 349  597.8174
 350  526.9984
 351  481.9615
 352  539.7396
 353  502.447
 354  421.7724
 355  407.3283
 356  584.2239
 357  574.6212
 358  474.7713
 359  421.1022
 360  476.6301
 361  586.6536
 362  504.8322
 363  513.7234
 364  572.5648
 365  501.7552
 366  470.3065
 367  457.8393
 368  476.9346
 369  535.6975
 370  593.6317
 371  489.0998
 372  408.365
 373  494.5458
 374  587.9991
 375  501.4629
 376  540.5337
 377  435.7653
 378  352.1207
 379  350.5954
 380  466.1079
 381  494.1014
 382  570.6099
 383  599.8804
 384  609.2732
 385  552.5341
 386  533.0062
 387  548.34
 388  562.0452
 389  568.652
 390  583.9268
 391  514.7299
 392  528.9639
 393  606.7078
 394  783.678
 395  652.5608
 396  684.4675
 397  661.4119
 398  585.892
 399  613.4113
 400  629.8528
 401  650.6754
 402  650.1632
 403  568.1786
 404  492.0498
 405  575.3234
 406  624.5729
 407  657.1322
 408  724.5043
 409  667.0022
 410  562.1848
 411  496.4331
 412  516.1274
 413  563.2303
 414  616.2379
 415  589.5258
 416  518.805
 417  462.774
 418  484.2539
 419  586.9888
 420  623.7067
 421  527.7169
 422  654.6875
 423  584.4299
 424  582.207
 425  578.5989
 426  453.4155
 427  494.9291
 428  592.6991
 429  655.084
 430  634.9304
 431  524.6849
 432  517.0649
 433  511.0895
 434  443.0424
 435  504.7252
 436  539.8618
 437  413.5555
 438  434.9243
 439  310.5876
 440  504.9909
 441  624.3997
 442  603.2233
 443  505.5325
 444  340.681
 445  407.4035
 446  562.9601
 447  558.3479
 448  518.2374
 449  454.5402
 450  533.9762
 451  605.6628
 452  600.0906
 453  540.9983
 454  497.5207
 455  607.3166
 456  617.6558
 457  508.5598
 458  456.918
 459  562.2982
 460  663.2715
 461  657.1014
 462  528.8395
 463  560.2079
 464  581.653
 465  565.8617
 466  655.4108
 467  609.6685
 468  504.7841
 469  502.5241
 470  546.2808
 471  498.3215
 472  607.1008
 473  513.7762
 474  503.3658
 475  479.373
 476  481.9801
 477  497.784
 478  434.3838
 479  432.2998
 480  543.7257
 481  548.9227
 482  600.2059
 483  488.0589
 484  384.3751
 485  479.4026
 486  515.961
 487  514.2877
 488  463.9354
 489  511.6999
 490  474.2946
 491  460.1695
 492  562.5146
 493  571.7428
 494  519.3146
 495  609.4556
 496  484.7483
 497  555.0934
 498  612.0903
 499  643.7812
 500  631.9688
 501  506.6436
 502  467.8282
 503  472.6366
 504  627.2663
 505  716.2196
 506  729.3179
 507  731.4744
 508  723.6364
 509  726.4568
 510  872.8679
 511  1116.506
