# Input file       =  1211098148.107654_cleaned.dat
# Candidate        =  PSR_0332+5434
# Telescope        =  AR
# Epoch_topo       =  58261.339468838589
# Epoch_bary       =  N/A
# T_sample         =  0.002
# Data Folded      =  7340032
# Data Avg         =  0.0670498158374428
# Data StdDev      =  0.999886839218129
# Profile Bins     =  512
# Profile Avg      =  961.20156589918  
# Profile StdDev   =  119.719487292754 
# Reduced chi-sqr  =  0.869
# Prob(Noise)      <  0.985   (~0.0 sigma)
# P_topo (ms)      =  714.525420275754  +/- 0.000533
# P'_topo (s/s)    =  -0                +/- 2.81e-10
# P''_topo (s/s^2) =  0                 +/- 1.24e-13
# P_bary (ms)      =  N/A
# P'_bary (s/s)    =  N/A
# P''_bary (s/s^2) =  N/A
# P_orb (s)        =  N/A
# asin(i)/c (s)    =  N/A
# eccentricity     =  N/A
# w (rad)          =  N/A
# T_peri           =  N/A
######################################################
   0  1445.778
   1  1393.061
   2  1294.209
   3  1031.422
   4  947.6821
   5  956.6875
   6  849.7021
   7  855.2374
   8  914.7878
   9  949.8459
  10  1022.939
  11  928.489
  12  896.6655
  13  956.3726
  14  1017.267
  15  1035.149
  16  994.9723
  17  956.3629
  18  777.1182
  19  765.8996
  20  886.6459
  21  917.9359
  22  1069.158
  23  1014.944
  24  942.0298
  25  1047.486
  26  932.9506
  27  908.6428
  28  966.6744
  29  1010.721
  30  1048.183
  31  1056.083
  32  1046.128
  33  1011.044
  34  920.1676
  35  897.7373
  36  993.6587
  37  1068.905
  38  1023.952
  39  938.6486
  40  916.7066
  41  919.2864
  42  931.3509
  43  936.9985
  44  1027.456
  45  1040.657
  46  937.8394
  47  843.7886
  48  872.4183
  49  872.787
  50  891.9786
  51  922.7064
  52  1005.989
  53  1024.96
  54  1051.382
  55  939.1088
  56  903.4728
  57  946.2804
  58  964.3856
  59  934.3865
  60  817.7013
  61  796.4707
  62  835.1957
  63  898.9727
  64  978.6329
  65  957.1298
  66  967.4564
  67  976.6337
  68  875.6954
  69  891.9304
  70  946.6715
  71  988.0477
  72  956.5358
  73  860.8363
  74  840.5773
  75  967.7188
  76  979.7942
  77  953.2253
  78  1022.423
  79  1005.256
  80  916.0919
  81  983.9252
  82  1043.689
  83  968.8486
  84  892.9615
  85  930.7849
  86  1131.629
  87  1069.104
  88  980.6974
  89  920.9851
  90  977.8906
  91  969.4412
  92  999.2346
  93  966.3254
  94  897.248
  95  919.0132
  96  1001.917
  97  1019.879
  98  968.6663
  99  970.7698
 100  966.3978
 101  941.0234
 102  982.5588
 103  1047.034
 104  1024.151
 105  1039.018
 106  1068.897
 107  1125.266
 108  1030.081
 109  1014.898
 110  980.9963
 111  993.825
 112  926.6023
 113  931.4125
 114  896.4861
 115  981.2855
 116  1068.168
 117  1030.794
 118  915.894
 119  844.4239
 120  759.2961
 121  823.0949
 122  940.6279
 123  876.1647
 124  978.1507
 125  1051.391
 126  997.7374
 127  983.2878
 128  1014.865
 129  977.9915
 130  989.3741
 131  1032.585
 132  1082.357
 133  935.6846
 134  882.8295
 135  955.8799
 136  929.3597
 137  945.2271
 138  939.0975
 139  926.4806
 140  885.1743
 141  834.744
 142  904.3744
 143  965.7598
 144  1004.009
 145  936.3074
 146  953.2697
 147  912.5754
 148  938.8427
 149  948.4609
 150  930.3836
 151  970.8945
 152  838.9362
 153  923.5587
 154  937.1784
 155  962.8754
 156  897.7236
 157  890.9582
 158  877.4572
 159  955.435
 160  1046.939
 161  1002.929
 162  931.4228
 163  930.2926
 164  957.8781
 165  979.7193
 166  998.9517
 167  993.696
 168  929.9105
 169  940.1645
 170  978.2406
 171  981.4263
 172  946.9969
 173  974.2385
 174  908.0388
 175  915.5717
 176  1048.643
 177  1029.764
 178  963.9014
 179  896.8953
 180  846.2217
 181  1016.77
 182  1080.634
 183  1028.094
 184  1078.485
 185  1027.328
 186  962.5482
 187  992.2619
 188  1034.651
 189  1072.936
 190  1042.05
 191  976.9731
 192  911.0831
 193  865.7161
 194  959.1677
 195  1045.228
 196  1058.655
 197  1096.745
 198  1079.361
 199  970.1589
 200  1024.812
 201  1042.65
 202  1038.323
 203  1019.402
 204  1076.189
 205  1033.041
 206  1065.169
 207  1007.867
 208  1009.171
 209  1014.055
 210  968.6287
 211  990.2881
 212  1049.249
 213  1133.832
 214  1076.38
 215  987.3847
 216  1088.116
 217  1025.349
 218  1040.365
 219  1083.069
 220  1047.01
 221  950.9424
 222  939.0156
 223  891.172
 224  938.0084
 225  1030.305
 226  976.0327
 227  974.3409
 228  990.2435
 229  1016.359
 230  941.6683
 231  933.4585
 232  1002.437
 233  893.3646
 234  920.6667
 235  944.5737
 236  957.4929
 237  996.8389
 238  964.5522
 239  973.2957
 240  948.6317
 241  921.2196
 242  960.6823
 243  1006.023
 244  1060.201
 245  1049.071
 246  990.0654
 247  962.142
 248  918.6243
 249  846.1446
 250  958.5526
 251  983.4753
 252  903.1859
 253  956.5077
 254  1037.777
 255  1020.213
 256  1063.677
 257  1015.019
 258  916.9293
 259  931.2471
 260  971.7217
 261  1027.074
 262  990.5885
 263  959.5457
 264  960.6306
 265  960.0938
 266  943.3317
 267  1052.565
 268  1004.634
 269  1015.18
 270  1052.974
 271  979.3448
 272  968.8456
 273  941.8718
 274  899.8904
 275  1044.16
 276  1052.057
 277  1047.539
 278  1031.884
 279  985.9804
 280  1039.395
 281  989.4911
 282  999.2733
 283  952.9536
 284  889.3922
 285  998.0385
 286  1070.895
 287  984.4575
 288  968.0645
 289  823.8401
 290  775.1719
 291  847.537
 292  903.1975
 293  941.7382
 294  912.1423
 295  919.3132
 296  910.0206
 297  894.8514
 298  903.4672
 299  956.9254
 300  992.9866
 301  925.2908
 302  902.9579
 303  963.7526
 304  973.1243
 305  1004.732
 306  1034.833
 307  1040.458
 308  1035.415
 309  1021.357
 310  959.4515
 311  938.3736
 312  932.5798
 313  1004.964
 314  1019.646
 315  970.4219
 316  1028.66
 317  970.7149
 318  920.8903
 319  929.6363
 320  913.6995
 321  1004.198
 322  1062.047
 323  949.0372
 324  964.787
 325  943.4495
 326  1036.354
 327  1019.495
 328  962.2543
 329  944.3945
 330  925.3906
 331  991.982
 332  978.2364
 333  1055.5
 334  1047.539
 335  990.9884
 336  906.0583
 337  937.3007
 338  924.3781
 339  942.4693
 340  1014.05
 341  966.3924
 342  900.5012
 343  896.6815
 344  905.1347
 345  1004.832
 346  929.3041
 347  825.5569
 348  813.7194
 349  898.5945
 350  883.4021
 351  866.8795
 352  861.8785
 353  904.2856
 354  921.9937
 355  882.2474
 356  950.028
 357  877.9267
 358  863.089
 359  878.9514
 360  935.8452
 361  904.4346
 362  964.0553
 363  944.2071
 364  960.5603
 365  841.6829
 366  810.0536
 367  903.1781
 368  925.777
 369  875.7655
 370  850.3665
 371  850.1864
 372  889.9117
 373  872.2472
 374  853.1974
 375  970.1282
 376  975.23
 377  938.547
 378  875.6442
 379  901.7396
 380  940.0701
 381  985.0538
 382  995.7579
 383  932.3616
 384  906.4946
 385  968.1301
 386  977.3849
 387  975.8476
 388  903.0295
 389  884.1917
 390  977.4409
 391  1030.51
 392  987.2571
 393  852.1874
 394  871.2161
 395  761.5034
 396  728.5052
 397  953.8527
 398  995.8712
 399  949.597
 400  1022.841
 401  1023.331
 402  990.0443
 403  1009.139
 404  858.0413
 405  911.7158
 406  917.2919
 407  1057.432
 408  1035.999
 409  935.5457
 410  1057.86
 411  999.0529
 412  969.0895
 413  970.2305
 414  899.8123
 415  960.5266
 416  974.7984
 417  1001.616
 418  964.3693
 419  908.2956
 420  931.5936
 421  1013.678
 422  918.9337
 423  864.2244
 424  964.4641
 425  1059.922
 426  983.7181
 427  914.6954
 428  1045.29
 429  1093.382
 430  916.5463
 431  930.5765
 432  1067.983
 433  969.0538
 434  896.5063
 435  892.5952
 436  989.2987
 437  951.5043
 438  947.5579
 439  889.1371
 440  885.4326
 441  871.824
 442  779.249
 443  814.8372
 444  902.0851
 445  830.0912
 446  858.8495
 447  887.2099
 448  972.9669
 449  843.9229
 450  872.4945
 451  921.4601
 452  943.4806
 453  998.2632
 454  1109.29
 455  929.3293
 456  815.4375
 457  850.8718
 458  899.0695
 459  866.4293
 460  854.9462
 461  898.2338
 462  873.6146
 463  832.0217
 464  830.0778
 465  752.4893
 466  831.6357
 467  872.1809
 468  844.0279
 469  921.4188
 470  988.1772
 471  941.9489
 472  901.7432
 473  930.2171
 474  864.2092
 475  870.3375
 476  888.3849
 477  928.5614
 478  945.4374
 479  988.954
 480  1024.867
 481  977.842
 482  932.6954
 483  945.7869
 484  929.7037
 485  921.1714
 486  920.4858
 487  969.2701
 488  1010.485
 489  978.782
 490  992.5369
 491  999.4667
 492  1018.746
 493  980.7244
 494  1011.194
 495  984.1061
 496  904.1771
 497  979.8093
 498  960.9642
 499  928.4533
 500  932.4938
 501  1023.539
 502  1040.873
 503  998.1978
 504  1010.273
 505  954.4623
 506  1004.857
 507  1041.265
 508  1195.49
 509  1354.86
 510  1310.679
 511  1347.593
