# Input file       =  1211284752.109416_cleaned.dat
# Candidate        =  PSR_0332+5434
# Telescope        =  AR
# Epoch_topo       =  58263.499237377502
# Epoch_bary       =  N/A
# T_sample         =  0.002
# Data Folded      =  7340032
# Data Avg         =  0.0373744471907602
# Data StdDev      =  1.00013849404563 
# Profile Bins     =  512
# Profile Avg      =  535.788333895431 
# Profile StdDev   =  119.74961868937  
# Reduced chi-sqr  =  1.173
# Prob(Noise)      <  0.00416   (~2.6 sigma)
# P_topo (ms)      =  714.523626899753  +/- 0.000375
# P'_topo (s/s)    =  -0                +/- 1.98e-10
# P''_topo (s/s^2) =  0                 +/- 8.73e-14
# P_bary (ms)      =  N/A
# P'_bary (s/s)    =  N/A
# P''_bary (s/s^2) =  N/A
# P_orb (s)        =  N/A
# asin(i)/c (s)    =  N/A
# eccentricity     =  N/A
# w (rad)          =  N/A
# T_peri           =  N/A
######################################################
   0  1090.629
   1  1036.05
   2  923.6285
   3  900.1362
   4  705.1306
   5  678.5244
   6  624.3954
   7  559.4542
   8  622.4968
   9  630.2224
  10  651.1711
  11  640.0294
  12  567.3181
  13  545.8524
  14  668.3484
  15  779.9535
  16  717.2405
  17  604.9091
  18  549.2237
  19  433.0236
  20  458.7368
  21  517.8887
  22  514.2495
  23  471.4814
  24  543.7642
  25  504.269
  26  497.7512
  27  535.4151
  28  566.6473
  29  497.5415
  30  470.3595
  31  429.2663
  32  423.5776
  33  491.7129
  34  518.7227
  35  568.721
  36  540.2604
  37  599.0692
  38  578.9297
  39  468.9286
  40  483.9389
  41  530.9974
  42  558.6843
  43  487.214
  44  504.1427
  45  571.7073
  46  563.9887
  47  493.4803
  48  556.6013
  49  602.9818
  50  512.1986
  51  481.8088
  52  555.2014
  53  581.0132
  54  533.8079
  55  478.1174
  56  556.8508
  57  566.9605
  58  591.1536
  59  551.7204
  60  430.7144
  61  613.8741
  62  591.0207
  63  493.3021
  64  502.7064
  65  467.9838
  66  540.3267
  67  488.6427
  68  572.9524
  69  593.4665
  70  549.424
  71  552.5522
  72  453.8736
  73  477.6221
  74  480.5758
  75  432.6046
  76  406.1435
  77  450.2498
  78  546.6166
  79  451.0089
  80  453.1747
  81  434.5315
  82  425.7386
  83  538.4783
  84  625.9649
  85  487.2841
  86  424.2123
  87  475.8892
  88  392.7717
  89  425.3059
  90  493.7276
  91  498.7166
  92  451.1996
  93  390.1148
  94  449.0227
  95  475.3485
  96  408.9668
  97  418.5679
  98  377.4852
  99  359.3399
 100  400.9394
 101  473.4116
 102  496.6469
 103  557.7156
 104  558.8238
 105  478.2012
 106  469.1828
 107  429.7842
 108  393.7026
 109  505.0191
 110  456.6525
 111  323.9665
 112  407.0913
 113  482.0394
 114  535.546
 115  554.7849
 116  504.4321
 117  511.7597
 118  526.5763
 119  607.115
 120  486.9883
 121  483.5689
 122  688.5714
 123  631.8513
 124  623.1551
 125  669.9348
 126  596.368
 127  669.9437
 128  608.788
 129  569.3455
 130  551.5668
 131  577.8018
 132  599.5693
 133  625.5459
 134  539.0538
 135  580.6772
 136  508.196
 137  500.3452
 138  503.1016
 139  586.8588
 140  615.5441
 141  594.8597
 142  567.3724
 143  508.0641
 144  500.7941
 145  521.0187
 146  604.6863
 147  508.0586
 148  543.7026
 149  538.4352
 150  513.1483
 151  493.7245
 152  545.2194
 153  490.3529
 154  514.8895
 155  426.2612
 156  425.7017
 157  500.8866
 158  589.935
 159  629.6905
 160  506.8867
 161  501.4473
 162  478.1453
 163  501.3689
 164  575.3972
 165  655.2583
 166  647.7652
 167  577.5706
 168  598.2345
 169  570.8753
 170  508.8625
 171  490.9745
 172  499.4803
 173  406.9819
 174  497.2097
 175  551.5977
 176  602.6502
 177  505.0488
 178  492.9583
 179  503.4284
 180  595.4496
 181  588.4576
 182  655.051
 183  600.9139
 184  462.9259
 185  459.7228
 186  510.2254
 187  562.2255
 188  641.0478
 189  469.8984
 190  447.6127
 191  504.6193
 192  407.9297
 193  471.8654
 194  425.7059
 195  466.3144
 196  478.9972
 197  556.8778
 198  464.3946
 199  473.4908
 200  571.7929
 201  525.7224
 202  425.9834
 203  428.0771
 204  524.6478
 205  519.4736
 206  587.7126
 207  472.1024
 208  443.7335
 209  497.26
 210  536.5451
 211  524.5024
 212  347.0862
 213  483.6989
 214  488.1364
 215  402.4948
 216  510.4467
 217  456.1248
 218  472.3571
 219  506.9891
 220  501.4006
 221  517.6273
 222  494.8174
 223  435.7937
 224  408.2357
 225  509.6377
 226  583.7214
 227  570.0917
 228  527.0608
 229  614.4039
 230  569.7456
 231  448.9534
 232  427.9912
 233  499.1843
 234  487.9652
 235  460.6689
 236  463.7982
 237  399.5935
 238  490.2652
 239  524.7242
 240  470.8527
 241  523.781
 242  525.5258
 243  476.9766
 244  411.2672
 245  395.3748
 246  490.1642
 247  529.8475
 248  516.1576
 249  429.9334
 250  389.1147
 251  362.9593
 252  353.7363
 253  476.9777
 254  612.0276
 255  566.2138
 256  327.458
 257  351.0247
 258  527.0161
 259  528.0038
 260  620.3774
 261  523.8398
 262  581.0326
 263  434.3007
 264  562.0825
 265  578.2034
 266  496.0202
 267  557.4852
 268  625.1469
 269  647.7065
 270  664.9587
 271  515.6331
 272  495.4239
 273  559.4961
 274  546.7806
 275  503.6998
 276  570.2353
 277  534.2788
 278  429.6789
 279  411.8138
 280  568.7207
 281  562.8141
 282  499.2801
 283  434.6843
 284  473.0304
 285  442.1772
 286  425.7782
 287  573.2064
 288  550.6419
 289  612.6614
 290  631.1917
 291  603.9427
 292  503.1598
 293  433.2055
 294  416.4354
 295  566.1827
 296  666.8837
 297  664.0164
 298  596.2443
 299  610.8624
 300  578.8124
 301  536.4931
 302  518.0994
 303  482.6721
 304  448.9677
 305  414.3703
 306  478.5836
 307  521.4559
 308  503.2374
 309  498.8397
 310  588.6074
 311  586.7311
 312  481.052
 313  518.4417
 314  424.0258
 315  435.6673
 316  513.4899
 317  623.178
 318  691.5291
 319  588.7342
 320  518.2145
 321  534.5216
 322  510.9779
 323  651.7343
 324  719.1468
 325  665.2477
 326  593.722
 327  502.806
 328  488.9773
 329  635.7949
 330  633.2744
 331  603.7361
 332  544.5561
 333  560.5103
 334  576.3168
 335  555.9695
 336  599.5927
 337  658.1258
 338  646.0049
 339  549.8859
 340  584.4444
 341  499.6747
 342  544.704
 343  615.8519
 344  608.2794
 345  574.1699
 346  535.3363
 347  570.298
 348  585.363
 349  626.5195
 350  649.1202
 351  642.5137
 352  557.7994
 353  584.6091
 354  476.8326
 355  536.6555
 356  434.6007
 357  560.8653
 358  570.9456
 359  617.6798
 360  563.9622
 361  467.6362
 362  599.3257
 363  633.2437
 364  559.537
 365  539.4208
 366  467.3184
 367  613.8271
 368  633.8066
 369  587.1731
 370  560.6214
 371  498.2251
 372  517.439
 373  418.2637
 374  493.389
 375  639.0092
 376  725.0087
 377  531.8828
 378  532.1095
 379  499.5495
 380  605.8982
 381  607.6791
 382  536.6401
 383  560.3189
 384  498.9064
 385  481.7794
 386  444.4559
 387  590.1328
 388  637.8821
 389  642.2466
 390  609.0916
 391  564.1126
 392  568.8392
 393  539.6928
 394  539.5772
 395  472.6994
 396  543.8231
 397  659.6312
 398  559.895
 399  607.8839
 400  505.8023
 401  498.0941
 402  502.9424
 403  588.1027
 404  593.4141
 405  486.8136
 406  587.1036
 407  557.376
 408  437.6947
 409  623.5404
 410  677.6473
 411  583.1415
 412  502.6773
 413  587.6718
 414  704.9648
 415  685.1162
 416  646.3817
 417  650.267
 418  668.3187
 419  506.5762
 420  382.4281
 421  376.9697
 422  463.9112
 423  537.0911
 424  569.6927
 425  661.6813
 426  687.8264
 427  662.7354
 428  665.7854
 429  586.5576
 430  520.8174
 431  554.022
 432  538.7318
 433  521.4473
 434  584.0438
 435  684.3557
 436  615.505
 437  454.6138
 438  470.1357
 439  490.9668
 440  463.7082
 441  506.6689
 442  501.0112
 443  494.0755
 444  557.4749
 445  504.6729
 446  543.6284
 447  526.1054
 448  487.9528
 449  542.4501
 450  487.3474
 451  412.892
 452  376.5367
 453  399.0988
 454  530.112
 455  497.9708
 456  449.7335
 457  457.153
 458  414.0406
 459  341.8616
 460  397.1557
 461  359.0983
 462  323.2835
 463  420.1508
 464  427.1053
 465  427.7891
 466  375.4242
 467  400.8135
 468  520.9136
 469  567.2391
 470  571.5571
 471  617.9853
 472  555.8699
 473  582.6912
 474  629.2112
 475  637.3752
 476  608.7648
 477  419.2203
 478  430.7494
 479  564.6774
 480  568.2039
 481  632.1995
 482  649.1536
 483  554.5082
 484  548.8842
 485  584.9675
 486  522.7051
 487  575.4064
 488  662.1631
 489  612.0082
 490  456.5127
 491  513.2913
 492  525.4322
 493  479.1164
 494  418.4178
 495  482.1984
 496  467.3456
 497  495.2528
 498  578.0081
 499  710.9091
 500  697.3127
 501  627.0524
 502  510.2332
 503  578.8
 504  572.4735
 505  517.2592
 506  504.3442
 507  486.567
 508  655.8436
 509  768.3257
 510  961.5131
 511  1112.154
