# Input file       =  1211786751.104601_cleaned.dat
# Candidate        =  PSR_0332+5434
# Telescope        =  AR
# Epoch_topo       =  58269.309410932881
# Epoch_bary       =  N/A
# T_sample         =  0.002
# Data Folded      =  7340032
# Data Avg         =  0.037955966147291
# Data StdDev      =  1.00008121974338 
# Profile Bins     =  512
# Profile Avg      =  544.086261868903 
# Profile StdDev   =  119.742761063255 
# Reduced chi-sqr  =  1.494
# Prob(Noise)      <  2.77e-12   (~6.9 sigma)
# P_topo (ms)      =  714.517613278149  +/- 0.000381
# P'_topo (s/s)    =  -0                +/- 2.01e-10
# P''_topo (s/s^2) =  0                 +/- 8.87e-14
# P_bary (ms)      =  N/A
# P'_bary (s/s)    =  N/A
# P''_bary (s/s^2) =  N/A
# P_orb (s)        =  N/A
# asin(i)/c (s)    =  N/A
# eccentricity     =  N/A
# w (rad)          =  N/A
# T_peri           =  N/A
######################################################
   0  1232.895
   1  1207.334
   2  1234.136
   3  971.5026
   4  741.1963
   5  650.1357
   6  645.1215
   7  695.7214
   8  638.3083
   9  694.4779
  10  724.2489
  11  619.9153
  12  661.4091
  13  594.7255
  14  724.1778
  15  656.8034
  16  600.7677
  17  672.0452
  18  599.9224
  19  478.1984
  20  597.0765
  21  620.2191
  22  621.673
  23  676.6113
  24  706.3577
  25  632.0926
  26  531.3979
  27  483.4653
  28  545.5109
  29  524.3691
  30  515.5983
  31  391.7581
  32  429.8096
  33  454.099
  34  419.2383
  35  437.7919
  36  457.2496
  37  404.125
  38  349.2567
  39  466.6458
  40  498.3057
  41  478.8277
  42  459.3734
  43  447.2108
  44  511.4539
  45  561.9359
  46  468.5351
  47  451.5249
  48  529.4887
  49  554.7967
  50  540.3064
  51  472.7173
  52  534.9
  53  531.3218
  54  450.0702
  55  546.8104
  56  532.6632
  57  474.6111
  58  384.4129
  59  398.1433
  60  495.8993
  61  571.9723
  62  532.6697
  63  537.8478
  64  507.3867
  65  529.4338
  66  533.1915
  67  393.8796
  68  429.0621
  69  407.2353
  70  372.028
  71  415.6503
  72  516.932
  73  513.7784
  74  541.762
  75  490.1848
  76  451.4329
  77  517.1934
  78  442.958
  79  480.4729
  80  508.6967
  81  447.7719
  82  563.5655
  83  545.9295
  84  492.2171
  85  525.903
  86  502.5846
  87  584.7828
  88  588.889
  89  449.5943
  90  347.788
  91  475.0877
  92  593.6862
  93  511.6542
  94  456.4182
  95  435.7011
  96  536.9708
  97  566.2294
  98  569.2646
  99  490.3289
 100  427.8993
 101  488.1941
 102  470.8339
 103  572.0649
 104  608.7942
 105  601.0358
 106  579.5848
 107  542.14
 108  613.9318
 109  610.1559
 110  633.1583
 111  531.0592
 112  538.5856
 113  575.5952
 114  523.1807
 115  436.1052
 116  476.3813
 117  568.953
 118  582.811
 119  608.7398
 120  548.222
 121  522.2272
 122  570.852
 123  663.695
 124  595.9748
 125  638.5963
 126  605.4161
 127  648.0649
 128  694.8255
 129  568.5478
 130  488.6862
 131  559.2719
 132  585.0338
 133  526.5139
 134  599.793
 135  548.0236
 136  537.4998
 137  560.1338
 138  536.1378
 139  602.5993
 140  601.4164
 141  571.627
 142  551.6622
 143  527.9836
 144  530.185
 145  577.5438
 146  565.0267
 147  535.7271
 148  532.8789
 149  645.9253
 150  554.3206
 151  482.8138
 152  427.1293
 153  435.9066
 154  445.1844
 155  434.1725
 156  479.9445
 157  432.5224
 158  480.8629
 159  515.6992
 160  480.1592
 161  519.7316
 162  414.0847
 163  454.8706
 164  405.6628
 165  530.9467
 166  440.7986
 167  371.393
 168  408.2662
 169  529.6594
 170  481.5798
 171  561.3735
 172  499.3633
 173  455.2554
 174  483.4502
 175  486.8038
 176  503.3441
 177  570.2745
 178  542.472
 179  491.0085
 180  432.0886
 181  538.9341
 182  489.8764
 183  417.3223
 184  440.1371
 185  500.2205
 186  557.2327
 187  433.6351
 188  377.8226
 189  407.3011
 190  457.0833
 191  573.1354
 192  567.8175
 193  492.6999
 194  546.2486
 195  480.8153
 196  408.8374
 197  451.8366
 198  485.4825
 199  505.0629
 200  537.2833
 201  555.4498
 202  669.6197
 203  679.9872
 204  561.8766
 205  407.6328
 206  532.1567
 207  423.5096
 208  411.0014
 209  468.1954
 210  560.7114
 211  586.4436
 212  559.1104
 213  387.1799
 214  429.3863
 215  492.8904
 216  480.0887
 217  400.1381
 218  423.7227
 219  524.4374
 220  535.4597
 221  630.7582
 222  607.5105
 223  537.4716
 224  534.3816
 225  515.5389
 226  369.5994
 227  442.4365
 228  591.0743
 229  491.3627
 230  456.6328
 231  492.7743
 232  582.7257
 233  683.5439
 234  460.9411
 235  407.6592
 236  448.3477
 237  468.7497
 238  463.9171
 239  565.5638
 240  543.6639
 241  550.4746
 242  494.9087
 243  439.4415
 244  454.1138
 245  439.6361
 246  519.6978
 247  572.7452
 248  428.5664
 249  466.2718
 250  519.345
 251  616.7933
 252  572.8861
 253  381.6207
 254  429.7815
 255  495.662
 256  587.3655
 257  611.4835
 258  565.3614
 259  625.7264
 260  565.5059
 261  503.0255
 262  578.8336
 263  469.7382
 264  548.3452
 265  637.6551
 266  488.6472
 267  555.4625
 268  522.882
 269  569.687
 270  457.9652
 271  478.183
 272  499.3553
 273  403.0096
 274  429.3949
 275  655.332
 276  515.7397
 277  440.5797
 278  372.9791
 279  355.9638
 280  416.1836
 281  525.3851
 282  576.0658
 283  553.8016
 284  480.8694
 285  449.8681
 286  487.4597
 287  614.3331
 288  653.803
 289  625.5468
 290  601.7365
 291  626.3516
 292  529.2197
 293  559.4751
 294  701.2411
 295  626.397
 296  596.7523
 297  572.2574
 298  534.1743
 299  468.181
 300  504.8651
 301  552.5283
 302  573.4564
 303  569.2256
 304  492.3629
 305  537.0245
 306  534.9289
 307  670.8058
 308  661.5575
 309  581.0427
 310  511.0606
 311  567.842
 312  553.6559
 313  438.4813
 314  542.2446
 315  666.7377
 316  592.4633
 317  501.7002
 318  391.9315
 319  507.8941
 320  504.7233
 321  598.9256
 322  651.9529
 323  501.0555
 324  560.236
 325  504.6132
 326  461.4313
 327  501.4006
 328  561.4407
 329  461.7625
 330  457.1435
 331  627.4105
 332  530.6072
 333  463.1097
 334  491.3008
 335  537.9689
 336  361.5952
 337  467.1222
 338  548.0754
 339  584.6971
 340  637.8381
 341  639.2455
 342  654.3682
 343  605.7676
 344  585.8799
 345  562.4002
 346  546.0427
 347  631.9138
 348  701.6838
 349  529.4166
 350  530.4286
 351  573.6697
 352  632.0502
 353  648.9006
 354  547.4954
 355  546.8895
 356  445.3206
 357  529.3455
 358  534.4146
 359  481.9278
 360  483.6926
 361  483.0629
 362  527.6663
 363  496.6072
 364  545.1779
 365  497.4622
 366  496.7982
 367  445.8993
 368  466.5643
 369  454.751
 370  508.2072
 371  581.9803
 372  507.3352
 373  461.1616
 374  426.0446
 375  460.6375
 376  489.812
 377  409.7876
 378  347.0949
 379  412.4685
 380  402.7532
 381  481.8585
 382  435.9594
 383  419.9628
 384  464.8905
 385  431.1289
 386  466.371
 387  529.8322
 388  522.683
 389  545.5358
 390  562.9832
 391  524.9565
 392  448.7614
 393  537.1978
 394  673.4307
 395  653.5606
 396  595.0613
 397  493.8155
 398  416.8968
 399  510.9509
 400  605.9029
 401  569.9293
 402  595.1141
 403  551.1849
 404  537.6516
 405  576.7496
 406  673.7935
 407  672.0088
 408  710.9166
 409  562.7519
 410  591.0991
 411  566.3652
 412  595.4056
 413  483.3828
 414  590.4411
 415  613.8278
 416  513.7248
 417  494.053
 418  542.2678
 419  584.1508
 420  567.1525
 421  506.148
 422  447.7219
 423  434.0136
 424  486.0547
 425  582.5114
 426  595.9673
 427  682.6501
 428  740.4032
 429  656.4953
 430  661.2385
 431  607.5449
 432  593.9863
 433  592.8757
 434  615.204
 435  628.6345
 436  519.595
 437  489.139
 438  462.4046
 439  592.9578
 440  583.2249
 441  591.6959
 442  610.3139
 443  575.6793
 444  669.7158
 445  602.6273
 446  548.2043
 447  540.1606
 448  579.8733
 449  589.4924
 450  552.2255
 451  526.3289
 452  568.2885
 453  564.5024
 454  499.6905
 455  497.8153
 456  475.5111
 457  506.4632
 458  496.8143
 459  550.0096
 460  516.0272
 461  553.5002
 462  537.894
 463  473.0374
 464  471.1636
 465  564.6285
 466  611.3771
 467  629.2172
 468  584.1136
 469  588.2385
 470  577.6829
 471  562.9208
 472  620.2385
 473  609.8818
 474  590.2423
 475  548.869
 476  480.5645
 477  489.9808
 478  506.5705
 479  565.7512
 480  618.7964
 481  657.0718
 482  585.4435
 483  553.1672
 484  586.7271
 485  600.1342
 486  685.575
 487  668.9067
 488  638.2074
 489  571.9655
 490  516.9348
 491  658.9785
 492  728.5397
 493  562.4814
 494  571.5679
 495  615.5518
 496  592.8711
 497  726.748
 498  816.3312
 499  651.394
 500  506.4538
 501  521.5012
 502  555.0562
 503  659.9548
 504  778.0093
 505  805.4099
 506  648.9822
 507  618.981
 508  840.3203
 509  919.7977
 510  996.837
 511  1234.361
