# Input file       =  1211427572.105833_cleaned.dat
# Candidate        =  PSR_0332+5434
# Telescope        =  AR
# Epoch_topo       =  58265.152246595288
# Epoch_bary       =  N/A
# T_sample         =  0.002
# Data Folded      =  7143424
# Data Avg         =  0.0359662818037342
# Data StdDev      =  1.00006443709752 
# Profile Bins     =  512
# Profile Avg      =  501.784387658537 
# Profile StdDev   =  118.126195700614 
# Reduced chi-sqr  =  1.453
# Prob(Noise)      <  8.47e-11   (~6.4 sigma)
# P_topo (ms)      =  714.521660628052  +/- 0.000258
# P'_topo (s/s)    =  -0                +/- 1.4e-10
# P''_topo (s/s^2) =  0                 +/- 6.35e-14
# P_bary (ms)      =  N/A
# P'_bary (s/s)    =  N/A
# P''_bary (s/s^2) =  N/A
# P_orb (s)        =  N/A
# asin(i)/c (s)    =  N/A
# eccentricity     =  N/A
# w (rad)          =  N/A
# T_peri           =  N/A
######################################################
   0  1192.562
   1  1178.336
   2  1078.084
   3  765.4178
   4  563.9475
   5  419.3058
   6  500.5372
   7  588.7974
   8  526.6356
   9  470.5303
  10  457.211
  11  442.076
  12  485.2322
  13  648.1005
  14  637.0556
  15  564.2581
  16  545.054
  17  594.9479
  18  658.8895
  19  591.0765
  20  368.5707
  21  419.5053
  22  594.144
  23  597.0214
  24  484.0554
  25  478.2903
  26  499.3015
  27  564.072
  28  530.3066
  29  515.1928
  30  415.1403
  31  454.8655
  32  527.6132
  33  449.4258
  34  464.8218
  35  406.407
  36  413.9219
  37  466.6907
  38  453.6955
  39  408.9334
  40  384.1241
  41  477.071
  42  606.8203
  43  520.0406
  44  412.7501
  45  521.2426
  46  466.7572
  47  495.649
  48  519.7845
  49  490.7164
  50  407.8495
  51  486.1088
  52  477.632
  53  514.6545
  54  395.0437
  55  439.2358
  56  429.7003
  57  356.796
  58  401.2957
  59  439.5951
  60  497.8983
  61  529.1737
  62  644.3263
  63  615.8627
  64  637.4711
  65  539.0815
  66  408.8284
  67  393.2267
  68  385.377
  69  405.6403
  70  386.0679
  71  391.5315
  72  350.4131
  73  392.5867
  74  399.3983
  75  264.7587
  76  499.813
  77  600.309
  78  503.7967
  79  343.736
  80  385.834
  81  437.4239
  82  488.1798
  83  493.7607
  84  505.4161
  85  475.643
  86  402.9647
  87  335.7047
  88  478.9669
  89  615.4167
  90  599.9678
  91  388.6007
  92  466.1012
  93  457.0266
  94  423.1783
  95  409.389
  96  372.892
  97  379.9208
  98  462.0227
  99  548.6341
 100  505.9417
 101  435.1467
 102  420.1393
 103  270.7067
 104  312.9934
 105  393.9315
 106  506.0551
 107  422.3809
 108  453.4776
 109  533.7084
 110  477.4634
 111  425.379
 112  480.5813
 113  416.6589
 114  393.4287
 115  505.1826
 116  446.2061
 117  483.9891
 118  493.4827
 119  496.3283
 120  538.6249
 121  526.552
 122  473.9509
 123  575.3993
 124  598.8011
 125  534.5314
 126  426.7749
 127  645.3726
 128  547.0199
 129  510.7026
 130  534.5937
 131  434.8454
 132  541.7673
 133  618.5904
 134  562.1426
 135  503.4546
 136  617.0993
 137  583.0646
 138  442.8022
 139  314.2595
 140  394.5908
 141  415.3723
 142  506.3911
 143  507.891
 144  386.4156
 145  383.0471
 146  432.007
 147  354.3786
 148  369.7924
 149  555.2632
 150  590.3229
 151  493.2563
 152  528.5033
 153  439.3441
 154  535.0451
 155  455.5932
 156  486.2027
 157  350.5632
 158  380.1881
 159  381.8225
 160  528.7369
 161  554.8442
 162  569.6534
 163  630.2026
 164  648.9575
 165  413.2695
 166  354.5518
 167  469.738
 168  467.9098
 169  481.1093
 170  541.8747
 171  614.0344
 172  502.6408
 173  458.4127
 174  394.5384
 175  357.8625
 176  363.6127
 177  473.4085
 178  442.6012
 179  437.7051
 180  454.6429
 181  458.601
 182  453.4498
 183  401.0775
 184  485.5148
 185  455.7388
 186  386.492
 187  465.9678
 188  515.9495
 189  489.8755
 190  569.4261
 191  551.3709
 192  462.8568
 193  392.3589
 194  328.8574
 195  445.4414
 196  424.285
 197  447.6838
 198  472.3735
 199  405.6491
 200  474.1274
 201  553.8377
 202  588.2497
 203  516.114
 204  530.8187
 205  480.6647
 206  423.5822
 207  461.9988
 208  627.4653
 209  588.3127
 210  462.5044
 211  525.9561
 212  552.0083
 213  445.0023
 214  446.0086
 215  341.8708
 216  431.9958
 217  459.0454
 218  555.0074
 219  484.8184
 220  577.2136
 221  493.5778
 222  501.8174
 223  386.4426
 224  374.2149
 225  419.6974
 226  544.4952
 227  614.847
 228  518.1487
 229  453.7366
 230  462.0305
 231  418.7044
 232  412.7932
 233  402.0532
 234  385.0364
 235  403.7906
 236  493.9592
 237  584.2076
 238  387.1512
 239  352.045
 240  278.9089
 241  300.7676
 242  369.6809
 243  505.4225
 244  538.5419
 245  396.0514
 246  442.6047
 247  513.1932
 248  455.8857
 249  380.0273
 250  392.0334
 251  429.6993
 252  341.3198
 253  358.0381
 254  421.0454
 255  555.1007
 256  496.5952
 257  467.5173
 258  483.1744
 259  397.3471
 260  503.7444
 261  406.8694
 262  377.0356
 263  383.078
 264  480.3919
 265  385.278
 266  421.3884
 267  454.4598
 268  486.0075
 269  464.2934
 270  432.8445
 271  480.3465
 272  363.712
 273  471.4658
 274  395.2834
 275  468.1981
 276  541.5244
 277  452.4378
 278  526.645
 279  607.2814
 280  518.0081
 281  568.5887
 282  522.6126
 283  543.8846
 284  534.3065
 285  497.4552
 286  528.5223
 287  535.623
 288  489.9962
 289  592.8641
 290  527.3386
 291  449.6022
 292  564.1449
 293  489.16
 294  492.1804
 295  498.2515
 296  601.2068
 297  522.1585
 298  338.9259
 299  414.1425
 300  562.2654
 301  556.2671
 302  533.0641
 303  498.5671
 304  601.3155
 305  631.3198
 306  473.9768
 307  453.5617
 308  483.7528
 309  483.1443
 310  631.6972
 311  671.9354
 312  681.6829
 313  563.5354
 314  514.5312
 315  577.6677
 316  554.4758
 317  521.4978
 318  603.0563
 319  601.8062
 320  624.7792
 321  609.4601
 322  550.7737
 323  548.5406
 324  486.5887
 325  499.4447
 326  534.3021
 327  552.6477
 328  675.4766
 329  615.2025
 330  525.9902
 331  515.8414
 332  540.3401
 333  537.1473
 334  518.0865
 335  524.2373
 336  620.2808
 337  613.8188
 338  645.2943
 339  632.6567
 340  578.1987
 341  559.9769
 342  491.3443
 343  571.5711
 344  536.9254
 345  482.7453
 346  589.929
 347  655.1114
 348  654.6664
 349  525.8729
 350  541.6037
 351  598.6542
 352  618.975
 353  491.0833
 354  449.3676
 355  353.8736
 356  504.6351
 357  583.1642
 358  512.1149
 359  567.277
 360  704.8799
 361  692.1864
 362  539.5216
 363  404.7658
 364  494.0648
 365  435.1557
 366  458.4068
 367  561.6466
 368  642.6288
 369  620.5333
 370  576.5869
 371  700.8518
 372  620.537
 373  623.8587
 374  570.3237
 375  447.8704
 376  436.6328
 377  475.243
 378  637.8331
 379  543.7458
 380  474.1848
 381  518.0492
 382  594.1977
 383  571.0679
 384  551.6927
 385  482.1216
 386  534.226
 387  563.7682
 388  462.0947
 389  424.564
 390  446.5748
 391  542.6249
 392  626.1639
 393  611.5721
 394  651.4819
 395  555.6929
 396  508.7685
 397  406.8055
 398  405.4503
 399  634.6425
 400  659.5573
 401  649.1324
 402  599.9775
 403  453.7289
 404  367.5166
 405  431.3662
 406  464.0234
 407  528.1328
 408  496.341
 409  464.5587
 410  444.0641
 411  519.6441
 412  547.4065
 413  501.7722
 414  502.8938
 415  590.0005
 416  476.5827
 417  455.2963
 418  446.5994
 419  617.5414
 420  577.6281
 421  523.5859
 422  474.5443
 423  564.9909
 424  537.7172
 425  490.0083
 426  511.0675
 427  483.6587
 428  356.9449
 429  417.7142
 430  503.4893
 431  503.7689
 432  365.5448
 433  528.3077
 434  492.1366
 435  365.322
 436  510.4097
 437  451.2011
 438  436.6405
 439  482.8965
 440  447.5192
 441  408.1277
 442  361.6283
 443  411.5073
 444  493.7362
 445  475.3032
 446  451.2607
 447  506.9835
 448  427.4288
 449  509.0108
 450  676.7033
 451  564.3602
 452  596.152
 453  570.2314
 454  547.558
 455  610.9407
 456  563.274
 457  420.3939
 458  386.8669
 459  417.8651
 460  467.0201
 461  513.5473
 462  414.0358
 463  337.7551
 464  487.555
 465  514.3062
 466  517.5812
 467  500.2021
 468  543.8657
 469  474.8914
 470  454.2064
 471  487.7673
 472  428.821
 473  446.6108
 474  476.4353
 475  452.7218
 476  538.1749
 477  460.8779
 478  408.7151
 479  531.0285
 480  651.8616
 481  482.8413
 482  467.1902
 483  458.1292
 484  403.2576
 485  481.9559
 486  480.2617
 487  523.3249
 488  542.9983
 489  469.4046
 490  603.3715
 491  631.6078
 492  606.8863
 493  602.8831
 494  544.8338
 495  578.555
 496  418.4191
 497  415.3051
 498  491.9784
 499  537.0654
 500  490.9456
 501  482.2914
 502  485.2869
 503  578.0108
 504  647.6804
 505  622.5074
 506  599.444
 507  699.9825
 508  692.5402
 509  778.7041
 510  943.3466
 511  1122.315
