# Input file       =  1211098148.107654_cleaned.dat
# Candidate        =  PSR_0332+5434
# Telescope        =  AR
# Epoch_topo       =  58261.339468838589
# Epoch_bary       =  N/A
# T_sample         =  0.002
# Data Folded      =  7340032
# Data Avg         =  0.0670498158374428
# Data StdDev      =  0.999886839218129
# Profile Bins     =  512
# Profile Avg      =  961.20156587952  
# Profile StdDev   =  119.719487292754 
# Reduced chi-sqr  =  0.866
# Prob(Noise)      <  0.987   (~0.0 sigma)
# P_topo (ms)      =  714.525420360008  +/- 0.000536
# P'_topo (s/s)    =  -0                +/- 2.83e-10
# P''_topo (s/s^2) =  0                 +/- 1.25e-13
# P_bary (ms)      =  N/A
# P'_bary (s/s)    =  N/A
# P''_bary (s/s^2) =  N/A
# P_orb (s)        =  N/A
# asin(i)/c (s)    =  N/A
# eccentricity     =  N/A
# w (rad)          =  N/A
# T_peri           =  N/A
######################################################
   0  1408.144
   1  1433.295
   2  1366.917
   3  1175.054
   4  961.0172
   5  955.351
   6  918.7438
   7  834.3202
   8  894.4443
   9  921.0856
  10  984.9385
  11  989.5589
  12  898.0327
  13  921.8307
  14  1004.408
  15  1027.667
  16  1009.688
  17  983.3729
  18  886.9938
  19  730.1544
  20  831.8719
  21  904.1973
  22  977.4103
  23  1094.237
  24  934.2391
  25  1013.392
  26  993.9064
  27  914.8635
  28  933.0153
  29  997.563
  30  1016.283
  31  1046.654
  32  1056.301
  33  1038.492
  34  984.5934
  35  883.3775
  36  935.3816
  37  1042.989
  38  1059.113
  39  989.8591
  40  908.5231
  41  919.1514
  42  936.3149
  43  930.0485
  44  959.9241
  45  1041.395
  46  1005.003
  47  890.1132
  48  847.2327
  49  890.2054
  50  874.6635
  51  893.9836
  52  956.0983
  53  1025.617
  54  1042.825
  55  1011.26
  56  909.3776
  57  912.003
  58  979.0666
  59  938.051
  60  907.4515
  61  763.5806
  62  839.8258
  63  833.844
  64  959.0765
  65  961.9058
  66  957.2718
  67  981.8478
  68  953.1311
  69  861.4868
  70  913.2917
  71  965.3221
  72  980.7349
  73  917.5006
  74  840.1301
  75  888.9055
  76  994.9312
  77  956.262
  78  983.3199
  79  1028.815
  80  963.9437
  81  926.6658
  82  1028.715
  83  1022.6
  84  904.9585
  85  905.426
  86  1018.286
  87  1146.711
  88  1000.504
  89  948.1444
  90  941.1456
  91  988.8669
  92  978.1161
  93  1003.786
  94  929.7568
  95  883.9847
  96  959.9975
  97  1024.535
  98  1005.629
  99  951.2037
 100  971.2881
 101  954.1003
 102  944.9032
 103  1026.076
 104  1027.081
 105  1033.854
 106  1044.878
 107  1119.266
 108  1079.283
 109  1011.399
 110  995.746
 111  1003.401
 112  964.2045
 113  924.0199
 114  919.6053
 115  915.9319
 116  1028.654
 117  1069.113
 118  964.4449
 119  897.9286
 120  799.8414
 121  757.8502
 122  890.603
 123  919.6256
 124  895.9747
 125  1053.74
 126  1011.412
 127  990.6874
 128  994.7249
 129  1010.136
 130  973.6411
 131  1005.409
 132  1063.774
 133  1029.602
 134  869.2819
 135  935.3978
 136  963.2467
 137  923.3837
 138  945.8364
 139  923.7193
 140  919.5962
 141  858.5176
 142  852.9511
 143  942.0662
 144  991.3759
 145  973.5233
 146  944.704
 147  926.9389
 148  930.1604
 149  946.6699
 150  932.5732
 151  955.5351
 152  899.5815
 153  875.2459
 154  931.6964
 155  962.7716
 156  918.2979
 157  905.8648
 158  862.8955
 159  920.9882
 160  994.621
 161  1057.194
 162  938.9818
 163  939.063
 164  933.6084
 165  977.0661
 166  989.7155
 167  997.9639
 168  980.1519
 169  907.7352
 170  973.3922
 171  977.795
 172  974.8677
 173  949.5098
 174  956.7485
 175  879.8495
 176  981.3862
 177  1064.61
 178  988.6674
 179  944.7997
 180  849.0128
 181  905.1627
 182  1081.538
 183  1050.138
 184  1049.536
 185  1066.844
 186  991.3253
 187  969.5884
 188  1010.12
 189  1062.09
 190  1053.989
 191  1021.407
 192  942.5089
 193  878.8385
 194  902.5173
 195  1003.453
 196  1057.316
 197  1070.406
 198  1103.989
 199  1030.865
 200  972.196
 201  1049.646
 202  1036.975
 203  1024.164
 204  1042.744
 205  1060.841
 206  1041.493
 207  1064.135
 208  981.5859
 209  1026.099
 210  993.5724
 211  958.0655
 212  1026.01
 213  1079.517
 214  1142.846
 215  1010.201
 216  1035.605
 217  1080.284
 218  1015.58
 219  1064.798
 220  1071.528
 221  1006.788
 222  937.973
 223  916.6934
 224  898.0552
 225  992.6383
 226  1008.228
 227  967.6155
 228  967.1423
 229  1032.268
 230  984.2452
 231  911.3881
 232  983.8912
 233  954.9687
 234  890.3265
 235  941.7293
 236  939.5098
 237  979.9796
 238  987.1428
 239  956.4719
 240  981.9998
 241  918.6642
 242  937.1663
 243  988.2781
 244  1032.56
 245  1064.817
 246  1013.609
 247  973.5737
 248  962.9902
 249  862.8556
 250  895.3185
 251  989.5956
 252  948.7039
 253  898.5975
 254  1004.551
 255  1042.326
 256  1020.005
 257  1078.844
 258  940.5622
 259  929.0084
 260  934.8919
 261  1003.566
 262  1017.783
 263  970.1683
 264  957.8974
 265  964.5095
 266  959.7004
 267  976.4777
 268  1068.642
 269  978.0601
 270  1054.887
 271  1016.881
 272  952.1755
 273  980.8067
 274  888.8824
 275  975.2805
 276  1063.135
 277  1047.848
 278  1036.619
 279  1005.569
 280  1012.078
 281  1032.707
 282  972.7199
 283  1001.432
 284  905.1024
 285  924.974
 286  1050.59
 287  1021.867
 288  996.4932
 289  902.5557
 290  775.1785
 291  805.5784
 292  874.9608
 293  934.4865
 294  927.6946
 295  911.8558
 296  920.4213
 297  904.3898
 298  900.859
 299  915.6017
 300  987.4846
 301  961.0474
 302  899.4474
 303  928.7285
 304  979.8321
 305  977.3876
 306  1025.005
 307  1038.125
 308  1036.616
 309  1036.151
 310  992.2981
 311  954.1541
 312  923.8524
 313  964.9131
 314  1027.254
 315  991.581
 316  990.6086
 317  1021.373
 318  937.02
 319  919.5543
 320  921.7723
 321  932.1599
 322  1063.651
 323  1012.056
 324  940.7225
 325  957.7039
 326  967.3166
 327  1061.753
 328  979.657
 329  969.146
 330  920.2022
 331  963.0427
 332  980.8942
 333  1011.955
 334  1057.967
 335  1020.875
 336  952.6015
 337  902.8557
 338  956.0876
 339  913.0994
 340  986.7731
 341  997.2976
 342  928.5637
 343  901.4028
 344  887.8731
 345  960.4259
 346  987.1116
 347  882.5814
 348  789.6031
 349  858.0313
 350  897.4683
 351  877.982
 352  859.3445
 353  878.173
 354  926.732
 355  888.5438
 356  918.4906
 357  933.704
 358  852.6617
 359  873.0856
 360  907.5975
 361  922.5732
 362  935.3878
 363  954.0276
 364  952.6747
 365  909.8576
 366  807.2168
 367  861.0478
 368  925.1273
 369  906.9025
 370  847.8034
 371  845.1377
 372  879.8083
 373  881.0783
 374  870.2273
 375  867.1869
 376  1016.666
 377  938.0659
 378  936.23
 379  853.9604
 380  933.4877
 381  946.9734
 382  1010.224
 383  974.9754
 384  905.1363
 385  943.0137
 386  968.3332
 387  984.6461
 388  934.6788
 389  893.0146
 390  902.1116
 391  1025.046
 392  1013.886
 393  927.3307
 394  850.9316
 395  843.606
 396  713.5477
 397  812.5964
 398  1027.765
 399  945.926
 400  986.317
 401  1032.072
 402  995.6164
 403  1023.568
 404  925.7781
 405  878.7856
 406  893.6129
 407  981.775
 408  1086.491
 409  975.1586
 410  964.2327
 411  1068.751
 412  956.4036
 413  996.0554
 414  937.658
 415  899.0496
 416  996.2181
 417  959.2026
 418  1018.566
 419  915.0396
 420  910.8948
 421  980.2969
 422  989.8046
 423  878.6493
 424  891.7863
 425  1018.908
 426  1052.047
 427  926.213
 428  972.0374
 429  1101.467
 430  1008.211
 431  897.5478
 432  989.9288
 433  1063.892
 434  891.751
 435  905.3502
 436  930.8757
 437  986.2305
 438  946.4437
 439  913.936
 440  893.3832
 441  877.5925
 442  850.3039
 443  754.1049
 444  885.7699
 445  859.0411
 446  837.269
 447  855.8896
 448  947.3751
 449  928.0212
 450  836.3798
 451  899.8201
 452  936.8852
 453  940.5953
 454  1073.135
 455  1047.496
 456  857.1647
 457  818.6779
 458  887.7917
 459  884.1504
 460  869.241
 461  858.231
 462  906.2815
 463  830.2551
 464  854.2883
 465  777.7828
 466  782.2894
 467  861.0851
 468  856.528
 469  866.2223
 470  959.5198
 471  985.1867
 472  910.918
 473  922.5577
 474  902.9425
 475  858.6885
 476  881.3344
 477  910.833
 478  925.289
 479  965.0633
 480  998.0677
 481  1031.315
 482  929.8724
 483  960.6741
 484  929.8362
 485  929.223
 486  917.8627
 487  923.2794
 488  997.2547
 489  1004.857
 490  972.9537
 491  1007.813
 492  1002.34
 493  1001.694
 494  989.4586
 495  1023.262
 496  935.9058
 497  941.3714
 498  965.9766
 499  952.9547
 500  904.0704
 501  987.7701
 502  1036.819
 503  1028.212
 504  996.8199
 505  979.8216
 506  978.8474
 507  1012.062
 508  1096.868
 509  1282.909
 510  1359.262
 511  1291.25
