# Input file       =  1211356001.104333_cleaned.dat
# Candidate        =  PSR_0332+5434
# Telescope        =  AR
# Epoch_topo       =  58264.323878522373
# Epoch_bary       =  N/A
# T_sample         =  0.002
# Data Folded      =  7340032
# Data Avg         =  0.0356157402992013
# Data StdDev      =  1.00029022647782 
# Profile Bins     =  512
# Profile Avg      =  510.703091934441 
# Profile StdDev   =  119.767786074192 
# Reduced chi-sqr  =  1.466
# Prob(Noise)      <  2.83e-11   (~6.6 sigma)
# P_topo (ms)      =  714.522484465585  +/- 0.000342
# P'_topo (s/s)    =  -0                +/- 1.8e-10
# P''_topo (s/s^2) =  0                 +/- 7.97e-14
# P_bary (ms)      =  N/A
# P'_bary (s/s)    =  N/A
# P''_bary (s/s^2) =  N/A
# P_orb (s)        =  N/A
# asin(i)/c (s)    =  N/A
# eccentricity     =  N/A
# w (rad)          =  N/A
# T_peri           =  N/A
######################################################
   0  957.1309
   1  931.0204
   2  779.1658
   3  694.0923
   4  597.112
   5  436.6482
   6  366.7126
   7  423.2597
   8  515.7784
   9  502.4668
  10  463.4361
  11  350.073
  12  461.7945
  13  517.2556
  14  443.1533
  15  424.3367
  16  387.7399
  17  415.1371
  18  409.7738
  19  439.5766
  20  468.8086
  21  425.2195
  22  423.0844
  23  484.3389
  24  443.33
  25  381.2087
  26  349.1382
  27  380.963
  28  398.2288
  29  443.9954
  30  373.7672
  31  371.4711
  32  508.8743
  33  644.8308
  34  634.3177
  35  658.0717
  36  657.2668
  37  631.8149
  38  566.4126
  39  637.776
  40  614.2722
  41  558.0487
  42  491.6253
  43  606.2109
  44  630.1442
  45  608.097
  46  596.1362
  47  536.2019
  48  601.1213
  49  519.7468
  50  477.8156
  51  470.1554
  52  460.7257
  53  451.4665
  54  558.06
  55  444.5593
  56  364.0182
  57  448.2663
  58  466.1496
  59  399.9427
  60  389.5218
  61  405.9952
  62  400.5374
  63  492.1413
  64  543.8926
  65  641.0617
  66  464.7456
  67  497.2141
  68  513.9819
  69  512.0641
  70  448.2694
  71  372.945
  72  423.3655
  73  481.612
  74  480.5433
  75  388.5298
  76  389.6692
  77  378.62
  78  506.2577
  79  478.5348
  80  463.7932
  81  486.0494
  82  526.5778
  83  502.7863
  84  417.4675
  85  330.2227
  86  402.8333
  87  424.7371
  88  486.7093
  89  454.511
  90  376.2102
  91  325.6506
  92  356.4308
  93  433.1118
  94  479.2589
  95  394.3679
  96  402.7417
  97  432.4166
  98  301.4
  99  251.3183
 100  337.3049
 101  266.1412
 102  215.2119
 103  267.1764
 104  321.6937
 105  365.2001
 106  309.4724
 107  296.6548
 108  289.7431
 109  364.3429
 110  407.6144
 111  378.9098
 112  423.6253
 113  409.2723
 114  435.899
 115  506.9939
 116  452.9142
 117  542.1347
 118  463.1522
 119  418.1859
 120  465.4833
 121  475.4307
 122  415.8573
 123  470.1316
 124  482.9487
 125  448.1108
 126  476.7427
 127  389.2483
 128  392.8208
 129  451.7144
 130  426.4559
 131  470.3225
 132  472.0804
 133  498.2302
 134  604.5858
 135  496.6617
 136  461.5753
 137  563.7213
 138  620.8159
 139  605.7137
 140  532.9813
 141  505.2715
 142  384.5466
 143  440.0468
 144  431.5604
 145  478.8062
 146  399.0297
 147  363.2838
 148  406.8799
 149  485.8258
 150  417.2759
 151  476.2666
 152  467.5909
 153  390.6846
 154  360.3609
 155  311.5185
 156  490.8012
 157  442.7104
 158  299.3512
 159  343.2943
 160  344.8888
 161  397.2686
 162  441.6252
 163  499.3725
 164  491.8284
 165  438.0477
 166  428.3699
 167  365.1749
 168  357.6111
 169  480.0699
 170  422.3939
 171  326.8643
 172  347.2567
 173  294.1864
 174  349.7293
 175  432.2163
 176  397.0593
 177  391.434
 178  319.1978
 179  336.9229
 180  314.8584
 181  360.832
 182  485.3604
 183  386.288
 184  261.772
 185  269.9059
 186  322.5736
 187  359.2155
 188  310.8142
 189  269.4473
 190  319.0766
 191  360.6244
 192  204.0419
 193  245.6981
 194  392.4578
 195  446.5836
 196  376.0041
 197  344.4416
 198  373.1157
 199  421.6823
 200  420.606
 201  429.7025
 202  425.2871
 203  455.4281
 204  458.3888
 205  522.131
 206  595.0087
 207  537.7355
 208  565.955
 209  596.043
 210  544.6235
 211  540.2703
 212  493.4415
 213  541.7167
 214  523.2005
 215  492.6711
 216  568.3605
 217  596.1339
 218  551.8372
 219  562.0538
 220  683.4056
 221  527.4022
 222  542.017
 223  504.4528
 224  541.9824
 225  579.7528
 226  535.362
 227  529.4316
 228  488.2109
 229  506.2284
 230  496.4466
 231  540.6364
 232  547.4885
 233  490.5433
 234  497.2438
 235  599.1696
 236  549.9438
 237  497.619
 238  506.8771
 239  521.7365
 240  566.493
 241  598.6578
 242  487.7209
 243  525.9936
 244  593.553
 245  612.701
 246  614.8624
 247  606.2353
 248  701.3909
 249  639.0056
 250  668.8277
 251  678.1835
 252  682.5285
 253  605.677
 254  582.2352
 255  610.7481
 256  654.0209
 257  585.0813
 258  519.9483
 259  661.5408
 260  662.9724
 261  580.0476
 262  491.9777
 263  480.9671
 264  512.5331
 265  471.4897
 266  595.7435
 267  598.8497
 268  622.626
 269  661.1359
 270  425.727
 271  420.714
 272  472.68
 273  511.9129
 274  554.8051
 275  538.6441
 276  559.9901
 277  467.1542
 278  445.2622
 279  494.6383
 280  511.0058
 281  558.6956
 282  577.1271
 283  613.4323
 284  594.7434
 285  580.5988
 286  575.747
 287  604.6378
 288  612.9752
 289  732.1152
 290  710.5621
 291  678.7028
 292  672.2491
 293  635.0743
 294  648.534
 295  573.1717
 296  638.3565
 297  593.8616
 298  559.0189
 299  540.7917
 300  598.6557
 301  681.7827
 302  596.4653
 303  682.1703
 304  528.4746
 305  402.0183
 306  495.1265
 307  602.826
 308  593.9601
 309  466.1536
 310  449.4416
 311  490.4146
 312  570.8901
 313  575.4047
 314  578.9505
 315  544.2896
 316  498.1415
 317  579.3095
 318  514.2338
 319  552.7268
 320  561.5549
 321  544.1634
 322  503.6937
 323  579.1351
 324  553.4655
 325  497.908
 326  647.577
 327  622.184
 328  543.019
 329  634.1057
 330  683.7475
 331  627.3815
 332  556.6048
 333  630.9935
 334  686.6526
 335  640.3247
 336  524.4242
 337  523.4996
 338  506.3412
 339  461.3346
 340  461.7152
 341  497.182
 342  547.6584
 343  534.5316
 344  531.1375
 345  587.0755
 346  576.3411
 347  602.0336
 348  547.1437
 349  620.5458
 350  535.0295
 351  529.4423
 352  552.33
 353  568.863
 354  597.011
 355  633.3022
 356  661.0798
 357  598.5347
 358  541.9161
 359  625.1274
 360  665.8979
 361  647.4601
 362  651.4792
 363  624.9311
 364  609.0573
 365  623.344
 366  684.8201
 367  664.7805
 368  630.0505
 369  617.0141
 370  546.4786
 371  574.2651
 372  592.1758
 373  518.5446
 374  540.1516
 375  642.8046
 376  637.6997
 377  700.068
 378  593.4396
 379  647.1998
 380  745.0927
 381  798.3875
 382  672.8138
 383  616.1703
 384  622.8012
 385  679.395
 386  634.9879
 387  584.35
 388  548.1183
 389  640.3798
 390  539.4152
 391  559.8776
 392  547.92
 393  549.707
 394  479.4028
 395  495.6582
 396  480.4258
 397  479.0586
 398  590.4562
 399  560.4947
 400  438.1368
 401  403.9539
 402  504.9458
 403  564.9599
 404  471.3379
 405  501.3755
 406  474.2688
 407  507.4157
 408  383.4718
 409  433.2381
 410  496.5774
 411  501.8057
 412  458.289
 413  512.9944
 414  512.8856
 415  454.0553
 416  484.1259
 417  506.3993
 418  416.7228
 419  619.0707
 420  538.5361
 421  498.8087
 422  500.1309
 423  559.7756
 424  557.805
 425  518.4217
 426  554.063
 427  473.4653
 428  459.0125
 429  492.1119
 430  549.2405
 431  579.0466
 432  542.1629
 433  459.8232
 434  467.1399
 435  498.3633
 436  539.0383
 437  530.7299
 438  470.2573
 439  502.0319
 440  473.8932
 441  406.7224
 442  466.1093
 443  375.5313
 444  450.1517
 445  380.4173
 446  461.018
 447  482.584
 448  295.6116
 449  412.3476
 450  481.3656
 451  549.994
 452  511.3061
 453  452.3518
 454  469.9471
 455  511.0411
 456  488.6614
 457  517.7445
 458  519.4091
 459  446.3383
 460  526.0804
 461  580.765
 462  691.9952
 463  686.2582
 464  658.4503
 465  627.6572
 466  588.9366
 467  613.4836
 468  621.5434
 469  600.3317
 470  646.7201
 471  614.8858
 472  575.6293
 473  510.4054
 474  415.9615
 475  546.2126
 476  580.5012
 477  523.4229
 478  504.9786
 479  544.9612
 480  464.1851
 481  520.228
 482  555.9115
 483  565.4557
 484  552.8012
 485  576.2386
 486  525.3212
 487  512.823
 488  494.2812
 489  585.9576
 490  582.6325
 491  508.7376
 492  618.9036
 493  550.5748
 494  535.4187
 495  529.7485
 496  576.6155
 497  526.972
 498  559.5422
 499  611.5403
 500  498.7108
 501  488.2377
 502  648.1586
 503  539.9478
 504  458.3657
 505  529.248
 506  577.7509
 507  558.0872
 508  517.863
 509  703.6045
 510  756.4749
 511  870.4465
