# Input file       =  1211599777.101234_cleaned.dat
# Candidate        =  PSR_0332+5434
# Telescope        =  AR
# Epoch_topo       =  58267.145359967988
# Epoch_bary       =  N/A
# T_sample         =  0.002
# Data Folded      =  7208960
# Data Avg         =  0.0471396376719111
# Data StdDev      =  1.00004250539094 
# Profile Bins     =  512
# Profile Avg      =  663.722678093789 
# Profile StdDev   =  118.664219448186 
# Reduced chi-sqr  =  1.436
# Prob(Noise)      <  3.18e-10   (~6.2 sigma)
# P_topo (ms)      =  714.51971376252   +/- 7.42e-05
# P'_topo (s/s)    =  -0                +/- 3.98e-11
# P''_topo (s/s^2) =  0                 +/- 1.79e-14
# P_bary (ms)      =  N/A
# P'_bary (s/s)    =  N/A
# P''_bary (s/s^2) =  N/A
# P_orb (s)        =  N/A
# asin(i)/c (s)    =  N/A
# eccentricity     =  N/A
# w (rad)          =  N/A
# T_peri           =  N/A
######################################################
   0  1348.581
   1  1187.085
   2  1019.573
   3  786.5445
   4  878.2494
   5  725.7028
   6  612.2303
   7  677.5528
   8  661.2583
   9  669.0596
  10  628.3557
  11  684.7188
  12  675.7443
  13  628.5627
  14  813.3461
  15  801.2787
  16  769.0511
  17  733.8203
  18  677.2156
  19  625.6929
  20  686.1188
  21  737.1392
  22  677.4723
  23  791.7106
  24  775.9263
  25  686.2571
  26  671.1237
  27  632.8125
  28  768.5352
  29  692.4175
  30  625.8715
  31  725.5062
  32  674.4877
  33  552.7269
  34  400.2751
  35  489.4551
  36  645.2222
  37  726.8307
  38  597.7388
  39  548.3622
  40  638.1548
  41  626.6828
  42  703.2678
  43  540.9157
  44  520.1721
  45  587.3571
  46  571.2806
  47  620.9036
  48  681.3494
  49  694.522
  50  611.7891
  51  629.1802
  52  647.121
  53  591.0314
  54  420.354
  55  494.8055
  56  513.6506
  57  551.4445
  58  661.5109
  59  504.6995
  60  540.2519
  61  508.7493
  62  435.615
  63  494.3512
  64  542.2228
  65  642.1901
  66  697.52
  67  542.3398
  68  466.8825
  69  496.9794
  70  587.5143
  71  499.8539
  72  427.2929
  73  649.4124
  74  706.3475
  75  648.0222
  76  588.1812
  77  609.0315
  78  459.0947
  79  473.2964
  80  624.7861
  81  731.3897
  82  712.2098
  83  615.0878
  84  647.9587
  85  619.0012
  86  681.1517
  87  640.3184
  88  708.5627
  89  595.4337
  90  683.9504
  91  579.539
  92  513.6052
  93  577.1012
  94  551.4009
  95  505.6423
  96  498.619
  97  499.3843
  98  612.1174
  99  617.2751
 100  569.6651
 101  592.3997
 102  623.8981
 103  502.3856
 104  486.0018
 105  562.954
 106  636.5033
 107  657.1705
 108  666.7239
 109  606.4717
 110  540.7895
 111  479.0142
 112  494.4513
 113  602.2635
 114  679.6757
 115  735.7233
 116  626.8124
 117  612.4786
 118  540.2289
 119  543.2962
 120  482.9058
 121  596.3846
 122  745.8597
 123  818.3329
 124  785.6157
 125  660.9819
 126  630.3718
 127  550.7369
 128  511.3306
 129  592.3769
 130  584.8051
 131  698.6452
 132  627.9764
 133  610.3104
 134  626.1192
 135  684.1834
 136  587.3826
 137  659.4805
 138  652.953
 139  613.4117
 140  686.2861
 141  698.3303
 142  615.6844
 143  556.6469
 144  590.9241
 145  489.937
 146  546.1533
 147  676.1689
 148  702.2675
 149  772.2886
 150  755.6063
 151  770.7086
 152  680.4656
 153  518.3665
 154  598.6697
 155  839.8036
 156  933.0032
 157  753.9806
 158  607.5562
 159  715.8138
 160  727.5227
 161  596.0577
 162  643.4223
 163  688.0414
 164  731.6425
 165  771.8112
 166  796.3605
 167  856.5687
 168  653.3356
 169  616.2917
 170  634.6989
 171  702.9055
 172  784.5618
 173  734.3751
 174  719.231
 175  760.5809
 176  734.3374
 177  703.3444
 178  721.5832
 179  700.96
 180  709.637
 181  823.1348
 182  870.0336
 183  812.4435
 184  820.4836
 185  812.3126
 186  762.0099
 187  619.533
 188  573.8117
 189  755.1278
 190  620.9269
 191  589.3015
 192  608.3458
 193  707.0073
 194  685.4928
 195  621.2563
 196  726.9486
 197  733.2918
 198  704.3687
 199  750.2151
 200  688.626
 201  644.1626
 202  699.3884
 203  595.6224
 204  543.5373
 205  572.4992
 206  582.6694
 207  552.9297
 208  530.0645
 209  701.6567
 210  646.9832
 211  522.1434
 212  506.0018
 213  609.1035
 214  678.5889
 215  830.5817
 216  821.6155
 217  724.4139
 218  592.2535
 219  605.2064
 220  627.8015
 221  550.896
 222  783.5897
 223  754.332
 224  782.2869
 225  673.9142
 226  585.0159
 227  578.9071
 228  602.6234
 229  618.9501
 230  633.1289
 231  723.9444
 232  798.6694
 233  813.1293
 234  669.0366
 235  662.1591
 236  662.0038
 237  659.429
 238  644.7175
 239  655.5291
 240  817.6309
 241  738.2945
 242  591.3463
 243  661.2692
 244  649.129
 245  646.5907
 246  688.701
 247  810.5013
 248  707.6458
 249  694.6163
 250  649.8638
 251  704.2379
 252  712.2466
 253  696.9753
 254  664.9401
 255  655.45
 256  708.3696
 257  711.2966
 258  666.5173
 259  798.3251
 260  843.098
 261  728.1679
 262  685.2769
 263  758.7385
 264  734.4064
 265  701.7581
 266  733.4281
 267  681.1031
 268  722.6234
 269  816.5502
 270  841.9592
 271  753.731
 272  775.8279
 273  696.8884
 274  676.2551
 275  692.3569
 276  737.7781
 277  607.5858
 278  629.7945
 279  688.235
 280  700.9826
 281  721.1217
 282  658.0665
 283  707.3177
 284  703.8327
 285  708.1802
 286  780.3287
 287  773.4894
 288  702.5642
 289  718.3074
 290  752.468
 291  699.9691
 292  686.8788
 293  651.7838
 294  654.5984
 295  677.4177
 296  792.0256
 297  738.5336
 298  607.5961
 299  656.9184
 300  668.757
 301  632.8195
 302  583.5835
 303  644.9811
 304  797.3854
 305  808.3533
 306  759.0909
 307  866.8251
 308  689.3923
 309  587.7241
 310  598.2186
 311  545.148
 312  687.4561
 313  640.457
 314  710.3527
 315  721.139
 316  606.0565
 317  653.0336
 318  599.7864
 319  626.8224
 320  656.5891
 321  618.4042
 322  821.0399
 323  691.6257
 324  610.8613
 325  674.971
 326  668.0624
 327  603.2321
 328  638.2985
 329  758.4427
 330  730.1096
 331  666.0511
 332  721.4535
 333  820.6591
 334  820.0532
 335  665.8209
 336  700.2019
 337  704.4006
 338  745.8302
 339  721.0739
 340  624.8939
 341  543.159
 342  600.0362
 343  639.6578
 344  565.3683
 345  669.7763
 346  741.7633
 347  748.8847
 348  678.0828
 349  644.178
 350  560.4324
 351  590.6627
 352  567.4174
 353  547.1238
 354  602.3481
 355  732.8312
 356  725.9597
 357  632.076
 358  585.0437
 359  582.4999
 360  677.1002
 361  830.1492
 362  816.4667
 363  742.4156
 364  618.0564
 365  674.5093
 366  785.6613
 367  692.289
 368  633.1583
 369  603.3506
 370  581.9191
 371  671.8875
 372  702.833
 373  691.1416
 374  579.4568
 375  723.5629
 376  603.2673
 377  532.4655
 378  611.6829
 379  660.1572
 380  551.2985
 381  532.384
 382  663.9747
 383  658.3185
 384  553.3394
 385  525.2441
 386  588.3312
 387  545.397
 388  645.5338
 389  613.6416
 390  601.1598
 391  552.97
 392  519.8682
 393  517.5375
 394  561.2191
 395  650.7267
 396  834.5179
 397  701.7596
 398  727.1038
 399  690.6851
 400  678.2519
 401  601.1928
 402  631.8258
 403  657.0206
 404  658.0457
 405  623.5027
 406  525.1993
 407  575.8574
 408  540.8623
 409  547.6648
 410  538.7474
 411  613.4036
 412  759.6892
 413  740.3336
 414  668.2617
 415  784.1339
 416  679.0802
 417  621.8861
 418  611.3958
 419  453.9442
 420  541.4944
 421  656.8671
 422  699.9346
 423  685.0627
 424  691.3448
 425  638.9991
 426  696.4733
 427  720.2506
 428  694.6068
 429  716.1115
 430  653.8449
 431  743.7296
 432  660.28
 433  691.2413
 434  743.275
 435  694.5751
 436  773.1132
 437  740.5842
 438  698.5632
 439  631.7281
 440  607.2477
 441  670.0602
 442  647.2214
 443  557.866
 444  580.9714
 445  627.5583
 446  684.104
 447  594.8879
 448  690.4368
 449  698.9272
 450  619.7806
 451  653.7357
 452  603.1996
 453  637.6467
 454  716.671
 455  718.4161
 456  686.7563
 457  617.4041
 458  585.9031
 459  660.4617
 460  798.821
 461  788.4534
 462  702.2832
 463  708.374
 464  586.3135
 465  686.6533
 466  665.9865
 467  635.6906
 468  626.0433
 469  661.8677
 470  702.2571
 471  740.1285
 472  833.6874
 473  676.5986
 474  572.7231
 475  609.3718
 476  549.6537
 477  526.1617
 478  600.8112
 479  724.5427
 480  605.5744
 481  550.4661
 482  602.8647
 483  594.0771
 484  537.3182
 485  654.074
 486  699.9663
 487  734.6646
 488  665.7483
 489  647.1107
 490  653.5517
 491  539.8532
 492  466.3998
 493  678.7387
 494  730.9117
 495  602.7333
 496  746.2837
 497  723.8786
 498  725.3865
 499  664.0826
 500  744.0599
 501  567.0583
 502  617.155
 503  726.311
 504  658.4355
 505  671.439
 506  619.0913
 507  854.7535
 508  922.2598
 509  956.1944
 510  1096.311
 511  1297.363
