# Input file       =  1211944410.106287_cleaned.dat
# Candidate        =  PSR_0332+5434
# Telescope        =  AR
# Epoch_topo       =  58271.134167896838
# Epoch_bary       =  N/A
# T_sample         =  0.002
# Data Folded      =  7208960
# Data Avg         =  0.0725419663016795
# Data StdDev      =  1.00007148411417 
# Profile Bins     =  512
# Profile Avg      =  1021.33252756239 
# Profile StdDev   =  118.6676580396   
# Reduced chi-sqr  =  1.197
# Prob(Noise)      <  0.00141   (~3.0 sigma)
# P_topo (ms)      =  714.515826997672  +/- 0.000206
# P'_topo (s/s)    =  -0                +/- 1.11e-10
# P''_topo (s/s^2) =  0                 +/- 4.97e-14
# P_bary (ms)      =  N/A
# P'_bary (s/s)    =  N/A
# P''_bary (s/s^2) =  N/A
# P_orb (s)        =  N/A
# asin(i)/c (s)    =  N/A
# eccentricity     =  N/A
# w (rad)          =  N/A
# T_peri           =  N/A
######################################################
   0  1594.621
   1  1554.663
   2  1412.106
   3  1306.555
   4  1116.191
   5  1085.202
   6  1048.847
   7  943.4615
   8  1026.559
   9  1049.543
  10  1135.063
  11  1003
  12  976.0107
  13  1010.402
  14  974.0854
  15  949.0203
  16  927.5779
  17  1051.428
  18  1032.02
  19  1007.1
  20  928.9046
  21  928.5147
  22  962.8393
  23  1055.107
  24  1111.403
  25  996.0106
  26  991.205
  27  1044.391
  28  1060.246
  29  978.9048
  30  929.5902
  31  1069.5
  32  1102.003
  33  1007.488
  34  902.652
  35  952.1667
  36  1036.004
  37  1002.146
  38  1051.417
  39  971.187
  40  956.5843
  41  849.4895
  42  977.7311
  43  1082.192
  44  1025.614
  45  973.824
  46  1021.828
  47  1111.369
  48  1042.844
  49  998.4979
  50  1024.872
  51  985.9379
  52  953.3313
  53  1102.957
  54  1140.566
  55  1006.432
  56  985.2003
  57  950.1694
  58  933.3231
  59  1020.025
  60  1023.191
  61  1032.396
  62  991.2292
  63  931.6456
  64  1002.212
  65  968.7731
  66  982.959
  67  955.8441
  68  971.777
  69  943.4826
  70  986.0939
  71  1047.293
  72  1038.268
  73  883.5906
  74  958.2442
  75  1135.942
  76  1175.085
  77  1062.448
  78  1004.229
  79  1136.86
  80  1191.457
  81  1105.619
  82  1010.358
  83  1023.178
  84  1121.263
  85  1075.838
  86  999.3231
  87  883.3284
  88  1020.614
  89  1056.699
  90  1029.568
  91  1049.66
  92  1085.391
  93  1112.796
  94  957.348
  95  1045.028
  96  1111.434
  97  1086.785
  98  1038.708
  99  903.2184
 100  923.9824
 101  1033.368
 102  1141.319
 103  1106.7
 104  1053.447
 105  1025.788
 106  1099.31
 107  1037.879
 108  974.0584
 109  997.5839
 110  1062.817
 111  1079.971
 112  1137.629
 113  1198.935
 114  1114.991
 115  991.7956
 116  1071.472
 117  988.7426
 118  888.4604
 119  933.8911
 120  1009.29
 121  1003.736
 122  1108.818
 123  1201.769
 124  1071.776
 125  1017.97
 126  1081.789
 127  981.2497
 128  1077.561
 129  1034.768
 130  995.8732
 131  956.8778
 132  936.6595
 133  1038.598
 134  1065.509
 135  1037.828
 136  1026.668
 137  1033.837
 138  992.4019
 139  923.9796
 140  854.5672
 141  962.6415
 142  1048.927
 143  1012.515
 144  1022.022
 145  872.9351
 146  897.4786
 147  1029.202
 148  930.8202
 149  1011.855
 150  941.4761
 151  947.7056
 152  955.1348
 153  1004.65
 154  997.3588
 155  911.1209
 156  820.8276
 157  862.737
 158  969.5528
 159  864.1424
 160  983.8651
 161  920.3461
 162  1086.04
 163  1011.559
 164  929.7542
 165  887.9305
 166  810.6432
 167  803.9275
 168  845.7202
 169  929.8856
 170  890.5784
 171  880.8165
 172  1001.602
 173  946.4459
 174  876.6611
 175  912.5834
 176  939.5045
 177  924.4353
 178  985.1826
 179  996.2507
 180  944.7457
 181  914.3698
 182  888.4083
 183  980.3771
 184  1021.728
 185  972.7739
 186  1082.369
 187  981.1271
 188  862.7534
 189  886.9721
 190  910.4962
 191  913.9377
 192  961.1036
 193  1044.68
 194  1138.428
 195  1113.865
 196  984.0457
 197  923.6015
 198  896.6224
 199  926.2827
 200  1033.091
 201  1141.175
 202  1105.33
 203  996.4488
 204  1052.089
 205  1050.064
 206  1002.953
 207  1057.777
 208  1070.917
 209  1070.107
 210  1032.703
 211  948.8342
 212  970.7701
 213  1084.639
 214  1077.271
 215  987.9912
 216  929.5638
 217  1019.278
 218  971.6083
 219  839.6696
 220  924.8897
 221  1075.82
 222  1006.499
 223  1167.649
 224  1119.202
 225  1014.4
 226  1103.815
 227  1074.899
 228  1099.292
 229  1039.633
 230  969.8044
 231  917.1759
 232  988.3951
 233  1047.04
 234  996.2592
 235  930.6281
 236  1067.323
 237  1010.084
 238  916.3699
 239  989.927
 240  1021.124
 241  951.2759
 242  962.4186
 243  1162.915
 244  1193.632
 245  1128.415
 246  1141.14
 247  1080.27
 248  1082.908
 249  1097.637
 250  1198.55
 251  1016.648
 252  968.3073
 253  1094.31
 254  1088.753
 255  1028.007
 256  1024.884
 257  1084.712
 258  1032.597
 259  1021.147
 260  1069.915
 261  1047.81
 262  943.5037
 263  1023.958
 264  1145.725
 265  1147.947
 266  1036.201
 267  944.4773
 268  969.4496
 269  1033.478
 270  1089.347
 271  1048.432
 272  986.3321
 273  1053.539
 274  1082.573
 275  1021.009
 276  984.5609
 277  954.1865
 278  981.9989
 279  1018.294
 280  1110.128
 281  1085.54
 282  1070.972
 283  1063.459
 284  1108.05
 285  1058.019
 286  1023.965
 287  862.871
 288  917.6543
 289  878.2148
 290  944.9738
 291  1080.251
 292  1013.583
 293  960.1697
 294  1123.662
 295  1193.053
 296  1168.132
 297  1215.363
 298  1056.949
 299  907.6697
 300  880.4301
 301  965.926
 302  1028.988
 303  970.9359
 304  924.627
 305  997.1815
 306  988.4479
 307  1073.649
 308  1100.666
 309  976.4147
 310  982.8847
 311  963.3557
 312  989.0337
 313  951.8934
 314  997.1563
 315  1046.804
 316  947.3146
 317  972.8079
 318  1012.383
 319  1042.336
 320  1002.759
 321  927.2729
 322  1032.394
 323  1123.087
 324  1057.682
 325  1019.678
 326  1096.832
 327  1045.555
 328  1060.735
 329  1001.431
 330  1015.46
 331  1066.116
 332  1073.526
 333  1012.634
 334  1107.197
 335  1105.825
 336  1011.307
 337  932.2858
 338  950.6166
 339  983.8377
 340  998.4033
 341  1088.99
 342  1123.321
 343  1082.469
 344  1120.547
 345  1109.571
 346  1066.222
 347  1094.604
 348  1044.904
 349  1033.302
 350  1010.721
 351  966.101
 352  949.1589
 353  949.5062
 354  1081.209
 355  1116.102
 356  1107.887
 357  1018.111
 358  965.9995
 359  946.2897
 360  1138.542
 361  1176.715
 362  1129.37
 363  1143.193
 364  1092.456
 365  1037.696
 366  1001.77
 367  1032.593
 368  989.6686
 369  976.3694
 370  1052.848
 371  974.7547
 372  1093.036
 373  1107.35
 374  1063.916
 375  1046.098
 376  1066.264
 377  977.4879
 378  999.8187
 379  988.9008
 380  1049.328
 381  944.7883
 382  897.4003
 383  955.5628
 384  946.141
 385  1065.845
 386  1119.69
 387  963.1968
 388  938.8145
 389  913.9222
 390  950.8544
 391  1020.155
 392  1056.706
 393  1120.381
 394  1210.879
 395  1117.966
 396  1028.876
 397  1017.711
 398  913.0183
 399  878.9016
 400  903.6136
 401  948.2245
 402  971.8466
 403  961.7927
 404  999.3698
 405  1016.858
 406  961.8459
 407  940.8605
 408  911.1359
 409  1007.812
 410  1034.785
 411  957.8696
 412  943.7603
 413  915.1771
 414  1003.024
 415  999.999
 416  1005.421
 417  1005.167
 418  1009.973
 419  1022.482
 420  969.9694
 421  1058.52
 422  1089.12
 423  975.6631
 424  895.4108
 425  879.8239
 426  1080.716
 427  1086.657
 428  1043.28
 429  990.8931
 430  965.2186
 431  995.2747
 432  975.6006
 433  923.4789
 434  974.6548
 435  1015.746
 436  971.0665
 437  951.0932
 438  999.9401
 439  1036.473
 440  906.5635
 441  1046.275
 442  1105.833
 443  1031.015
 444  1086.167
 445  1093.964
 446  946.7849
 447  900.6448
 448  1045.214
 449  946.0225
 450  913.6888
 451  1071.448
 452  945.3837
 453  867.7443
 454  929.6031
 455  1093.966
 456  939.8484
 457  907.0547
 458  1057.35
 459  1098.017
 460  1044.019
 461  958.7411
 462  1040.507
 463  1128.607
 464  1101.964
 465  964.567
 466  1003.406
 467  1029.553
 468  1010.194
 469  986.4688
 470  931.2653
 471  964.3516
 472  969.4639
 473  957.6148
 474  919.6667
 475  974.813
 476  1034.777
 477  1110.043
 478  1139.32
 479  1001.219
 480  941.8802
 481  908.0072
 482  1090.834
 483  980.2223
 484  901.0551
 485  1037.11
 486  1039.893
 487  1045.255
 488  1091.847
 489  976.9662
 490  962.7805
 491  1056.07
 492  1131.396
 493  1212.985
 494  1080.717
 495  1029.817
 496  997.2665
 497  1082.077
 498  1002.119
 499  1047.033
 500  1076.681
 501  1041.455
 502  1123.821
 503  1073.624
 504  1216.701
 505  1074.964
 506  1210.781
 507  1145.263
 508  1164.003
 509  1317.559
 510  1558.641
 511  1626.059
