# Input file       =  1211113075.123591_cleaned.dat
# Candidate        =  PSR_0332+5434
# Telescope        =  AR
# Epoch_topo       =  58261.512235226750
# Epoch_bary       =  N/A
# T_sample         =  0.002
# Data Folded      =  7340032
# Data Avg         =  0.0403041104178757
# Data StdDev      =  1.00016594188595 
# Profile Bins     =  512
# Profile Avg      =  577.812054757302 
# Profile StdDev   =  119.752905102633 
# Reduced chi-sqr  =  0.984
# Prob(Noise)      <  0.592   (~0.0 sigma)
# P_topo (ms)      =  714.525592745214  +/- 0.000169
# P'_topo (s/s)    =  -0                +/- 8.91e-11
# P''_topo (s/s^2) =  0                 +/- 3.93e-14
# P_bary (ms)      =  N/A
# P'_bary (s/s)    =  N/A
# P''_bary (s/s^2) =  N/A
# P_orb (s)        =  N/A
# asin(i)/c (s)    =  N/A
# eccentricity     =  N/A
# w (rad)          =  N/A
# T_peri           =  N/A
######################################################
   0  1160.09
   1  1105.041
   2  852.8632
   3  596.7053
   4  533.5729
   5  521.7172
   6  603.0953
   7  578.4526
   8  504.0762
   9  538.1695
  10  557.2919
  11  581.3346
  12  593.923
  13  564.0623
  14  537.6525
  15  588.6309
  16  680.0123
  17  631.8106
  18  563.5712
  19  634.3465
  20  630.353
  21  517.3648
  22  528.5472
  23  472.9165
  24  517.2104
  25  608.5227
  26  571.3489
  27  508.9917
  28  610.3768
  29  491.8792
  30  419.8673
  31  474.9946
  32  540.4271
  33  522.9992
  34  592.7878
  35  536.5623
  36  532.0392
  37  549.0458
  38  613.3183
  39  529.4586
  40  633.5967
  41  663.5906
  42  493.8464
  43  498.8662
  44  589.4164
  45  525.5876
  46  453.1935
  47  478.2222
  48  594.4797
  49  677.1793
  50  630.278
  51  502.3999
  52  461.7264
  53  405.2202
  54  526.5466
  55  400.5024
  56  447.3472
  57  526.3127
  58  458.7692
  59  465.2334
  60  511.8572
  61  386.5733
  62  439.6904
  63  463.6588
  64  558.473
  65  482.3299
  66  534.9707
  67  605.7435
  68  515.0189
  69  371.4776
  70  444.0206
  71  553.4115
  72  566.1987
  73  564.1555
  74  646.4592
  75  635.0489
  76  618.7219
  77  616.2581
  78  624.5144
  79  693.2551
  80  565.6175
  81  617.5298
  82  677.1682
  83  674.1445
  84  665.3963
  85  625.2113
  86  712.301
  87  658.5471
  88  594.0128
  89  684.7657
  90  696.1885
  91  686.8177
  92  608.942
  93  664.9005
  94  658.475
  95  589.2275
  96  576.3612
  97  559.8303
  98  606.6993
  99  593.4861
 100  620.7336
 101  637.7067
 102  669.5676
 103  542.2361
 104  486.4762
 105  542.66
 106  546.2599
 107  504.6155
 108  470.0165
 109  511.2303
 110  498.2802
 111  446.4248
 112  576.861
 113  535.6932
 114  516.8954
 115  579.0412
 116  745.0013
 117  581.7316
 118  469.1098
 119  524.3575
 120  477.9969
 121  378.4252
 122  528.8851
 123  587.3123
 124  589.2827
 125  578.6946
 126  498.8469
 127  571.2865
 128  516.4897
 129  498.6436
 130  507.0493
 131  501.5497
 132  382.025
 133  515.4135
 134  566.4614
 135  658.6586
 136  677.7049
 137  625.0464
 138  622.5276
 139  648.682
 140  700.4645
 141  677.6105
 142  593.0035
 143  542.6181
 144  635.5429
 145  721.0122
 146  558.8701
 147  585.7148
 148  614.2449
 149  718.6378
 150  741.5576
 151  661.6505
 152  669.1546
 153  579.2266
 154  527.8371
 155  604.0025
 156  594.7073
 157  630.0344
 158  554.3843
 159  475.3221
 160  514.3512
 161  604.3884
 162  503.8422
 163  430.0016
 164  540.6296
 165  626.7282
 166  608.3965
 167  538.8484
 168  538.952
 169  647.8533
 170  641.457
 171  630.7013
 172  533.3908
 173  602.6064
 174  579.6697
 175  515.0493
 176  689.001
 177  715.6737
 178  681.3953
 179  517.6196
 180  567.9974
 181  598.7432
 182  742.9338
 183  627.4078
 184  584.477
 185  653.3525
 186  572.4285
 187  617.3972
 188  563.6537
 189  545.744
 190  545.9232
 191  490.4444
 192  566.9344
 193  565.3584
 194  634.6505
 195  550.7546
 196  651.5634
 197  595.2936
 198  581.8931
 199  573.6185
 200  531.3481
 201  585.8727
 202  616.4234
 203  598.3623
 204  591.0149
 205  474.0437
 206  532.4894
 207  604.3529
 208  548.0569
 209  625.6686
 210  754.6912
 211  611.2544
 212  612.0844
 213  651.9877
 214  602.428
 215  685.3839
 216  657.7943
 217  717.1649
 218  589.9796
 219  616.982
 220  574.0774
 221  617.8386
 222  601.7698
 223  549.5378
 224  434.9179
 225  531.6409
 226  683.5797
 227  530.215
 228  496.336
 229  569.1732
 230  626.4994
 231  737.845
 232  667.246
 233  565.7193
 234  537.4026
 235  556.2933
 236  534.1929
 237  561.598
 238  596.4359
 239  497.9261
 240  526.137
 241  536.192
 242  534.3909
 243  544.7521
 244  594.7288
 245  585.4949
 246  507.6567
 247  570.4611
 248  629.6285
 249  534.0749
 250  567.8075
 251  553.3986
 252  612.491
 253  669.0537
 254  653.0605
 255  590.8049
 256  623.4926
 257  589.8917
 258  554.0637
 259  487.6923
 260  634.733
 261  646.8422
 262  603.6239
 263  619.6812
 264  541.6117
 265  554.4709
 266  561.3345
 267  644.8686
 268  561.1393
 269  539.1868
 270  498.8501
 271  573.6044
 272  466.3552
 273  589.67
 274  714.4257
 275  666.9851
 276  623.9369
 277  624.6904
 278  580.299
 279  545.2098
 280  469.2383
 281  393.9101
 282  475.9055
 283  494.0237
 284  545.2745
 285  565.6929
 286  499.0313
 287  500.5245
 288  589.2722
 289  592.1707
 290  586.8259
 291  494.4678
 292  662.9863
 293  552.6097
 294  625.6767
 295  770.1198
 296  653.1139
 297  512.9756
 298  573.1956
 299  621.7321
 300  556.6865
 301  512.0114
 302  565.0073
 303  571.4163
 304  619.696
 305  577.9094
 306  591.4355
 307  615.0225
 308  514.3861
 309  471.0068
 310  590.0938
 311  669.6628
 312  616.9893
 313  640.4916
 314  682.4528
 315  564.6248
 316  622.4945
 317  711.9697
 318  647.2928
 319  655.8353
 320  597.3382
 321  596.1621
 322  622.7104
 323  532.9958
 324  562.2918
 325  571.301
 326  655.1081
 327  584.9199
 328  592.5873
 329  601.9887
 330  700.5225
 331  628.095
 332  631.5798
 333  589.8235
 334  525.099
 335  534.2873
 336  637.6333
 337  500.4289
 338  610.9265
 339  673.4099
 340  576.5905
 341  586.356
 342  489.224
 343  490.9741
 344  524.4158
 345  608.7916
 346  668.8312
 347  642.9972
 348  575.1332
 349  496.13
 350  532.666
 351  579.1712
 352  652.8938
 353  715.4668
 354  686.8822
 355  628.5972
 356  627.8696
 357  502.8886
 358  527.839
 359  570.4099
 360  589.451
 361  569.9655
 362  655.2697
 363  639.4012
 364  629.4056
 365  480.5065
 366  427.359
 367  549.7292
 368  552.1684
 369  650.3387
 370  528.2625
 371  470.7352
 372  463.0703
 373  489.5582
 374  560.519
 375  483.5968
 376  494.3256
 377  582.1628
 378  604.3182
 379  523.571
 380  514.5892
 381  552.7008
 382  580.5978
 383  629.7914
 384  559.254
 385  635.1937
 386  595.2407
 387  727.7468
 388  737.854
 389  509.0776
 390  435.1903
 391  473.3242
 392  561.343
 393  485.8941
 394  408.0058
 395  505.1939
 396  460.2921
 397  421.818
 398  422.7844
 399  488.1581
 400  503.844
 401  428.4987
 402  412.4694
 403  468.6801
 404  510.2121
 405  544.5475
 406  467.1725
 407  448.9008
 408  473.2088
 409  441.5323
 410  601.8228
 411  521.5206
 412  542.0428
 413  544.7375
 414  547.6844
 415  583.0844
 416  580.3593
 417  676.7655
 418  641.6525
 419  493.2961
 420  494.0487
 421  553.9753
 422  628.1484
 423  586.4738
 424  539.7942
 425  432.9461
 426  425.3449
 427  523.9149
 428  576.887
 429  480.1311
 430  434.6379
 431  396.3013
 432  389.9898
 433  422.3573
 434  603.1251
 435  598.6443
 436  603.7089
 437  570.59
 438  632.925
 439  641.8321
 440  611.8745
 441  553.9417
 442  479.642
 443  564.9665
 444  656.8057
 445  607.5786
 446  709.9129
 447  525.6402
 448  515.4317
 449  544.2822
 450  531.1295
 451  571.41
 452  599.9156
 453  576.1428
 454  758.1171
 455  754.0405
 456  635.1068
 457  595.1085
 458  494.7338
 459  507.9489
 460  578.1525
 461  705.7664
 462  689.8805
 463  638.5943
 464  602.6142
 465  702.3534
 466  504.3376
 467  517.0463
 468  482.1185
 469  467.678
 470  522.5327
 471  507.1377
 472  638.9691
 473  662.5411
 474  675.0104
 475  603.0201
 476  662.9276
 477  637.718
 478  590.8611
 479  618.3266
 480  605.2784
 481  589.6597
 482  621.4351
 483  677.026
 484  619.0056
 485  495.9625
 486  614.6801
 487  564.59
 488  616.5524
 489  635.4086
 490  569.0881
 491  627.548
 492  600.0463
 493  517.8433
 494  588.2469
 495  655.5539
 496  620.5912
 497  646.4067
 498  705.443
 499  656.4509
 500  565.1611
 501  534.7142
 502  691.5826
 503  658.015
 504  678.5806
 505  573.4429
 506  504.292
 507  663.4226
 508  634.3372
 509  662.1689
 510  726.9563
 511  1072.599
