# Input file       =  1212476026.101743_cleaned.dat
# Candidate        =  PSR_0332+5434
# Telescope        =  AR
# Epoch_topo       =  58277.287130807214
# Epoch_bary       =  N/A
# T_sample         =  0.002
# Data Folded      =  7340032
# Data Avg         =  0.0420265499776507
# Data StdDev      =  1.00008604527323 
# Profile Bins     =  512
# Profile Avg      =  602.449728968634 
# Profile StdDev   =  119.743338838596 
# Reduced chi-sqr  =  1.297
# Prob(Noise)      <  6.38e-06   (~4.4 sigma)
# P_topo (ms)      =  714.50988795791   +/- 0.000245
# P'_topo (s/s)    =  -0                +/- 1.29e-10
# P''_topo (s/s^2) =  0                 +/- 5.72e-14
# P_bary (ms)      =  N/A
# P'_bary (s/s)    =  N/A
# P''_bary (s/s^2) =  N/A
# P_orb (s)        =  N/A
# asin(i)/c (s)    =  N/A
# eccentricity     =  N/A
# w (rad)          =  N/A
# T_peri           =  N/A
######################################################
   0  1434.462
   1  1237.5
   2  1044.288
   3  877.847
   4  693.6035
   5  584.8386
   6  638.692
   7  557.6896
   8  569.0456
   9  666.1171
  10  661.4468
  11  615.18
  12  621.5388
  13  618.4436
  14  543.5327
  15  608.797
  16  689.2992
  17  597.5109
  18  603.8683
  19  647.1097
  20  752.063
  21  617.5995
  22  531.2074
  23  492.8912
  24  486.7329
  25  540.6914
  26  595.3245
  27  659.0861
  28  603.1389
  29  614.6479
  30  773.2922
  31  680.5746
  32  644.0354
  33  627.0093
  34  530.8867
  35  628.4067
  36  661.2003
  37  653.6519
  38  548.5206
  39  537.5159
  40  637.8575
  41  677.8073
  42  523.7266
  43  552.2264
  44  554.4181
  45  632.7043
  46  638.5471
  47  546.137
  48  542.509
  49  604.4515
  50  652.5454
  51  663.7976
  52  655.969
  53  628.9965
  54  708.3083
  55  522.4136
  56  385.2519
  57  428.8063
  58  594.0353
  59  660.3497
  60  715.1041
  61  699.6024
  62  738.0393
  63  654.8387
  64  606.1526
  65  520.4548
  66  556.5463
  67  623.3598
  68  639.8053
  69  617.9805
  70  598.9984
  71  573.9774
  72  613.7019
  73  559.1498
  74  575.5692
  75  581.853
  76  660.0924
  77  633.2923
  78  574.2141
  79  663.836
  80  560.6166
  81  502.8165
  82  638.6018
  83  572.0923
  84  637.6259
  85  589.9675
  86  562.9014
  87  637.246
  88  697.6013
  89  631.7856
  90  634.6467
  91  583.3758
  92  615.0069
  93  593.6909
  94  542.7222
  95  604.5662
  96  580.4527
  97  535.1362
  98  511.3908
  99  625.2273
 100  621.6129
 101  666.7785
 102  694.5549
 103  646.6354
 104  573.4072
 105  666.8618
 106  685.2439
 107  716.8152
 108  594.6547
 109  665.0615
 110  637.7414
 111  446.5135
 112  547.9315
 113  657.8679
 114  725.4667
 115  612.9457
 116  618.0835
 117  654.2494
 118  566.507
 119  611.4143
 120  604.9796
 121  559.3156
 122  539.6661
 123  597.053
 124  681.2161
 125  595.5439
 126  613.8308
 127  655.2477
 128  692.8993
 129  678.5446
 130  678.6041
 131  622.558
 132  679.7838
 133  666.7587
 134  632.3571
 135  587.1988
 136  674.3473
 137  629.5109
 138  594.8055
 139  600.7976
 140  627.7781
 141  633.7614
 142  586.651
 143  634.0219
 144  669.7
 145  653.3258
 146  729.7217
 147  744.8886
 148  713.856
 149  654.4597
 150  718.3146
 151  618.1378
 152  596.402
 153  575.7394
 154  568.5358
 155  513.9508
 156  456.1813
 157  432.0171
 158  561.938
 159  578.5912
 160  595.3793
 161  683.4689
 162  592.7094
 163  489.795
 164  592.9366
 165  676.9442
 166  680.1221
 167  649.4199
 168  620.8235
 169  581.6224
 170  728.6161
 171  703.3041
 172  670.1035
 173  616.9622
 174  662.1988
 175  694.3655
 176  679.4521
 177  513.441
 178  586.4628
 179  705.6324
 180  623.6676
 181  650.0599
 182  691.4368
 183  693.6353
 184  678.3849
 185  686.335
 186  645.5131
 187  695.5894
 188  660.675
 189  695.0549
 190  743.7173
 191  728.499
 192  691.6977
 193  733.4896
 194  783.6976
 195  715.0237
 196  771.2266
 197  719.4174
 198  646.2729
 199  614.9628
 200  676.7446
 201  701.4151
 202  687.0151
 203  682.3876
 204  700.8911
 205  682.2155
 206  725.2223
 207  732.817
 208  525.5306
 209  559.0249
 210  748.0163
 211  684.3972
 212  683.7617
 213  681.9839
 214  645.6002
 215  606.5724
 216  561.5926
 217  587.1197
 218  481.6198
 219  566.6846
 220  567.7122
 221  596.3273
 222  553.5862
 223  693.6689
 224  672.5627
 225  598.0275
 226  618.675
 227  664.7452
 228  672.0404
 229  590.5563
 230  587.7201
 231  505.6282
 232  478.8094
 233  403.9316
 234  410.5526
 235  565.5555
 236  631.9635
 237  668.6422
 238  684.5296
 239  570.3323
 240  555.7377
 241  575.8209
 242  595.6558
 243  590.4163
 244  600.8632
 245  684.3977
 246  681.7913
 247  589.4799
 248  575.21
 249  581.6237
 250  578.3797
 251  565.4981
 252  666.0401
 253  587.7533
 254  520.1738
 255  508.8641
 256  543.3184
 257  484.7711
 258  502.1106
 259  511.7294
 260  423.7136
 261  456.1257
 262  528.5031
 263  520.5938
 264  558.9172
 265  613.032
 266  502.7997
 267  381.5446
 268  424.7555
 269  462.3169
 270  592.0126
 271  527.7657
 272  543.3184
 273  642.0042
 274  483.2678
 275  499.4463
 276  554.2419
 277  594.618
 278  635.3331
 279  658.3448
 280  663.4048
 281  618.2109
 282  594.883
 283  503.9368
 284  575.7518
 285  555.6055
 286  535.229
 287  617.4661
 288  718.489
 289  664.2469
 290  549.6755
 291  509.7
 292  584.288
 293  524.8542
 294  473.9765
 295  570.9952
 296  649.2213
 297  595.6362
 298  533.05
 299  634.6589
 300  615.244
 301  449.329
 302  439.143
 303  506.6013
 304  590.234
 305  566.726
 306  476.8137
 307  537.1331
 308  556.6139
 309  520.4169
 310  612.6956
 311  614.8263
 312  700.8674
 313  723.7189
 314  631.789
 315  563.0661
 316  502.114
 317  502.036
 318  411.2661
 319  619.3491
 320  660.2018
 321  612.4078
 322  598.6412
 323  573.1168
 324  623.9284
 325  504.7442
 326  427.8828
 327  537.5673
 328  658.7308
 329  709.6205
 330  602.9785
 331  561.518
 332  702.5741
 333  670.7398
 334  599.4336
 335  597.0927
 336  539.8989
 337  624.5472
 338  657.5154
 339  528.3034
 340  517.043
 341  462.6382
 342  543.225
 343  618.8278
 344  646.7025
 345  761.4224
 346  675.2753
 347  574.7791
 348  565.4466
 349  710.3246
 350  665.8691
 351  602.9012
 352  607.0305
 353  663.8155
 354  637.0461
 355  714.1035
 356  742.3156
 357  583.7134
 358  534.5845
 359  535.9756
 360  470.3387
 361  614.0799
 362  595.049
 363  662.7914
 364  651.0328
 365  706.0091
 366  655.0173
 367  639.2706
 368  683.5018
 369  645.7282
 370  567.3739
 371  665.6897
 372  591.7382
 373  617.9151
 374  620.4312
 375  610.7852
 376  536.7809
 377  538.5193
 378  512.2023
 379  597.2711
 380  572.9071
 381  575.7106
 382  647.2789
 383  559.3803
 384  585.5967
 385  708.7966
 386  664.3056
 387  612.1481
 388  594.1036
 389  669.7099
 390  564.9148
 391  472.4424
 392  553.7137
 393  573.277
 394  641.4702
 395  565.8862
 396  545.3859
 397  683.9559
 398  702.6132
 399  586.6594
 400  558.825
 401  710.1906
 402  603.3697
 403  450.2721
 404  547.9225
 405  693.1027
 406  663.8594
 407  537.7681
 408  597.2957
 409  619.1881
 410  619.9991
 411  557.4327
 412  552.102
 413  579.0075
 414  518.3807
 415  610.7325
 416  460.5618
 417  483.0233
 418  614.366
 419  616.2463
 420  584.526
 421  541.0186
 422  553.5566
 423  559.3838
 424  581.6415
 425  540.014
 426  502.3936
 427  578.7894
 428  490.806
 429  486.197
 430  431.4004
 431  463.8703
 432  561.2755
 433  468.3769
 434  299.1413
 435  513.415
 436  455.6347
 437  480.4112
 438  430.8373
 439  463.9776
 440  543.9666
 441  577.0829
 442  636.3015
 443  488.3275
 444  480.9203
 445  515.051
 446  583.6863
 447  507.6652
 448  535.313
 449  554.4194
 450  456.9759
 451  481.4876
 452  531.657
 453  471.9467
 454  499.899
 455  494.4931
 456  501.3648
 457  536.6315
 458  541.0596
 459  416.8884
 460  453.39
 461  512.6667
 462  515.2825
 463  568.6613
 464  551.2038
 465  549.8366
 466  599.9911
 467  574.6149
 468  574.3262
 469  474.5865
 470  588.9885
 471  491.0503
 472  412.2561
 473  539.0988
 474  601.7244
 475  550.1681
 476  505.5013
 477  533.4758
 478  577.1738
 479  623.0009
 480  665.7831
 481  575.6458
 482  452.7834
 483  498.357
 484  621.5245
 485  557.562
 486  611.1425
 487  657.9688
 488  680.8647
 489  632.8552
 490  474.2783
 491  493.5625
 492  543.355
 493  584.6248
 494  699.9088
 495  607.2488
 496  579.47
 497  615.9987
 498  587.7437
 499  665.1122
 500  614.2476
 501  539.9868
 502  665.0809
 503  607.2259
 504  567.6566
 505  632.3577
 506  696.8218
 507  762.6312
 508  751.5305
 509  851.8685
 510  1010.307
 511  1208.675
