# Input file       =  1212045231.112183_cleaned.dat
# Candidate        =  PSR_0332+5434
# Telescope        =  AR
# Epoch_topo       =  58272.301077687305
# Epoch_bary       =  N/A
# T_sample         =  0.002
# Data Folded      =  7340032
# Data Avg         =  -0.0520513317375623
# Data StdDev      =  1.0001938971759  
# Profile Bins     =  512
# Profile Avg      =  -746.227488544232
# Profile StdDev   =  119.756252274382 
# Reduced chi-sqr  =  1.201
# Prob(Noise)      <  0.00119   (~3.0 sigma)
# P_topo (ms)      =  714.51470365555   +/- 0.000533
# P'_topo (s/s)    =  -0                +/- 2.81e-10
# P''_topo (s/s^2) =  0                 +/- 1.24e-13
# P_bary (ms)      =  N/A
# P'_bary (s/s)    =  N/A
# P''_bary (s/s^2) =  N/A
# P_orb (s)        =  N/A
# asin(i)/c (s)    =  N/A
# eccentricity     =  N/A
# w (rad)          =  N/A
# T_peri           =  N/A
######################################################
   0  -234.0014
   1  -230.4194
   2  -250.5497
   3  -495.3979
   4  -723.8727
   5  -705.3322
   6  -630.4721
   7  -757.4044
   8  -724.5733
   9  -732.5828
  10  -771.7532
  11  -772.8724
  12  -701.5833
  13  -690.8544
  14  -596.0535
  15  -760.7427
  16  -742.4509
  17  -725.2719
  18  -765.3087
  19  -731.4229
  20  -693.947
  21  -688.2136
  22  -786.2994
  23  -666.1779
  24  -651.9747
  25  -735.3431
  26  -784.6619
  27  -784.4587
  28  -766.6738
  29  -681.0187
  30  -695.1661
  31  -803.5034
  32  -748.5308
  33  -720.653
  34  -722.421
  35  -718.9713
  36  -685.0844
  37  -704.7437
  38  -714.4118
  39  -635.7877
  40  -717.3688
  41  -738.5422
  42  -680.9752
  43  -578.4999
  44  -542.9078
  45  -594.1927
  46  -674.3022
  47  -684.1661
  48  -702.6248
  49  -708.0507
  50  -637.2459
  51  -671.7613
  52  -731.4847
  53  -817.794
  54  -598.3922
  55  -531.8542
  56  -575.9542
  57  -635.7644
  58  -636.3066
  59  -622.1392
  60  -562.9952
  61  -591.6376
  62  -668.3838
  63  -657.9243
  64  -589.1054
  65  -623.7275
  66  -616.2514
  67  -644.371
  68  -715.8723
  69  -665.2416
  70  -602.8091
  71  -707.0674
  72  -773.7709
  73  -685.1027
  74  -679.3062
  75  -729.6785
  76  -722.0346
  77  -755.4171
  78  -776.9559
  79  -781.7674
  80  -801.2563
  81  -697.4663
  82  -723.3044
  83  -807.4835
  84  -850.5569
  85  -701.5833
  86  -697.6609
  87  -770.4965
  88  -810.4662
  89  -853.6937
  90  -718.2759
  91  -637.8539
  92  -701.7859
  93  -715.5285
  94  -745.9235
  95  -712.8974
  96  -633.2767
  97  -674.2442
  98  -764.956
  99  -803.6718
 100  -775.0034
 101  -922.0778
 102  -858.8246
 103  -779.2424
 104  -719.0363
 105  -735.6407
 106  -784.5757
 107  -774.8721
 108  -844.8628
 109  -863.2851
 110  -907.4305
 111  -835.3588
 112  -804.7425
 113  -824.4645
 114  -811.1641
 115  -791.3469
 116  -785.8772
 117  -764.7552
 118  -837.4926
 119  -859.3764
 120  -843.3508
 121  -811.5104
 122  -858.4349
 123  -865.5485
 124  -795.0999
 125  -882.8144
 126  -870.9124
 127  -830.5534
 128  -855.7166
 129  -699.9375
 130  -759.0339
 131  -814.1647
 132  -766.0361
 133  -705.8084
 134  -698.5576
 135  -708.5177
 136  -690.9821
 137  -707.9579
 138  -714.5525
 139  -661.4352
 140  -649.4276
 141  -743.3842
 142  -843.7408
 143  -801.404
 144  -727.5734
 145  -778.0764
 146  -757.0232
 147  -819.1042
 148  -798.9908
 149  -861.7994
 150  -807.289
 151  -749.7007
 152  -788.8694
 153  -843.2106
 154  -725.2294
 155  -723.0733
 156  -787.0641
 157  -700.7229
 158  -827.1295
 159  -787.3623
 160  -798.5951
 161  -758.7832
 162  -757.4087
 163  -789.1133
 164  -867.8851
 165  -796.159
 166  -717.5825
 167  -845.3263
 168  -831.716
 169  -836.8944
 170  -756.0089
 171  -728.8231
 172  -727.2675
 173  -758.3251
 174  -813.9242
 175  -882.0156
 176  -885.7449
 177  -831.8837
 178  -727.942
 179  -784.1205
 180  -707.7822
 181  -764.1721
 182  -810.7676
 183  -755.1039
 184  -859.1234
 185  -856.5142
 186  -773.7646
 187  -740.9835
 188  -759.7238
 189  -757.4538
 190  -797.7632
 191  -823.2869
 192  -816.4565
 193  -819.6932
 194  -812.0784
 195  -763.9272
 196  -802.665
 197  -875.765
 198  -757.6057
 199  -761.0765
 200  -826.9365
 201  -745.3649
 202  -837.8635
 203  -818.1721
 204  -816.7988
 205  -757.9834
 206  -744.0433
 207  -745.2276
 208  -789.0078
 209  -759.0448
 210  -701.1371
 211  -730.0917
 212  -771.8573
 213  -798.6024
 214  -868.5059
 215  -793.769
 216  -642.963
 217  -718.927
 218  -719.3655
 219  -707.3325
 220  -774.3758
 221  -747.3588
 222  -713.7109
 223  -797.3843
 224  -815.641
 225  -783.4032
 226  -806.912
 227  -785.251
 228  -700.9925
 229  -815.9066
 230  -815.5557
 231  -745.1865
 232  -796.7545
 233  -763.8766
 234  -786.6561
 235  -808.7396
 236  -848.9099
 237  -856.5089
 238  -786.1533
 239  -781.22
 240  -718.8172
 241  -730.3388
 242  -804.6912
 243  -806.8384
 244  -844.2821
 245  -734.2845
 246  -779.0494
 247  -840.6977
 248  -883.1951
 249  -802.2656
 250  -753.1161
 251  -798.9474
 252  -795.6967
 253  -787.2227
 254  -769.5011
 255  -717.8253
 256  -688.0491
 257  -708.5577
 258  -690.4409
 259  -693.7191
 260  -718.2543
 261  -672.4837
 262  -666.2394
 263  -764.6598
 264  -739.292
 265  -792.36
 266  -758.8254
 267  -695.7485
 268  -771.4449
 269  -772.2849
 270  -736.9748
 271  -696.1953
 272  -703.2966
 273  -601.7276
 274  -609.1164
 275  -671.3007
 276  -733.8541
 277  -760.2351
 278  -729.2233
 279  -775.3511
 280  -806.8203
 281  -871.6928
 282  -859.5128
 283  -689.2029
 284  -696.5147
 285  -679.9321
 286  -704.6063
 287  -735.2595
 288  -771.5709
 289  -876.3593
 290  -848.1913
 291  -812.3591
 292  -872.447
 293  -827.4674
 294  -779.6561
 295  -741.8707
 296  -752.9502
 297  -774.7847
 298  -774.228
 299  -793.8252
 300  -781.349
 301  -681.709
 302  -665.3446
 303  -722.4125
 304  -720.0451
 305  -748.1926
 306  -727.388
 307  -760.1298
 308  -825.9582
 309  -828.765
 310  -803.3402
 311  -847.9426
 312  -885.0145
 313  -880.3011
 314  -738.3234
 315  -800.1889
 316  -953.4357
 317  -908.2863
 318  -809.6894
 319  -852.7001
 320  -848.3077
 321  -860.7612
 322  -924.6989
 323  -875.6879
 324  -837.5552
 325  -897.2625
 326  -849.2459
 327  -796.464
 328  -752.0832
 329  -791.0564
 330  -741.6059
 331  -838.9304
 332  -955.5919
 333  -887.152
 334  -787.6764
 335  -741.8386
 336  -712.786
 337  -722.8283
 338  -767.4165
 339  -970.4036
 340  -845.1999
 341  -825.6167
 342  -846.1069
 343  -967.1933
 344  -819.1943
 345  -691.311
 346  -729.9595
 347  -781.0062
 348  -817.4231
 349  -744.9714
 350  -759.5836
 351  -773.2111
 352  -622.6875
 353  -828.114
 354  -861.6846
 355  -824.7274
 356  -867.2186
 357  -816.4572
 358  -858.6815
 359  -877.5533
 360  -880.2473
 361  -880.566
 362  -898.2946
 363  -899.079
 364  -885.5168
 365  -879.5595
 366  -844.5603
 367  -811.9036
 368  -747.9687
 369  -789.2371
 370  -707.7805
 371  -787.9847
 372  -858.461
 373  -844.1489
 374  -816.6545
 375  -782.8372
 376  -719.5245
 377  -702.6198
 378  -754.1885
 379  -854.3375
 380  -839.4072
 381  -721.7761
 382  -799.9394
 383  -881.4355
 384  -816.5805
 385  -756.7754
 386  -754.3043
 387  -861.4672
 388  -835.7245
 389  -793.5024
 390  -805.2776
 391  -819.4276
 392  -816.0599
 393  -894.4229
 394  -756.5259
 395  -665.4298
 396  -693.6566
 397  -806.5027
 398  -812.3353
 399  -832.5815
 400  -826.0255
 401  -741.1836
 402  -667.6616
 403  -691.4667
 404  -858.2335
 405  -810.7908
 406  -787.4972
 407  -876.2643
 408  -826.6891
 409  -879.6384
 410  -812.5529
 411  -723.7668
 412  -735.0831
 413  -775.4861
 414  -799.7736
 415  -840.6804
 416  -818.2497
 417  -801.5456
 418  -773.768
 419  -838.745
 420  -779.5927
 421  -757.7194
 422  -720.8759
 423  -835.6375
 424  -847.0613
 425  -729.2773
 426  -704.6546
 427  -618.3003
 428  -711.863
 429  -624.6292
 430  -568.2589
 431  -609.1653
 432  -783.0695
 433  -791.5047
 434  -637.6362
 435  -645.7019
 436  -614.2008
 437  -668.6693
 438  -626.7294
 439  -707.0601
 440  -762.0247
 441  -705.1213
 442  -707.7678
 443  -610.6157
 444  -547.02
 445  -639.1307
 446  -714.9622
 447  -727.3575
 448  -765.5203
 449  -877.9216
 450  -807.1506
 451  -725.6599
 452  -781.6652
 453  -757.7307
 454  -568.3925
 455  -582.1436
 456  -628.2078
 457  -553.2949
 458  -666.9633
 459  -720.0129
 460  -672.4948
 461  -664.8615
 462  -750.2059
 463  -751.2974
 464  -686.9354
 465  -723.8668
 466  -767.0448
 467  -632.5184
 468  -670.4053
 469  -665.7167
 470  -565.8497
 471  -703.2183
 472  -661.0256
 473  -587.2889
 474  -616.3105
 475  -645.8333
 476  -628.9387
 477  -635.7906
 478  -585.7476
 479  -688.8487
 480  -619.1613
 481  -502.4865
 482  -630.9387
 483  -694.5449
 484  -573.9643
 485  -517.7797
 486  -609.4365
 487  -680.5566
 488  -727.6501
 489  -714.5065
 490  -704.1837
 491  -646.2252
 492  -584.2606
 493  -665.9108
 494  -673.6519
 495  -709.2868
 496  -704.8368
 497  -652.0147
 498  -604.2597
 499  -674.2726
 500  -638.9709
 501  -607.6712
 502  -602.3112
 503  -737.0177
 504  -759.6829
 505  -685.2852
 506  -709.2988
 507  -551.8927
 508  -576.7388
 509  -541.9515
 510  -419.5826
 511  -318.2075
