# Input file       =  1212217597.124563_cleaned.dat
# Candidate        =  PSR_0332+5434
# Telescope        =  AR
# Epoch_topo       =  58274.296054682440
# Epoch_bary       =  N/A
# T_sample         =  0.002
# Data Folded      =  7340032
# Data Avg         =  0.0407591535012902
# Data StdDev      =  1.00003300466384 
# Profile Bins     =  512
# Profile Avg      =  584.668139013864 
# Profile StdDev   =  119.736988125382 
# Reduced chi-sqr  =  1.573
# Prob(Noise)      <  2.01e-15   (~7.9 sigma)
# P_topo (ms)      =  714.512771799967  +/- 0.000406
# P'_topo (s/s)    =  -0                +/- 2.14e-10
# P''_topo (s/s^2) =  0                 +/- 9.46e-14
# P_bary (ms)      =  N/A
# P'_bary (s/s)    =  N/A
# P''_bary (s/s^2) =  N/A
# P_orb (s)        =  N/A
# asin(i)/c (s)    =  N/A
# eccentricity     =  N/A
# w (rad)          =  N/A
# T_peri           =  N/A
######################################################
   0  1105.949
   1  1046.033
   2  774.1787
   3  601.4731
   4  638.5223
   5  665.7405
   6  576.3931
   7  559.9183
   8  444.6442
   9  524.6898
  10  567.9555
  11  495.6682
  12  564.8276
  13  699.2421
  14  666.3578
  15  627.6119
  16  568.4691
  17  598.1328
  18  567.4991
  19  647.1829
  20  607.574
  21  536.3005
  22  589.6809
  23  571.5325
  24  497.1967
  25  564.3582
  26  663.4688
  27  553.4327
  28  464.2685
  29  443.6737
  30  567.8303
  31  666.3909
  32  566.0214
  33  453.962
  34  454.906
  35  634.4904
  36  559.5311
  37  524.9083
  38  549
  39  561.9282
  40  565.468
  41  591.0639
  42  632.3493
  43  592.8831
  44  654.4717
  45  590.4221
  46  557.806
  47  634.6437
  48  539.7984
  49  425.1657
  50  545.1208
  51  566.7194
  52  571.275
  53  558.6088
  54  558.8568
  55  548.9195
  56  508.5313
  57  529.9627
  58  605.4109
  59  596.4967
  60  650.2274
  61  728.2385
  62  549.1068
  63  529.4326
  64  552.0846
  65  561.1804
  66  572.8058
  67  600.0616
  68  661.4128
  69  582.8712
  70  618.58
  71  621.8229
  72  646.635
  73  564.9135
  74  536.5394
  75  621.9494
  76  644.4984
  77  589.9597
  78  565.7126
  79  661.5514
  80  689.5759
  81  594.8546
  82  656.8494
  83  657.8267
  84  653.8925
  85  589.9345
  86  710.6387
  87  601.4766
  88  605.3275
  89  449.5697
  90  492.0619
  91  586.2683
  92  524.0667
  93  563.0961
  94  531.812
  95  564.5918
  96  512.0231
  97  547.9503
  98  604.2438
  99  617.4324
 100  577.9929
 101  599.1355
 102  600.3933
 103  577.7251
 104  605.0964
 105  619.2825
 106  574.137
 107  633.1371
 108  583.4671
 109  563.4071
 110  583.2202
 111  530.0494
 112  581.2853
 113  530.5637
 114  568.9875
 115  562.5414
 116  661.9362
 117  674.1696
 118  655.3804
 119  635.1808
 120  715.4063
 121  729.9319
 122  692.6395
 123  641.7877
 124  570.3043
 125  637.761
 126  676.7301
 127  691.5368
 128  675.6455
 129  592.949
 130  634.4956
 131  602.7393
 132  613.5784
 133  657.6047
 134  712.369
 135  598.0413
 136  605.2526
 137  595.6737
 138  663.2367
 139  733.0585
 140  603.8513
 141  594.4457
 142  600.2856
 143  707.8539
 144  847.7588
 145  730.5208
 146  726.087
 147  664.8844
 148  670.6623
 149  729.186
 150  767.2938
 151  787.9887
 152  700.0572
 153  551.7938
 154  707.7012
 155  662.7915
 156  652.6397
 157  659.1995
 158  746.5394
 159  642.9136
 160  652.7935
 161  649.942
 162  651.3273
 163  691.4596
 164  670.404
 165  740.5631
 166  657.3157
 167  631.8237
 168  663.4744
 169  675.8505
 170  727.6013
 171  714.5518
 172  691.1789
 173  654.1529
 174  691.8096
 175  640.2769
 176  651.6768
 177  592.3248
 178  565.5298
 179  543.6895
 180  646.8043
 181  752.7797
 182  678.4094
 183  674.3577
 184  647.4884
 185  623.1041
 186  637.0848
 187  640.9939
 188  770.6256
 189  693.2174
 190  564.94
 191  658.9045
 192  669.2166
 193  739.039
 194  789.0681
 195  795.2939
 196  740.0049
 197  700.9315
 198  852.4667
 199  724.4314
 200  676.8973
 201  652.8033
 202  744.676
 203  750.0094
 204  704.8296
 205  675.6641
 206  784.9788
 207  778.791
 208  763.9604
 209  678.0759
 210  728.9951
 211  614.3798
 212  714.9407
 213  792.3604
 214  763.8278
 215  671.0625
 216  670.8876
 217  715.0887
 218  739.6692
 219  819.4642
 220  777.5039
 221  701.1243
 222  710.4216
 223  736.62
 224  729.0636
 225  659.1429
 226  655.1266
 227  700.0258
 228  590.7239
 229  584.5228
 230  652.0569
 231  678.4413
 232  694.5607
 233  679.2667
 234  611.2745
 235  476.6521
 236  415.403
 237  530.5275
 238  574.5058
 239  691.1753
 240  655.667
 241  580.6439
 242  621.1476
 243  626.2044
 244  512.9734
 245  529.4553
 246  625.8161
 247  600.6135
 248  560.6276
 249  628.0903
 250  636.3027
 251  632.3392
 252  697.6825
 253  593.5485
 254  644.1709
 255  683.8694
 256  596.9981
 257  568.8373
 258  513.7762
 259  598.6212
 260  635.0858
 261  567.7971
 262  632.3798
 263  584.8366
 264  712.9587
 265  648.9708
 266  634.4442
 267  660.0673
 268  671.7854
 269  646.2709
 270  673.6063
 271  614.2766
 272  526.7117
 273  516.6644
 274  508.7447
 275  437.3998
 276  537.0081
 277  630.7463
 278  643.2469
 279  662.983
 280  615.0605
 281  616.4446
 282  657.7939
 283  606.1152
 284  510.7746
 285  609.2275
 286  644.6326
 287  608.9702
 288  645.2953
 289  668.5688
 290  630.6428
 291  562.9689
 292  595.176
 293  712.8329
 294  691.1761
 295  666.8465
 296  666.0378
 297  813.2593
 298  689.0381
 299  585.4423
 300  680.6713
 301  654.3768
 302  627.688
 303  593.0039
 304  569.7883
 305  594.2437
 306  530.7005
 307  593.4235
 308  617.8979
 309  614.5911
 310  618.0728
 311  624.4985
 312  606.8915
 313  634.8724
 314  660.7492
 315  656.4193
 316  652.5137
 317  731.4263
 318  543.0721
 319  584.9039
 320  623.741
 321  556.6566
 322  520.4948
 323  601.7325
 324  672.3879
 325  694.0737
 326  649.387
 327  487.1738
 328  569.6342
 329  558.0304
 330  682.996
 331  595.9836
 332  567.1613
 333  534.9927
 334  442.6498
 335  460.0919
 336  526.7384
 337  614.2914
 338  715.6177
 339  693.0916
 340  554.9504
 341  592.202
 342  569.7684
 343  457.0425
 344  455.2445
 345  454.6872
 346  455.9357
 347  576.9219
 348  538.9019
 349  552.0486
 350  573.4056
 351  483.3156
 352  437.4915
 353  339.9907
 354  461.1227
 355  457.2546
 356  517.1693
 357  523.3524
 358  620.8918
 359  562.0076
 360  642.9213
 361  568.6014
 362  465.4093
 363  540.9872
 364  529.8011
 365  486.3582
 366  561.7054
 367  589.154
 368  648.5344
 369  653.1664
 370  612.4205
 371  552.7101
 372  518.658
 373  500.5739
 374  582.4639
 375  513.6346
 376  553.3813
 377  451.9649
 378  491.6091
 379  603.3425
 380  543.2435
 381  546.0277
 382  556.7144
 383  531.9746
 384  532.2743
 385  454.1096
 386  476.0569
 387  565.5309
 388  590.9421
 389  554.2198
 390  478.0228
 391  406.3203
 392  410.8395
 393  418.486
 394  373.4165
 395  408.2003
 396  520.0222
 397  492.0615
 398  626.5323
 399  594.7313
 400  566.6362
 401  550.3151
 402  412.4203
 403  367.7131
 404  306.68
 405  424.0472
 406  548.0101
 407  557.7051
 408  496.2523
 409  510.4466
 410  512.2191
 411  474.078
 412  487.8719
 413  398.3061
 414  447.6934
 415  443.2279
 416  416.7494
 417  404.3059
 418  399.7809
 419  468.8315
 420  503.7808
 421  618.5128
 422  520.5254
 423  378.895
 424  408.6495
 425  512.5042
 426  548.7557
 427  481.8864
 428  518.2446
 429  553.9958
 430  471.6488
 431  482.5581
 432  505.4639
 433  582.7729
 434  595.4844
 435  449.1005
 436  493.419
 437  520.139
 438  416.0828
 439  428.3715
 440  395.2645
 441  492.8502
 442  544.6828
 443  402.804
 444  393.6881
 445  380.192
 446  509.1466
 447  634.4872
 448  549.5065
 449  517.1072
 450  610.5613
 451  461.7436
 452  391.8951
 453  430.9626
 454  519.0737
 455  457.7485
 456  450.9181
 457  440.227
 458  376.0052
 459  333.8913
 460  323.1315
 461  343.7636
 462  514.1106
 463  527.8906
 464  483.8014
 465  428.8477
 466  390.3968
 467  368.5645
 468  423.361
 469  541.7778
 470  514.9803
 471  490.0221
 472  496.1631
 473  477.3295
 474  370.4948
 475  367.4627
 476  335.3127
 477  308.3904
 478  414.8705
 479  530.4966
 480  447.4574
 481  544.6807
 482  602.4384
 483  534.258
 484  458.4337
 485  395.0384
 486  449.3054
 487  543.2662
 488  525.5186
 489  468.7387
 490  471.7133
 491  529.613
 492  546.08
 493  407.0925
 494  398.963
 495  451.7923
 496  522.1359
 497  379.7544
 498  281.123
 499  456.5697
 500  549.4936
 501  587.8313
 502  532.3554
 503  442.4091
 504  401.2126
 505  564.4063
 506  663.3287
 507  573.5555
 508  686.7746
 509  852.9551
 510  988.7112
 511  1111.156
