# Input file       =  1212060153.117047_cleaned.dat
# Candidate        =  PSR_0332+5434
# Telescope        =  AR
# Epoch_topo       =  58272.473786076931
# Epoch_bary       =  N/A
# T_sample         =  0.002
# Data Folded      =  7340032
# Data Avg         =  0.0113025537557618
# Data StdDev      =  1.00003587501474 
# Profile Bins     =  512
# Profile Avg      =  162.001542028125 
# Profile StdDev   =  119.737331801211 
# Reduced chi-sqr  =  1.379
# Prob(Noise)      <  2.56e-08   (~5.4 sigma)
# P_topo (ms)      =  714.514869959309  +/- 0.000268
# P'_topo (s/s)    =  -0                +/- 1.42e-10
# P''_topo (s/s^2) =  0                 +/- 6.25e-14
# P_bary (ms)      =  N/A
# P'_bary (s/s)    =  N/A
# P''_bary (s/s^2) =  N/A
# P_orb (s)        =  N/A
# asin(i)/c (s)    =  N/A
# eccentricity     =  N/A
# w (rad)          =  N/A
# T_peri           =  N/A
######################################################
   0  785.771
   1  817.795
   2  687.7399
   3  493.3665
   4  353.5988
   5  235.2431
   6  169.6028
   7  166.006
   8  58.92881
   9  48.0602
  10  94.66235
  11  1.897161
  12  187.1887
  13  171.843
  14  222.6335
  15  302.491
  16  233.7266
  17  265.9284
  18  105.6909
  19  54.67954
  20  183.6871
  21  210.0764
  22  209.7446
  23  118.3456
  24  20.93002
  25  134.7341
  26  140.2539
  27  58.11878
  28  74.05982
  29  133.1076
  30  201.674
  31  346.1517
  32  229.2231
  33  116.2192
  34  143.5579
  35  227.6918
  36  134.2368
  37  82.61225
  38  155.9979
  39  83.70078
  40  153.3074
  41  186.8154
  42  94.81077
  43  106.5711
  44  181.5558
  45  123.5529
  46  8.534555
  47  97.88749
  48  138.3279
  49  80.8574
  50  154.6735
  51  174.3563
  52  153.3003
  53  110.0953
  54  135.7153
  55  101.6999
  56  129.862
  57  125.4257
  58  55.99236
  59  170.1614
  60  183.3529
  61  133.1424
  62  192.1029
  63  327.8415
  64  200.2407
  65  150.0127
  66  192.9352
  67  77.98579
  68  2.738695
  69  165.0073
  70  84.69239
  71  51.09553
  72  96.04165
  73  72.25071
  74  214.6639
  75  235.0633
  76  273.2249
  77  249.412
  78  -58.51158
  79  26.7049
  80  39.29634
  81  38.38134
  82  118.1354
  83  135.7028
  84  96.96926
  85  193.1474
  86  108.4281
  87  176.6093
  88  190.5644
  89  62.4771
  90  65.74365
  91  -33.71387
  92  47.57378
  93  77.72291
  94  79.41433
  95  162.7243
  96  231.0829
  97  195.0816
  98  117.1149
  99  -8.149649
 100  -11.83568
 101  142.3546
 102  142.6797
 103  -39.12712
 104  20.37926
 105  47.70821
 106  72.99273
 107  147.4444
 108  92.74497
 109  28.82109
 110  11.7609
 111  75.28887
 112  82.95982
 113  78.01725
 114  156.2104
 115  70.134
 116  54.20935
 117  126.3419
 118  39.19987
 119  8.439116
 120  86.70013
 121  174.1827
 122  77.23211
 123  94.97245
 124  27.94629
 125  69.97402
 126  81.41181
 127  138.4747
 128  175.2082
 129  95.82362
 130  165.3277
 131  225.0177
 132  193.9727
 133  197.9216
 134  123.5845
 135  187.2839
 136  230.4799
 137  240.0376
 138  155.3147
 139  138.1854
 140  154.7374
 141  170.8205
 142  179.5077
 143  208.7655
 144  188.7422
 145  201.7484
 146  107.5731
 147  196.3365
 148  260.6197
 149  160.7307
 150  111.1098
 151  48.0548
 152  102.3898
 153  65.31728
 154  93.95959
 155  137.8809
 156  158.6946
 157  234.2467
 158  155.2711
 159  181.9683
 160  235.4402
 161  272.6273
 162  218.6175
 163  167.4145
 164  202.4539
 165  331.3889
 166  170.1599
 167  105.7476
 168  212.392
 169  136.6155
 170  90.77744
 171  112.3225
 172  190.1294
 173  117.865
 174  135.1267
 175  133.6062
 176  136.9379
 177  134.3992
 178  200.5928
 179  192.0732
 180  205.0282
 181  180.0451
 182  222.3245
 183  163.9264
 184  189.8334
 185  197.09
 186  37.47845
 187  40.27832
 188  156.062
 189  158.0208
 190  200.1249
 191  83.23856
 192  80.74309
 193  53.62518
 194  168.6161
 195  300.923
 196  194.4982
 197  220.01
 198  244.1677
 199  252.5326
 200  106.2093
 201  164.3061
 202  351.4764
 203  419.0006
 204  264.5008
 205  283.7464
 206  406.46
 207  225.1266
 208  302.325
 209  318.2772
 210  332.6919
 211  261.1505
 212  248.0737
 213  373.2469
 214  335.8793
 215  201.0048
 216  248.2696
 217  208.1148
 218  68.74467
 219  189.6566
 220  326.2547
 221  275.2805
 222  221.8452
 223  197.4846
 224  203.1612
 225  136.4016
 226  230.844
 227  286.1418
 228  297.0214
 229  290.3492
 230  221.1123
 231  218.1495
 232  161.0283
 233  346.5031
 234  388.1071
 235  275.5331
 236  283.0215
 237  265.8554
 238  135.0515
 239  95.90941
 240  84.08282
 241  284.5692
 242  160.2396
 243  183.9724
 244  192.3878
 245  125.1568
 246  240.2543
 247  363.257
 248  309.6194
 249  96.98807
 250  99.0713
 251  107.8565
 252  65.97189
 253  38.53174
 254  123.4653
 255  179.1002
 256  173.0341
 257  95.72755
 258  132.493
 259  190.6915
 260  240.6682
 261  140.168
 262  208.2861
 263  192.7133
 264  199.5109
 265  148.2245
 266  129.3019
 267  255.8661
 268  174.4409
 269  163.496
 270  161.9314
 271  106.6982
 272  215.7797
 273  195.2475
 274  206.1927
 275  121.7839
 276  98.10863
 277  134.155
 278  252.7951
 279  253.2774
 280  48.87383
 281  151.262
 282  159.8252
 283  64.76371
 284  -2.899803
 285  103.1645
 286  176.864
 287  61.84698
 288  61.59646
 289  59.38802
 290  154.6992
 291  204.328
 292  211.6526
 293  191.3763
 294  163.4441
 295  322.3697
 296  203.5049
 297  78.93549
 298  126.7213
 299  102.1104
 300  57.80652
 301  71.24207
 302  67.008
 303  83.22685
 304  183.9853
 305  88.63954
 306  22.45429
 307  60.28224
 308  136.3552
 309  89.35844
 310  131.7267
 311  213.8194
 312  204.6133
 313  110.2555
 314  118.3994
 315  251.6144
 316  197.813
 317  194.6568
 318  49.9016
 319  144.6749
 320  183.375
 321  151.1308
 322  64.98471
 323  51.53605
 324  109.389
 325  188.6867
 326  212.7088
 327  213.6377
 328  204.5282
 329  194.9427
 330  255.1789
 331  162.9452
 332  91.77501
 333  95.62205
 334  77.39491
 335  112.7755
 336  53.87333
 337  161.4765
 338  151.9822
 339  215.7801
 340  184.2073
 341  67.97978
 342  -21.68397
 343  -16.87167
 344  -35.56446
 345  233.141
 346  159.9664
 347  93.54142
 348  55.29488
 349  83.88726
 350  114.7849
 351  -31.62251
 352  77.48885
 353  207.3966
 354  203.8652
 355  168.7688
 356  68.38828
 357  187.6133
 358  287.5485
 359  340.1831
 360  155.4946
 361  105.039
 362  89.33463
 363  20.76851
 364  46.98898
 365  67.93359
 366  170.6807
 367  261.5673
 368  186.5318
 369  147.9858
 370  163.555
 371  139.1157
 372  71.87428
 373  145.6464
 374  291.2766
 375  260.9621
 376  53.78268
 377  127.9923
 378  268.4734
 379  212.2122
 380  258.8607
 381  234.2045
 382  166.2649
 383  183.0613
 384  178.5933
 385  252.5809
 386  209.8133
 387  210.0746
 388  236.3767
 389  226.0183
 390  214.1463
 391  288.1622
 392  191.8257
 393  136.2588
 394  132.2128
 395  152.3123
 396  133.8381
 397  78.86725
 398  22.90891
 399  56.83164
 400  159.2172
 401  235.0615
 402  138.7566
 403  128.2414
 404  109.9683
 405  149.4664
 406  69.96825
 407  118.7073
 408  205.5549
 409  175.5508
 410  205.737
 411  202.5754
 412  117.0514
 413  23.7853
 414  109.5926
 415  208.6178
 416  282.2368
 417  292.6834
 418  283.7377
 419  132.4647
 420  141.5941
 421  266.475
 422  93.62905
 423  51.19118
 424  59.53311
 425  125.5917
 426  312.1024
 427  248.1679
 428  -5.12098
 429  -16.00249
 430  70.47911
 431  190.2506
 432  185.166
 433  127.8691
 434  82.68037
 435  39.17485
 436  180.2663
 437  61.8276
 438  -19.03691
 439  70.08251
 440  78.1668
 441  169.25
 442  216.9678
 443  98.50642
 444  189.1492
 445  263.4592
 446  152.5334
 447  203.4073
 448  132.6533
 449  191.5237
 450  214.5766
 451  193.8018
 452  211.9177
 453  198.9601
 454  136.6633
 455  135.0623
 456  91.92902
 457  189.7847
 458  236.8372
 459  235.0959
 460  263.0349
 461  151.6043
 462  137.2112
 463  30.39877
 464  69.55109
 465  104.4939
 466  48.40102
 467  53.63493
 468  139.6828
 469  180.6207
 470  50.34723
 471  210.7786
 472  206.3151
 473  205.0273
 474  210.5574
 475  125.7291
 476  155.7361
 477  148.4848
 478  182.2013
 479  153.0015
 480  166.6706
 481  144.8065
 482  217.0328
 483  159.7581
 484  75.52352
 485  120.4226
 486  37.13843
 487  -25.18884
 488  26.61664
 489  183.2467
 490  192.2294
 491  159.65
 492  165.9998
 493  172.8701
 494  215.1665
 495  319.4681
 496  232.1951
 497  146.8824
 498  175.417
 499  176.1528
 500  83.17573
 501  149.5649
 502  198.0712
 503  158.4998
 504  155.9608
 505  227.7778
 506  260.0782
 507  247.0767
 508  452.8771
 509  414.5096
 510  591.1063
 511  801.2346
