# Input file       =  1212045231.112183_cleaned.dat
# Candidate        =  PSR_0332+5434
# Telescope        =  AR
# Epoch_topo       =  58272.301077687305
# Epoch_bary       =  N/A
# T_sample         =  0.002
# Data Folded      =  7340032
# Data Avg         =  -0.0520513317375623
# Data StdDev      =  1.0001938971759  
# Profile Bins     =  512
# Profile Avg      =  -746.227488544697
# Profile StdDev   =  119.756252274382 
# Reduced chi-sqr  =  1.201
# Prob(Noise)      <  0.00119   (~3.0 sigma)
# P_topo (ms)      =  714.514703714455  +/- 0.000536
# P'_topo (s/s)    =  -0                +/- 2.83e-10
# P''_topo (s/s^2) =  0                 +/- 1.25e-13
# P_bary (ms)      =  N/A
# P'_bary (s/s)    =  N/A
# P''_bary (s/s^2) =  N/A
# P_orb (s)        =  N/A
# asin(i)/c (s)    =  N/A
# eccentricity     =  N/A
# w (rad)          =  N/A
# T_peri           =  N/A
######################################################
   0  -238.6922
   1  -214.7006
   2  -369.801
   3  -630.1072
   4  -752.3998
   5  -642.476
   6  -694.1383
   7  -768.7652
   8  -687.7798
   9  -774.9232
  10  -770.71
  11  -739.1797
  12  -701.3397
  13  -635.0958
  14  -655.0155
  15  -791.2855
  16  -700.5115
  17  -763.3183
  18  -754.9736
  19  -712.1592
  20  -681.8061
  21  -735.9427
  22  -757.5043
  23  -617.108
  24  -719.9265
  25  -757.7663
  26  -795.8952
  27  -763.4201
  28  -733.2838
  29  -652.9489
  30  -766.241
  31  -795.2311
  32  -721.9798
  33  -719.1796
  34  -717.2225
  35  -706.8099
  36  -683.9648
  37  -736.691
  38  -660.1959
  39  -659.0748
  40  -743.1409
  41  -708.4918
  42  -646.418
  43  -544.926
  44  -561.2903
  45  -630.8224
  46  -695.0974
  47  -685.1501
  48  -724.5018
  49  -656.8909
  50  -655.1628
  51  -677.2678
  52  -821.037
  53  -703.1101
  54  -531.1289
  55  -552.4711
  56  -604.5934
  57  -646.3988
  58  -632.3386
  59  -598.392
  60  -553.8367
  61  -644.7691
  62  -671.849
  63  -622.5208
  64  -592.6092
  65  -640.3076
  66  -606.0578
  67  -705.8454
  68  -693.9213
  69  -622.9346
  70  -636.1261
  71  -769.8444
  72  -725.0469
  73  -661.3332
  74  -723.2635
  75  -716.4766
  76  -732.6634
  77  -777.983
  78  -770.5056
  79  -818.8777
  80  -732.6763
  81  -704.9724
  82  -756.7527
  83  -867.9631
  84  -751.3599
  85  -680.8765
  86  -731.6408
  87  -809.9941
  88  -847.0703
  89  -791.9373
  90  -650.131
  91  -667.2955
  92  -721.7355
  93  -725.1398
  94  -749.3029
  95  -646.9911
  96  -656.3807
  97  -714.1916
  98  -816.035
  99  -756.5968
 100  -859.2061
 101  -911.4428
 102  -801.3989
 103  -755.6023
 104  -701.2084
 105  -784.0287
 106  -763.298
 107  -825.8511
 108  -842.9507
 109  -899.7916
 110  -872.7012
 111  -799.2676
 112  -826.7213
 113  -805.7635
 114  -811.3298
 115  -787.7445
 116  -776.2445
 117  -796.6041
 118  -853.6912
 119  -860.0556
 120  -815.4977
 121  -844.2218
 122  -864.5391
 123  -827.3024
 124  -810.4304
 125  -916.1913
 126  -823.4154
 127  -869.5488
 128  -781.8739
 129  -702.3651
 130  -811.0458
 131  -782.8835
 132  -738.963
 133  -687.0843
 134  -703.5625
 135  -690.5851
 136  -695.2746
 137  -720.5878
 138  -683.6245
 139  -658.8088
 140  -679.713
 141  -824.4272
 142  -825.9431
 143  -755.6964
 144  -751.421
 145  -759.9164
 146  -793.3883
 147  -807.045
 148  -836.6322
 149  -844.4318
 150  -758.0262
 151  -763.5269
 152  -838.308
 153  -783.3339
 154  -695.0408
 155  -793.5682
 156  -724.9114
 157  -762.1243
 158  -826.7651
 159  -776.807
 160  -803.2747
 161  -736.2602
 162  -770.6226
 163  -826.3296
 164  -855.0446
 165  -737.8551
 166  -775.0574
 167  -859.3958
 168  -820.5212
 169  -803.7278
 170  -727.8981
 171  -736.7719
 172  -735.9146
 173  -791.1216
 174  -854.9169
 175  -887.8593
 176  -879.2849
 177  -746.0964
 178  -758.7776
 179  -738.6165
 180  -723.7599
 181  -813.9791
 182  -771.4468
 183  -796.4263
 184  -884.8823
 185  -803.4387
 186  -757.0105
 187  -750.8645
 188  -762.6939
 189  -769.5046
 190  -828.8079
 191  -809.3639
 192  -811.0072
 193  -817.6645
 194  -786.6056
 195  -779.9072
 196  -845.6432
 197  -843.798
 198  -716.8474
 199  -824.136
 200  -763.4291
 201  -783.4402
 202  -851.032
 203  -802.319
 204  -801.815
 205  -733.6078
 206  -767.2235
 207  -755.818
 208  -787.7792
 209  -706.1302
 210  -713.5296
 211  -756.2075
 212  -784.1948
 213  -823.7025
 214  -862.8923
 215  -696.4628
 216  -668.7693
 217  -745.7193
 218  -691.7474
 219  -754.0148
 220  -770.9973
 221  -714.3755
 222  -749.3417
 223  -829.3317
 224  -793.1509
 225  -795.4054
 226  -806.7966
 227  -714.6098
 228  -748.321
 229  -850.3851
 230  -773.1854
 231  -765.8099
 232  -797.6857
 233  -752.3371
 234  -801.4229
 235  -820.4958
 236  -876.2991
 237  -803.2349
 238  -794.0681
 239  -735.604
 240  -724.3889
 241  -779.3339
 242  -799.4202
 243  -841.1503
 244  -788.3942
 245  -738.491
 246  -813.1531
 247  -871.3933
 248  -846.1133
 249  -775.4764
 250  -757.3809
 251  -822.6774
 252  -764.6868
 253  -800.2695
 254  -734.6844
 255  -703.9199
 256  -684.3453
 257  -712.0117
 258  -679.4359
 259  -728.3907
 260  -681.2361
 261  -661.9677
 262  -708.3101
 263  -780.1215
 264  -754.0173
 265  -812.7258
 266  -680.6464
 267  -753.7603
 268  -763.9705
 269  -771.7767
 270  -691.9689
 271  -715.736
 272  -653.5831
 273  -580.6921
 274  -644.9733
 275  -699.7656
 276  -764.2215
 277  -740.1494
 278  -752.6773
 279  -788.0234
 280  -842.2685
 281  -886.3853
 282  -765.4329
 283  -677.1592
 284  -696.5252
 285  -681.7998
 286  -733.3416
 287  -731.9692
 288  -836.7681
 289  -880.1354
 290  -813.3113
 291  -847.241
 292  -860.0552
 293  -797.2244
 294  -761.4074
 295  -743.5905
 296  -758.5587
 297  -776.3873
 298  -778.7236
 299  -797.5654
 300  -731.574
 301  -653.7167
 302  -703.154
 303  -725.9672
 304  -736.029
 305  -732.3868
 306  -737.3518
 307  -802.7559
 308  -831.9084
 309  -823.0762
 310  -810.5121
 311  -875.3825
 312  -891.5892
 313  -796.2745
 314  -746.9686
 315  -889.8666
 316  -968.8184
 317  -832.4509
 318  -827.1512
 319  -862.7516
 320  -840.2236
 321  -890.789
 322  -920.9357
 323  -841.6063
 324  -873.9034
 325  -893.5606
 326  -795.913
 327  -777.8616
 328  -754.3735
 329  -791.816
 330  -754.7741
 331  -935.5608
 332  -913.2013
 333  -837.1459
 334  -747.0234
 335  -737.2438
 336  -707.9275
 337  -737.6036
 338  -898.2068
 339  -925.6133
 340  -808.3295
 341  -820.2325
 342  -916.3151
 343  -934.153
 344  -714.2825
 345  -711.4229
 346  -751.8045
 347  -818.9068
 348  -773.624
 349  -732.6918
 350  -799.8497
 351  -667.7939
 352  -711.1149
 353  -890.0051
 354  -818.3047
 355  -859.6113
 356  -838.7218
 357  -822.9209
 358  -881.279
 359  -870.0952
 360  -894.5129
 361  -885.7654
 362  -902.0473
 363  -888.9363
 364  -886.4962
 365  -863.9194
 366  -831.0016
 367  -771.2467
 368  -765.2369
 369  -766.0644
 370  -707.0277
 371  -857.0015
 372  -843.4764
 373  -839.6849
 374  -798.1472
 375  -757.4534
 376  -693.0953
 377  -720.4374
 378  -800.9213
 379  -883.236
 380  -752.9297
 381  -751.6229
 382  -853.846
 383  -862.5457
 384  -785.454
 385  -733.459
 386  -814.1711
 387  -860.3755
 388  -806.1434
 389  -795.7405
 390  -826.2922
 391  -799.7761
 392  -870.3738
 393  -845.6938
 394  -674.7239
 395  -675.7893
 396  -751.7797
 397  -837.1486
 398  -794.858
 399  -852.2886
 400  -773.5803
 401  -707.7468
 402  -656.8907
 403  -781.3367
 404  -862.3801
 405  -768.2075
 406  -843.2599
 407  -861.3697
 408  -841.126
 409  -860.3289
 410  -757.9922
 411  -716.6184
 412  -780.0179
 413  -773.3237
 414  -830.5241
 415  -826.8604
 416  -813.2576
 417  -783.2421
 418  -813.4626
 419  -818.2842
 420  -755.132
 421  -733.7181
 422  -755.5822
 423  -884.5419
 424  -763.0847
 425  -731.1923
 426  -636.3745
 427  -674.7631
 428  -678.2285
 429  -585.2
 430  -577.3032
 431  -683.2912
 432  -844.2861
 433  -685.3597
 434  -646.6104
 435  -613.4185
 436  -651.3084
 437  -641.7075
 438  -666.4686
 439  -744.2803
 440  -731.5532
 441  -705.6789
 442  -663.7154
 443  -558.9584
 444  -592.3292
 445  -688.9315
 446  -730.7463
 447  -718.3038
 448  -852.6797
 449  -844.7195
 450  -752.0612
 451  -744.2683
 452  -809.4823
 453  -657.0535
 454  -523.5654
 455  -647.0033
 456  -555.9453
 457  -621.971
 458  -708.3141
 459  -701.1932
 460  -663.5053
 461  -701.483
 462  -761.4813
 463  -715.3259
 464  -682.0754
 465  -783.1745
 466  -694.0341
 467  -627.6001
 468  -699.7548
 469  -588.3979
 470  -633.0564
 471  -720.2675
 472  -589.2723
 473  -604.0856
 474  -625.5387
 475  -636.683
 476  -629.7899
 477  -606.7159
 478  -633.2639
 479  -696.0529
 480  -527.3469
 481  -561.9979
 482  -688.5097
 483  -640.4135
 484  -509.4991
 485  -566.0275
 486  -655.097
 487  -719.3352
 488  -720.6065
 489  -704.3105
 490  -691.3044
 491  -586.3953
 492  -642.211
 493  -655.0033
 494  -707.5127
 495  -701.3944
 496  -698.2368
 497  -589.3904
 498  -645.6769
 499  -659.1968
 500  -628.1235
 501  -593.9617
 502  -673.8666
 503  -777.6486
 504  -706.7542
 505  -703.0974
 506  -623.9298
 507  -540.9971
 508  -591.0008
 509  -471.8101
 510  -371.4503
 511  -252.6663
