# Input file       =  1212719885.108598_cleaned.dat
# Candidate        =  PSR_0332+5434
# Telescope        =  AR
# Epoch_topo       =  58280.109573016183
# Epoch_bary       =  N/A
# T_sample         =  0.002
# Data Folded      =  7143424
# Data Avg         =  0.0469955437916299
# Data StdDev      =  1.00002888013482 
# Profile Bins     =  512
# Profile Avg      =  655.569567500627 
# Profile StdDev   =  118.121995762512 
# Reduced chi-sqr  =  1.118
# Prob(Noise)      <  0.0329   (~1.8 sigma)
# P_topo (ms)      =  714.507178941906  +/- 0.000224
# P'_topo (s/s)    =  -0                +/- 1.21e-10
# P''_topo (s/s^2) =  0                 +/- 5.51e-14
# P_bary (ms)      =  N/A
# P'_bary (s/s)    =  N/A
# P''_bary (s/s^2) =  N/A
# P_orb (s)        =  N/A
# asin(i)/c (s)    =  N/A
# eccentricity     =  N/A
# w (rad)          =  N/A
# T_peri           =  N/A
######################################################
   0  1193.807
   1  1154.041
   2  981.2834
   3  775.4847
   4  635.3202
   5  587.0832
   6  636.9272
   7  762.5458
   8  666.7163
   9  645.5063
  10  509.2448
  11  702.7662
  12  706.9006
  13  684.3732
  14  728.3038
  15  733.3325
  16  642.9247
  17  597.874
  18  590.5948
  19  500.3304
  20  461.8995
  21  559.542
  22  683.8983
  23  699.0002
  24  609.3506
  25  617.5645
  26  474.7781
  27  635.9929
  28  761.09
  29  736.8403
  30  655.7748
  31  650.285
  32  679.1371
  33  600.4587
  34  582.1837
  35  567.5875
  36  586.4857
  37  662.0459
  38  655.1544
  39  528.9087
  40  673.6519
  41  682.8621
  42  676.8607
  43  594.8317
  44  465.6722
  45  629.5416
  46  776.0399
  47  727.6414
  48  483.6576
  49  483.4677
  50  624.1437
  51  665.9978
  52  570.6792
  53  502.7524
  54  565.7003
  55  666.7515
  56  689.3571
  57  712.3334
  58  672.239
  59  558.4481
  60  608.8008
  61  572.7682
  62  648.2493
  63  729.5118
  64  765.2718
  65  637.9235
  66  644.2268
  67  572.178
  68  504.7473
  69  571.6484
  70  650.9586
  71  718.563
  72  666.9282
  73  531.1865
  74  624.2665
  75  633.5626
  76  571.0736
  77  518.3674
  78  732.765
  79  651.5798
  80  557.0938
  81  563.105
  82  596.6821
  83  662.6074
  84  569.3977
  85  529.7153
  86  595.9086
  87  642.1688
  88  767.8055
  89  707.4662
  90  575.3588
  91  784.4352
  92  753.5397
  93  648.6951
  94  582.8378
  95  499.2399
  96  483.5616
  97  555.2646
  98  561.9565
  99  759.8734
 100  758.6317
 101  552.0832
 102  515.3913
 103  589.8614
 104  702.6741
 105  663.9188
 106  613.61
 107  657.0805
 108  636.3383
 109  632.7285
 110  668.4806
 111  662.1042
 112  620.5121
 113  623.7231
 114  695.3557
 115  571.7161
 116  520.8109
 117  644.7064
 118  686.6038
 119  604.7431
 120  566.4418
 121  636.842
 122  598.6642
 123  581.761
 124  593.3092
 125  504.5289
 126  456.6339
 127  509.7177
 128  649.3198
 129  639.8875
 130  683.078
 131  638.2932
 132  541.2408
 133  657.9573
 134  669.2086
 135  596.7313
 136  514.9512
 137  736.6878
 138  805.5235
 139  710.2639
 140  765.3666
 141  613.9269
 142  522.9518
 143  637.0143
 144  714.7761
 145  725.6645
 146  648.7477
 147  658.679
 148  563.5032
 149  540.9694
 150  671.9979
 151  705.4196
 152  655.4198
 153  610.7167
 154  647.8754
 155  608.4905
 156  516.2292
 157  609.0967
 158  657.6204
 159  628.9849
 160  506.3525
 161  622.8021
 162  804.0773
 163  708.1999
 164  626.8373
 165  669.7465
 166  673.2167
 167  536.4838
 168  464.2927
 169  490.851
 170  653.2911
 171  665.45
 172  645.2592
 173  704.147
 174  671.8908
 175  672.2017
 176  591.3297
 177  625.8304
 178  606.0847
 179  602.9454
 180  571.9606
 181  536.2181
 182  573.569
 183  565.3203
 184  502.5381
 185  634.1211
 186  627.0045
 187  472.1053
 188  443.5413
 189  558.7906
 190  643.9875
 191  640.8596
 192  575.0144
 193  617.7323
 194  784.2889
 195  779.6541
 196  745.1213
 197  619.3567
 198  583.1541
 199  677.9426
 200  632.4398
 201  587.7859
 202  571.6752
 203  563.9244
 204  593.813
 205  624.1096
 206  631.2676
 207  670.667
 208  594.5172
 209  611.7314
 210  687.1796
 211  695.1819
 212  688.1384
 213  691.3619
 214  694.9115
 215  690.9005
 216  634.1016
 217  595.9028
 218  531.5469
 219  571.5138
 220  651.866
 221  611.2402
 222  586.3434
 223  561.117
 224  572.7199
 225  614.2722
 226  689.5967
 227  639.4305
 228  639.5863
 229  685.1888
 230  629.7878
 231  535.1134
 232  535.7892
 233  682.9084
 234  809.0253
 235  683.3882
 236  617.637
 237  693.3144
 238  692.5058
 239  766.4064
 240  819.9945
 241  790.9958
 242  821.5264
 243  696.6666
 244  621.8708
 245  570.1003
 246  599.9484
 247  603.1185
 248  607.9371
 249  712.0062
 250  666.5713
 251  654.5211
 252  787.1607
 253  718.6611
 254  688.2235
 255  760.5925
 256  585.5582
 257  601.1009
 258  652.6
 259  633.3502
 260  620.5823
 261  629.119
 262  731.6039
 263  760.5934
 264  683.3533
 265  722.1391
 266  655.3961
 267  671.0353
 268  637.6905
 269  681.7804
 270  763.6872
 271  759.9525
 272  805.1615
 273  831.3279
 274  723.4758
 275  713.1016
 276  810.9428
 277  751.9942
 278  647.4576
 279  646.0161
 280  639.4774
 281  602.5388
 282  711.0293
 283  717.8956
 284  755.8503
 285  831.6384
 286  790.985
 287  637.1772
 288  618.1361
 289  566.7942
 290  664.4831
 291  658.7958
 292  638.9881
 293  785.4611
 294  748.2462
 295  804.2107
 296  587.7635
 297  547.6818
 298  560.0314
 299  597.111
 300  775.1089
 301  713.6707
 302  770.2687
 303  720.8514
 304  707.6483
 305  565.2366
 306  658.8648
 307  779.2178
 308  588.3952
 309  549.4689
 310  690.1211
 311  648.5472
 312  621.5826
 313  649.478
 314  733.7487
 315  717.561
 316  721.0827
 317  682.348
 318  810.2272
 319  771.9577
 320  641.8958
 321  668.4503
 322  657.4557
 323  604.9407
 324  620.8694
 325  658.2913
 326  753.3521
 327  620.6871
 328  694.2443
 329  677.2193
 330  632.0685
 331  762.4811
 332  703.2955
 333  727.3759
 334  867.0789
 335  849.7011
 336  664.7541
 337  613.9293
 338  703.9344
 339  768.5109
 340  653.4875
 341  641.8719
 342  707.1876
 343  641.0982
 344  660.8765
 345  645.8337
 346  559.4164
 347  682.7739
 348  619.3953
 349  736.887
 350  771.614
 351  677.1155
 352  768.6774
 353  783.6768
 354  807.9596
 355  791.2986
 356  828.3721
 357  767.8378
 358  522.1632
 359  607.9733
 360  678.5858
 361  708.8493
 362  736.432
 363  727.1807
 364  673.4173
 365  748.3701
 366  727.7244
 367  698.6541
 368  705.2994
 369  741.3066
 370  672.2498
 371  634.6387
 372  689.049
 373  687.457
 374  637.5333
 375  728.1274
 376  664.0064
 377  657.2849
 378  671.1098
 379  602.8359
 380  605.6349
 381  594.2391
 382  590.0196
 383  575.2043
 384  710.7895
 385  722.8503
 386  533.9434
 387  573.4924
 388  658.6068
 389  678.2587
 390  548.8619
 391  542.8777
 392  615.3508
 393  569.7767
 394  509.757
 395  590.514
 396  602.2117
 397  572.9949
 398  718.4187
 399  808.9922
 400  660.0148
 401  575.9991
 402  533.7023
 403  577.8043
 404  639.4704
 405  645.4263
 406  600.175
 407  566.8989
 408  598.2772
 409  687.7708
 410  775.2352
 411  768.4977
 412  658.9528
 413  554.3886
 414  644.369
 415  632.5246
 416  612.7583
 417  631.8087
 418  602.0629
 419  658.1414
 420  715.2192
 421  689.2423
 422  716.2915
 423  781.745
 424  753.7119
 425  849.7953
 426  734.2859
 427  596.6699
 428  546.0011
 429  588.6806
 430  641.6003
 431  765.0306
 432  578.0833
 433  543.4269
 434  608.642
 435  720.1978
 436  763.3817
 437  838.5618
 438  844.0334
 439  676.5685
 440  635.131
 441  665.3791
 442  644.6283
 443  691.395
 444  612.5992
 445  750.9672
 446  813.8896
 447  762.6317
 448  650.5354
 449  666.7511
 450  731.9761
 451  712.6257
 452  657.6415
 453  631.0454
 454  653.116
 455  601.5291
 456  740.7463
 457  700.4659
 458  754.1947
 459  674.9946
 460  675.0967
 461  689.9839
 462  653.0946
 463  701.6021
 464  654.153
 465  661.0886
 466  676.0153
 467  722.7889
 468  742.7895
 469  676.2639
 470  665.1799
 471  605.312
 472  606.1519
 473  593.6903
 474  581.2264
 475  569.4929
 476  627.4669
 477  653.8217
 478  676.3584
 479  644.0808
 480  589.2093
 481  563.971
 482  543.4293
 483  578.4435
 484  615.4072
 485  643.0604
 486  611.4371
 487  613.0753
 488  511.3239
 489  554.478
 490  583.1175
 491  577.4601
 492  496.1989
 493  545.9584
 494  646.1536
 495  616.7369
 496  665.742
 497  815.8391
 498  589.6087
 499  541.3701
 500  657.8148
 501  656.4837
 502  691.997
 503  743.4172
 504  635.9359
 505  620.1747
 506  770.1663
 507  833.9722
 508  926.2007
 509  863.9807
 510  871.4216
 511  1030.833
