# Input file       =  1212476026.101743_cleaned.dat
# Candidate        =  PSR_0332+5434
# Telescope        =  AR
# Epoch_topo       =  58277.287130807214
# Epoch_bary       =  N/A
# T_sample         =  0.002
# Data Folded      =  7340032
# Data Avg         =  0.0420265499776507
# Data StdDev      =  1.00008604527323 
# Profile Bins     =  512
# Profile Avg      =  602.449728991904 
# Profile StdDev   =  119.743338838596 
# Reduced chi-sqr  =  1.299
# Prob(Noise)      <  5.75e-06   (~4.4 sigma)
# P_topo (ms)      =  714.50988792365   +/- 0.00025
# P'_topo (s/s)    =  -0                +/- 1.32e-10
# P''_topo (s/s^2) =  0                 +/- 5.81e-14
# P_bary (ms)      =  N/A
# P'_bary (s/s)    =  N/A
# P''_bary (s/s^2) =  N/A
# P_orb (s)        =  N/A
# asin(i)/c (s)    =  N/A
# eccentricity     =  N/A
# w (rad)          =  N/A
# T_peri           =  N/A
######################################################
   0  1337.142
   1  1384.776
   2  1127.401
   3  977.7008
   4  812.7407
   5  597.5216
   6  620.4969
   7  604.1826
   8  551.4142
   9  611.5634
  10  704.6597
  11  605.1804
  12  629.7803
  13  610.639
  14  607.0475
  15  531.9918
  16  680.7794
  17  638.3308
  18  596.5738
  19  602.741
  20  712.0388
  21  716.9584
  22  569.4712
  23  514.656
  24  479.4337
  25  505.0922
  26  565.6778
  27  625.2585
  28  651.9876
  29  570.7924
  30  697.7042
  31  749.4678
  32  652.8748
  33  651.5536
  34  579.193
  35  541.9012
  36  666.9282
  37  652.3135
  38  627.2437
  39  515.048
  40  584.4382
  41  677.4906
  42  616.0566
  43  508.6247
  44  577.5418
  45  564.641
  46  659.1057
  47  588.9668
  48  530.8768
  49  563.6754
  50  643.132
  51  662.7519
  52  669.3019
  53  619.7288
  54  671.7592
  55  652.3278
  56  430.3818
  57  381.0092
  58  506.528
  59  629.3637
  60  696.829
  61  709.42
  62  722.5451
  63  717.4314
  64  617.3958
  65  571.668
  66  519.5411
  67  587.6138
  68  643.6536
  69  626.1641
  70  614.0371
  71  582.3365
  72  587.7291
  73  601.1721
  74  556.4451
  75  577.4454
  76  614.4618
  77  671.4078
  78  577.8383
  79  626.445
  80  637.9678
  81  503.8723
  82  573.9061
  83  616.0075
  84  605.15
  85  615.0736
  86  571.1028
  87  568.6959
  88  689.2113
  89  679.5407
  90  624.8184
  91  625.0342
  92  573.8571
  93  628.0357
  94  546.9129
  95  561.5421
  96  621.7109
  97  556.5966
  98  517.778
  99  550.7562
 100  633.4468
 101  632.8309
 102  686.3541
 103  693.776
 104  596.3735
 105  606.545
 106  684.8196
 107  704.4243
 108  684.3727
 109  578.2978
 110  703.7355
 111  519.4565
 112  471.3271
 113  612.0926
 114  692.0666
 115  699.3601
 116  576.2249
 117  663.5576
 118  609.82
 119  566.6482
 120  622.5345
 121  585.4329
 122  547.1127
 123  550.3058
 124  652.9893
 125  645.902
 126  592.0605
 127  627.5554
 128  678.7336
 129  692.0788
 130  677.4169
 131  666.0529
 132  621.1727
 133  704.8055
 134  633.752
 135  611.8463
 136  619.1327
 137  669.1383
 138  599.6016
 139  607.9335
 140  608.1213
 141  638.1232
 142  623.5928
 143  565.6012
 144  694.7667
 145  643.947
 146  694.3988
 147  747.3973
 148  721.1884
 149  685.1915
 150  678.5563
 151  686.2702
 152  602.371
 153  577.324
 154  593.1357
 155  522.9133
 156  498.5772
 157  409.0889
 158  512.5286
 159  582.3981
 160  578.897
 161  627.0612
 162  672.1334
 163  515.51
 164  511.9723
 165  664.3261
 166  664.3314
 167  690.2437
 168  622.9202
 169  605.785
 170  637.1346
 171  738.3485
 172  688.4487
 173  625.6513
 174  644.2493
 175  664.0753
 176  718.3682
 177  583.4921
 178  515.4917
 179  665.9221
 180  680.3327
 181  633.8335
 182  674.2713
 183  706.0554
 184  673.7402
 185  676.4348
 186  665.1201
 187  669.4303
 188  690.8673
 189  662.6714
 190  728.722
 191  738.6007
 192  714.6852
 193  684.0451
 194  782.5322
 195  736.2043
 196  738.6519
 197  761.9544
 198  699.5412
 199  615.8306
 200  635.3156
 201  686.0067
 202  711.2922
 203  672.9124
 204  703.6391
 205  687.2667
 206  695.2981
 207  748.5226
 208  650.9255
 209  475.7623
 210  678.5822
 211  722.1556
 212  682.7598
 213  676.5139
 214  672.6816
 215  617.4601
 216  585.4852
 217  588.1594
 218  533.2449
 219  511.1748
 220  574.0268
 221  588.0137
 222  560.7219
 223  610.1392
 224  706.7778
 225  637.646
 226  592.3797
 227  656.5643
 228  668.2972
 229  630.4412
 230  579.257
 231  563.1395
 232  497.44
 233  458.1291
 234  380.3902
 235  472.059
 236  601.2418
 237  644.9371
 238  687.1263
 239  660.0026
 240  530.5091
 241  570.0507
 242  580.9419
 243  596.4322
 244  585.9543
 245  627.4927
 246  714.509
 247  640.5178
 248  587.8217
 249  561.9697
 250  598.1076
 251  542.865
 252  622.5203
 253  645.2693
 254  543.9551
 255  507.299
 256  542.0135
 257  523.8788
 258  482.4413
 259  505.5724
 260  469.1316
 261  414.3137
 262  500.9917
 263  537.0999
 264  519.8593
 265  607.4684
 266  577.5591
 267  435.9234
 268  393.4478
 269  435.1343
 270  524.4763
 271  575.8728
 272  513.0092
 273  604.9203
 274  590.454
 275  439.0936
 276  544.1905
 277  563.7504
 278  635.6942
 279  634.999
 280  668.6655
 281  641.4845
 282  613.5759
 283  556.1684
 284  523.1768
 285  582.1388
 286  519.7831
 287  566.9678
 288  663.8734
 289  730.2318
 290  600.2031
 291  522.6806
 292  539.6707
 293  576.0903
 294  487.769
 295  502.4464
 296  622.6014
 297  630.0912
 298  570.5374
 299  549.4072
 300  675.9376
 301  507.0659
 302  443.2175
 303  463.3409
 304  552.8788
 305  590.6235
 306  517.9028
 307  485.2086
 308  581.302
 309  513.7341
 310  560.4987
 311  613.0294
 312  645.0763
 313  737.0471
 314  687.5442
 315  605.0348
 316  512.7089
 317  519.3959
 318  435.8519
 319  490.0944
 320  683.4698
 321  626.0591
 322  616.3983
 323  571.5819
 324  598.6164
 325  593.4114
 326  438.371
 327  478.6673
 328  595.6896
 329  692.9844
 330  673.0621
 331  550.3459
 332  616.3488
 333  726.902
 334  622.8276
 335  601.8622
 336  577.2686
 337  546.2803
 338  680.3129
 339  588.1476
 340  518.2138
 341  489.8105
 342  484.1906
 343  590.7253
 344  628.3093
 345  687.3839
 346  754.6422
 347  617.8265
 348  560.7623
 349  629.7463
 350  726.4099
 351  616.5515
 352  606.317
 353  613.1069
 354  654.9754
 355  641.7124
 356  775.1177
 357  679.1589
 358  537.5948
 359  554.8858
 360  479.0103
 361  537.7032
 362  614.291
 363  611.5628
 364  671.1188
 365  670.048
 366  707.1194
 367  638.6473
 368  647.944
 369  692.1466
 370  573.027
 371  627.6017
 372  631.3661
 373  601.5839
 374  623.282
 375  624.7536
 376  570.68
 377  529.6269
 378  526.717
 379  544.8922
 380  610.3502
 381  551.4217
 382  614.3511
 383  620.3033
 384  543.3699
 385  646.4534
 386  711.7349
 387  628.7549
 388  598.5488
 389  633.1823
 390  642.9109
 391  498.4801
 392  500.475
 393  573.4854
 394  611.3625
 395  629.9299
 396  525.5818
 397  588.8021
 398  726.7966
 399  652.3922
 400  544.5739
 401  623.7013
 402  709.9221
 403  507.3063
 404  473.7972
 405  638.601
 406  696.1262
 407  590.6422
 408  541.7116
 409  614.3264
 410  638.521
 411  594.9827
 412  544.3674
 413  575.101
 414  531.2841
 415  559.7628
 416  563.1531
 417  432.9932
 418  560.2618
 419  617.3783
 420  599.4753
 421  577.5974
 422  529.9456
 423  573.8069
 424  554.4633
 425  582.0678
 426  513.993
 427  529.4931
 428  564.8503
 429  462.2827
 430  486.6233
 431  417.9674
 432  515.1093
 433  544.4466
 434  361.5091
 435  377.0886
 436  537.5594
 437  419.7335
 438  494.6458
 439  408.7489
 440  516.2552
 441  559.5362
 442  606.4912
 443  588.5016
 444  452.1243
 445  511.8269
 446  558.8
 447  551.5457
 448  501.1706
 449  542.1014
 450  538.6117
 451  414.3725
 452  539.9309
 453  496.9713
 454  481.9041
 455  509.8059
 456  491.8065
 457  517.6373
 458  548.8972
 459  491.2308
 460  400.035
 461  503.2471
 462  495.5138
 463  549.2773
 464  569.442
 465  543.0505
 466  587.079
 467  576.9206
 468  587.5256
 469  511.3422
 470  525.9814
 471  582.5356
 472  419.0178
 473  449.7999
 474  598.0425
 475  564.9862
 476  549.699
 477  490.4066
 478  580.6436
 479  581.8815
 480  647.9991
 481  637.0358
 482  514.2135
 483  440.8199
 484  579.8963
 485  589.3336
 486  572.6345
 487  636.326
 488  667.6717
 489  681.3966
 490  552.1791
 491  464.1376
 492  523.5706
 493  554.3589
 494  653.5511
 495  687.2497
 496  559.3478
 497  602.1272
 498  598.4639
 499  600.4017
 500  689.5555
 501  540.2156
 502  608.2659
 503  650.8018
 504  565.624
 505  592.7363
 506  662.8251
 507  746.0143
 508  755.2157
 509  781.8037
 510  930.6781
 511  1078.052
