# Input file       =  1212202951.119541_cleaned.dat
# Candidate        =  PSR_0332+5434
# Telescope        =  AR
# Epoch_topo       =  58274.126540735429
# Epoch_bary       =  N/A
# T_sample         =  0.002
# Data Folded      =  7208960
# Data Avg         =  0.0516735778716067
# Data StdDev      =  1.00005779860108 
# Profile Bins     =  512
# Profile Avg      =  727.561566512931 
# Profile StdDev   =  118.666034127896 
# Reduced chi-sqr  =  2.024
# Prob(Noise)      <  9.61e-38   (~12.8 sigma)
# P_topo (ms)      =  714.512924374201  +/- 7.77e-05
# P'_topo (s/s)    =  -0                +/- 4.17e-11
# P''_topo (s/s^2) =  0                 +/- 1.88e-14
# P_bary (ms)      =  N/A
# P'_bary (s/s)    =  N/A
# P''_bary (s/s^2) =  N/A
# P_orb (s)        =  N/A
# asin(i)/c (s)    =  N/A
# eccentricity     =  N/A
# w (rad)          =  N/A
# T_peri           =  N/A
######################################################
   0  1319.22
   1  1237.757
   2  1076.569
   3  853.7264
   4  803.52
   5  922.0004
   6  830.0421
   7  764.7332
   8  780.3612
   9  680.2452
  10  645.4926
  11  833.0697
  12  855.2598
  13  1010.281
  14  1081.275
  15  947.244
  16  756.3812
  17  830.9364
  18  866.2044
  19  826.1329
  20  881.1573
  21  895.6238
  22  824.9452
  23  765.205
  24  723.8169
  25  730.3123
  26  763.9506
  27  828.3429
  28  706.8243
  29  707.7952
  30  867.1326
  31  864.2193
  32  903.2846
  33  814.3374
  34  839.8428
  35  748.4648
  36  801.3995
  37  826.4007
  38  750.9103
  39  712.9177
  40  742.4254
  41  849.6415
  42  811.6801
  43  761.693
  44  806.6393
  45  934.8719
  46  953.5003
  47  880.529
  48  829.8386
  49  932.9315
  50  807.3861
  51  742.8255
  52  858.059
  53  774.794
  54  746.3887
  55  789.613
  56  947.2424
  57  798.4443
  58  788.5889
  59  762.9336
  60  736.0665
  61  825.755
  62  967.3555
  63  923.3209
  64  915.7334
  65  829.015
  66  861.1298
  67  819.8064
  68  880.6948
  69  874.3221
  70  943.7856
  71  944.0219
  72  891.8671
  73  773.9923
  74  844.9437
  75  740.6592
  76  655.8495
  77  760.494
  78  955.9721
  79  988.5468
  80  1082.651
  81  1086
  82  943.3186
  83  898.9857
  84  924.4753
  85  944.2207
  86  841.5167
  87  784.6904
  88  781.0316
  89  776.4614
  90  735.0249
  91  709.6605
  92  752.4895
  93  843.925
  94  727.8556
  95  703.7216
  96  669.0956
  97  809.8822
  98  923.7355
  99  777.9574
 100  670.272
 101  796.2228
 102  838.3659
 103  728.7142
 104  787.1651
 105  833.2845
 106  814.7972
 107  745.2952
 108  671.1812
 109  652.3415
 110  718.107
 111  742.0367
 112  800.7792
 113  715.4971
 114  642.0374
 115  782.6669
 116  791.1838
 117  632.694
 118  699.6873
 119  726.2114
 120  674.2219
 121  701.2244
 122  642.7316
 123  749.1487
 124  645.5105
 125  707.1696
 126  758.7105
 127  635.726
 128  580.2345
 129  668.5915
 130  768.0667
 131  742.5351
 132  669.0475
 133  831.2432
 134  887.9296
 135  753.6265
 136  768.1153
 137  738.3176
 138  680.9439
 139  706.7834
 140  797.7878
 141  767.8746
 142  772.3339
 143  672.6313
 144  778.2617
 145  796.8951
 146  774.8431
 147  749.8627
 148  837.675
 149  795.749
 150  742.7615
 151  708.4928
 152  751.5836
 153  786.4025
 154  735.3478
 155  768.4977
 156  868.3474
 157  852.5621
 158  767.3093
 159  791.1899
 160  787.14
 161  761.1489
 162  833.8975
 163  852.7152
 164  846.9481
 165  878.0092
 166  788.3971
 167  712.1957
 168  660.8672
 169  764.2571
 170  771.9857
 171  787.2027
 172  815.053
 173  709.9446
 174  716.9669
 175  721.8186
 176  792.8468
 177  864.9274
 178  750.6049
 179  781.4224
 180  901.0787
 181  762.7175
 182  695.8913
 183  676.8184
 184  673.6428
 185  729.2999
 186  786.5258
 187  706.3324
 188  624.5137
 189  657.0491
 190  569.2742
 191  561.2379
 192  581.9714
 193  684.7512
 194  707.5551
 195  695.0322
 196  734.0217
 197  728.999
 198  748.3549
 199  729.7674
 200  676.624
 201  602.7499
 202  650.0574
 203  672.8647
 204  632.0476
 205  516.0974
 206  544.8534
 207  582.0621
 208  576.3099
 209  579.9498
 210  506.7458
 211  604.178
 212  645.1677
 213  706.21
 214  712.5035
 215  686.7059
 216  723.941
 217  705.9022
 218  753.9872
 219  652.8949
 220  554.8281
 221  577.1569
 222  615.7734
 223  576.2574
 224  563.3708
 225  599.8101
 226  733.2039
 227  745.9351
 228  719.5538
 229  763.1067
 230  754.0289
 231  572.2333
 232  506.0138
 233  698.611
 234  710.0058
 235  669.9094
 236  686.6246
 237  734.5441
 238  623.6418
 239  416.8586
 240  396.2335
 241  511.951
 242  621.7197
 243  673.4978
 244  715.4442
 245  833.1132
 246  758.0667
 247  518.5603
 248  647.1432
 249  655.2725
 250  690.4991
 251  704.8232
 252  645.624
 253  622.3972
 254  615.9894
 255  589.4622
 256  563.0412
 257  496.2308
 258  592.4568
 259  777.9026
 260  709.137
 261  669.1393
 262  762.051
 263  718.0837
 264  679.623
 265  666.3287
 266  748.0974
 267  585.3013
 268  559.5899
 269  682.8824
 270  597.9977
 271  588.5859
 272  471.2963
 273  447.5572
 274  637.5724
 275  582.2484
 276  646.0049
 277  702.2961
 278  756.363
 279  715.8828
 280  706.0491
 281  696.7453
 282  543.7667
 283  573.6119
 284  705.4216
 285  587.9437
 286  676.3998
 287  646.588
 288  525.0022
 289  665.1717
 290  679.9417
 291  554.5283
 292  490.2778
 293  694.6892
 294  768.8156
 295  750.8517
 296  812.974
 297  699.5911
 298  584.7278
 299  619.5331
 300  544.7894
 301  576.5926
 302  604.7531
 303  724.7299
 304  814.564
 305  795.4403
 306  618.3394
 307  573.1048
 308  640.718
 309  570.5015
 310  625.0112
 311  741.9456
 312  689.3705
 313  783.9273
 314  689.2753
 315  620.1827
 316  564.6738
 317  623.5627
 318  621.1049
 319  718.3319
 320  671.4447
 321  676.2184
 322  550.2053
 323  449.3033
 324  477.1629
 325  543.7562
 326  673.5477
 327  683.222
 328  591.683
 329  693.6941
 330  599.456
 331  633.0463
 332  714.3026
 333  622.0518
 334  609.0641
 335  731.9553
 336  721.3879
 337  695.6185
 338  592.4558
 339  563.2548
 340  584.1691
 341  496.3449
 342  644.0917
 343  724.8014
 344  762.298
 345  717.1672
 346  744.9814
 347  616.914
 348  581.1816
 349  560.0697
 350  612.9721
 351  645.5056
 352  736.0644
 353  722.5212
 354  653.315
 355  602.5596
 356  635.6549
 357  633.6827
 358  602.5107
 359  632.27
 360  779.9697
 361  878.5847
 362  743.3665
 363  623.8362
 364  773.5704
 365  731.4263
 366  581.4682
 367  542.5127
 368  690.6106
 369  743.376
 370  645.2437
 371  671.3338
 372  577.8624
 373  629.3885
 374  670.8883
 375  665.4498
 376  673.0457
 377  778.0253
 378  720.6479
 379  717.4841
 380  754.7061
 381  721.5024
 382  671.6679
 383  619.4942
 384  711.075
 385  668.5735
 386  742.6268
 387  703.9886
 388  519.261
 389  546.7979
 390  641.8511
 391  704.5096
 392  757.2198
 393  754.1019
 394  765.0122
 395  801.3097
 396  770.0174
 397  691.41
 398  628.905
 399  712.9167
 400  745.9081
 401  821.7704
 402  768.5735
 403  709.0995
 404  683.0433
 405  566.1136
 406  628.2376
 407  692.8917
 408  705.8599
 409  753.5637
 410  768.9874
 411  833.9011
 412  739.5573
 413  747.7028
 414  719.8013
 415  673.8587
 416  751.0593
 417  831.795
 418  776.4415
 419  670.6213
 420  635.798
 421  687.3737
 422  658.9459
 423  680.349
 424  664.0076
 425  775.2765
 426  841.267
 427  820.741
 428  953.3153
 429  879.4053
 430  659.4355
 431  732.3875
 432  790.4185
 433  823.2181
 434  681.8796
 435  767.5514
 436  740.4078
 437  677.3338
 438  556.9781
 439  547.7021
 440  732.0359
 441  717.3539
 442  602.4462
 443  680.8061
 444  705.5541
 445  713.4872
 446  749.5441
 447  836.3051
 448  756.9338
 449  687.1599
 450  615.7036
 451  705.1276
 452  655.9013
 453  559.1672
 454  576.9724
 455  726.3743
 456  634.8054
 457  542.9633
 458  688.0427
 459  739.9162
 460  863.3708
 461  795.5784
 462  695.4804
 463  612.1721
 464  613.5653
 465  663.7524
 466  774.9191
 467  729.4709
 468  811.4615
 469  686.924
 470  671.874
 471  653.952
 472  607.6719
 473  639.481
 474  672.1871
 475  716.4014
 476  813.6155
 477  777.7049
 478  704.7734
 479  824.1523
 480  800.9261
 481  699.2613
 482  643.9742
 483  669.3383
 484  678.5042
 485  765.0854
 486  812.0723
 487  708.8021
 488  706.1747
 489  697.6816
 490  712.3779
 491  654.3727
 492  774.2962
 493  905.5491
 494  861.3863
 495  935.5831
 496  909.1836
 497  834.4259
 498  781.4376
 499  735.372
 500  796.9225
 501  1001.58
 502  869.9555
 503  750.3102
 504  664.2532
 505  709.8577
 506  687.3066
 507  821.2451
 508  1065.924
 509  1242.951
 510  1404.353
 511  1318.689
