# Input file       =  1212030580.120176_cleaned.dat
# Candidate        =  PSR_0332+5434
# Telescope        =  AR
# Epoch_topo       =  58272.131506020560
# Epoch_bary       =  N/A
# T_sample         =  0.002
# Data Folded      =  7208960
# Data Avg         =  0.0634458750215794
# Data StdDev      =  1.00007500701217 
# Profile Bins     =  512
# Profile Avg      =  893.375323825974 
# Profile StdDev   =  118.668076063773 
# Reduced chi-sqr  =  1.439
# Prob(Noise)      <  2.57e-10   (~6.2 sigma)
# P_topo (ms)      =  714.514858061042  +/- 0.00012
# P'_topo (s/s)    =  -0                +/- 6.42e-11
# P''_topo (s/s^2) =  0                 +/- 2.89e-14
# P_bary (ms)      =  N/A
# P'_bary (s/s)    =  N/A
# P''_bary (s/s^2) =  N/A
# P_orb (s)        =  N/A
# asin(i)/c (s)    =  N/A
# eccentricity     =  N/A
# w (rad)          =  N/A
# T_peri           =  N/A
######################################################
   0  1477.34
   1  1529.874
   2  1279.091
   3  1031.914
   4  930.7392
   5  1005.85
   6  971.1841
   7  790.7977
   8  808.8581
   9  825.6178
  10  862.9744
  11  955.0681
  12  979.5579
  13  964.8398
  14  927.9244
  15  916.517
  16  843.5819
  17  869.3608
  18  928.9958
  19  968.8555
  20  885.1711
  21  875.5671
  22  843.5882
  23  742.4232
  24  811.569
  25  872.4537
  26  879.2592
  27  895.2617
  28  870.3281
  29  884.3287
  30  761.1822
  31  859.6228
  32  756.9042
  33  775.7177
  34  842.0418
  35  833.5511
  36  948.6588
  37  900.1595
  38  946.0498
  39  896.0281
  40  912.7328
  41  934.0604
  42  996.6334
  43  1004.841
  44  972.1326
  45  879.7408
  46  890.6962
  47  977.2033
  48  942.8533
  49  883.702
  50  808.8434
  51  784.2911
  52  834.447
  53  978.6971
  54  1047.805
  55  931.5274
  56  990.42
  57  929.5805
  58  878.4028
  59  853.7347
  60  952.9803
  61  934.9637
  62  1006.529
  63  1003.8
  64  894.8724
  65  895.1655
  66  854.4617
  67  964.0645
  68  1092.631
  69  979.5179
  70  902.5889
  71  899.2823
  72  806.2288
  73  712.7415
  74  816.1991
  75  926.4219
  76  979.8044
  77  906.8714
  78  789.8954
  79  800.5919
  80  846.0637
  81  914.483
  82  827.7861
  83  814.5866
  84  864.4607
  85  889.6224
  86  948.3156
  87  971.7892
  88  896.6605
  89  915.0243
  90  903.1094
  91  911.7863
  92  858.5003
  93  961.562
  94  1033.902
  95  967.2101
  96  928.6737
  97  951.1292
  98  835.8455
  99  938.4845
 100  965.9491
 101  951.2763
 102  999.3295
 103  904.8415
 104  864.0126
 105  1029.036
 106  972.458
 107  1046.621
 108  1060.216
 109  998.811
 110  1030.313
 111  1004.605
 112  894.7373
 113  942.6412
 114  857.4523
 115  807.024
 116  814.3968
 117  941.1942
 118  750.0248
 119  667.451
 120  819.812
 121  868.8166
 122  753.5319
 123  859.2076
 124  948.3801
 125  871.1014
 126  740.9053
 127  822.5022
 128  905.7166
 129  853.2194
 130  859.3378
 131  943.848
 132  907.1215
 133  906.0577
 134  887.2825
 135  901.8922
 136  904.6594
 137  858.3029
 138  863.7053
 139  895.1548
 140  837.1645
 141  878.1668
 142  869.1085
 143  834.5264
 144  814.6328
 145  782.5262
 146  734.8896
 147  715.8868
 148  817.6142
 149  996.3185
 150  949.5084
 151  911.8928
 152  852.2532
 153  866.4854
 154  825.0034
 155  860.7438
 156  903.6198
 157  943.7217
 158  959.9099
 159  985.8495
 160  949.4335
 161  823.8419
 162  923.6718
 163  867.68
 164  829.6483
 165  975.2395
 166  876.3835
 167  870.1473
 168  982.3198
 169  949.4686
 170  810.5807
 171  870.8721
 172  916.0411
 173  765.462
 174  795.1317
 175  788.9805
 176  829.2164
 177  847.0873
 178  952.2566
 179  969.5203
 180  930.5207
 181  973.301
 182  969.5843
 183  931.5998
 184  912.2
 185  920.5371
 186  893.5762
 187  710.7545
 188  816.8338
 189  942.6326
 190  878.4852
 191  837.173
 192  867.6231
 193  963.0903
 194  931.1479
 195  989.5605
 196  1025.875
 197  918.3609
 198  894.2424
 199  975.9425
 200  973.1548
 201  805.941
 202  813.3687
 203  917.4185
 204  881.3291
 205  849.4978
 206  738.4927
 207  704.6334
 208  830.0717
 209  847.0872
 210  858.1056
 211  909.5681
 212  707.9895
 213  689.3726
 214  755.1573
 215  739.3666
 216  796.7657
 217  877.2186
 218  930.0438
 219  825.5455
 220  773.546
 221  851.1804
 222  898.4578
 223  800.0005
 224  726.4052
 225  746.6758
 226  793.763
 227  881.627
 228  873.8109
 229  817.386
 230  900.6804
 231  818.0405
 232  874.5731
 233  930.1992
 234  812.2036
 235  674.9096
 236  702.3974
 237  866.452
 238  1000.557
 239  964.9271
 240  913.8987
 241  871.0826
 242  829.5115
 243  765.1845
 244  715.9353
 245  770.3077
 246  961.6177
 247  939.2545
 248  821.86
 249  777.903
 250  804.988
 251  897.0289
 252  935.1127
 253  893.545
 254  792.9816
 255  756.7388
 256  794.6808
 257  925.9327
 258  1058.797
 259  1103.881
 260  1071.302
 261  993.4686
 262  853.6677
 263  808.8115
 264  880.1621
 265  890.8787
 266  893.0825
 267  870.6818
 268  723.4871
 269  663.3757
 270  904.0688
 271  891.8373
 272  790.7127
 273  809.4612
 274  947.935
 275  960.1786
 276  863.1188
 277  795.3411
 278  766.0001
 279  857.4071
 280  806.675
 281  814.4954
 282  823.0862
 283  840.3742
 284  785.3007
 285  775.8555
 286  879.3446
 287  889.5811
 288  923.4045
 289  711.87
 290  666.6754
 291  759.6213
 292  704.8655
 293  712.4206
 294  734.3063
 295  740.5634
 296  766.1738
 297  693.5858
 298  875.6529
 299  840.4967
 300  723.4728
 301  732.8557
 302  733.2603
 303  791.6507
 304  869.8201
 305  849.9774
 306  918.4963
 307  928.4342
 308  891.9068
 309  789.7548
 310  810.6435
 311  841.8018
 312  770.8677
 313  833.8156
 314  793.1738
 315  791.239
 316  851.1393
 317  837.4738
 318  789.5568
 319  863.5079
 320  956.9707
 321  925.5186
 322  853.2274
 323  862.3075
 324  973.0788
 325  913.5302
 326  837.6557
 327  850.6979
 328  804.8719
 329  856.9895
 330  959.3568
 331  960.1956
 332  899.4196
 333  872.5353
 334  891.412
 335  895.4856
 336  909.0341
 337  1009.519
 338  906.5589
 339  777.2042
 340  836.7416
 341  783.6183
 342  785.0942
 343  819.198
 344  765.2772
 345  754.1326
 346  785.3245
 347  909.8158
 348  976.4963
 349  891.8809
 350  862.3065
 351  768.7728
 352  915.1853
 353  980.3906
 354  915.7932
 355  916.7028
 356  819.184
 357  875.9138
 358  950.9255
 359  892.8619
 360  763.2943
 361  779.1315
 362  873.739
 363  824.8487
 364  822.7719
 365  925.2098
 366  948.8135
 367  803.5103
 368  817.6078
 369  840.8162
 370  891.4074
 371  859.1724
 372  840.1334
 373  874.73
 374  971.1774
 375  974.1213
 376  983.6895
 377  958.2467
 378  816.4354
 379  795.2355
 380  911.8939
 381  1024.126
 382  1083.604
 383  992.297
 384  922.2964
 385  924.7837
 386  936.3281
 387  935.5576
 388  928.3359
 389  882.7987
 390  999.7402
 391  1036.366
 392  988.8193
 393  878.0002
 394  846.4753
 395  928.9549
 396  1036.427
 397  993.2618
 398  993.7151
 399  981.0072
 400  922.4702
 401  871.0885
 402  976.473
 403  1025.054
 404  947.0087
 405  963.1744
 406  958.4509
 407  1058.2
 408  975.6707
 409  1071.783
 410  967.0344
 411  891.0095
 412  853.1463
 413  781.7038
 414  911.4666
 415  895.1548
 416  921.397
 417  874.524
 418  858.9611
 419  836.7802
 420  764.8355
 421  816.2462
 422  827.2994
 423  799.9643
 424  890.5977
 425  890.9671
 426  810.6969
 427  934.438
 428  959.5157
 429  873.7322
 430  894.2716
 431  992.8864
 432  959.2727
 433  912.4207
 434  730.2266
 435  807.7599
 436  945.0214
 437  975.2142
 438  993.8682
 439  991.6038
 440  1000.077
 441  1010.68
 442  935.3245
 443  916.4875
 444  874.1461
 445  806.4182
 446  857.8033
 447  822.0306
 448  919.6375
 449  967.0643
 450  963.2637
 451  1072.742
 452  828.3951
 453  865.6361
 454  897.9398
 455  933.498
 456  941.4697
 457  926.6951
 458  1042.455
 459  1021.619
 460  897.462
 461  832.0083
 462  899.2603
 463  1085.623
 464  974.9177
 465  978.7071
 466  1058.279
 467  978.1354
 468  966.1777
 469  1005.387
 470  1007.147
 471  938.5887
 472  928.1813
 473  972.6987
 474  918.0272
 475  780.038
 476  914.3044
 477  957.4876
 478  963.9261
 479  1077.578
 480  949.2186
 481  772.7177
 482  776.394
 483  819.5319
 484  844.5815
 485  967.0532
 486  939.6882
 487  897.1292
 488  881.9705
 489  1029.059
 490  1104.014
 491  1152.866
 492  1059.29
 493  978.4374
 494  903.9256
 495  913.9894
 496  913.2596
 497  916.0878
 498  868.1036
 499  804.462
 500  782.9456
 501  782.7034
 502  750.7226
 503  878.1141
 504  966.2938
 505  957.3412
 506  1010.064
 507  1103.306
 508  1190.295
 509  1226.443
 510  1325.663
 511  1514.834
