# Input file       =  1212547564.111335_cleaned.dat
# Candidate        =  PSR_0332+5434
# Telescope        =  AR
# Epoch_topo       =  58278.115117029338
# Epoch_bary       =  N/A
# T_sample         =  0.002
# Data Folded      =  7143424
# Data Avg         =  0.0500286425279887
# Data StdDev      =  1.00002966623821 
# Profile Bins     =  512
# Profile Avg      =  698.008212900532 
# Profile StdDev   =  118.122088615932 
# Reduced chi-sqr  =  1.357
# Prob(Noise)      <  1.21e-07   (~5.2 sigma)
# P_topo (ms)      =  714.509083907356  +/- 0.000141
# P'_topo (s/s)    =  -0                +/- 7.67e-11
# P''_topo (s/s^2) =  0                 +/- 3.48e-14
# P_bary (ms)      =  N/A
# P'_bary (s/s)    =  N/A
# P''_bary (s/s^2) =  N/A
# P_orb (s)        =  N/A
# asin(i)/c (s)    =  N/A
# eccentricity     =  N/A
# w (rad)          =  N/A
# T_peri           =  N/A
######################################################
   0  1221.711
   1  1081.868
   2  989.4648
   3  982.0703
   4  854.0159
   5  639.0553
   6  710.6135
   7  656.4259
   8  631.188
   9  668.5703
  10  731.5392
  11  708.8109
  12  698.3016
  13  790.0135
  14  826.9253
  15  801.6142
  16  806.9755
  17  728.9429
  18  709.2072
  19  729.3249
  20  685.6964
  21  705.1725
  22  669.99
  23  650.9722
  24  633.8119
  25  621.7882
  26  604.3101
  27  592.5461
  28  642.6579
  29  610.8893
  30  632.0273
  31  763.2582
  32  778.6376
  33  714.12
  34  789.3679
  35  760.2657
  36  563.8485
  37  683.1553
  38  711.2393
  39  719.2743
  40  675.6677
  41  638.4883
  42  592.9155
  43  461.5701
  44  634.8568
  45  615.3531
  46  679.9257
  47  710.7993
  48  661.4838
  49  670.4597
  50  689.7017
  51  615.7528
  52  581.5901
  53  680.5712
  54  753.8649
  55  605.4153
  56  502.1357
  57  441.6707
  58  498.0592
  59  624.28
  60  696.9152
  61  674.4606
  62  748.7887
  63  783.9538
  64  807.8801
  65  650.3283
  66  548.7751
  67  550.8353
  68  712.3792
  69  583.886
  70  802.7973
  71  812.3159
  72  842.2504
  73  798.6725
  74  818.5613
  75  877.4298
  76  641.7338
  77  588.5459
  78  689.2216
  79  741.7758
  80  729.3637
  81  718.0582
  82  754.1027
  83  707.3231
  84  759.4026
  85  756.1506
  86  671.304
  87  662.2938
  88  698.2543
  89  781.6704
  90  788.9918
  91  780.6508
  92  796.3975
  93  698.9849
  94  645.4039
  95  713.5687
  96  645.2006
  97  634.9549
  98  760.8163
  99  771.3138
 100  597.6245
 101  598.3728
 102  626.1664
 103  532.3781
 104  735.4652
 105  709.9088
 106  768.1927
 107  813.7462
 108  793.0123
 109  788.8878
 110  764.0166
 111  787.0704
 112  732.4128
 113  869.5992
 114  881.7967
 115  715.6701
 116  880.8228
 117  628.5991
 118  682.6952
 119  749.5201
 120  669.933
 121  716.3578
 122  770.7941
 123  885.2546
 124  864.4437
 125  755.2648
 126  672.5982
 127  661.2567
 128  729.4178
 129  675.536
 130  726.5879
 131  813.664
 132  732.3027
 133  669.0568
 134  689.6919
 135  677.1724
 136  679.6434
 137  701.8218
 138  674.4318
 139  633.3338
 140  658.076
 141  659.9267
 142  670.1932
 143  772.0818
 144  758.9216
 145  582.8918
 146  771.3425
 147  809.7736
 148  761.9381
 149  756.7758
 150  657.4681
 151  758.8666
 152  666.0334
 153  763.7621
 154  793.2563
 155  843.8436
 156  778.8074
 157  713.3275
 158  719.3798
 159  721.9271
 160  637.6703
 161  609.2
 162  595.8126
 163  645.127
 164  662.7532
 165  817.2136
 166  658.1775
 167  555.4744
 168  612.8215
 169  659.7764
 170  695.5414
 171  696.1669
 172  762.71
 173  679.5504
 174  592.1636
 175  680.8123
 176  629.8953
 177  536.0296
 178  659.6721
 179  533.8229
 180  579.4058
 181  736.3696
 182  715.9256
 183  825.884
 184  818.7696
 185  805.0492
 186  701.4125
 187  782.3668
 188  896.2784
 189  752.7505
 190  791.6328
 191  727.6895
 192  727.3499
 193  616.793
 194  722.4211
 195  718.5327
 196  681.2494
 197  772.589
 198  788.5456
 199  752.6461
 200  748.6824
 201  682.6362
 202  713.4839
 203  804.5851
 204  762.4097
 205  741.6583
 206  695.3123
 207  556.1025
 208  654.6035
 209  575.8079
 210  539.8306
 211  490.4951
 212  553.9623
 213  744.3015
 214  646.0385
 215  727.7313
 216  746.3931
 217  850.8386
 218  881.4921
 219  763.5477
 220  714.4115
 221  764.4206
 222  718.2787
 223  622.8259
 224  711.0353
 225  619.2693
 226  565.9179
 227  728.673
 228  881.1838
 229  932.2488
 230  725.7334
 231  723.7372
 232  660.7023
 233  536.5342
 234  697.9963
 235  715.7804
 236  687.0136
 237  586.5255
 238  525.1406
 239  629.0361
 240  621.8672
 241  650.3735
 242  581.794
 243  612.1159
 244  666.1413
 245  811.9879
 246  709.1775
 247  669.96
 248  640.4888
 249  719.7822
 250  660.639
 251  634.59
 252  722.6069
 253  700.3694
 254  604.6586
 255  669.3889
 256  672.4307
 257  708.7103
 258  599.4474
 259  540.7105
 260  468.1516
 261  647.7809
 262  733.6351
 263  766.1653
 264  795.7535
 265  714.6561
 266  825.2111
 267  793.5704
 268  595.1815
 269  689.6043
 270  849.0817
 271  808.0947
 272  689.5663
 273  601.631
 274  566.4493
 275  563.4156
 276  743.6259
 277  613.4389
 278  635.4196
 279  811.682
 280  697.9672
 281  588.7374
 282  652.6287
 283  710.1561
 284  720.9235
 285  681.3716
 286  697.4473
 287  666.7335
 288  581.8441
 289  663.9182
 290  612.7591
 291  753.1193
 292  676.7127
 293  705.6529
 294  720.6901
 295  654.0688
 296  639.1293
 297  531.4036
 298  620.4354
 299  513.359
 300  562.6484
 301  675.4549
 302  673.9374
 303  651.8653
 304  589.8608
 305  695.2079
 306  722.6963
 307  598.3693
 308  656.1449
 309  667.0662
 310  732.1029
 311  639.4236
 312  697.5346
 313  634.5945
 314  629.6938
 315  693.733
 316  719.6303
 317  706.4937
 318  714.184
 319  715.6165
 320  600.6265
 321  626.0499
 322  668.8752
 323  579.3883
 324  680.6894
 325  672.1793
 326  579.3227
 327  678.2742
 328  815.9913
 329  771.361
 330  840.6625
 331  794.4923
 332  642.5526
 333  550.0491
 334  581.8194
 335  729.7532
 336  755.7582
 337  680.2604
 338  740.8104
 339  722.0079
 340  660.9894
 341  647.4344
 342  603.1248
 343  692.4412
 344  789.1282
 345  739.729
 346  718.3508
 347  739.4676
 348  695.5721
 349  804.6766
 350  698.0864
 351  636.387
 352  615.5449
 353  671.7714
 354  663.5208
 355  506.616
 356  514.6643
 357  613.3455
 358  583.8315
 359  580.709
 360  693.033
 361  692.085
 362  697.0404
 363  523.809
 364  384.5011
 365  572.7142
 366  624.8456
 367  698.5914
 368  619.9537
 369  629.6181
 370  646.7411
 371  484.216
 372  608.1478
 373  579.0241
 374  658.4052
 375  684.325
 376  608.2707
 377  738.7448
 378  601.8589
 379  513.2381
 380  611.2888
 381  677.8338
 382  679.5742
 383  633.7172
 384  629.0524
 385  672.6692
 386  726.4233
 387  557.548
 388  525.1381
 389  612.8812
 390  639.1003
 391  617.9042
 392  543.4498
 393  706.3284
 394  744.0289
 395  583.2839
 396  483.7762
 397  673.6005
 398  699.1836
 399  627.2552
 400  717.5309
 401  765.5122
 402  783.1121
 403  614.0056
 404  689.9629
 405  589.3047
 406  609.4432
 407  624.9744
 408  640.4346
 409  751.3622
 410  698.9103
 411  750.4319
 412  694.6501
 413  734.8394
 414  705.9956
 415  618.8636
 416  613.1329
 417  542.031
 418  716.1094
 419  720.4037
 420  649.0021
 421  556.2088
 422  594.5275
 423  655.1517
 424  683.1941
 425  603.8574
 426  750.8582
 427  780.4914
 428  746.3025
 429  682.5132
 430  668.8345
 431  786.829
 432  704.2031
 433  605.6059
 434  763.9735
 435  818.1089
 436  858.3366
 437  831.4719
 438  727.8086
 439  759.8457
 440  616.749
 441  632.9818
 442  672.4097
 443  643.6407
 444  836.575
 445  827.2907
 446  709.8633
 447  688.2779
 448  700.3641
 449  740.9697
 450  718.2548
 451  776.149
 452  848.6536
 453  811.6865
 454  600.3088
 455  658.8412
 456  652.8947
 457  705.1508
 458  728.6622
 459  675.2357
 460  691.0886
 461  718.9716
 462  749.7494
 463  624.332
 464  643.8295
 465  804.888
 466  725.7444
 467  760.7303
 468  656.6584
 469  744.5294
 470  639.7144
 471  638.0602
 472  768.1191
 473  617.9692
 474  708.5814
 475  721.502
 476  693.2042
 477  768.7681
 478  771.3687
 479  778.0385
 480  734.1226
 481  639.9581
 482  749.4613
 483  779.7442
 484  782.6311
 485  728.5775
 486  790.7711
 487  835.9626
 488  763.4124
 489  792.1259
 490  779.2306
 491  699.9364
 492  635.3686
 493  886.5529
 494  796.2595
 495  841.3522
 496  872.9092
 497  718.9346
 498  746.4697
 499  673.3054
 500  649.6602
 501  764.7304
 502  844.6224
 503  883.0489
 504  831.1392
 505  781.8251
 506  724.8625
 507  678.6345
 508  951.3727
 509  1073.869
 510  1178.07
 511  1314.674
