# Input file       =  1212375269.110713_cleaned.dat
# Candidate        =  PSR_0332+5434
# Telescope        =  AR
# Epoch_topo       =  58276.120961929548
# Epoch_bary       =  N/A
# T_sample         =  0.002
# Data Folded      =  7143424
# Data Avg         =  0.0560754278818227
# Data StdDev      =  1.00003985890191 
# Profile Bins     =  512
# Profile Avg      =  782.329334005144 
# Profile StdDev   =  118.12329255894  
# Reduced chi-sqr  =  1.675
# Prob(Noise)      <  7.93e-20   (~9.0 sigma)
# P_topo (ms)      =  714.5109993343    +/- 0.000214
# P'_topo (s/s)    =  -0                +/- 1.16e-10
# P''_topo (s/s^2) =  0                 +/- 5.26e-14
# P_bary (ms)      =  N/A
# P'_bary (s/s)    =  N/A
# P''_bary (s/s^2) =  N/A
# P_orb (s)        =  N/A
# asin(i)/c (s)    =  N/A
# eccentricity     =  N/A
# w (rad)          =  N/A
# T_peri           =  N/A
######################################################
   0  1506.525
   1  1532.047
   2  1442.199
   3  1161.046
   4  853.4739
   5  686.2346
   6  764.6765
   7  854.7317
   8  808.0786
   9  884.718
  10  810.7305
  11  775.8989
  12  859.0801
  13  887.0185
  14  922.6882
  15  912.841
  16  854.9255
  17  789.4568
  18  730.3971
  19  761.548
  20  873.0732
  21  794.5743
  22  769.7934
  23  864.0795
  24  809.8354
  25  813.9172
  26  855.3661
  27  807.3929
  28  737.7103
  29  763.0701
  30  829.8842
  31  660.8781
  32  812.6532
  33  837.5685
  34  769.6651
  35  854.0356
  36  850.8801
  37  763.4305
  38  705.7859
  39  720.761
  40  688.1195
  41  802.2607
  42  776.5616
  43  758.6162
  44  648.969
  45  605.9125
  46  693.8541
  47  702.5048
  48  713.9855
  49  781.7607
  50  693.0677
  51  773.4791
  52  762.4834
  53  566.7722
  54  723.395
  55  764.9905
  56  760.2004
  57  769.7465
  58  725.2747
  59  725.6407
  60  738.9681
  61  686.875
  62  612.8044
  63  701.9882
  64  843.0595
  65  828.4686
  66  668.6769
  67  619.2822
  68  596.5658
  69  561.3264
  70  673.0011
  71  718.254
  72  666.0453
  73  565.5931
  74  618.6081
  75  611.7267
  76  721.8223
  77  740.223
  78  636.3052
  79  603.2905
  80  651.7635
  81  636.4466
  82  647.5422
  83  645.9786
  84  707.1096
  85  641.8188
  86  662.0662
  87  703.6121
  88  670.3744
  89  623.4362
  90  633.4626
  91  658.241
  92  644.0382
  93  625.8112
  94  683.5678
  95  687.6455
  96  670.2426
  97  674.6902
  98  634.0203
  99  727.1659
 100  748.1328
 101  698.6518
 102  621.6364
 103  613.5338
 104  603.7659
 105  714.5912
 106  698.5527
 107  577.5089
 108  635.5242
 109  711.787
 110  618.9968
 111  592.5986
 112  644.8652
 113  674.0375
 114  654.7819
 115  695.9291
 116  760.7946
 117  770.5723
 118  754.73
 119  768.367
 120  686.3895
 121  683.4117
 122  685.9367
 123  620.7045
 124  687.8385
 125  812.4208
 126  789.4818
 127  740.5519
 128  753.2465
 129  657.4376
 130  706.2258
 131  759.6153
 132  725.9097
 133  677.637
 134  728.3173
 135  746.0768
 136  686.535
 137  705.6535
 138  676.7727
 139  803.0317
 140  733.9867
 141  587.0619
 142  531.2486
 143  625.2667
 144  638.6273
 145  690.9001
 146  733.0076
 147  623.9717
 148  588.4177
 149  592.5129
 150  727.8428
 151  851.809
 152  748.7776
 153  698.4547
 154  674.3411
 155  720.7695
 156  675.5258
 157  673.9572
 158  715.8537
 159  778.174
 160  686.7001
 161  602.2455
 162  542.9012
 163  560.4355
 164  723.9703
 165  791.902
 166  782.9746
 167  771.9806
 168  691.1993
 169  702.7104
 170  741.5402
 171  681.3431
 172  823.3853
 173  931.1867
 174  841.2484
 175  805.1806
 176  795.42
 177  732.1048
 178  730.9599
 179  710.4171
 180  698.2529
 181  798.1466
 182  871.9639
 183  717.348
 184  827.33
 185  742.8599
 186  723.32
 187  781.6533
 188  791.0336
 189  812.0258
 190  868.5734
 191  950.0156
 192  896.5606
 193  809.3057
 194  849.5172
 195  809.4856
 196  826.7441
 197  828.419
 198  879.447
 199  705.379
 200  703.0309
 201  742.0071
 202  775.7771
 203  857.0576
 204  789.9202
 205  730.3964
 206  812.0687
 207  854.9758
 208  909.9535
 209  893.2424
 210  794.6475
 211  851.0825
 212  767.5945
 213  727.9974
 214  699.4584
 215  763.9325
 216  906.7507
 217  809.0491
 218  943.4144
 219  1004.073
 220  897.8126
 221  843.4011
 222  706.1884
 223  816.8953
 224  787.0399
 225  607.7105
 226  663.124
 227  754.5165
 228  779.2674
 229  816.7526
 230  780.5344
 231  822.4145
 232  816.8659
 233  846.4934
 234  775.6527
 235  771.8472
 236  780.6489
 237  825.9237
 238  910.3093
 239  932.9713
 240  950.663
 241  886.7458
 242  888.6375
 243  853.7562
 244  827.3019
 245  879.8698
 246  902.9645
 247  858.6442
 248  893.83
 249  895.0978
 250  803.0068
 251  724.0739
 252  765.3043
 253  793.7684
 254  842.8954
 255  796.5012
 256  807.9305
 257  747.6917
 258  665.1371
 259  624.0494
 260  704.14
 261  851.1293
 262  782.0854
 263  762.2993
 264  832.5271
 265  849.36
 266  690.7869
 267  730.5043
 268  718.7293
 269  772.7619
 270  915.4777
 271  794.6817
 272  770.6938
 273  811.0593
 274  829.8159
 275  792.7523
 276  796.8264
 277  774.7653
 278  836.3875
 279  864.3574
 280  801.9368
 281  778.8438
 282  892.3323
 283  869.9169
 284  774.5527
 285  713.9638
 286  777.8149
 287  893.3949
 288  750.5087
 289  765.0928
 290  954.5783
 291  981.7462
 292  879.9943
 293  696.3312
 294  664.1448
 295  727.2916
 296  769.3286
 297  899.8748
 298  827.8493
 299  848.1403
 300  879.4982
 301  765.2095
 302  760.874
 303  765.1685
 304  687.6371
 305  781.7715
 306  887.6979
 307  778.1467
 308  704.3288
 309  851.3282
 310  848.7607
 311  880.5117
 312  813.371
 313  869.4781
 314  802.2986
 315  779.237
 316  837.8841
 317  673.5613
 318  716.0981
 319  799.7325
 320  733.2521
 321  771.7079
 322  820.6697
 323  875.7444
 324  889.4006
 325  749.3961
 326  743.6992
 327  791.5277
 328  809.8947
 329  792.1747
 330  756.6378
 331  731.5765
 332  849.093
 333  715.0453
 334  725.1407
 335  795.2444
 336  768.2305
 337  713.3299
 338  790.4036
 339  818.0023
 340  690.4556
 341  742.297
 342  788.6671
 343  805.7165
 344  765.7581
 345  796.7842
 346  766.0571
 347  887.3351
 348  778.7941
 349  774.2759
 350  740.3895
 351  728.869
 352  770.3665
 353  877.0256
 354  805.6458
 355  730.8299
 356  713.2505
 357  825.8284
 358  859.8785
 359  720.5287
 360  740.1675
 361  802.1793
 362  730.0477
 363  753.413
 364  923.5477
 365  847.162
 366  675.3029
 367  675.6832
 368  703.0173
 369  673.4208
 370  790.4501
 371  865.5375
 372  855.1182
 373  816.1435
 374  753.2418
 375  721.2635
 376  623.5021
 377  799.044
 378  839.901
 379  934.5403
 380  912.3203
 381  804.0586
 382  635.3317
 383  779.2269
 384  756.2937
 385  883.9632
 386  760.9576
 387  718.5978
 388  784.0197
 389  721.8811
 390  762.0192
 391  828.3289
 392  787.2929
 393  810.0699
 394  859.2272
 395  731.9548
 396  834.3373
 397  803.0007
 398  799.2002
 399  805.6396
 400  805.6432
 401  794.0774
 402  785.6315
 403  725.5035
 404  713.658
 405  869.9169
 406  768.6292
 407  670.6406
 408  737.5092
 409  767.4672
 410  830.4084
 411  964.5834
 412  910.4461
 413  923.9963
 414  892.8161
 415  845.6679
 416  785.843
 417  750.2333
 418  827.3984
 419  810.8867
 420  826.096
 421  847.0504
 422  983.3558
 423  867.5034
 424  942.6498
 425  984.6722
 426  887.9332
 427  839.5118
 428  695.1204
 429  797.3547
 430  829.5408
 431  873.7275
 432  811.9427
 433  823.7886
 434  879.7545
 435  801.7057
 436  849.5882
 437  901.5967
 438  843.9758
 439  899.7614
 440  829.771
 441  827.1269
 442  793.5859
 443  842.7321
 444  773.253
 445  791.3903
 446  825.9633
 447  974.4224
 448  769.0499
 449  846.3699
 450  948.4787
 451  884.3726
 452  818.7392
 453  810.6895
 454  782.9742
 455  876.4415
 456  908.4822
 457  903.4958
 458  1040.823
 459  916.8
 460  928.9631
 461  925.4305
 462  918.1461
 463  906.0594
 464  744.0187
 465  813.8783
 466  674.5554
 467  718.5131
 468  733.5927
 469  691.9957
 470  841.7186
 471  804.3487
 472  676.244
 473  782.2674
 474  781.3196
 475  792.7955
 476  715.6882
 477  691.9837
 478  897.2307
 479  787.4892
 480  717.0679
 481  697.339
 482  648.5369
 483  747.5506
 484  845.1747
 485  730.8777
 486  823.0236
 487  811.762
 488  734.2275
 489  738.6296
 490  701.0266
 491  731.4663
 492  745.666
 493  760.5369
 494  797.4667
 495  913.6274
 496  814.4437
 497  779.3588
 498  761.2852
 499  827.2459
 500  735.6011
 501  743.3549
 502  877.5874
 503  914.1815
 504  850.067
 505  862.3308
 506  853.0934
 507  996.2695
 508  991.455
 509  1074.561
 510  1253.948
 511  1381.274
