# Input file       =  1212461417.113944_cleaned.dat
# Candidate        =  PSR_0332+5434
# Telescope        =  AR
# Epoch_topo       =  58277.118045300282
# Epoch_bary       =  N/A
# T_sample         =  0.002
# Data Folded      =  7143424
# Data Avg         =  0.043932523541829
# Data StdDev      =  1.00001658636893 
# Profile Bins     =  512
# Profile Avg      =  612.938116945226 
# Profile StdDev   =  118.120543640287 
# Reduced chi-sqr  =  1.599
# Prob(Noise)      <  1.72e-16   (~8.2 sigma)
# P_topo (ms)      =  714.510040201392  +/- 0.00023
# P'_topo (s/s)    =  -0                +/- 1.24e-10
# P''_topo (s/s^2) =  0                 +/- 5.65e-14
# P_bary (ms)      =  N/A
# P'_bary (s/s)    =  N/A
# P''_bary (s/s^2) =  N/A
# P_orb (s)        =  N/A
# asin(i)/c (s)    =  N/A
# eccentricity     =  N/A
# w (rad)          =  N/A
# T_peri           =  N/A
######################################################
   0  1350.734
   1  1359.294
   2  1177.033
   3  886.7813
   4  826.8306
   5  770.0876
   6  554.9102
   7  498.3602
   8  563.3004
   9  643.8586
  10  596.251
  11  631.1682
  12  703.3596
  13  798.8074
  14  684.8477
  15  705.0291
  16  753.1075
  17  527.843
  18  517.6735
  19  414.9109
  20  579.3137
  21  533.1148
  22  544.8787
  23  533.6062
  24  586.6273
  25  629.5059
  26  440.9659
  27  478.2358
  28  526.4575
  29  671.6641
  30  680.806
  31  609.7538
  32  717.9904
  33  426.525
  34  374.7824
  35  475.2219
  36  602.2037
  37  651.3601
  38  652.5549
  39  576.6552
  40  491.2657
  41  564.9286
  42  489.4041
  43  475.7264
  44  386.9812
  45  509.2239
  46  508.193
  47  631.7229
  48  707.0102
  49  626.4067
  50  540.7473
  51  574.4848
  52  585.5272
  53  459.7754
  54  587.6887
  55  621.525
  56  574.8895
  57  598.4237
  58  620.2323
  59  559.2419
  60  585.0514
  61  582.3771
  62  522.5347
  63  434.3935
  64  539.1653
  65  609.752
  66  572.6053
  67  570.6382
  68  566.3834
  69  607.7006
  70  611.9375
  71  632.3975
  72  645.1072
  73  718.814
  74  635.5884
  75  587.5737
  76  703.9102
  77  618.5853
  78  631.4592
  79  496.9034
  80  473.7274
  81  607.2858
  82  633.4632
  83  648.339
  84  628.9123
  85  572.4372
  86  645.4124
  87  503.0802
  88  572.3369
  89  703.2604
  90  613.2379
  91  743.9466
  92  681.446
  93  642.4412
  94  594.7085
  95  488.9218
  96  571.4094
  97  662.2811
  98  618.8512
  99  578.3428
 100  644.4285
 101  637.8915
 102  546.8132
 103  559.341
 104  578.3802
 105  510.076
 106  755.2362
 107  735.3013
 108  729.6136
 109  658.6591
 110  631.0179
 111  681.4924
 112  675.2759
 113  718.251
 114  550.8017
 115  588.6868
 116  659.6464
 117  541.0102
 118  629.6713
 119  694.2364
 120  705.1031
 121  630.356
 122  561.3697
 123  557.6625
 124  575.9017
 125  662.3613
 126  613.4001
 127  581.1899
 128  544.5572
 129  633.8221
 130  612.2421
 131  674.9081
 132  607.1671
 133  556.9223
 134  725.9406
 135  660.5244
 136  618.3847
 137  668.6661
 138  609.3829
 139  618.1735
 140  644.9705
 141  633.6023
 142  537.0152
 143  649.0032
 144  619.238
 145  533.2704
 146  549.3966
 147  658.8936
 148  671.2164
 149  612.0129
 150  581.8752
 151  505.0808
 152  415.5982
 153  764.4922
 154  709.702
 155  659.5323
 156  685.8917
 157  654.8094
 158  613.0713
 159  629.7366
 160  646.8511
 161  578.2303
 162  564.1823
 163  446.9709
 164  623.8816
 165  705.6237
 166  681.613
 167  554.5759
 168  515.5823
 169  492.8638
 170  382.3777
 171  460.1656
 172  640.7075
 173  530.6074
 174  540.5632
 175  613.7877
 176  485.0973
 177  653.1762
 178  652.6992
 179  701.1806
 180  624.0518
 181  538.166
 182  611.0128
 183  609.4276
 184  629.5767
 185  585.907
 186  668.629
 187  626.608
 188  550.6654
 189  667.0193
 190  522.8257
 191  450.161
 192  484.5647
 193  621.7492
 194  640.2283
 195  542.5292
 196  554.207
 197  607.9451
 198  627.9747
 199  497.1945
 200  582.5812
 201  685.2552
 202  661.0291
 203  707.394
 204  659.3397
 205  609.9078
 206  517.673
 207  462.8946
 208  514.7526
 209  415.5504
 210  465.786
 211  577.2704
 212  571.6567
 213  563.1765
 214  615.9065
 215  651.8133
 216  634.7579
 217  564.7319
 218  559.5847
 219  602.8481
 220  572.4108
 221  663.5861
 222  591.3704
 223  549.0814
 224  708.4092
 225  549.5213
 226  499.5621
 227  550.2175
 228  685.5623
 229  622.1127
 230  484.796
 231  644.6102
 232  800.4484
 233  757.4568
 234  661.7451
 235  676.6612
 236  711.7845
 237  582.8002
 238  568.5616
 239  578.9495
 240  636.8135
 241  751.9659
 242  601.2874
 243  521.2603
 244  636.1796
 245  620.09
 246  468.7198
 247  596.1694
 248  745.8189
 249  663.6349
 250  498.431
 251  513.4952
 252  603.478
 253  609.456
 254  590.5947
 255  671.6654
 256  796.1851
 257  684.1422
 258  644.6473
 259  660.8455
 260  730.4453
 261  694.4388
 262  647.3286
 263  622.671
 264  580.1041
 265  680.2679
 266  636.3035
 267  610.6607
 268  795.4747
 269  721.667
 270  782.7863
 271  837.3335
 272  611.1337
 273  655.5777
 274  733.3966
 275  734.3106
 276  755.5779
 277  652.8489
 278  734.3871
 279  688.4922
 280  666.7504
 281  704.5834
 282  676.4052
 283  671.5656
 284  659.506
 285  646.041
 286  675.4968
 287  666.5419
 288  569.9767
 289  610.8618
 290  613.5319
 291  609.9824
 292  683.5374
 293  730.9509
 294  646.6883
 295  576.9559
 296  609.2043
 297  582.4213
 298  422.6487
 299  503.6094
 300  525.6949
 301  572.4487
 302  661.0458
 303  653.5587
 304  615.6308
 305  765.9512
 306  638.0729
 307  544.6649
 308  476.7159
 309  575.8318
 310  643.152
 311  701.7118
 312  723.2087
 313  633.1307
 314  592.6972
 315  591.8148
 316  577.3867
 317  468.1746
 318  614.5676
 319  635.2121
 320  549.4074
 321  558.8495
 322  452.9086
 323  431.8546
 324  535.1463
 325  538.9993
 326  492.8158
 327  553.1211
 328  630.1258
 329  595.8638
 330  609.7756
 331  520.7966
 332  554.2631
 333  502.7872
 334  700.6984
 335  589.7158
 336  523.7593
 337  571.282
 338  452.5759
 339  462.3978
 340  538.6151
 341  590.1328
 342  708.5878
 343  655.0847
 344  612.2313
 345  617.8743
 346  614.6086
 347  679.8499
 348  718.842
 349  551.3183
 350  483.787
 351  544.7363
 352  592.553
 353  624.9017
 354  568.0103
 355  630.5339
 356  539.9334
 357  570.0731
 358  683.194
 359  782.1401
 360  646.5086
 361  590.408
 362  506.8763
 363  463.5598
 364  596.4379
 365  710.1432
 366  778.6707
 367  856.9741
 368  735.0976
 369  794.7861
 370  753.837
 371  732.424
 372  663.3156
 373  680.8224
 374  587.5225
 375  716.2225
 376  765.9408
 377  599.2751
 378  680.3471
 379  681.6929
 380  609.9999
 381  578.4337
 382  527.7086
 383  584.3307
 384  653.3611
 385  637.9824
 386  644.8007
 387  566.0506
 388  586.8206
 389  615.3655
 390  669.9969
 391  675.4727
 392  590.7071
 393  598.8609
 394  560.8152
 395  631.9309
 396  694.0412
 397  728.5255
 398  686.9255
 399  654.1614
 400  644.4835
 401  623.1372
 402  704.5098
 403  774.7578
 404  561.9464
 405  614.1381
 406  527.3859
 407  545.6795
 408  659.2971
 409  634.16
 410  558.0699
 411  613.0709
 412  663.787
 413  581.5565
 414  522.1394
 415  437.6757
 416  475.6602
 417  389.1785
 418  569.8268
 419  624.6347
 420  633.7499
 421  633.4932
 422  580.2128
 423  638.8522
 424  673.04
 425  483.9247
 426  463.8046
 427  622.0416
 428  605.6587
 429  554.2282
 430  508.3661
 431  606.7736
 432  695.0801
 433  655.9703
 434  536.0598
 435  464.7512
 436  528.7965
 437  499.5705
 438  446.3302
 439  350.614
 440  446.1108
 441  544.6702
 442  599.3386
 443  683.1421
 444  645.4211
 445  610.2611
 446  509.5233
 447  497.2077
 448  442.4845
 449  498.298
 450  635.5421
 451  559.226
 452  497.5203
 453  537.4811
 454  561.8757
 455  464.2956
 456  488.2776
 457  551.2783
 458  609.237
 459  589.2691
 460  628.6076
 461  577.7091
 462  596.9252
 463  643.9344
 464  639.1531
 465  562.8051
 466  467.5058
 467  512.6465
 468  471.5745
 469  566.3883
 470  519.5797
 471  547.2133
 472  495.2326
 473  508.1929
 474  573.4146
 475  657.9119
 476  668.7811
 477  672.0887
 478  686.9735
 479  543.3317
 480  535.7283
 481  600.2947
 482  642.9338
 483  591.8944
 484  531.4897
 485  529.3943
 486  584.0136
 487  631.434
 488  670.2141
 489  622.5059
 490  584.8791
 491  645.6854
 492  767.1199
 493  740.7003
 494  624.6618
 495  641.9478
 496  663.5687
 497  650.0193
 498  634.4052
 499  644.6705
 500  558.6937
 501  496.6775
 502  565.2778
 503  712.186
 504  699.4543
 505  707.6133
 506  680.7177
 507  777.1908
 508  814.9736
 509  947.0211
 510  1125.536
 511  1341.707
