# Input file       =  1212217597.124563_cleaned.dat
# Candidate        =  PSR_0332+5434
# Telescope        =  AR
# Epoch_topo       =  58274.296054682440
# Epoch_bary       =  N/A
# T_sample         =  0.002
# Data Folded      =  7340032
# Data Avg         =  0.0407591535012902
# Data StdDev      =  1.00003300466384 
# Profile Bins     =  512
# Profile Avg      =  584.668139304945 
# Profile StdDev   =  119.736988125382 
# Reduced chi-sqr  =  1.578
# Prob(Noise)      <  1.23e-15   (~7.9 sigma)
# P_topo (ms)      =  714.5127716968    +/- 0.000406
# P'_topo (s/s)    =  -0                +/- 2.14e-10
# P''_topo (s/s^2) =  0                 +/- 9.45e-14
# P_bary (ms)      =  N/A
# P'_bary (s/s)    =  N/A
# P''_bary (s/s^2) =  N/A
# P_orb (s)        =  N/A
# asin(i)/c (s)    =  N/A
# eccentricity     =  N/A
# w (rad)          =  N/A
# T_peri           =  N/A
######################################################
   0  1130.672
   1  1088.73
   2  940.8639
   3  660.9598
   4  597.7573
   5  677.5803
   6  617.6992
   7  567.0128
   8  517.8082
   9  449.4463
  10  570.1299
  11  527.6574
  12  498.3425
  13  660.3453
  14  689.5986
  15  657.8246
  16  581.246
  17  581.6331
  18  584.0085
  19  589.4802
  20  671.5669
  21  536.3748
  22  567.6041
  23  582.2592
  24  555.7692
  25  493.91
  26  629.3436
  27  626.4018
  28  494.8627
  29  451.8623
  30  471.813
  31  645.4513
  32  633.7327
  33  518.5037
  34  427.0782
  35  533.3288
  36  628.3301
  37  520.5166
  38  535.3031
  39  567.2736
  40  551.6817
  41  591.5179
  42  604.7684
  43  622.6828
  44  601.4359
  45  656.2648
  46  555.985
  47  575.3114
  48  630.8877
  49  443.6429
  50  497.22
  51  548.1751
  52  601.2967
  53  536.1392
  54  565.1471
  55  545.529
  56  541.7567
  57  516.8707
  58  552.6313
  59  627.1774
  60  579.511
  61  743.2
  62  633.2791
  63  523.3186
  64  541.0156
  65  554.2682
  66  559.2155
  67  582.3013
  68  642.7929
  69  626.6299
  70  590.628
  71  610.8964
  72  664.2623
  73  602.5374
  74  557.2847
  75  540.8621
  76  663.5732
  77  604.1229
  78  585.991
  79  572.7344
  80  724.3472
  81  618.83
  82  629.6246
  83  647.3533
  84  677.5465
  85  608.2109
  86  654.0236
  87  673.185
  88  594.9865
  89  539.803
  90  435.1818
  91  560.5598
  92  554.3198
  93  544.6075
  94  541.1554
  95  554.0088
  96  547.4911
  97  503.9373
  98  586.3628
  99  620.8732
 100  608.765
 101  576.2159
 102  612.4775
 103  585.4626
 104  570.6743
 105  633.2608
 106  570.7906
 107  618.8932
 108  619.3674
 109  547.7474
 110  585.6049
 111  538.6945
 112  573.2552
 113  548.7246
 114  559.6867
 115  564.3281
 116  591.6609
 117  691.2811
 118  654.0801
 119  649.6606
 120  671.5938
 121  722.0076
 122  726.2609
 123  644.1185
 124  625.1589
 125  576.7043
 126  696.1323
 127  662.204
 128  709.1682
 129  607.8601
 130  619.6968
 131  620.8824
 132  611.3834
 133  622.8282
 134  703.4308
 135  652.6125
 136  608.521
 137  590.0754
 138  625.1759
 139  695.8019
 140  687.9486
 141  580.0778
 142  601.4324
 143  626.0521
 144  784.6917
 145  824.0614
 146  697.5761
 147  723.2189
 148  648.4941
 149  698.8256
 150  746.6318
 151  771.1478
 152  775.2705
 153  597.4119
 154  624.8312
 155  707.5942
 156  659.778
 157  642.7299
 158  704.7817
 159  717.3613
 160  612.9587
 161  677.7731
 162  638.6208
 163  673.8661
 164  676.9434
 165  687.0505
 166  738.9115
 167  615.2527
 168  669.2637
 169  649.1922
 170  716.2126
 171  712.7899
 172  714.4984
 173  652.3027
 174  679.1389
 175  675.3401
 176  642.8058
 177  632.9006
 178  570.3719
 179  550.4763
 180  575.8124
 181  719.598
 182  737.389
 183  653.7891
 184  670.2451
 185  621.1658
 186  643.7569
 187  621.574
 188  692.1315
 189  787.2127
 190  602.6092
 191  609.2719
 192  662.1262
 193  675.5496
 194  781.213
 195  780.077
 196  800.7032
 197  687.4727
 198  785.1474
 199  823.8975
 200  681.5771
 201  667.9307
 202  684.0755
 203  764.0888
 204  738.5895
 205  670.5576
 206  725.7081
 207  775.934
 208  789.359
 209  705.2299
 210  716.5748
 211  673.4387
 212  628.1564
 213  780.9362
 214  771.9156
 215  756.1619
 216  634.3884
 217  723.4092
 218  696.9541
 219  785.2941
 220  817.5159
 221  737.7336
 222  695.6926
 223  722.7748
 224  732.8008
 225  710.4859
 226  624.7347
 227  700.5424
 228  658.8795
 229  570.198
 230  603.0688
 231  673.367
 232  667.9667
 233  701.2635
 234  661.9088
 235  546.6263
 236  428.0446
 237  459.7802
 238  558.447
 239  637.7368
 240  693.8338
 241  614.3156
 242  580.3608
 243  636.3195
 244  588.0201
 245  486.5784
 246  583.5786
 247  634.7469
 248  559.3803
 249  598.2914
 250  646.6264
 251  613.9715
 252  676.2138
 253  647.8814
 254  597.0505
 255  687.6094
 256  637.5774
 257  586.4883
 258  547.2495
 259  523.9214
 260  652.1146
 261  578.3457
 262  602.3029
 263  613.4821
 264  633.0107
 265  706.2474
 266  625.3406
 267  641.5925
 268  684.5305
 269  655.8044
 270  665.1378
 271  645.5692
 272  568.7921
 273  502.4881
 274  531.0082
 275  468.0421
 276  461.5674
 277  595.5681
 278  648.0973
 279  647.6746
 280  654.8894
 281  594.687
 282  650.3876
 283  653.1788
 284  543.1964
 285  533.3602
 286  642.7189
 287  620.6125
 288  626.9434
 289  661.4254
 290  664.322
 291  587.6045
 292  563.3292
 293  657.9935
 294  719.6785
 295  676.3005
 296  652.0486
 297  729.2239
 298  810.394
 299  598.5444
 300  622.9005
 301  688.6314
 302  623.2122
 303  623.4704
 304  569.8003
 305  581.249
 306  583.6294
 307  536.8838
 308  628.5923
 309  604.1494
 310  624.5032
 311  604.2831
 312  636.3504
 313  594.7312
 314  659.231
 315  655.4739
 316  654.2047
 317  706.6271
 318  662.4213
 319  512.345
 320  620.4399
 321  600.0386
 322  540.791
 323  537.569
 324  665.1649
 325  655.764
 326  723.8477
 327  523.6596
 328  541.45
 329  543.9882
 330  627.624
 331  656.2636
 332  587.3662
 333  559.9568
 334  497.1754
 335  417.6956
 336  491.6603
 337  557.0648
 338  659.2173
 339  740.5421
 340  622.1833
 341  547.2546
 342  613.8058
 343  503.303
 344  455.8846
 345  451.0973
 346  450.7616
 347  506.0306
 348  582.9119
 349  513.9008
 350  585.9608
 351  540.031
 352  462.885
 353  379.0982
 354  391.0767
 355  461.5306
 356  479.7877
 357  523.0206
 358  567.0028
 359  599.3152
 360  584.7018
 361  636.5749
 362  513.9825
 363  474.2996
 364  575.9122
 365  490.3922
 366  520.1953
 367  575.6226
 368  605.7444
 369  669.668
 370  625.239
 371  587.898
 372  536.4695
 373  494.2064
 374  552.9698
 375  546.7352
 376  540.3228
 377  521.2664
 378  439.7784
 379  553.7384
 380  593.2059
 381  517.9961
 382  570.8562
 383  535.8414
 384  549.7318
 385  481.4763
 386  455.093
 387  497.7154
 388  614.5458
 389  566.1457
 390  527.5356
 391  424.4604
 392  400.7642
 393  420.5786
 394  415.4116
 395  359.4692
 396  491.222
 397  487.0036
 398  554.2094
 399  633.9006
 400  560.798
 401  579.9086
 402  470.3354
 403  390.5109
 404  340.0232
 405  343.3715
 406  491.0165
 407  574.874
 408  517.4495
 409  508.168
 410  521.7184
 411  480.7213
 412  482.5306
 413  444.3738
 414  405.3152
 415  470.7562
 416  421.2174
 417  406.668
 418  399.5606
 419  417.8936
 420  514.2271
 421  522.218
 422  643.6408
 423  399.6008
 424  401.8264
 425  444.108
 426  548.7678
 427  521.6191
 428  466.4393
 429  555.8984
 430  519.27
 431  473.7444
 432  497.9875
 433  528.0081
 434  617.769
 435  530.5775
 436  442.5359
 437  525.262
 438  471.6447
 439  403.1011
 440  421.6172
 441  412.7773
 442  550.1918
 443  479.5302
 444  389.8754
 445  383.8495
 446  422.2169
 447  581.9099
 448  629.1622
 449  478.9303
 450  603.0841
 451  540.2865
 452  424.2177
 453  388.1141
 454  474.5258
 455  504.5327
 456  442.7152
 457  462.5005
 458  412.2734
 459  337.9668
 460  336.4699
 461  312.8758
 462  424.9398
 463  530.6116
 464  529.0582
 465  440.3002
 466  430.3957
 467  359.2041
 468  382.561
 469  483.2197
 470  547.324
 471  505.2883
 472  476.7743
 473  501.6536
 474  417.667
 475  366.229
 476  362.8798
 477  322.4344
 478  332.8739
 479  500.7634
 480  482.2328
 481  477.311
 482  580.1609
 483  586.6042
 484  491.6767
 485  421.1739
 486  411.7093
 487  494.3671
 488  561.4182
 489  487.3992
 490  470.8574
 491  488.4094
 492  569.2983
 493  474.8184
 494  384.8071
 495  407.9749
 496  505.1093
 497  481.2311
 498  305.0747
 499  338.7681
 500  525.3415
 501  561.9442
 502  585.2845
 503  490.7289
 504  405.79
 505  452.5182
 506  636.4275
 507  615.2864
 508  597.3536
 509  771.6248
 510  917.3347
 511  1053.072
