# Input file       =  1212116758.118906_cleaned.dat
# Candidate        =  PSR_0332+5434
# Telescope        =  AR
# Epoch_topo       =  58273.128936561414
# Epoch_bary       =  N/A
# T_sample         =  0.002
# Data Folded      =  7208960
# Data Avg         =  0.0605606559678886
# Data StdDev      =  1.00010236217463 
# Profile Bins     =  512
# Profile Avg      =  852.732261828603 
# Profile StdDev   =  118.671322004805 
# Reduced chi-sqr  =  1.167
# Prob(Noise)      <  0.00543   (~2.5 sigma)
# P_topo (ms)      =  714.513890692637  +/- 0.000143
# P'_topo (s/s)    =  -0                +/- 7.67e-11
# P''_topo (s/s^2) =  0                 +/- 3.45e-14
# P_bary (ms)      =  N/A
# P'_bary (s/s)    =  N/A
# P''_bary (s/s^2) =  N/A
# P_orb (s)        =  N/A
# asin(i)/c (s)    =  N/A
# eccentricity     =  N/A
# w (rad)          =  N/A
# T_peri           =  N/A
######################################################
   0  1462.769
   1  1333.816
   2  1106.551
   3  1018.94
   4  948.4958
   5  875.5765
   6  913.5055
   7  957.8408
   8  878.7681
   9  794.3647
  10  829.0344
  11  761.9221
  12  857.0692
  13  920.2914
  14  869.6237
  15  800.329
  16  820.1824
  17  809.7778
  18  903.9914
  19  863.0471
  20  864.1714
  21  944.7249
  22  910.9649
  23  760.689
  24  732.3298
  25  890.5627
  26  835.6709
  27  679.273
  28  720.3672
  29  708.9695
  30  800.0656
  31  854.9188
  32  794.2479
  33  720.8411
  34  830.8462
  35  931.7894
  36  915.502
  37  841.1299
  38  866.2238
  39  946.0433
  40  829.1654
  41  683.9302
  42  734.5209
  43  816.6682
  44  885.9815
  45  812.9756
  46  779.8037
  47  776.335
  48  646.8812
  49  695.0469
  50  831.5582
  51  882.1368
  52  891.8433
  53  879.4686
  54  882.9791
  55  852.9014
  56  829.2982
  57  797.1074
  58  858.2763
  59  744.1435
  60  764.8088
  61  1065.78
  62  926.8496
  63  846.1912
  64  892.2732
  65  818.9189
  66  846.8308
  67  839.0641
  68  874.511
  69  950.8261
  70  871.4415
  71  900.5495
  72  839.4593
  73  799.2579
  74  878.6271
  75  775.8783
  76  815.5506
  77  846.9982
  78  823.8671
  79  843.0641
  80  924.0939
  81  933.0514
  82  881.8488
  83  911.7453
  84  914.3782
  85  844.789
  86  900.7003
  87  938.1103
  88  845.7298
  89  1112.06
  90  1134.545
  91  912.8032
  92  855.7123
  93  936.5558
  94  961.5369
  95  897.8776
  96  957.5494
  97  1005.302
  98  951.3383
  99  886.4532
 100  860.7466
 101  979.3919
 102  993.3804
 103  846.5103
 104  920.0302
 105  878.4246
 106  884.2145
 107  854.8824
 108  952.9426
 109  938.3763
 110  832.5577
 111  790.0701
 112  840.8788
 113  944.6117
 114  882.9599
 115  783.9558
 116  741.9073
 117  843.4288
 118  968.8127
 119  963.2009
 120  937.4563
 121  769.8926
 122  734.6472
 123  865.518
 124  901.083
 125  945.4743
 126  793.4397
 127  879.8646
 128  920.3002
 129  886.0004
 130  903.2982
 131  830.4377
 132  914.321
 133  922.175
 134  834.3029
 135  890.1028
 136  961.2563
 137  876.6885
 138  850.1237
 139  876.3472
 140  815.6685
 141  779.0457
 142  803.7202
 143  982.5307
 144  819.6025
 145  885.6027
 146  874.4478
 147  976.335
 148  976.1882
 149  910.3895
 150  814.3698
 151  744.3423
 152  903.8686
 153  955.3066
 154  949.2906
 155  847.4026
 156  790.5682
 157  803.1121
 158  721.142
 159  766.7082
 160  900.9898
 161  996.0786
 162  890.4427
 163  880.0632
 164  880.226
 165  859.6301
 166  730.8174
 167  801.8772
 168  917.6121
 169  895.54
 170  909.5118
 171  884.7461
 172  912.1252
 173  877.5858
 174  961.818
 175  885.3387
 176  908.1555
 177  936.4163
 178  925.767
 179  745.3104
 180  757.4354
 181  894.4534
 182  938.2003
 183  821.2678
 184  818.0056
 185  815.5973
 186  883.0922
 187  897.0823
 188  864.5773
 189  887.5881
 190  860.3358
 191  914.6746
 192  905.031
 193  751.7116
 194  768.6487
 195  789.4687
 196  882.5364
 197  869.762
 198  820.9219
 199  824.4824
 200  829.532
 201  912.3861
 202  759.8101
 203  703.4871
 204  760.6677
 205  763.7181
 206  808.5201
 207  955.8932
 208  917.1068
 209  788.9146
 210  799.3285
 211  764.5215
 212  760.0981
 213  699.5651
 214  775.9058
 215  905.731
 216  872.7059
 217  873.4913
 218  844.9865
 219  766.3045
 220  712.801
 221  738.053
 222  790.7476
 223  833.7497
 224  760.5492
 225  748.5382
 226  806.9498
 227  842.8058
 228  932.2862
 229  795.5145
 230  838.3629
 231  682.1947
 232  817.6534
 233  770.6548
 234  776.6795
 235  753.6802
 236  929.6851
 237  940.2936
 238  891.9584
 239  808.433
 240  827.6777
 241  814.5207
 242  743.5555
 243  783.1182
 244  954.9877
 245  864.0852
 246  839.1021
 247  774.4241
 248  762.5761
 249  847.7919
 250  828.5342
 251  892.5562
 252  868.0621
 253  780.0237
 254  933.2212
 255  869.925
 256  760.8819
 257  816.3137
 258  1000.878
 259  930.4899
 260  804.9233
 261  819.3105
 262  939.8167
 263  920.6329
 264  854.0062
 265  846.0883
 266  857.8773
 267  967.714
 268  956.5125
 269  938.8254
 270  902.1609
 271  980.0414
 272  907.9019
 273  881.644
 274  904.3347
 275  752.926
 276  884.683
 277  916.8644
 278  911.4194
 279  881.8622
 280  699.7346
 281  676.6616
 282  781.5801
 283  856.3082
 284  847.3939
 285  960.4604
 286  961.1669
 287  827.3064
 288  788.517
 289  827.3655
 290  842.1171
 291  827.0544
 292  879.1094
 293  935.4197
 294  847.4858
 295  782.9497
 296  803.1907
 297  790.3052
 298  776.1549
 299  865.5131
 300  977.3018
 301  997.2177
 302  989.2034
 303  864.9603
 304  777.2007
 305  903.8599
 306  925.4315
 307  865.401
 308  786.6459
 309  813.7143
 310  813.7259
 311  747.2072
 312  790.1675
 313  817.232
 314  740.5036
 315  800.7263
 316  889.3689
 317  878.8499
 318  857.0073
 319  821.5609
 320  773.2209
 321  696.6274
 322  764.6539
 323  727.8541
 324  741.5395
 325  793.9005
 326  783.4399
 327  978.794
 328  942.7314
 329  888.8734
 330  938.4938
 331  818.4894
 332  861.7546
 333  826.0699
 334  895.1768
 335  959.1193
 336  732.4431
 337  746.5918
 338  823.3711
 339  849.437
 340  715.84
 341  839.6719
 342  952.4182
 343  919.555
 344  840.4402
 345  819.4454
 346  808.1881
 347  759.1073
 348  748.3172
 349  702.0758
 350  826.7322
 351  838.9421
 352  860.5062
 353  886.6476
 354  840.1456
 355  955.6942
 356  872.6561
 357  896.7615
 358  918.2203
 359  870.0374
 360  834.4753
 361  828.8831
 362  819.8375
 363  772.4277
 364  753.2729
 365  984.3903
 366  1018.646
 367  940.6019
 368  774.6276
 369  696.3633
 370  832.4183
 371  928.3773
 372  902.4595
 373  804.8196
 374  967.0451
 375  941.4168
 376  729.9281
 377  763.7187
 378  785.1793
 379  820.1823
 380  851.317
 381  830.7765
 382  867.3073
 383  874.8464
 384  791.9329
 385  827.7344
 386  761.7632
 387  720.3669
 388  649.5518
 389  695.7494
 390  784.4536
 391  849.288
 392  994.0344
 393  911.4382
 394  909.98
 395  867.0494
 396  849.8837
 397  744.6002
 398  999.309
 399  990.9175
 400  845.6506
 401  825.9666
 402  811.2076
 403  708.0447
 404  894.2525
 405  763.6761
 406  766.0935
 407  804.625
 408  864.1804
 409  850.5245
 410  908.2188
 411  879.1173
 412  822.6034
 413  810.4034
 414  846.2776
 415  799.5917
 416  681.5604
 417  830.5837
 418  898.009
 419  866.5584
 420  835.9509
 421  752.535
 422  874.5575
 423  843.2365
 424  763.8972
 425  860.1807
 426  933.3791
 427  831.6743
 428  828.7808
 429  778.8739
 430  790.5848
 431  863.0145
 432  821.6903
 433  812.472
 434  821.7363
 435  835.0684
 436  867.3234
 437  830.7893
 438  872.4464
 439  881.7539
 440  764.6215
 441  774.1758
 442  844.653
 443  818.2403
 444  795.1818
 445  738.7925
 446  759.2763
 447  750.2747
 448  756.9487
 449  837.7167
 450  811.6006
 451  715.5812
 452  710.5868
 453  682.6099
 454  793.9219
 455  806.8479
 456  790.0413
 457  690.4322
 458  785.5078
 459  761.3638
 460  666.3987
 461  684.6587
 462  737.2497
 463  847.2557
 464  909.5983
 465  908.9025
 466  922.6761
 467  926.698
 468  889.8959
 469  768.1682
 470  781.1927
 471  777.8967
 472  737.5168
 473  852.7233
 474  962.5927
 475  887.0478
 476  881.8001
 477  851.5745
 478  816.8488
 479  808.5381
 480  818.1708
 481  818.1745
 482  831.0227
 483  854.2457
 484  915.0189
 485  923.1385
 486  835.0864
 487  833.9694
 488  817.7279
 489  933.1501
 490  928.3025
 491  954.5227
 492  842.0506
 493  794.9927
 494  824.6442
 495  847.6193
 496  903.825
 497  901.7017
 498  826.3502
 499  853.6946
 500  915.3646
 501  886.6899
 502  811.2878
 503  795.601
 504  918.3696
 505  819.0502
 506  854.5809
 507  910.8762
 508  1023.717
 509  1172.952
 510  1431.359
 511  1450.237
