# Input file       =  1178614237.09254_cleaned.dat
# Candidate        =  PSR_0332+5434
# Telescope        =  AR
# Epoch_topo       =  57885.368704774766
# Epoch_bary       =  N/A
# T_sample         =  0.002
# Data Folded      =  7340032
# Data Avg         =  0.0960596910257923
# Data StdDev      =  2.80544318829003 
# Profile Bins     =  512
# Profile Avg      =  1376.82354368465 
# Profile StdDev   =  335.904231316481 
# Reduced chi-sqr  =  1.024
# Prob(Noise)      <  0.344   (~0.4 sigma)
# P_topo (ms)      =  714.535810712439  +/- 0.000433
# P'_topo (s/s)    =  -0                +/- 2.28e-10
# P''_topo (s/s^2) =  0                 +/- 1.01e-13
# P_bary (ms)      =  N/A
# P'_bary (s/s)    =  N/A
# P''_bary (s/s^2) =  N/A
# P_orb (s)        =  N/A
# asin(i)/c (s)    =  N/A
# eccentricity     =  N/A
# w (rad)          =  N/A
# T_peri           =  N/A
######################################################
   0  1193.88
   1  842.9605
   2  1089.904
   3  1004.579
   4  948.5501
   5  1247.038
   6  1344.648
   7  1588.629
   8  1448.685
   9  1310.981
  10  1370.965
  11  1304.11
  12  1481.319
  13  1411.293
  14  1311.6
  15  1284.829
  16  1456.769
  17  1349.638
  18  1276.589
  19  1201.835
  20  1481.831
  21  1349.872
  22  1254.395
  23  1503.934
  24  1512.629
  25  1171.526
  26  1324.229
  27  1228.219
  28  1184.072
  29  1350.903
  30  1273.126
  31  1441.305
  32  1584.283
  33  1304.813
  34  1287.334
  35  1516.104
  36  1319.976
  37  1236.796
  38  1394.737
  39  1305.019
  40  1391.536
  41  1610.448
  42  1580.389
  43  1251.033
  44  1275.129
  45  1392.205
  46  1302.643
  47  1294.934
  48  1463.918
  49  1174.249
  50  1030.272
  51  1118.988
  52  1191.782
  53  1372.639
  54  1264.505
  55  1025.593
  56  1295.634
  57  1365.408
  58  1001.517
  59  897.2611
  60  1238.762
  61  1269.879
  62  1386.207
  63  1553.102
  64  1448.343
  65  1428.863
  66  1193.198
  67  1196.542
  68  1345.02
  69  1467.406
  70  1417.045
  71  1219.133
  72  1030.004
  73  1048.381
  74  1038.024
  75  1344.139
  76  1053.781
  77  1357.372
  78  1261.765
  79  1130.054
  80  1418.796
  81  1456.727
  82  1260.437
  83  1230.785
  84  1300.38
  85  1220.102
  86  1071.625
  87  1541.333
  88  1259.524
  89  1434.566
  90  1259.284
  91  1194.09
  92  1237.014
  93  1272.888
  94  1438.617
  95  1376.111
  96  1216.026
  97  1375.26
  98  1669.877
  99  1600.809
 100  1350.022
 101  1385.942
 102  1291.147
 103  1410.106
 104  1494.241
 105  1767.587
 106  1404.989
 107  1503.17
 108  1636.051
 109  1493.014
 110  1770.911
 111  1631.997
 112  1590.958
 113  1332.491
 114  1250.441
 115  1014.269
 116  1311.413
 117  1467.465
 118  1587.827
 119  1652.507
 120  1527.798
 121  1183.57
 122  1332.184
 123  1551.575
 124  1484.381
 125  1361.399
 126  1150.405
 127  1311.57
 128  1289.874
 129  1058.788
 130  1131.033
 131  1252.275
 132  1396.175
 133  1253.215
 134  1284.204
 135  1063.254
 136  1307.498
 137  1608.713
 138  1420.414
 139  1439.561
 140  1319.355
 141  1585.743
 142  1515.203
 143  1461.433
 144  1647.346
 145  1498.529
 146  1412.242
 147  1586.36
 148  1272.444
 149  1107.711
 150  1446.172
 151  1497.532
 152  1448.37
 153  1192.349
 154  1543.882
 155  1848.628
 156  1948.672
 157  1640.896
 158  1262.249
 159  1387.625
 160  1690.553
 161  1703.939
 162  1479.865
 163  1574.136
 164  1766.984
 165  1489.806
 166  1447.943
 167  1697.198
 168  1796.4
 169  1446.209
 170  1253.756
 171  1273.455
 172  1268.301
 173  1445.097
 174  1339.396
 175  1321.712
 176  1500.123
 177  1187.094
 178  1082.185
 179  1550.961
 180  1585.635
 181  1470.879
 182  1200.477
 183  1323.551
 184  1103.207
 185  1283.497
 186  1315.6
 187  1201.418
 188  1101.797
 189  1092.852
 190  916.9229
 191  1250.228
 192  1066.474
 193  729.4761
 194  972.1875
 195  984.9301
 196  1138.685
 197  1076.983
 198  1133.379
 199  1265.907
 200  1383.182
 201  1384.664
 202  1021.196
 203  1224.687
 204  1414.039
 205  1107.628
 206  1160.411
 207  1263.809
 208  1168.17
 209  1109.498
 210  968.4388
 211  1054.354
 212  776.5875
 213  975.0116
 214  1229.507
 215  1044.617
 216  986.7292
 217  1025.128
 218  850.8108
 219  1119.492
 220  1297.613
 221  1363.627
 222  1236.25
 223  924.5402
 224  869.946
 225  1105.28
 226  1337.664
 227  1580.015
 228  1357.516
 229  989.0637
 230  957.3057
 231  1303.492
 232  1516.136
 233  1459.26
 234  1489.737
 235  1466.879
 236  1306.505
 237  1329.377
 238  1361.239
 239  1260.593
 240  1578.188
 241  1561.079
 242  1624.494
 243  1481.009
 244  1233.66
 245  806.8483
 246  1227.771
 247  1463.347
 248  1479.485
 249  1554.172
 250  1462.524
 251  1031.237
 252  924.9894
 253  1152.294
 254  1259.042
 255  1087.241
 256  1288.664
 257  1279.042
 258  1016.102
 259  1068.54
 260  1529.5
 261  1248.898
 262  1169.278
 263  1451.825
 264  1607.381
 265  1244.3
 266  1294.925
 267  1377.249
 268  1466.027
 269  1450.607
 270  1312.589
 271  1284.153
 272  1426.436
 273  1377.794
 274  1459.101
 275  1530.401
 276  1522.368
 277  1540.806
 278  1434.293
 279  1661.521
 280  1745.243
 281  1351.353
 282  1357.617
 283  1326.314
 284  1496.966
 285  1429.696
 286  1167.589
 287  1314.022
 288  1353.085
 289  1279.885
 290  1110.981
 291  1475.631
 292  1537.569
 293  1220.92
 294  854.717
 295  1308.549
 296  1507.253
 297  1429.597
 298  1444.574
 299  1347.857
 300  1377.925
 301  1230.306
 302  1181.443
 303  1076.338
 304  1386.105
 305  1648.907
 306  1462.784
 307  1345.785
 308  1442.144
 309  1297.632
 310  1328.66
 311  1563.15
 312  1614.468
 313  1456.702
 314  1589.488
 315  1734.671
 316  1738.906
 317  1392.394
 318  1445.916
 319  1600.329
 320  1450.175
 321  1287.852
 322  1600.552
 323  1864.478
 324  1792.468
 325  1640.469
 326  1566.63
 327  1425.596
 328  1225.816
 329  1551.671
 330  1587.002
 331  1495.23
 332  1254.805
 333  1408.692
 334  1818.474
 335  1605.618
 336  1561.435
 337  1332.487
 338  1565.29
 339  1411.854
 340  1487.048
 341  1772.092
 342  2054.879
 343  1959.359
 344  1890.892
 345  1556.388
 346  1407.324
 347  1514.112
 348  1328.414
 349  1302.736
 350  1302.269
 351  1400.816
 352  1441.194
 353  1580.454
 354  1483.357
 355  1388.262
 356  1550.221
 357  1481.681
 358  1698.521
 359  1565.9
 360  1238.903
 361  1242.761
 362  1337.497
 363  1317.802
 364  1564.378
 365  1249.588
 366  1476.99
 367  1289.482
 368  1450.613
 369  1722.651
 370  1716.334
 371  1773.804
 372  1616.248
 373  1545.353
 374  1439.875
 375  1132.938
 376  1157.86
 377  1230.775
 378  1452.047
 379  1690.896
 380  1714.078
 381  1851.903
 382  1758.922
 383  1590.894
 384  1964.39
 385  2138.148
 386  2488.878
 387  2689.171
 388  2692.214
 389  2693.071
 390  2314.934
 391  1774.06
 392  1629.035
 393  1433.459
 394  1499.525
 395  1552.598
 396  1381.35
 397  1353.15
 398  1344.248
 399  1410.642
 400  1459.269
 401  1656.453
 402  1736.364
 403  1416.969
 404  1078.275
 405  1384.974
 406  1395.583
 407  1365.336
 408  1322.261
 409  1292.164
 410  1198.807
 411  1343.855
 412  1378.797
 413  1476.377
 414  1376.104
 415  1422.494
 416  1414.624
 417  1600.279
 418  1356.132
 419  1044.634
 420  1146.522
 421  1181.356
 422  962.3661
 423  1066.113
 424  1276.843
 425  1344.663
 426  1407.684
 427  1307.342
 428  1560.185
 429  1346.187
 430  1335.808
 431  1795.108
 432  1775.965
 433  1509.303
 434  1691.015
 435  1656.451
 436  1563.846
 437  1720.168
 438  1768.221
 439  1599.736
 440  1550.542
 441  1517.207
 442  1154.026
 443  1340.845
 444  1409.832
 445  1182.509
 446  923.0839
 447  1008.514
 448  1376.524
 449  1865.315
 450  1892.678
 451  1434.223
 452  1170.526
 453  1304.652
 454  1013.942
 455  1215.913
 456  1321.953
 457  1158.818
 458  1252.738
 459  1264.124
 460  1081.229
 461  879.5555
 462  1157.176
 463  1367.734
 464  1128.618
 465  1230.544
 466  934.2052
 467  1284.905
 468  1377.892
 469  1192.122
 470  1393.927
 471  1416.848
 472  1426.778
 473  1542.995
 474  1519.987
 475  1088.844
 476  1345.516
 477  1484.146
 478  1315.31
 479  1241.044
 480  1389.119
 481  1504.03
 482  1353.344
 483  1396.379
 484  1508.619
 485  1341.697
 486  1108.356
 487  1084.885
 488  1287.416
 489  1368.648
 490  1185.053
 491  1600.35
 492  1514.3
 493  1402.431
 494  1724.653
 495  1459.112
 496  1333.795
 497  1447.633
 498  1592.722
 499  1580.349
 500  1471.354
 501  1237.527
 502  1034.048
 503  1354.885
 504  1365.036
 505  1266.232
 506  1296.954
 507  1227.656
 508  1163.363
 509  1217.232
 510  1257.82
 511  1138.422
