# Input file       =  1178800781.100998_cleaned.dat
# Candidate        =  PSR_0332+5434
# Telescope        =  AR
# Epoch_topo       =  57887.527778946736
# Epoch_bary       =  N/A
# T_sample         =  0.002
# Data Folded      =  7340032
# Data Avg         =  0.0460374094878458
# Data StdDev      =  2.66647975293953 
# Profile Bins     =  512
# Profile Avg      =  660.105222107111 
# Profile StdDev   =  319.265717256619 
# Reduced chi-sqr  =  1.108
# Prob(Noise)      <  0.0463   (~1.7 sigma)
# P_topo (ms)      =  714.53406165849   +/- 0.000362
# P'_topo (s/s)    =  -0                +/- 1.91e-10
# P''_topo (s/s^2) =  0                 +/- 8.44e-14
# P_bary (ms)      =  N/A
# P'_bary (s/s)    =  N/A
# P''_bary (s/s^2) =  N/A
# P_orb (s)        =  N/A
# asin(i)/c (s)    =  N/A
# eccentricity     =  N/A
# w (rad)          =  N/A
# T_peri           =  N/A
######################################################
   0  478.9515
   1  798.5091
   2  536.3207
   3  675.6108
   4  523.2969
   5  282.2354
   6  819.0265
   7  922.5524
   8  982.8353
   9  960.5288
  10  595.2909
  11  292.7159
  12  440.6446
  13  456.4576
  14  631.9609
  15  702.8707
  16  520.9803
  17  211.0687
  18  306.3414
  19  901.0287
  20  543.5558
  21  561.0945
  22  627.5352
  23  800.8792
  24  526.0305
  25  507.997
  26  496.5117
  27  540.0749
  28  784.0045
  29  720.1394
  30  866.8133
  31  785.6422
  32  917.0515
  33  898.0322
  34  329.2258
  35  616.1307
  36  755.6525
  37  952.2562
  38  783.5508
  39  747.1813
  40  733.541
  41  683.9227
  42  770.5179
  43  779.1656
  44  561.2711
  45  488.5845
  46  475.1449
  47  346.26
  48  410.6269
  49  688.9897
  50  667.1722
  51  675.4747
  52  780.0754
  53  654.1058
  54  405.2041
  55  432.7845
  56  537.8297
  57  307.7285
  58  182.5403
  59  91.14652
  60  324.6301
  61  347.827
  62  526.7115
  63  1051.208
  64  991.2423
  65  750.6003
  66  753.6714
  67  642.5388
  68  769.6208
  69  468.7565
  70  587.5426
  71  710.6698
  72  413.9945
  73  880.3861
  74  720.0143
  75  801.3569
  76  701.9138
  77  655.6957
  78  579.4206
  79  496.3029
  80  576.8209
  81  675.9991
  82  738.2225
  83  811.619
  84  798.1726
  85  377.6332
  86  450.0282
  87  253.0737
  88  361.4783
  89  294.9677
  90  284.4044
  91  432.8146
  92  145.7526
  93  292.2883
  94  489.9281
  95  594.4277
  96  606.8248
  97  102.1016
  98  217.4534
  99  287.4821
 100  339.9779
 101  545.9149
 102  553.2709
 103  639.8734
 104  652.6794
 105  625.627
 106  241.7483
 107  563.1818
 108  280.7628
 109  376.1229
 110  387.5891
 111  158.6123
 112  411.6347
 113  888.7321
 114  624.9727
 115  589.4191
 116  399.5892
 117  622.417
 118  600.1432
 119  699.4485
 120  703.5225
 121  767.7338
 122  587.2702
 123  554.8486
 124  493.6265
 125  497.7263
 126  645.6891
 127  882.8348
 128  858.5248
 129  821.3971
 130  555.1575
 131  616.4708
 132  717.6019
 133  470.8141
 134  901.6504
 135  746.8464
 136  442.9406
 137  639.3102
 138  863.6653
 139  955.5433
 140  858.4879
 141  903.0211
 142  1069.205
 143  1464.753
 144  1967.884
 145  2193.41
 146  1844.437
 147  1218.149
 148  617.1652
 149  578.8298
 150  904.4319
 151  475.9236
 152  307.6663
 153  459.3256
 154  566.0681
 155  780.9045
 156  856.2117
 157  605.3568
 158  685.903
 159  679.0326
 160  985.3959
 161  728.3288
 162  383.043
 163  476.816
 164  421.9867
 165  653.332
 166  983.4822
 167  765.5046
 168  775.0341
 169  683.5944
 170  751.763
 171  716.6132
 172  775.0064
 173  486.4256
 174  589.9883
 175  1026.334
 176  867.3666
 177  459.998
 178  415.5366
 179  592.9538
 180  643.0242
 181  926.2322
 182  705.6199
 183  706.3282
 184  560.4707
 185  739.3986
 186  469.8676
 187  413.9943
 188  295.7667
 189  550.8837
 190  750.6354
 191  558.3577
 192  199.3167
 193  314.962
 194  778.4247
 195  603.3344
 196  846.7327
 197  774.4239
 198  479.656
 199  703.6704
 200  385.8405
 201  425.874
 202  797.8881
 203  521.7961
 204  801.1535
 205  680.5586
 206  741.9623
 207  634.3504
 208  215.4798
 209  489.2632
 210  760.1984
 211  666.0634
 212  515.2039
 213  842.419
 214  765.6074
 215  492.6852
 216  794.9896
 217  1091.342
 218  981.945
 219  928.5146
 220  962.1238
 221  1237.535
 222  952.6318
 223  849.7151
 224  859.2481
 225  740.9276
 226  738.0926
 227  640.7201
 228  632.6847
 229  683.1791
 230  645.1461
 231  789.0925
 232  496.9967
 233  786.8561
 234  745.0646
 235  567.7957
 236  745.1101
 237  681.286
 238  486.8088
 239  357.8518
 240  388.6415
 241  128.4777
 242  634.116
 243  739.037
 244  567.9069
 245  520.8392
 246  670.7142
 247  745.1169
 248  1016.626
 249  938.3111
 250  854.8972
 251  584.9651
 252  642.4608
 253  509.6277
 254  232.5812
 255  569.8627
 256  636.5889
 257  891.7601
 258  1265.449
 259  1019.55
 260  621.0301
 261  630.6171
 262  657.5294
 263  797.6061
 264  687.1339
 265  657.5862
 266  947.5305
 267  1065.04
 268  649.4453
 269  447.1775
 270  848.4231
 271  824.7952
 272  400.0084
 273  158.0538
 274  375.6644
 275  510.9573
 276  386.9414
 277  677.4542
 278  647.4
 279  456.4413
 280  202.7506
 281  455.9965
 282  721.216
 283  995.6298
 284  986.8939
 285  700.7018
 286  787.4537
 287  1035.744
 288  1034.893
 289  1070.519
 290  892.5278
 291  624.0435
 292  741.3558
 293  569.1186
 294  703.0191
 295  903.6152
 296  722.6246
 297  564.2802
 298  611.1138
 299  428.8637
 300  395.4512
 301  594.6325
 302  928.6749
 303  921.2974
 304  671.2344
 305  455.0717
 306  674.8905
 307  509.9364
 308  762.7945
 309  615.6414
 310  599.8594
 311  558.6315
 312  574.0395
 313  627.8752
 314  272.8846
 315  438.0895
 316  235.1234
 317  546.3997
 318  494.9842
 319  475.5674
 320  653.8039
 321  828.1356
 322  789.6383
 323  510.6404
 324  877.8124
 325  720.0467
 326  668.6428
 327  709.2383
 328  646.4355
 329  595.2227
 330  966.8374
 331  1243.689
 332  645.5594
 333  220.6348
 334  178.3863
 335  588.051
 336  525.4877
 337  471.8668
 338  571.9677
 339  310.1897
 340  114.415
 341  510.2436
 342  504.3204
 343  648.899
 344  465.7204
 345  400.18
 346  685.1097
 347  521.4203
 348  587.6984
 349  646.934
 350  340.302
 351  120.5086
 352  395.3021
 353  424.83
 354  355.798
 355  296.1794
 356  412.7603
 357  389.5102
 358  398.1477
 359  416.8702
 360  327.6085
 361  408.0973
 362  610.5729
 363  383.0888
 364  319.2115
 365  556.5352
 366  764.3254
 367  837.3864
 368  768.8631
 369  618.9697
 370  281.5249
 371  496.3493
 372  510.9905
 373  550.0067
 374  777.7003
 375  970.3559
 376  515.1219
 377  847.3838
 378  797.8454
 379  757.1405
 380  647.0281
 381  821.0027
 382  1000.352
 383  848.8188
 384  926.4376
 385  806.0062
 386  596.2798
 387  1023.411
 388  962.7565
 389  1019.272
 390  829.2109
 391  505.5287
 392  537.9242
 393  511.5286
 394  376.6028
 395  660.3148
 396  563.0809
 397  894.2407
 398  881.722
 399  726.5823
 400  823.1828
 401  725.4548
 402  1213.685
 403  1149.94
 404  937.2592
 405  987.927
 406  1142.304
 407  949.5978
 408  563.7433
 409  860.1828
 410  1084.624
 411  977.1605
 412  725.8055
 413  680.2319
 414  939.4653
 415  892.9855
 416  748.1962
 417  381.9786
 418  610.2509
 419  862.4062
 420  860.5054
 421  800.4995
 422  675.6272
 423  844.0929
 424  671.3375
 425  421.4692
 426  850.3493
 427  802.9276
 428  861.0935
 429  783.2042
 430  719.1833
 431  633.5613
 432  623.9196
 433  733.9165
 434  616.8131
 435  803.3413
 436  823.83
 437  744.9259
 438  659.0814
 439  742.2753
 440  425.1534
 441  625.0719
 442  980.7771
 443  699.7687
 444  764.1246
 445  542.8945
 446  734.2947
 447  654.1204
 448  859.1063
 449  497.9742
 450  418.3214
 451  764.0144
 452  636.075
 453  548.4385
 454  541.8385
 455  608.5015
 456  655.6858
 457  752.908
 458  964.4971
 459  1013.799
 460  996.6439
 461  507.2022
 462  293.2989
 463  860.6166
 464  740.169
 465  458.272
 466  575.9863
 467  410.7805
 468  439.1356
 469  784.918
 470  854.71
 471  837.2448
 472  813.6666
 473  723.3724
 474  573.2687
 475  664.0214
 476  642.4834
 477  934.8044
 478  768.5995
 479  830.2465
 480  829.6473
 481  774.3646
 482  885.5273
 483  911.3283
 484  894.3922
 485  926.6405
 486  844.0792
 487  1038.78
 488  804.2758
 489  555.3882
 490  434.24
 491  919.6094
 492  1088.66
 493  839.1684
 494  1020.831
 495  798.9304
 496  893.27
 497  713.3151
 498  662.9704
 499  734.2709
 500  728.6884
 501  539.7931
 502  590.1064
 503  790.7095
 504  411.7639
 505  287.539
 506  460.7898
 507  663.7016
 508  449.484
 509  439.2178
 510  450.274
 511  473.6278
