# Input file       =  1178973071.099241_cleaned.dat
# Candidate        =  PSR_0332+5434
# Telescope        =  AR
# Epoch_topo       =  57889.521876148625
# Epoch_bary       =  N/A
# T_sample         =  0.002
# Data Folded      =  7340032
# Data Avg         =  0.236034759586411
# Data StdDev      =  5.60844929889052 
# Profile Bins     =  1024
# Profile Avg      =  1691.88834874343 
# Profile StdDev   =  474.833986738524 
# Reduced chi-sqr  =  0.417
# Prob(Noise)      <  1   (~0.0 sigma)
# P_topo (ms)      =  714.532132492503  +/- 0.00104
# P'_topo (s/s)    =  -0                +/- 5.49e-10
# P''_topo (s/s^2) =  0                 +/- 2.43e-13
# P_bary (ms)      =  N/A
# P'_bary (s/s)    =  N/A
# P''_bary (s/s^2) =  N/A
# P_orb (s)        =  N/A
# asin(i)/c (s)    =  N/A
# eccentricity     =  N/A
# w (rad)          =  N/A
# T_peri           =  N/A
######################################################
   0  1773.343
   1  1747.992
   2  1727.277
   3  1751.821
   4  1680.694
   5  1717.246
   6  1608.166
   7  1692.262
   8  1717.517
   9  1837.406
  10  1845.118
  11  1749.278
  12  1802.82
  13  1847.451
  14  1809.088
  15  1633.984
  16  1637.508
  17  1729.702
  18  1803.128
  19  1887.047
  20  1827.111
  21  1884.807
  22  1819.174
  23  1793.915
  24  1636.006
  25  1646.555
  26  1705.344
  27  1655.195
  28  1730.685
  29  1874.336
  30  1821.701
  31  1784.289
  32  1727.38
  33  1778.584
  34  1849.216
  35  1734.426
  36  1657.489
  37  1420.201
  38  1453.411
  39  1686.452
  40  1835.422
  41  1854.99
  42  1840.834
  43  1762.535
  44  1773.3
  45  1673.156
  46  1725.053
  47  1705.912
  48  1704.625
  49  1659.286
  50  1717.981
  51  1722.072
  52  1767.13
  53  1833.874
  54  1848.623
  55  1821.221
  56  1748.41
  57  1755.17
  58  1925.861
  59  1965.277
  60  1913.587
  61  1693.351
  62  1568.109
  63  1571.855
  64  1532.213
  65  1524.081
  66  1543.244
  67  1645.388
  68  1650.403
  69  1733.802
  70  1816.991
  71  1827.155
  72  1724.875
  73  1660.677
  74  1750.346
  75  1799.157
  76  1670.583
  77  1493.783
  78  1491.742
  79  1720.949
  80  1827.672
  81  1987.271
  82  1921.655
  83  1887.877
  84  1901.162
  85  1935.236
  86  1897.812
  87  1832.424
  88  1860.612
  89  1733.307
  90  1596.703
  91  1487.901
  92  1403.449
  93  1480.146
  94  1556.935
  95  1754.555
  96  1845.903
  97  1834.346
  98  1697.112
  99  1605.135
 100  1596.133
 101  1504.502
 102  1482.782
 103  1520.51
 104  1624.994
 105  1610.735
 106  1701.964
 107  1808.97
 108  1827.044
 109  1956.285
 110  2000.109
 111  1944.854
 112  1866.764
 113  1693.521
 114  1801.249
 115  1657.122
 116  1695.07
 117  1691.464
 118  1805.109
 119  1782.678
 120  1779.551
 121  1696.453
 122  1634.474
 123  1687.587
 124  1655.131
 125  1654.64
 126  1641.449
 127  1594.139
 128  1588.22
 129  1527.055
 130  1660.696
 131  1744.194
 132  1697.971
 133  1705.179
 134  1767.082
 135  1730.18
 136  1670.189
 137  1523.197
 138  1506.111
 139  1630.96
 140  1693.934
 141  1848.056
 142  1838.48
 143  1853.483
 144  1784.766
 145  1710.576
 146  1839.332
 147  1858.261
 148  1881.063
 149  1758.061
 150  1705.861
 151  1717.594
 152  1908.575
 153  1855.482
 154  1820.682
 155  1743.648
 156  1701.881
 157  1712.573
 158  1619.743
 159  1697.911
 160  1756.911
 161  1733.441
 162  1856.337
 163  1799.162
 164  1953.279
 165  1702.98
 166  1517.555
 167  1401.62
 168  1392.258
 169  1464.252
 170  1576.235
 171  1715.993
 172  1749.494
 173  1813.451
 174  1833.953
 175  1789.372
 176  1918.798
 177  1945.078
 178  1990.641
 179  1923.157
 180  1918.672
 181  1958.188
 182  2051.016
 183  2002.465
 184  1870.363
 185  1833.377
 186  1768.142
 187  1579.273
 188  1525.648
 189  1613.526
 190  1668.036
 191  1614.849
 192  1529.674
 193  1537.73
 194  1475.47
 195  1536.28
 196  1620.026
 197  1690.666
 198  1729.319
 199  1741.415
 200  1760.387
 201  1713.501
 202  1643.532
 203  1566.431
 204  1560.251
 205  1500.82
 206  1605.825
 207  1572.601
 208  1619.38
 209  1621.563
 210  1758.71
 211  1836.849
 212  2042.953
 213  2008.47
 214  1924.879
 215  1871.706
 216  1709.658
 217  1788.708
 218  1819.86
 219  1949.969
 220  1925.33
 221  1891.5
 222  1809.145
 223  1716.025
 224  1715.442
 225  2018.55
 226  2170.276
 227  2192.805
 228  2015.859
 229  2042.416
 230  2068.384
 231  2077.94
 232  2147.078
 233  1984.251
 234  1868.545
 235  1747.021
 236  1860.346
 237  1991.544
 238  2115.024
 239  2029.123
 240  2095.135
 241  2113.853
 242  1972.106
 243  1906.17
 244  1880.992
 245  2051.027
 246  1955.317
 247  1888.234
 248  1742.643
 249  1708.029
 250  1782.599
 251  1692.386
 252  1615.893
 253  1617.281
 254  1666.172
 255  1680.017
 256  1772.09
 257  1866.28
 258  1845.502
 259  1818.627
 260  1729.417
 261  1909.641
 262  1914.38
 263  1913.441
 264  1721.662
 265  1801.405
 266  1814.339
 267  1884.13
 268  1785.294
 269  1693.117
 270  1499.205
 271  1450.593
 272  1531.855
 273  1600.298
 274  1614.262
 275  1655.712
 276  1673.704
 277  1646.802
 278  1499.088
 279  1531.581
 280  1560.666
 281  1605.795
 282  1667.71
 283  1488.911
 284  1358.264
 285  1200.991
 286  1319.739
 287  1340.077
 288  1237.794
 289  1222.896
 290  1391.743
 291  1315.084
 292  1283.052
 293  1131.975
 294  1226.442
 295  1283.95
 296  1435.738
 297  1432.581
 298  1363.603
 299  1338.629
 300  1339.636
 301  1315.651
 302  1327.638
 303  1369.225
 304  1299.124
 305  1297.82
 306  1243.291
 307  1345.466
 308  1603.368
 309  1742.775
 310  1815.118
 311  1783.382
 312  1792.977
 313  1919.799
 314  1954.703
 315  1921.152
 316  1713.733
 317  1717.791
 318  1728.229
 319  1740.436
 320  1571.111
 321  1517.168
 322  1495.354
 323  1604.289
 324  1691.194
 325  1701.319
 326  1690.087
 327  1543.125
 328  1529.603
 329  1599.291
 330  1653.8
 331  1775.898
 332  1777.992
 333  1610.311
 334  1298.637
 335  1174.93
 336  1224.611
 337  1357.847
 338  1397.612
 339  1543.897
 340  1658.386
 341  1706.156
 342  1643.318
 343  1462.196
 344  1461.951
 345  1624.808
 346  1821.761
 347  1895.981
 348  1998.359
 349  2120.418
 350  2097.682
 351  2084.599
 352  1894.432
 353  1743.41
 354  1748.258
 355  1814.46
 356  1806.901
 357  1679.659
 358  1619.06
 359  1597.895
 360  1674.626
 361  1658.19
 362  1725.868
 363  1619.576
 364  1548.576
 365  1608.086
 366  1651.464
 367  1786.673
 368  1872.567
 369  2000.191
 370  2184.246
 371  2006.354
 372  1873.816
 373  1806.19
 374  1803.752
 375  1837.343
 376  1752.127
 377  1722.023
 378  1815.064
 379  1844.578
 380  1806.557
 381  1701.386
 382  1742.877
 383  1768.879
 384  1743.907
 385  1736.842
 386  1738.548
 387  1765.178
 388  1700.351
 389  1741.527
 390  1611.566
 391  1588.25
 392  1609.405
 393  1615.55
 394  1615.006
 395  1463.834
 396  1472.814
 397  1500.563
 398  1698.532
 399  1815.262
 400  1793.468
 401  1889.742
 402  1936.194
 403  2025.302
 404  1933.056
 405  1701.592
 406  1619.675
 407  1749.145
 408  1771.961
 409  1746.651
 410  1739.408
 411  1734.811
 412  1843.705
 413  1834.087
 414  1884.764
 415  1844.086
 416  1664.428
 417  1708.63
 418  1802.825
 419  1931.431
 420  1826.042
 421  1713.914
 422  1732.514
 423  1825.795
 424  1903.28
 425  1865.331
 426  1809.891
 427  1803.645
 428  1864.491
 429  1805.964
 430  1710.102
 431  1726.825
 432  1824.065
 433  1874.388
 434  1799.628
 435  1780.882
 436  1814.679
 437  1878.118
 438  1915.61
 439  1868.141
 440  1876.765
 441  1775.015
 442  1756.825
 443  1859.276
 444  1773.738
 445  1854.891
 446  1929.08
 447  1858.02
 448  1940.411
 449  1804.887
 450  1830.341
 451  1757.112
 452  1670.369
 453  1741.967
 454  1791.589
 455  1788.178
 456  1919.923
 457  1903.013
 458  1884.547
 459  1787.498
 460  1741.247
 461  1635.254
 462  1611.929
 463  1627.941
 464  1812.054
 465  1725.07
 466  1697.309
 467  1781.752
 468  1801.701
 469  1770.838
 470  1706.232
 471  1776.099
 472  1769.464
 473  1759.282
 474  1806.584
 475  1875.192
 476  1749.452
 477  1832.554
 478  1724.655
 479  1701.694
 480  1697.113
 481  1678.608
 482  1772.912
 483  1638.346
 484  1722.263
 485  1825.934
 486  1870.739
 487  1832.339
 488  1683.797
 489  1680.355
 490  1724.001
 491  1779.084
 492  1765.145
 493  1719.341
 494  1441.238
 495  1428.334
 496  1648.787
 497  1895.782
 498  1853.675
 499  1608.616
 500  1530.199
 501  1517.943
 502  1546.576
 503  1531.248
 504  1540.898
 505  1492.096
 506  1684.818
 507  1722.426
 508  1726.304
 509  1688.05
 510  1675.309
 511  1592.183
 512  1484.011
 513  1472.659
 514  1559.36
 515  1483.517
 516  1432.116
 517  1353.556
 518  1483.862
 519  1449.231
 520  1413.019
 521  1527.074
 522  1537.212
 523  1601.853
 524  1590.723
 525  1516.652
 526  1533.29
 527  1442.303
 528  1387.139
 529  1455.097
 530  1472.787
 531  1605.973
 532  1673.135
 533  1656.003
 534  1743.679
 535  1673.162
 536  1529.782
 537  1406.107
 538  1345.545
 539  1528.132
 540  1518.199
 541  1443.38
 542  1523.081
 543  1672.756
 544  1745.743
 545  1666.249
 546  1554.425
 547  1509.463
 548  1577.332
 549  1687.724
 550  1809.12
 551  1775.888
 552  1969.161
 553  1912.91
 554  1885.938
 555  1878.567
 556  1848.013
 557  1835.807
 558  1822.373
 559  1621.708
 560  1619.947
 561  1629.326
 562  1594.32
 563  1428.387
 564  1448.995
 565  1581.84
 566  1754.203
 567  1802.805
 568  1893.679
 569  1939.223
 570  1888.543
 571  1942.029
 572  1765.836
 573  1851.029
 574  1898.402
 575  1862.692
 576  1861.656
 577  1736.209
 578  1648.184
 579  1729.488
 580  1728.986
 581  1725.403
 582  1730.17
 583  1743.527
 584  1730.033
 585  1615.704
 586  1662.828
 587  1694.269
 588  1618.549
 589  1659.198
 590  1791.312
 591  1884.537
 592  1756.886
 593  1612.538
 594  1479.094
 595  1441.044
 596  1476.098
 597  1640.743
 598  1698.738
 599  1647.852
 600  1546.824
 601  1546.506
 602  1612.866
 603  1622.479
 604  1586.645
 605  1553.58
 606  1600.275
 607  1704.66
 608  1721.452
 609  1670.669
 610  1554.161
 611  1529.899
 612  1720.023
 613  1717.72
 614  1603.956
 615  1466.181
 616  1525.994
 617  1622.012
 618  1631.453
 619  1697.5
 620  1614.105
 621  1498.494
 622  1493.672
 623  1640.287
 624  1595.366
 625  1494.818
 626  1489.161
 627  1487.995
 628  1543.005
 629  1480.784
 630  1602.762
 631  1665.808
 632  1584.806
 633  1560.287
 634  1501.854
 635  1461.505
 636  1560.239
 637  1726.509
 638  1821.463
 639  1895.309
 640  1829.265
 641  1760.305
 642  1504.647
 643  1423.196
 644  1439.361
 645  1527.649
 646  1648.981
 647  1793.479
 648  1525.5
 649  1423.327
 650  1333.482
 651  1494.891
 652  1632.639
 653  1608.317
 654  1726.158
 655  1709.718
 656  1632.606
 657  1607.915
 658  1477.989
 659  1537.168
 660  1643.66
 661  1734.609
 662  1838.314
 663  1798.195
 664  1800.824
 665  1660.811
 666  1494.338
 667  1490.05
 668  1468.598
 669  1514.578
 670  1493.022
 671  1511.235
 672  1598.067
 673  1531.401
 674  1371.824
 675  1297.953
 676  1300.579
 677  1417.661
 678  1372.916
 679  1498.48
 680  1666.405
 681  1713.121
 682  1731.052
 683  1735.537
 684  1690.868
 685  1741.758
 686  1621.666
 687  1614.926
 688  1708.316
 689  1763.878
 690  1691.25
 691  1490.841
 692  1469.846
 693  1601.432
 694  1799.351
 695  1877.552
 696  1878.93
 697  1825.828
 698  1813.899
 699  1783.533
 700  1700.852
 701  1633.504
 702  1632.214
 703  1512.098
 704  1440.528
 705  1415.297
 706  1599.352
 707  1666.979
 708  1617.542
 709  1608.312
 710  1686.231
 711  1761.966
 712  1634.673
 713  1431.373
 714  1531.288
 715  1617.599
 716  1655.085
 717  1577.827
 718  1435.088
 719  1445.274
 720  1428.891
 721  1519.213
 722  1623.434
 723  1726.748
 724  1812.31
 725  1879.87
 726  1675.961
 727  1709.963
 728  1651.049
 729  1757.056
 730  1842.539
 731  1709.957
 732  1968.622
 733  2042.416
 734  2092.426
 735  1977.434
 736  1778.931
 737  1808.347
 738  1882.826
 739  1819.007
 740  1742.24
 741  1730.001
 742  1783.823
 743  1676.04
 744  1667.005
 745  1755.35
 746  1758.398
 747  1721.579
 748  1658.498
 749  1729.47
 750  1809.802
 751  1817.538
 752  1871.329
 753  1940.213
 754  2073.676
 755  2173.828
 756  2100.071
 757  1976.509
 758  1879.38
 759  1947.412
 760  1969.588
 761  1784.893
 762  1760.392
 763  1776.058
 764  1709.268
 765  1612.03
 766  1504.85
 767  1563.911
 768  1724.909
 769  1931.817
 770  1928.97
 771  1895.684
 772  1760.112
 773  1650.934
 774  1642.601
 775  1627.25
 776  1594.84
 777  1621.759
 778  1733.674
 779  1856.369
 780  1888.02
 781  1883.096
 782  2006.007
 783  2036.488
 784  1985.816
 785  1875.31
 786  1763.446
 787  1781.985
 788  1769.563
 789  1829.102
 790  1784.684
 791  1641.423
 792  1615.272
 793  1558.964
 794  1623.402
 795  1731.811
 796  1757.629
 797  1759.808
 798  1663.635
 799  1499.099
 800  1434.842
 801  1480.836
 802  1683.333
 803  1747.031
 804  1682.108
 805  1633.138
 806  1632.27
 807  1622.328
 808  1687.761
 809  1673.945
 810  1630.536
 811  1520.508
 812  1422.435
 813  1491.932
 814  1478.423
 815  1594.273
 816  1565.512
 817  1615.101
 818  1624.116
 819  1490.494
 820  1372.763
 821  1251.162
 822  1293.261
 823  1537.882
 824  1706.969
 825  1731.68
 826  1662.456
 827  1639.714
 828  1608.773
 829  1675.643
 830  1604.429
 831  1699.354
 832  1673.858
 833  1651.132
 834  1579.498
 835  1615.089
 836  1552.848
 837  1472.455
 838  1562.137
 839  1759.489
 840  1743.737
 841  1622.149
 842  1514.993
 843  1544.754
 844  1404.655
 845  1376.565
 846  1387.429
 847  1565.191
 848  1659.587
 849  1752.443
 850  1649.689
 851  1458.528
 852  1442.723
 853  1533.857
 854  1663.698
 855  1607.332
 856  1470.333
 857  1541.325
 858  1553.954
 859  1447.148
 860  1366.499
 861  1483.96
 862  1761.108
 863  1698.241
 864  1642.42
 865  1588.663
 866  1568.121
 867  1525.463
 868  1690.939
 869  1769.625
 870  1842.378
 871  1874.836
 872  1921.875
 873  1907.438
 874  1856.951
 875  1887.866
 876  1842.405
 877  1731.878
 878  1617.389
 879  1578.405
 880  1586.397
 881  1676.402
 882  1716.865
 883  1638.311
 884  1650.254
 885  1663.059
 886  1663.549
 887  1513.936
 888  1469.467
 889  1639.762
 890  1692.981
 891  1670.751
 892  1578.956
 893  1497.241
 894  1476.312
 895  1458.548
 896  1510.719
 897  1425.233
 898  1385.272
 899  1432.452
 900  1435.682
 901  1398.117
 902  1329.855
 903  1331.109
 904  1428.294
 905  1531.844
 906  1512.668
 907  1573.077
 908  1667.863
 909  1784.312
 910  1736.27
 911  1562.376
 912  1574.195
 913  1517.15
 914  1646.118
 915  1700.317
 916  1744.808
 917  1697.86
 918  1683.369
 919  1710.464
 920  1691.298
 921  1698.537
 922  1708.054
 923  1638.889
 924  1365.944
 925  1223.002
 926  1303.031
 927  1453.684
 928  1589.903
 929  1650.411
 930  1608.105
 931  1469.546
 932  1363.248
 933  1516.285
 934  1623.58
 935  1676.236
 936  1542.33
 937  1513.632
 938  1568.722
 939  1585.833
 940  1559.244
 941  1657.304
 942  1676.361
 943  1754.563
 944  1724.153
 945  1761.272
 946  1748.017
 947  1717.919
 948  1639.897
 949  1673.692
 950  1735.531
 951  1780.987
 952  1817.211
 953  1734.606
 954  1768.167
 955  1596.212
 956  1685.721
 957  1746.318
 958  1698.551
 959  1616.388
 960  1628.695
 961  1621.964
 962  1589.703
 963  1450.68
 964  1453.1
 965  1476.432
 966  1778.622
 967  1886.461
 968  1919.022
 969  1852.508
 970  1987.748
 971  1919.881
 972  1937.931
 973  1859.557
 974  1777.824
 975  1758.383
 976  1648.456
 977  1650.149
 978  1604.569
 979  1650.186
 980  1714.259
 981  1763.414
 982  1712.132
 983  1690.811
 984  1696.671
 985  1735.937
 986  1741.461
 987  1748.865
 988  1757.647
 989  1693.283
 990  1730.439
 991  1801.959
 992  1816.049
 993  1806.054
 994  1710.169
 995  1707.238
 996  1700.121
 997  1720.308
 998  1747.773
 999  1983.094
1000  2001.624
1001  1806.759
1002  1673.025
1003  1682.219
1004  1785.796
1005  1842.837
1006  1906.974
1007  2009.151
1008  2007.842
1009  1977.072
1010  1889.323
1011  1859.999
1012  1931.921
1013  2049.052
1014  1950.158
1015  1752.255
1016  1720.125
1017  1773.848
1018  1791.983
1019  1718.158
1020  1768.402
1021  1827.52
1022  1869.704
1023  1825.076
