# Input file       =  1178699751.103657_cleaned.dat
# Candidate        =  PSR_0332+5434
# Telescope        =  AR
# Epoch_topo       =  57886.358450273809
# Epoch_bary       =  N/A
# T_sample         =  0.002
# Data Folded      =  7340032
# Data Avg         =  0.0536251112644096
# Data StdDev      =  2.29541211965309 
# Profile Bins     =  512
# Profile Avg      =  768.915256537372 
# Profile StdDev   =  274.836662822093 
# Reduced chi-sqr  =  1.429
# Prob(Noise)      <  5.56e-10   (~6.1 sigma)
# P_topo (ms)      =  714.534853151755  +/- 0.000223
# P'_topo (s/s)    =  -0                +/- 1.18e-10
# P''_topo (s/s^2) =  0                 +/- 5.19e-14
# P_bary (ms)      =  N/A
# P'_bary (s/s)    =  N/A
# P''_bary (s/s^2) =  N/A
# P_orb (s)        =  N/A
# asin(i)/c (s)    =  N/A
# eccentricity     =  N/A
# w (rad)          =  N/A
# T_peri           =  N/A
######################################################
   0  743.0609
   1  629.3262
   2  936.274
   3  1064.064
   4  1166.886
   5  1462.101
   6  1948.904
   7  2273.261
   8  2493.168
   9  2416.822
  10  2146.007
  11  1499.37
  12  822.8337
  13  801.5847
  14  793.1207
  15  758.1731
  16  691.9725
  17  906.9703
  18  1033.896
  19  913.98
  20  862.0082
  21  1206.532
  22  1290.379
  23  1252.161
  24  1197.262
  25  1082.419
  26  1007.152
  27  563.9961
  28  689.3768
  29  603.0417
  30  682.7974
  31  893.1682
  32  760.1575
  33  677.823
  34  652.1462
  35  556.0408
  36  697.3102
  37  669.9578
  38  734.1846
  39  749.6904
  40  492.2935
  41  710.2968
  42  908.5813
  43  926.7354
  44  762.9722
  45  708.1044
  46  414.4193
  47  642.6669
  48  771.5374
  49  711.0149
  50  860.6046
  51  925.4186
  52  843.5699
  53  610.8481
  54  446.4673
  55  805.8179
  56  1094.3
  57  949.6939
  58  739.3066
  59  679.3932
  60  519.7222
  61  669.9217
  62  649.1459
  63  749.8411
  64  766.4864
  65  877.795
  66  683.4081
  67  412.8663
  68  291.714
  69  671.9924
  70  840.0427
  71  756.2018
  72  508.3245
  73  545.9126
  74  709.4503
  75  1002.261
  76  896.3608
  77  748.0104
  78  776.4
  79  958.4723
  80  704.6416
  81  658.3227
  82  845.0943
  83  424.7765
  84  325.0524
  85  648.811
  86  829.8346
  87  785.2604
  88  491.8657
  89  314.4961
  90  566.3434
  91  565.3137
  92  504.5269
  93  755.7869
  94  774.9036
  95  1028.757
  96  1002.962
  97  989.2592
  98  548.9334
  99  697.5973
 100  891.2246
 101  736.7842
 102  550.4915
 103  732.0143
 104  711.3439
 105  811.1699
 106  866.7621
 107  660.8558
 108  791.9888
 109  729.67
 110  818.0886
 111  760.5522
 112  799.7141
 113  802.069
 114  939.8064
 115  977.739
 116  767.5879
 117  640.3068
 118  1008.692
 119  927.1119
 120  545.4584
 121  924.3759
 122  850.2994
 123  652.8314
 124  877.4902
 125  759.7782
 126  758.4493
 127  886.7125
 128  701.633
 129  730.0408
 130  770.5655
 131  735.3154
 132  695.9688
 133  579.0571
 134  662.7192
 135  535.5526
 136  544.2396
 137  737.139
 138  668.2399
 139  818.9351
 140  821.7396
 141  769.4571
 142  768.2053
 143  750.0677
 144  445.4617
 145  508.4231
 146  799.1315
 147  994.1501
 148  927.254
 149  516.1071
 150  777.8245
 151  887.4819
 152  961.5281
 153  546.3389
 154  683.423
 155  890.1945
 156  654.5458
 157  666.2653
 158  826.4738
 159  552.8912
 160  312.6064
 161  644.1683
 162  753.8954
 163  795.5859
 164  809.2739
 165  670.4723
 166  412.6465
 167  445.3567
 168  1000.138
 169  1141.304
 170  931.9601
 171  471.9168
 172  400.7037
 173  701.358
 174  895.1739
 175  833.6796
 176  855.2211
 177  877.189
 178  922.788
 179  817.5403
 180  937.0319
 181  1069.667
 182  946.5927
 183  1121.342
 184  978.7952
 185  529.4966
 186  588.8863
 187  865.8062
 188  841.9073
 189  651.1994
 190  709.7872
 191  821.5444
 192  828.6818
 193  822.9395
 194  911.9177
 195  791.8896
 196  747.2014
 197  587.5546
 198  630.132
 199  812.9733
 200  838.7362
 201  1153.461
 202  1221.717
 203  973.3057
 204  867.8973
 205  1045.067
 206  1098.751
 207  687.8005
 208  749.037
 209  745.1699
 210  766.9896
 211  711.2952
 212  730.135
 213  814.1381
 214  1124.133
 215  906.152
 216  797.8319
 217  469.5787
 218  568.8759
 219  971.1838
 220  1245.502
 221  1121.713
 222  806.8383
 223  947.9069
 224  830.9495
 225  639.2709
 226  782.1108
 227  800.4846
 228  589.7842
 229  579.0454
 230  719.8422
 231  636.3685
 232  627.0613
 233  659.6611
 234  570.0378
 235  569.6221
 236  524.9368
 237  443.2766
 238  403.1217
 239  696.4794
 240  852.2296
 241  759.6628
 242  691.614
 243  546.1259
 244  622.3614
 245  780.496
 246  1110.931
 247  875.6354
 248  619.6355
 249  553.0515
 250  484.3373
 251  659.4714
 252  637.0197
 253  844.3547
 254  945.6478
 255  882.8257
 256  629.6678
 257  636.2067
 258  507.6956
 259  324.4018
 260  560.127
 261  385.2484
 262  632.8322
 263  584.287
 264  609.5934
 265  531.5702
 266  664.9622
 267  782.4822
 268  1174.804
 269  1165.564
 270  939.439
 271  748.5634
 272  631.1931
 273  797.4332
 274  909.7234
 275  991.0421
 276  972.1874
 277  781.7765
 278  673.4737
 279  798.6097
 280  1022.132
 281  724.4294
 282  680.9973
 283  959.9169
 284  1026.135
 285  861.6529
 286  704.3163
 287  710.2475
 288  716.9244
 289  698.2728
 290  458.3498
 291  557.5337
 292  525.5832
 293  428.7596
 294  625.3789
 295  714.0864
 296  702.2245
 297  878.0825
 298  1044.058
 299  1063.717
 300  877.6526
 301  908.3406
 302  813.8737
 303  793.2845
 304  630.0179
 305  715.3813
 306  905.8164
 307  1136.455
 308  660.5297
 309  789.3672
 310  728.1857
 311  789.1728
 312  924.8501
 313  1042.24
 314  749.8824
 315  607.3339
 316  808.8428
 317  653.3951
 318  808.5572
 319  896.5185
 320  631.8732
 321  454.8652
 322  778.1475
 323  809.5842
 324  842.6612
 325  800.4844
 326  478.7353
 327  552.7088
 328  419.4968
 329  629.8007
 330  615.74
 331  427.7559
 332  454.0227
 333  498.357
 334  499.8598
 335  516.3737
 336  571.6417
 337  767.2712
 338  798.8696
 339  717.0911
 340  707.9138
 341  616.5458
 342  674.2139
 343  659.1689
 344  612.632
 345  715.2816
 346  591.9254
 347  711.6992
 348  994.4741
 349  897.8376
 350  598.1174
 351  694.3385
 352  528.6872
 353  699.8655
 354  711.749
 355  884.1994
 356  904.711
 357  713.4875
 358  890.9126
 359  706.1156
 360  764.7853
 361  797.3116
 362  538.9505
 363  724.7705
 364  623.3562
 365  658.8525
 366  631.3672
 367  488.8141
 368  689.5895
 369  798.5587
 370  576.7593
 371  233.4294
 372  265.6548
 373  619.9635
 374  499.2964
 375  453.854
 376  451.2216
 377  569.2607
 378  578.678
 379  650.9676
 380  857.2628
 381  953.8801
 382  921.0918
 383  1006.253
 384  814.5344
 385  986.5202
 386  911.097
 387  624.1872
 388  720.9572
 389  631.3934
 390  712.4534
 391  879.9791
 392  987.0966
 393  1013.589
 394  670.1666
 395  723.3124
 396  864.0334
 397  731.3943
 398  653.5568
 399  833.4098
 400  836.0649
 401  774.983
 402  891.4155
 403  906.5482
 404  1001.124
 405  849.2198
 406  887.846
 407  946.7412
 408  872.4312
 409  904.5356
 410  874.5444
 411  809.9749
 412  854.1593
 413  894.9921
 414  1169.705
 415  950.1749
 416  879.0712
 417  670.9448
 418  355.4813
 419  589.1691
 420  922.014
 421  738.1001
 422  785.3906
 423  837.5519
 424  518.1624
 425  364.2152
 426  478.1449
 427  944.4521
 428  927.9891
 429  686.2605
 430  592.0782
 431  662.8937
 432  630.0959
 433  698.3752
 434  512.6274
 435  800.5507
 436  887.3724
 437  532.0881
 438  602.3655
 439  1046.556
 440  837.1141
 441  632.067
 442  718.9741
 443  754.5381
 444  615.8021
 445  706.7352
 446  654.3102
 447  818.9572
 448  644.2557
 449  423.519
 450  602.0938
 451  673.4563
 452  896.9246
 453  667.6967
 454  705.2795
 455  463.5129
 456  534.9688
 457  952.6626
 458  1081.756
 459  937.2634
 460  775.4224
 461  903.7035
 462  781.9511
 463  707.7945
 464  813.254
 465  805.4526
 466  475.1727
 467  454.0837
 468  581.1617
 469  795.3948
 470  740.4491
 471  877.2557
 472  821.824
 473  669.3865
 474  713.6282
 475  773.4364
 476  871.7516
 477  1079.739
 478  1091.945
 479  1038.459
 480  673.4703
 481  751.0992
 482  719.1616
 483  602.6977
 484  878.7367
 485  930.2584
 486  856.972
 487  846.8166
 488  970.6797
 489  692.2177
 490  501.6496
 491  975.9952
 492  997.887
 493  919.6614
 494  749.528
 495  577.8383
 496  650.2457
 497  664.8869
 498  638.6617
 499  666.5526
 500  718.9954
 501  766.7302
 502  737.8063
 503  458.4475
 504  610.5975
 505  717.3077
 506  977.3963
 507  987.5294
 508  664.846
 509  868.1887
 510  980.7247
 511  960.2374
