# Input file       =  1178771242.111134_cleaned.dat
# Candidate        =  PSR_0332+5434
# Telescope        =  AR
# Epoch_topo       =  57887.185892489979
# Epoch_bary       =  N/A
# T_sample         =  0.002
# Data Folded      =  7208960
# Data Avg         =  0.169416093297133
# Data StdDev      =  4.08348879281493 
# Profile Bins     =  1024
# Profile Avg      =  1192.70103898227 
# Profile StdDev   =  342.623934184636 
# Reduced chi-sqr  =  1.078
# Prob(Noise)      <  0.0419   (~1.7 sigma)
# P_topo (ms)      =  714.534046309117  +/- 5.38e-05
# P'_topo (s/s)    =  -0                +/- 2.89e-11
# P''_topo (s/s^2) =  0                 +/- 1.3e-14
# P_bary (ms)      =  N/A
# P'_bary (s/s)    =  N/A
# P''_bary (s/s^2) =  N/A
# P_orb (s)        =  N/A
# asin(i)/c (s)    =  N/A
# eccentricity     =  N/A
# w (rad)          =  N/A
# T_peri           =  N/A
######################################################
   0  1091.627
   1  949.3121
   2  853.4475
   3  1000.935
   4  1175.846
   5  1196.558
   6  1192.992
   7  1192.123
   8  1365.901
   9  1384.655
  10  1341.528
  11  1484.183
  12  1459.744
  13  1514.964
  14  1409.859
  15  1497.421
  16  1515.974
  17  1474.462
  18  1489.077
  19  1380.925
  20  1378.944
  21  1457.487
  22  1419.447
  23  1361.527
  24  1284.537
  25  1399.938
  26  1411.159
  27  1392.042
  28  1275.363
  29  1257.156
  30  1231.298
  31  1257.919
  32  1157.75
  33  1124.221
  34  1035.889
  35  1035.479
  36  967.1412
  37  938.4766
  38  883.975
  39  902.621
  40  1019.01
  41  957.1948
  42  909.2704
  43  961.7195
  44  1018.276
  45  1071.108
  46  1172.61
  47  1287.949
  48  1346.507
  49  1226.984
  50  1270.415
  51  1379.378
  52  1318.89
  53  1235.842
  54  1271.351
  55  1414.73
  56  1504.867
  57  1365.456
  58  1358.501
  59  1308.219
  60  1195.181
  61  1112.246
  62  1031.735
  63  1048.547
  64  1063.164
  65  1095.87
  66  1160.077
  67  981.3715
  68  796.2069
  69  735.4153
  70  768.8151
  71  1017.156
  72  1159.588
  73  1297.865
  74  1294.657
  75  1259.756
  76  1287.984
  77  1216.462
  78  1293.756
  79  1349.486
  80  1404.234
  81  1382.096
  82  1178.163
  83  1081.671
  84  1027.262
  85  1143.04
  86  1264.064
  87  1433.879
  88  1521.937
  89  1451.991
  90  1437.431
  91  1381.874
  92  1471.627
  93  1430.967
  94  1366.428
  95  1192.881
  96  1137.84
  97  1114.853
  98  1140.864
  99  1064.546
 100  1055.885
 101  986.6196
 102  888.8837
 103  849.7348
 104  845.0231
 105  1040.482
 106  1020.057
 107  1029.231
 108  1103.704
 109  1188.668
 110  1163.305
 111  1120.712
 112  1156.916
 113  1132.788
 114  1060.946
 115  1065.173
 116  1218.478
 117  1178.309
 118  1129.686
 119  1030.612
 120  1073.463
 121  1173.598
 122  1297.41
 123  1448.913
 124  1378.395
 125  1217.579
 126  1191.969
 127  1169.699
 128  1066.249
 129  1005.986
 130  1039.325
 131  1198.704
 132  1109.237
 133  969.9016
 134  837.2864
 135  664.1881
 136  689.5803
 137  793.0479
 138  954.8373
 139  959.9371
 140  956.5356
 141  1167.925
 142  1203.925
 143  1256.118
 144  1326.145
 145  1296.843
 146  1282.58
 147  1314.8
 148  1450.692
 149  1394.522
 150  1242.291
 151  1161.565
 152  1225.799
 153  1182.391
 154  1391.035
 155  1506.049
 156  1485.728
 157  1363.754
 158  1290.192
 159  1358.368
 160  1262.535
 161  1238.291
 162  1137.664
 163  1077.742
 164  1004.103
 165  943.6592
 166  1104.503
 167  1041.652
 168  885.7701
 169  729.0007
 170  766.4021
 171  799.9006
 172  832.6074
 173  1000.674
 174  1157.448
 175  1174.193
 176  1167.241
 177  1160.679
 178  1061.129
 179  1092.308
 180  1157.535
 181  1317.8
 182  1178.346
 183  1081.97
 184  1102.63
 185  1097.584
 186  1142.754
 187  1307.567
 188  1473.477
 189  1337.865
 190  1135.002
 191  1155.133
 192  1177.234
 193  1026.907
 194  969.6627
 195  1029.404
 196  1132.867
 197  1106.462
 198  1122.302
 199  1141.791
 200  919.1995
 201  787.0146
 202  842.7448
 203  970.8175
 204  1011.35
 205  927.3986
 206  1032.649
 207  1016.106
 208  974.5562
 209  1038.885
 210  1083.037
 211  1154.392
 212  1204.873
 213  1270.51
 214  1370.422
 215  1179.578
 216  1307.196
 217  1232.18
 218  1242.287
 219  1258.772
 220  1284.829
 221  1292.893
 222  1262.061
 223  1300.75
 224  1310.355
 225  1149.044
 226  952.0792
 227  992.8725
 228  1078.289
 229  1107.984
 230  906.6156
 231  864.6443
 232  827.366
 233  793.9422
 234  694.6858
 235  805.7081
 236  857.0252
 237  900.9632
 238  973.4407
 239  1117.672
 240  1178.502
 241  1170.152
 242  1076.269
 243  1015.75
 244  1125.18
 245  1164.424
 246  1174.834
 247  1062.076
 248  1022.615
 249  1162.798
 250  1139.138
 251  1187.908
 252  1230.17
 253  1374.675
 254  1409.329
 255  1294.035
 256  1394.838
 257  1376.534
 258  1288.394
 259  1155.533
 260  1237.548
 261  1292.047
 262  1253.713
 263  1123.203
 264  1131.921
 265  985.8322
 266  841.9099
 267  729.7093
 268  708.793
 269  849.6682
 270  1008.315
 271  1161.729
 272  1169.121
 273  1183.477
 274  1281.189
 275  1178.069
 276  1102.622
 277  1214.996
 278  1381.9
 279  1441.136
 280  1309.573
 281  1341.339
 282  1348.656
 283  1257.234
 284  1247.282
 285  1323.514
 286  1392.743
 287  1354.258
 288  1324.771
 289  1336.479
 290  1271.941
 291  1185.296
 292  1254.17
 293  1314.006
 294  1248.372
 295  1209.934
 296  1224.184
 297  1178.337
 298  865.7975
 299  805.7439
 300  819.7401
 301  830.9084
 302  890.221
 303  974.1276
 304  1093.411
 305  1060.543
 306  1046.039
 307  1221.702
 308  1190.853
 309  1184.928
 310  1122.752
 311  1146.057
 312  1105.329
 313  1194.163
 314  1342.878
 315  1260.53
 316  1179.565
 317  1191.013
 318  1202.953
 319  1112.397
 320  1126.246
 321  1277.118
 322  1365.864
 323  1390.939
 324  1431.049
 325  1437.513
 326  1239.781
 327  1206.083
 328  1218.521
 329  1266.282
 330  1175.665
 331  983.7448
 332  846.7101
 333  713.19
 334  754.3274
 335  832.2107
 336  872.1384
 337  984.7296
 338  1036.51
 339  1116.62
 340  1033.611
 341  922.7708
 342  1063.602
 343  1267.243
 344  1359.267
 345  1289.4
 346  1305.972
 347  1376.412
 348  1246.439
 349  1282.484
 350  1361.348
 351  1434.694
 352  1384.107
 353  1320.495
 354  1267.502
 355  1277.769
 356  1125.413
 357  1083.538
 358  1053.828
 359  1155.307
 360  1177.417
 361  1198.735
 362  1269.641
 363  1280.515
 364  1160.075
 365  1032.798
 366  947.3356
 367  1011.927
 368  971.3049
 369  1019.304
 370  1117.14
 371  1335.744
 372  1281.117
 373  1064.632
 374  1027.584
 375  1187.068
 376  1320.982
 377  1373.297
 378  1344.893
 379  1374.09
 380  1339.018
 381  1280.882
 382  1298.94
 383  1256.63
 384  1319.869
 385  1453.526
 386  1647.543
 387  1666.379
 388  1491.697
 389  1315.891
 390  1173.713
 391  1064.873
 392  1094.54
 393  1063.903
 394  1092.729
 395  1100.039
 396  1039.557
 397  1028.913
 398  888.551
 399  844.4952
 400  816.0276
 401  943.2288
 402  979.7502
 403  999.3905
 404  1136.776
 405  1252.125
 406  1127.184
 407  1093.552
 408  1153.73
 409  1350.699
 410  1408.326
 411  1373.655
 412  1302.331
 413  1106.575
 414  1043.491
 415  1142.588
 416  1137.856
 417  1193.947
 418  1287.25
 419  1610.132
 420  1635.888
 421  1370.793
 422  1234.454
 423  977.7458
 424  877.1206
 425  910.4189
 426  1143.332
 427  1404.424
 428  1243.843
 429  1143.36
 430  1049.687
 431  976.9819
 432  941.4243
 433  847.1946
 434  858.4397
 435  1073.955
 436  1215.721
 437  1241.546
 438  1085.179
 439  996.2552
 440  1173.404
 441  1281.033
 442  1363.85
 443  1306.398
 444  1259.545
 445  1227.874
 446  1160.383
 447  1314.871
 448  1423.644
 449  1356.931
 450  1217.655
 451  1192.625
 452  1341.587
 453  1390.856
 454  1282.688
 455  1295.654
 456  1247.643
 457  1166.29
 458  1149.262
 459  1140.887
 460  1173.445
 461  1131.615
 462  1179.877
 463  1091.391
 464  907.373
 465  827.0523
 466  899.012
 467  908.6612
 468  927.0516
 469  1091.154
 470  1227.825
 471  1134.659
 472  1125.521
 473  1229.739
 474  1284.145
 475  1316.882
 476  1375.291
 477  1507.459
 478  1501.608
 479  1421.101
 480  1407.413
 481  1296.55
 482  1251.266
 483  1268.631
 484  1331.224
 485  1377.298
 486  1239.357
 487  1199.878
 488  1111.31
 489  1122.032
 490  1173.605
 491  1286.592
 492  1347.464
 493  1401.748
 494  1329.406
 495  1268.935
 496  1031.263
 497  832.1605
 498  809.6617
 499  829.8741
 500  925.1618
 501  959.9352
 502  999.3327
 503  933.0543
 504  826.1716
 505  874.0374
 506  964.9406
 507  1050.904
 508  1208.563
 509  1200.048
 510  1210.951
 511  1232.841
 512  1340.375
 513  1321.257
 514  1187.861
 515  1177.242
 516  1229.945
 517  1297.738
 518  1422.066
 519  1463.131
 520  1404.797
 521  1303.867
 522  1203.722
 523  1209.691
 524  1168.311
 525  1271.083
 526  1375.865
 527  1399.902
 528  1301.23
 529  1074.568
 530  907.2186
 531  864.961
 532  830.7303
 533  868.7123
 534  866.5157
 535  1034.926
 536  1127.876
 537  1200.546
 538  1294.818
 539  1175.342
 540  1128.989
 541  982.5745
 542  1118.643
 543  1189.18
 544  1184.159
 545  1148.495
 546  1134.012
 547  1259.922
 548  1419.579
 549  1472.187
 550  1553.07
 551  1524.52
 552  1443.683
 553  1355.9
 554  1182.207
 555  1136.15
 556  996.2217
 557  979.0323
 558  980.5694
 559  998.4843
 560  1079.577
 561  1091.456
 562  1070.189
 563  1054.522
 564  888.5452
 565  814.8248
 566  881.0148
 567  1051.7
 568  1186.657
 569  1167.595
 570  1253.74
 571  1190.907
 572  1089.399
 573  1204.574
 574  1360.378
 575  1539.71
 576  1492.999
 577  1463.702
 578  1402.964
 579  1322.443
 580  1325.137
 581  1348.311
 582  1384.196
 583  1413.266
 584  1479.678
 585  1490.585
 586  1508.1
 587  1375.697
 588  1345.113
 589  1222.868
 590  1119.716
 591  981.742
 592  986.6732
 593  1161.311
 594  1133.42
 595  1044.972
 596  819.0598
 597  785.7261
 598  765.1724
 599  779.6111
 600  909.1672
 601  1028.645
 602  1199.743
 603  1296.772
 604  1311.298
 605  1243.571
 606  1185.906
 607  1143.931
 608  1218.732
 609  1258.849
 610  1263.14
 611  1134.18
 612  1113.999
 613  1119.161
 614  1051.96
 615  1071.294
 616  1255.908
 617  1424.752
 618  1592.101
 619  1702.965
 620  1726.548
 621  1468.973
 622  1243.983
 623  1193.817
 624  1253.261
 625  1323.967
 626  1219.912
 627  1109.376
 628  977.7048
 629  956.2292
 630  929.8794
 631  1007.331
 632  1015.618
 633  1017.404
 634  979.4293
 635  1103.259
 636  1096.182
 637  1018.673
 638  1092.047
 639  1206.127
 640  1307.418
 641  1324.768
 642  1352.296
 643  1288.868
 644  1240.295
 645  1211.135
 646  1309.726
 647  1156.088
 648  1286.057
 649  1256.035
 650  1237.35
 651  1101.585
 652  1297.35
 653  1485.116
 654  1426.062
 655  1207.39
 656  1080.893
 657  1069.502
 658  1138.94
 659  1223.445
 660  1184.567
 661  1033.096
 662  875.8887
 663  861.394
 664  855.6794
 665  873.0936
 666  898.9532
 667  977.6053
 668  941.7991
 669  971.3006
 670  982.207
 671  1082.981
 672  1024.257
 673  1009.145
 674  1132.167
 675  1093.869
 676  1218.96
 677  1225.951
 678  1419.264
 679  1326.576
 680  1184.15
 681  1162.879
 682  1196.681
 683  1232.995
 684  1291.76
 685  1391.982
 686  1412.72
 687  1277.453
 688  1261.596
 689  1310.076
 690  1284.736
 691  1245.106
 692  1191.82
 693  1141.556
 694  1065.73
 695  962.4769
 696  1097.079
 697  983.6605
 698  997.4734
 699  948.5855
 700  1051.788
 701  981.0956
 702  878.2692
 703  1081.048
 704  1160.149
 705  1185.09
 706  1240.39
 707  1117.009
 708  919.8652
 709  891.5742
 710  1169.682
 711  1431.671
 712  1319.861
 713  1349.025
 714  1410.597
 715  1359.756
 716  1382.441
 717  1434.482
 718  1454.395
 719  1310.245
 720  1099.168
 721  1151.83
 722  1159.671
 723  1152.481
 724  1207.287
 725  1185.165
 726  1230.419
 727  1135.296
 728  1059.182
 729  892.5901
 730  755.1906
 731  972.5848
 732  1085.88
 733  1154.119
 734  1005.566
 735  977.7709
 736  1042.777
 737  1148.373
 738  1271.119
 739  1310.707
 740  1330.539
 741  1399.661
 742  1444.282
 743  1407.71
 744  1299.069
 745  1141.313
 746  1304.143
 747  1324.63
 748  1468.107
 749  1467.063
 750  1560.859
 751  1648.484
 752  1547.616
 753  1691.647
 754  1714.902
 755  1834.045
 756  1915.503
 757  1864.08
 758  1910.113
 759  1835.097
 760  1729.444
 761  1596.501
 762  1406.444
 763  1385.55
 764  1391.51
 765  1520.614
 766  1467.561
 767  1233.242
 768  1256.521
 769  1114.16
 770  1160.266
 771  1215.177
 772  1455.986
 773  1460.316
 774  1365.619
 775  1423.255
 776  1425.203
 777  1255.435
 778  1166.822
 779  1310.075
 780  1367.393
 781  1250.967
 782  1192.779
 783  1382.569
 784  1432.676
 785  1451.558
 786  1409.676
 787  1424.845
 788  1378.922
 789  1265.156
 790  1277.929
 791  1276.717
 792  1185.713
 793  1107.048
 794  1054.041
 795  929.8718
 796  800.7427
 797  690.2773
 798  798.6268
 799  822.5481
 800  971.728
 801  1208.613
 802  1341.199
 803  1348.258
 804  1389.343
 805  1393.628
 806  1312.033
 807  1280.973
 808  1343.478
 809  1319.658
 810  1124.36
 811  1033.576
 812  1111.839
 813  1073.424
 814  1303.229
 815  1333.497
 816  1448.274
 817  1325.104
 818  1462.188
 819  1539.053
 820  1432.443
 821  1243.373
 822  1321.062
 823  1292.142
 824  1238.927
 825  1092.941
 826  1123.927
 827  1067.369
 828  895.8571
 829  902.2205
 830  965.9229
 831  1088.683
 832  1074.852
 833  1164.915
 834  1256.571
 835  1265.569
 836  1315.753
 837  1331.694
 838  1298.73
 839  1401.005
 840  1508.947
 841  1498.828
 842  1383.945
 843  1272.288
 844  1257.323
 845  1172.377
 846  1193.306
 847  1306.293
 848  1330.457
 849  1316.503
 850  1387.682
 851  1419.968
 852  1497.298
 853  1279.809
 854  1393.562
 855  1398.133
 856  1519.918
 857  1436.766
 858  1361.377
 859  1344.771
 860  1126.026
 861  1057.254
 862  1027.964
 863  926.6885
 864  947.0841
 865  903.3943
 866  1220.491
 867  1278.587
 868  1399.267
 869  1466.109
 870  1524.88
 871  1328.819
 872  1222.138
 873  1148.403
 874  1357.625
 875  1336.816
 876  1428.696
 877  1386.18
 878  1308.349
 879  1397.76
 880  1417.285
 881  1472.012
 882  1485.395
 883  1573.982
 884  1547.608
 885  1421.111
 886  1211.539
 887  1211.762
 888  1126.152
 889  1180.917
 890  1111.23
 891  1185.666
 892  1085.369
 893  913.2509
 894  857.2475
 895  953.3455
 896  989.3921
 897  1126.295
 898  1195.21
 899  1357.742
 900  1196.984
 901  1054.001
 902  1033.893
 903  1194.001
 904  1360.801
 905  1372.495
 906  1287.509
 907  1215.275
 908  1204.202
 909  1289.046
 910  1332.049
 911  1300.565
 912  1333.374
 913  1409.097
 914  1509.809
 915  1416.952
 916  1348.937
 917  1303.76
 918  1223.183
 919  1249.614
 920  1205.667
 921  1108.469
 922  896.2218
 923  877.4103
 924  1095.607
 925  1091.368
 926  960.321
 927  832.9498
 928  737.7902
 929  711.099
 930  766.9724
 931  1064.158
 932  1189.064
 933  1191.156
 934  1205.238
 935  1268.618
 936  1329.314
 937  1390.702
 938  1421.968
 939  1478.602
 940  1432.581
 941  1409.344
 942  1331.177
 943  1196.584
 944  1097.926
 945  1145.38
 946  1255.372
 947  1441.694
 948  1457.859
 949  1515.585
 950  1399.675
 951  1240.186
 952  1283.782
 953  1333.76
 954  1358.353
 955  1268.481
 956  1244.33
 957  1249.644
 958  1064.791
 959  1000.145
 960  877.0258
 961  832.4572
 962  820.2156
 963  1042.348
 964  1138.838
 965  1033.782
 966  1118.421
 967  1325.887
 968  1498.917
 969  1464.351
 970  1493.082
 971  1458.369
 972  1384.423
 973  1263.164
 974  1324.789
 975  1310.751
 976  1248.09
 977  1216.385
 978  1288.027
 979  1408.011
 980  1434.908
 981  1455.508
 982  1510.888
 983  1489.716
 984  1517.739
 985  1431.75
 986  1218.94
 987  1128.314
 988  1104.557
 989  1179.828
 990  923.8724
 991  803.4225
 992  879.4869
 993  956.216
 994  928.0822
 995  841.0867
 996  901.7336
 997  1054.541
 998  1201.095
 999  1343.129
1000  1351.719
1001  1189.738
1002  1264.129
1003  1197.799
1004  1066.193
1005  1089.226
1006  1236.083
1007  1497.306
1008  1373.818
1009  1344.934
1010  1181.119
1011  1051.478
1012  1051.327
1013  1257.959
1014  1314.973
1015  1303.82
1016  1170.166
1017  1030.107
1018  1012.453
1019  900.728
1020  1117.711
1021  1263.118
1022  1492.86
1023  1383.942
