# Input file       =  1178685143.103464-PSRB0329-2ms-sampling-dd.dat
# Candidate        =  PSR_0332+5434
# Telescope        =  AR
# Epoch_topo       =  57886.189376197501
# Epoch_bary       =  N/A
# T_sample         =  0.002
# Data Folded      =  7208960
# Data Avg         =  -1.04868975396032e-09
# Data StdDev      =  7.17731699323142 
# Profile Bins     =  512
# Profile Avg      =  -0.0994717403935641
# Profile StdDev   =  851.654518825742 
# Reduced chi-sqr  =  0.761
# Prob(Noise)      <  1   (~0.0 sigma)
# P_topo (ms)      =  714.535003079987  +/- 3.78e-05
# P'_topo (s/s)    =  -0                +/- 2.03e-11
# P''_topo (s/s^2) =  0                 +/- 9.13e-15
# P_bary (ms)      =  N/A
# P'_bary (s/s)    =  N/A
# P''_bary (s/s^2) =  N/A
# P_orb (s)        =  N/A
# asin(i)/c (s)    =  N/A
# eccentricity     =  N/A
# w (rad)          =  N/A
# T_peri           =  N/A
######################################################
   0  -208.884
   1  448.5532
   2  -40.56929
   3  432.7576
   4  252.975
   5  311.5679
   6  -283.5208
   7  -286.1372
   8  -69.33446
   9  -582.7055
  10  -59.53133
  11  168.0538
  12  554.6904
  13  -54.10445
  14  -162.2684
  15  -299.8146
  16  -200.9808
  17  -208.7304
  18  -69.03073
  19  -114.2101
  20  -81.19249
  21  492.554
  22  320.3501
  23  298.3353
  24  435.7576
  25  387.1321
  26  184.6738
  27  -125.9278
  28  716.4329
  29  725.3613
  30  766.8203
  31  251.6155
  32  220.0775
  33  -28.30901
  34  169.9206
  35  882.8481
  36  718.713
  37  1102.354
  38  29.43391
  39  -230.7203
  40  193.0164
  41  497.1917
  42  1269.309
  43  2001.952
  44  2211.261
  45  1535.225
  46  900.7874
  47  -362.7689
  48  -623.8829
  49  -556.1245
  50  -322.3728
  51  275.9078
  52  470.2078
  53  49.52125
  54  -257.5941
  55  -496.6591
  56  -648.7925
  57  -630.8087
  58  -654.4973
  59  250.9261
  60  640.2553
  61  384.9232
  62  451.8133
  63  -122.8361
  64  -278.6642
  65  -556.1998
  66  -249.372
  67  205.831
  68  205.6629
  69  174.55
  70  269.8208
  71  93.08503
  72  -795.3345
  73  -1304.129
  74  -1231.937
  75  -339.4934
  76  -444.6853
  77  138.2294
  78  -198.8192
  79  -285.3045
  80  -926.4938
  81  -718.6819
  82  -782.9205
  83  -827.6474
  84  -431.9221
  85  -182.7982
  86  378.6494
  87  251.3943
  88  -110.0262
  89  -631.3458
  90  -1168.934
  91  -812.1205
  92  -631.2903
  93  150.5946
  94  298.1243
  95  484.2636
  96  -171.6616
  97  -630.3513
  98  -1075.196
  99  -648.365
 100  -282.9023
 101  -309.7369
 102  278.8719
 103  182.0016
 104  344.8434
 105  -710.2377
 106  -580.2768
 107  -321.8723
 108  -336.8435
 109  -250.498
 110  -157.6174
 111  593.6905
 112  145.3902
 113  207.1687
 114  -422.8501
 115  -538.7121
 116  -659.5095
 117  -616.5207
 118  51.05171
 119  24.69836
 120  -26.98966
 121  -1045.105
 122  -1233.321
 123  -789.9557
 124  -407.8674
 125  -214.5226
 126  -132.2605
 127  44.67547
 128  -259.7512
 129  -257.9674
 130  -864.4407
 131  -567.0466
 132  -335.8411
 133  11.93514
 134  536.5565
 135  -35.80268
 136  -153.5916
 137  -481.2741
 138  -730.6644
 139  -655.5443
 140  -682.6367
 141  -426.6429
 142  165.7087
 143  165.4333
 144  293.2043
 145  243.7296
 146  -156.0302
 147  -433.2387
 148  -448.3617
 149  -238.1686
 150  -104.2844
 151  641.4097
 152  892.6444
 153  722.8553
 154  136.5777
 155  -403.538
 156  -600.4869
 157  -793.0141
 158  -70.23807
 159  583.2058
 160  873.725
 161  522.1379
 162  303.9982
 163  -85.67564
 164  -209.6071
 165  -110.5957
 166  243.6826
 167  433.5278
 168  758.4932
 169  1319.232
 170  1048.647
 171  511.9206
 172  -203.0951
 173  -510.6177
 174  243.1667
 175  439.8309
 176  842.8006
 177  706.033
 178  669.649
 179  81.82095
 180  -318.0824
 181  -499.1988
 182  -623.9672
 183  -421.1105
 184  -154.3377
 185  589.2884
 186  157.526
 187  116.9822
 188  -255.3098
 189  -661.7018
 190  -622.7583
 191  -520.849
 192  -182.5793
 193  -91.78716
 194  202.9049
 195  -116.2165
 196  22.68294
 197  -131.7691
 198  -219.8667
 199  -374.2769
 200  -98.38894
 201  722.6727
 202  908.4076
 203  907.0471
 204  67.53864
 205  -319.154
 206  -848.5793
 207  -343.3309
 208  133.3331
 209  504.5245
 210  1311.382
 211  868.2114
 212  691.1136
 213  2.480445
 214  -471.1718
 215  -646.3298
 216  -565.3279
 217  5.639009
 218  763.4616
 219  796.2839
 220  4.517148
 221  -730.7545
 222  -1426.524
 223  -1273.741
 224  -271.3084
 225  493.1865
 226  998.2797
 227  789.0403
 228  611.4829
 229  -392.676
 230  -472.2388
 231  -700.4533
 232  -514.9139
 233  181.0237
 234  482.9187
 235  502.854
 236  206.7087
 237  -503.5423
 238  -851.1196
 239  -598.3068
 240  -563.2995
 241  -497.6238
 242  102.3807
 243  754.1122
 244  487.0703
 245  224.1456
 246  -40.24053
 247  27.90102
 248  -157.7131
 249  228.321
 250  509.2118
 251  557.494
 252  639.5751
 253  260.8138
 254  121.2153
 255  -294.1956
 256  -524.3698
 257  -260.8342
 258  -291.5146
 259  277.821
 260  489.7834
 261  741.1882
 262  91.18926
 263  -89.94431
 264  -430.7216
 265  -1194.255
 266  -781.413
 267  -543.745
 268  495.4365
 269  192.174
 270  -84.411
 271  -627.5558
 272  -897.0219
 273  -514.1539
 274  -842.4725
 275  -398.4246
 276  334.1443
 277  524.4335
 278  -183.9184
 279  -746.9075
 280  -911.0356
 281  -269.5251
 282  256.9386
 283  -120.3441
 284  183.9349
 285  -77.3359
 286  125.0592
 287  -238.5213
 288  -337.3263
 289  -362.6204
 290  -146.0657
 291  -111.2433
 292  -9.252234
 293  352.721
 294  -201.7274
 295  -12.37812
 296  80.73425
 297  -194.8643
 298  105.341
 299  -135.55
 300  -181.1673
 301  85.7272
 302  555.3415
 303  251.4283
 304  405.0777
 305  58.43639
 306  397.8735
 307  179.8097
 308  223.4579
 309  694.1434
 310  105.6298
 311  -163.3051
 312  -190.3604
 313  -241.6118
 314  -455.696
 315  -254.3979
 316  559.191
 317  638.7323
 318  711.9685
 319  158.7025
 320  -261.6757
 321  -619.3693
 322  -624.2981
 323  -323.7249
 324  173.5768
 325  868.8649
 326  1164.43
 327  1051.11
 328  386.3926
 329  -81.26003
 330  -318.5545
 331  -686.3503
 332  -510.9342
 333  18.89833
 334  199.9015
 335  615.9823
 336  163.5216
 337  -242.9749
 338  -394.8634
 339  -426.1345
 340  -252.198
 341  -467.1787
 342  -122.1144
 343  309.6737
 344  125.425
 345  -422.932
 346  -346.9183
 347  -414.0236
 348  -400.6067
 349  -207.6858
 350  -227.3268
 351  321.002
 352  11.99593
 353  -339.8758
 354  -672.7983
 355  -606.0909
 356  -695.5977
 357  -839.343
 358  -25.0661
 359  435.953
 360  582.7803
 361  -326.7524
 362  -347.5324
 363  -449.8259
 364  -470.7985
 365  -507.6476
 366  -310.4385
 367  267.7493
 368  -237.7478
 369  22.74067
 370  -4.947474
 371  -71.81447
 372  -53.82545
 373  -60.14223
 374  350.1136
 375  536.6205
 376  762.4167
 377  538.9904
 378  911.399
 379  730.1409
 380  665.3563
 381  633.6059
 382  701.2889
 383  883.4724
 384  886.0104
 385  822.8157
 386  -108.6135
 387  -137.4291
 388  -310.0774
 389  197.3873
 390  381.2885
 391  595.8344
 392  1262.077
 393  433.5923
 394  -279.9553
 395  -686.9429
 396  -737.8904
 397  -18.48247
 398  782.139
 399  1090.99
 400  1095.64
 401  659.6699
 402  329.8513
 403  449.8972
 404  -273.6661
 405  486.4144
 406  904.3403
 407  1629.821
 408  1595.578
 409  1367.603
 410  1035.667
 411  167.253
 412  214.0716
 413  168.4719
 414  201.1116
 415  81.63084
 416  340.6834
 417  447.0859
 418  105.559
 419  -360.0479
 420  -684.4161
 421  -398.4505
 422  -165.8425
 423  5.477701
 424  171.3504
 425  236.9412
 426  180.8699
 427  -77.0808
 428  -166.3771
 429  -336.7554
 430  -242.2037
 431  -75.57127
 432  291.373
 433  186.9201
 434  100.9568
 435  -385.6393
 436  -1102.574
 437  -888.2112
 438  -636.3646
 439  -35.27842
 440  210.6047
 441  438.6001
 442  150.6227
 443  491.6784
 444  185.1859
 445  -91.45078
 446  -63.7609
 447  -294.0487
 448  -306.5133
 449  -71.96277
 450  477.6119
 451  -40.48978
 452  -112.7565
 453  -284.7743
 454  -156.9645
 455  -303.4228
 456  -280.9563
 457  330.9581
 458  388.4397
 459  812.7119
 460  48.43346
 461  -174.4616
 462  -409.1053
 463  -356.7306
 464  169.0039
 465  109.5521
 466  346.2167
 467  -382.2878
 468  -714.192
 469  -1226.157
 470  -883.3052
 471  -515.3601
 472  155.7193
 473  454.7469
 474  523.1568
 475  324.9923
 476  -41.55243
 477  -194.1914
 478  -364.6576
 479  331.5925
 480  386.4341
 481  861.472
 482  870.6484
 483  915.8406
 484  358.9554
 485  -501.2727
 486  -761.889
 487  -929.9447
 488  -341.2053
 489  -367.6303
 490  -17.02533
 491  302.0773
 492  -580.4856
 493  -783.3741
 494  -840.5303
 495  -700.8859
 496  -789.5851
 497  -237.4822
 498  130.3104
 499  26.4909
 500  -66.99704
 501  -443.1588
 502  -238.0325
 503  -720.8945
 504  33.09584
 505  132.6634
 506  719.272
 507  888.9164
 508  741.5532
 509  307.0808
 510  7.447907
 511  -229.5142
