# Input file       =  1178542452.102663_cleaned.dat
# Candidate        =  PSR_0332+5434
# Telescope        =  AR
# Epoch_topo       =  57884.537859984528
# Epoch_bary       =  N/A
# T_sample         =  0.002
# Data Folded      =  7340032
# Data Avg         =  0.0328723839026809
# Data StdDev      =  3.51431303505337 
# Profile Bins     =  1024
# Profile Avg      =  235.585275410915 
# Profile StdDev   =  297.535946239483 
# Reduced chi-sqr  =  0.859
# Prob(Noise)      <  1   (~0.0 sigma)
# P_topo (ms)      =  714.536932024877  +/- 0.000392
# P'_topo (s/s)    =  -0                +/- 2.07e-10
# P''_topo (s/s^2) =  0                 +/- 9.13e-14
# P_bary (ms)      =  N/A
# P'_bary (s/s)    =  N/A
# P''_bary (s/s^2) =  N/A
# P_orb (s)        =  N/A
# asin(i)/c (s)    =  N/A
# eccentricity     =  N/A
# w (rad)          =  N/A
# T_peri           =  N/A
######################################################
   0  -31.22605
   1  141.9366
   2  289.6583
   3  255.452
   4  151.2321
   5  124.4997
   6  235.2157
   7  286.0319
   8  366.0192
   9  270.5457
  10  277.2643
  11  221.5242
  12  295.6336
  13  292.8571
  14  264.8298
  15  211.3498
  16  258.9833
  17  291.2831
  18  167.9277
  19  179.5385
  20  206.3783
  21  352.5859
  22  286.0661
  23  269.3977
  24  267.0919
  25  247.9476
  26  243.3316
  27  325.8013
  28  325.3297
  29  380.5347
  30  316.912
  31  342.7035
  32  298.7332
  33  300.7607
  34  148.8364
  35  127.0741
  36  10.52671
  37  82.68768
  38  30.67066
  39  93.84008
  40  107.3841
  41  201.0518
  42  232.1318
  43  305.9071
  44  282.8611
  45  247.6132
  46  157.8843
  47  7.74505
  48  -27.96117
  49  -21.34292
  50  62.50093
  51  94.39193
  52  89.57838
  53  124.2936
  54  94.22266
  55  -17.0781
  56  68.93076
  57  57.30851
  58  226.5676
  59  262.8685
  60  289.2055
  61  112.6862
  62  -21.62657
  63  -58.76299
  64  -36.49232
  65  118.3167
  66  177.9137
  67  278.3765
  68  184.4153
  69  199.0113
  70  216.8548
  71  207.4059
  72  292.3044
  73  163.9392
  74  125.1696
  75  55.7071
  76  -4.490074
  77  127.6416
  78  160.2761
  79  249.1255
  80  250.1855
  81  326.4384
  82  343.1134
  83  277.0386
  84  226.2729
  85  257.3719
  86  379.3457
  87  333.1628
  88  237.7434
  89  158.1614
  90  140.6525
  91  205.2475
  92  296.9926
  93  456.209
  94  451.1023
  95  288.029
  96  98.8812
  97  40.45285
  98  52.96844
  99  296.4531
 100  331.3436
 101  336.6059
 102  237.8834
 103  277.8751
 104  346.3084
 105  294.9513
 106  200.8129
 107  256.6812
 108  292.4095
 109  314.1154
 110  330.1936
 111  336.0296
 112  350.154
 113  391.331
 114  431.8164
 115  494.4519
 116  521.2274
 117  571.949
 118  568.6535
 119  528.8594
 120  553.5911
 121  540.5958
 122  415.4182
 123  272.17
 124  92.89575
 125  8.92747
 126  19.46539
 127  232.1042
 128  279.2434
 129  272.3447
 130  197.0974
 131  273.4413
 132  350.2445
 133  289.1134
 134  238.4768
 135  179.5869
 136  139.9299
 137  38.38702
 138  -58.83992
 139  50.78625
 140  166.8423
 141  -0.1687043
 142  26.92769
 143  29.35379
 144  120.927
 145  141.0707
 146  153.989
 147  205.6494
 148  -6.715144
 149  -176.2365
 150  -247.0281
 151  -91.39616
 152  -3.634148
 153  68.13177
 154  161.172
 155  352.3433
 156  407.1707
 157  359.33
 158  255.1115
 159  111.6939
 160  144.8928
 161  237.0087
 162  231.4204
 163  113.9695
 164  63.48336
 165  98.56757
 166  247.5132
 167  371.4471
 168  439.6357
 169  401.2414
 170  374.6748
 171  359.0992
 172  379.7213
 173  296.3742
 174  277.7348
 175  296.2325
 176  283.9922
 177  282.4099
 178  239.5212
 179  170.4079
 180  191.3424
 181  155.1868
 182  206.7332
 183  168.7077
 184  176.7762
 185  239.3469
 186  193.7437
 187  269.9741
 188  214.6814
 189  221.3904
 190  141.4921
 191  170.5616
 192  211.4734
 193  264.9418
 194  324.4435
 195  229.0923
 196  242.5875
 197  72.47054
 198  59.2421
 199  70.80962
 200  235.5762
 201  274.3124
 202  349.2339
 203  276.3808
 204  216.7717
 205  44.72382
 206  -12.64611
 207  -16.65554
 208  115.3439
 209  202.9303
 210  192.2439
 211  -8.511743
 212  -68.21776
 213  -80.04253
 214  15.11095
 215  91.61031
 216  193.7848
 217  320.4812
 218  369.0507
 219  260.3312
 220  313.2339
 221  334.4873
 222  306.863
 223  156.5439
 224  -4.768773
 225  30.3813
 226  112.3651
 227  131.3119
 228  238.004
 229  347.3658
 230  453.1665
 231  535.6954
 232  486.5569
 233  497.8286
 234  561.4938
 235  459.3653
 236  304.6259
 237  145.4931
 238  198.0244
 239  313.7306
 240  406.5007
 241  392.7214
 242  284.033
 243  181.697
 244  180.8196
 245  273.5815
 246  222.5757
 247  265.507
 248  137.2668
 249  278.9012
 250  346.6
 251  329.1219
 252  242.371
 253  127.1561
 254  -11.9658
 255  85.4612
 256  174.0319
 257  133.4191
 258  0.8206125
 259  69.2976
 260  326.2641
 261  330.0524
 262  288.0426
 263  326.7813
 264  370.2141
 265  378.2108
 266  301.6115
 267  221.5683
 268  106.8714
 269  138.2675
 270  246.7175
 271  325.9408
 272  204.6493
 273  226.31
 274  273.3819
 275  346.0452
 276  285.4358
 277  293.3668
 278  146.9894
 279  186.8439
 280  211.6532
 281  319.6468
 282  306.7542
 283  328.0273
 284  378.8864
 285  467.0305
 286  326.1707
 287  346.0247
 288  285.2309
 289  331.9793
 290  322.5138
 291  294.1216
 292  144.7383
 293  198.0493
 294  114.26
 295  198.6063
 296  -39.21248
 297  49.03704
 298  165.6808
 299  354.9705
 300  284.5147
 301  182.1568
 302  241.9916
 303  363.7909
 304  407.0148
 305  278.6198
 306  222.1358
 307  156.6761
 308  152.1519
 309  157.2227
 310  76.24298
 311  99.42336
 312  175.1694
 313  244.8611
 314  336.5396
 315  451.1093
 316  430.4921
 317  485.2926
 318  396.9421
 319  379.2499
 320  198.7973
 321  126.7665
 322  15.56624
 323  87.41956
 324  143.4371
 325  352.9738
 326  270.1084
 327  300.8076
 328  243.8587
 329  110.7459
 330  20.74035
 331  75.78249
 332  301.6681
 333  404.5858
 334  223.3015
 335  127.002
 336  129.4883
 337  203.404
 338  304.1149
 339  286.8002
 340  132.866
 341  73.98487
 342  98.28193
 343  195.2604
 344  268.7093
 345  311.1462
 346  424.284
 347  402.2251
 348  430.0703
 349  429.1826
 350  230.9492
 351  113.1085
 352  46.79549
 353  164.6197
 354  238.3011
 355  122.8491
 356  -29.84141
 357  -121.3692
 358  -37.62503
 359  240.9037
 360  385.5708
 361  425.6457
 362  156.5736
 363  -27.06176
 364  -124.3599
 365  -3.557593
 366  129.5549
 367  213.8317
 368  248.8677
 369  169.4935
 370  120.7867
 371  195.5827
 372  141.0116
 373  273.4176
 374  218.7561
 375  234.2931
 376  213.7779
 377  93.42418
 378  -23.55656
 379  -42.57108
 380  95.05794
 381  284.7499
 382  295.4934
 383  322.1739
 384  235.9005
 385  150.3764
 386  220.0897
 387  307.6804
 388  185.1307
 389  97.99015
 390  80.57148
 391  113.0474
 392  2.714785
 393  63.47319
 394  165.7631
 395  301.5251
 396  232.2541
 397  215.5305
 398  331.166
 399  418.8227
 400  506.2149
 401  270.8697
 402  87.45834
 403  49.08692
 404  109.5683
 405  141.7125
 406  142.7764
 407  152.769
 408  155.9533
 409  34.94576
 410  -39.71788
 411  30.50562
 412  207.9123
 413  246.7865
 414  244.6606
 415  178.4118
 416  348.4696
 417  498.8914
 418  514.1338
 419  349.3853
 420  166.4588
 421  113.2589
 422  80.14868
 423  83.93379
 424  230.8434
 425  366.584
 426  429.764
 427  416.0401
 428  472.329
 429  373.4313
 430  321.4499
 431  127.8347
 432  207.8006
 433  261.4789
 434  244.8819
 435  130.7569
 436  57.21061
 437  68.85989
 438  133.9482
 439  82.55261
 440  69.80431
 441  98.15938
 442  92.9395
 443  128.1613
 444  165.1154
 445  263.2043
 446  303.9156
 447  291.813
 448  375.7883
 449  267.5786
 450  107.4011
 451  102.644
 452  224.8022
 453  248.8187
 454  290.421
 455  249.241
 456  187
 457  144.9028
 458  74.33793
 459  225.9035
 460  145.179
 461  257.7672
 462  235.6243
 463  158.414
 464  39.51561
 465  -10.40522
 466  117.2951
 467  155.5262
 468  174.6049
 469  197.7795
 470  232.1612
 471  242.8492
 472  240.5604
 473  242.151
 474  168.2166
 475  209.8739
 476  250.5701
 477  201.8032
 478  96.53371
 479  158.8463
 480  148.4369
 481  250.0334
 482  267.9722
 483  369.668
 484  359.8701
 485  277.8964
 486  323.4761
 487  286.482
 488  154.8161
 489  93.92833
 490  152.4315
 491  293.4041
 492  159.1949
 493  80.69497
 494  48.15326
 495  93.67954
 496  134.4189
 497  235.2591
 498  275.9435
 499  292.0428
 500  396.4033
 501  331.559
 502  266.2399
 503  158.32
 504  226.951
 505  161.2788
 506  84.88294
 507  146.1038
 508  229.9891
 509  142.9734
 510  51.25844
 511  171.2786
 512  316.3125
 513  377.7833
 514  374.8718
 515  295.4871
 516  227.8478
 517  207.4341
 518  353.6183
 519  346.6753
 520  278.5624
 521  304.3527
 522  341.7813
 523  183.5836
 524  56.00095
 525  -16.03775
 526  112.7402
 527  181.0027
 528  184.7091
 529  224.3923
 530  247.2801
 531  131.0538
 532  68.88694
 533  4.130493
 534  184.4999
 535  223.6292
 536  168.4121
 537  223.0631
 538  319.6027
 539  421.0948
 540  373.0323
 541  412.6352
 542  480.6101
 543  477.4224
 544  361.8242
 545  325.5937
 546  243.0106
 547  194.4835
 548  246.126
 549  256.9004
 550  329.6342
 551  292.8628
 552  182.588
 553  80.1798
 554  -2.927558
 555  -13.27938
 556  143.2832
 557  236.7705
 558  272.5765
 559  186.358
 560  119.207
 561  262.2289
 562  369.2928
 563  273.7712
 564  253.8986
 565  230.2246
 566  333.6818
 567  357.9738
 568  247.7693
 569  249.9813
 570  203.165
 571  136.929
 572  163.9923
 573  14.40846
 574  -1.8745
 575  -42.0995
 576  59.37648
 577  148.6714
 578  164.3077
 579  149.4521
 580  74.3599
 581  144.6221
 582  233.9009
 583  302.2183
 584  191.9633
 585  79.84032
 586  -0.1527291
 587  -0.3779869
 588  -32.55155
 589  -23.1251
 590  -58.04508
 591  160.8086
 592  42.20628
 593  17.19349
 594  -91.92418
 595  72.46653
 596  86.5791
 597  200.4212
 598  196.9578
 599  379.7764
 600  445.5516
 601  303.9399
 602  189.5817
 603  24.20031
 604  61.92674
 605  51.40877
 606  22.32819
 607  33.59319
 608  30.73178
 609  187.1565
 610  334.0688
 611  230.9972
 612  152.7643
 613  141.6379
 614  311.6108
 615  402.0789
 616  263.7491
 617  163.3251
 618  131.4358
 619  193.2188
 620  216.3527
 621  265.8977
 622  319.4489
 623  409.6866
 624  420.2122
 625  386.5137
 626  242.172
 627  149.0392
 628  197.2984
 629  249.2465
 630  301.0053
 631  299.2526
 632  392.3452
 633  419.0605
 634  476.6685
 635  436.8026
 636  385.3827
 637  467.4412
 638  398.1138
 639  258.474
 640  12.48423
 641  -14.2563
 642  128.4097
 643  249.7785
 644  217.2348
 645  332.7435
 646  365.8464
 647  558.204
 648  452.3899
 649  409.9409
 650  266.9956
 651  248.483
 652  316.0303
 653  291.9901
 654  116.2434
 655  116.2299
 656  176.3298
 657  253.4499
 658  183.2193
 659  265.6979
 660  306.22
 661  352.0838
 662  316.2892
 663  215.1798
 664  137.7862
 665  112.7462
 666  133.8233
 667  291.3597
 668  370.5869
 669  415.3035
 670  316.2586
 671  187.9182
 672  281.5454
 673  254.2561
 674  278.2074
 675  177.6071
 676  129.5389
 677  58.27054
 678  -20.33633
 679  -55.4664
 680  -0.8430929
 681  137.7881
 682  305.9468
 683  344.0547
 684  256.3007
 685  232.443
 686  302.9494
 687  311.1309
 688  436.9457
 689  373.0811
 690  424.1612
 691  415.8957
 692  450.4142
 693  338.5692
 694  138.6224
 695  143.9332
 696  219.8255
 697  331.8375
 698  303.7867
 699  366.5952
 700  471.8156
 701  495.1093
 702  240.237
 703  98.33858
 704  118.9135
 705  222.3316
 706  268.3598
 707  164.2861
 708  155.439
 709  236.5744
 710  335.6295
 711  412.0674
 712  443.917
 713  428.9128
 714  379.2161
 715  332.5559
 716  307.4358
 717  331.8514
 718  384.4961
 719  489.2383
 720  586.1756
 721  424.1756
 722  123.8551
 723  41.17911
 724  159.0983
 725  328.2893
 726  112.0858
 727  -51.23049
 728  -3.647672
 729  236.3636
 730  373.459
 731  419.9424
 732  432.5002
 733  418.0283
 734  248.1078
 735  219.5733
 736  263.4811
 737  289.7275
 738  233.9118
 739  204.4049
 740  114.5086
 741  109.399
 742  80.76556
 743  48.01071
 744  149.2455
 745  341.447
 746  506.9938
 747  509.7967
 748  330.2359
 749  215.6899
 750  197.6308
 751  423.5601
 752  741.5538
 753  855.4422
 754  866.0088
 755  831.2508
 756  946.1155
 757  991.5679
 758  1021.386
 759  921.8696
 760  970.505
 761  916.3533
 762  970.6127
 763  1002.799
 764  935.3172
 765  754.5911
 766  528.6557
 767  371.7118
 768  300.8192
 769  227.1246
 770  282.5008
 771  287.9463
 772  334.8966
 773  342.3997
 774  453.8839
 775  403.471
 776  411.0206
 777  335.0729
 778  255.8758
 779  165.4377
 780  -50.91108
 781  41.54478
 782  205.4344
 783  375.3423
 784  400.7388
 785  354.3739
 786  322.451
 787  274.0261
 788  296.2253
 789  334.8051
 790  422.842
 791  309.4301
 792  132.344
 793  -27.44831
 794  33.08722
 795  159.0561
 796  305.4195
 797  262.6861
 798  312.9857
 799  210.9671
 800  331.5347
 801  384.0717
 802  499.9617
 803  382.802
 804  325.5155
 805  218.3652
 806  226.1541
 807  116.7811
 808  124.3311
 809  159.1156
 810  128.4501
 811  206.6236
 812  293.379
 813  224.9992
 814  177.4914
 815  112.8639
 816  340.8001
 817  384.0035
 818  393.2476
 819  393.7547
 820  486.6653
 821  433.0266
 822  356.7009
 823  347.0851
 824  294.9949
 825  382.3011
 826  303.9636
 827  333.4243
 828  237.3136
 829  276.7337
 830  346.3631
 831  265.0753
 832  152.1699
 833  183.264
 834  279.7144
 835  286.6326
 836  210.4053
 837  93.81066
 838  53.5662
 839  107.3315
 840  137.0359
 841  274.9639
 842  254.2313
 843  352.9039
 844  244.7834
 845  111.3557
 846  83.09383
 847  70.91463
 848  167.5996
 849  275.5523
 850  345.3628
 851  263.0671
 852  119.2962
 853  -7.649891
 854  23.30058
 855  157.1875
 856  203.8839
 857  157.3001
 858  136.0398
 859  192.931
 860  291.4468
 861  198.7629
 862  174.3571
 863  248.3486
 864  149.8885
 865  119.0078
 866  -35.39777
 867  -92.06327
 868  -85.23692
 869  66.38239
 870  290.9326
 871  432.7759
 872  416.6157
 873  413.2604
 874  239.5547
 875  100.5582
 876  142.3889
 877  245.2358
 878  326.4738
 879  321.2164
 880  268.4743
 881  243.8252
 882  314.8538
 883  393.6122
 884  457.9696
 885  270.1353
 886  144.0027
 887  136.8789
 888  297.9065
 889  422.8085
 890  434.2539
 891  354.6225
 892  199.3236
 893  68.2233
 894  24.52368
 895  123.5195
 896  158.1308
 897  287.7831
 898  239.421
 899  179.8306
 900  132.7358
 901  195.2815
 902  156.5483
 903  215.6388
 904  283.1364
 905  411.8385
 906  403.702
 907  282.882
 908  259.8037
 909  181.9614
 910  215.6313
 911  160.0734
 912  287.2076
 913  200.9422
 914  173.8907
 915  36.63274
 916  150.5444
 917  170.6147
 918  196.8454
 919  209.5359
 920  306.8976
 921  314.3647
 922  274.8948
 923  99.26432
 924  42.79479
 925  -6.823239
 926  -45.67849
 927  68.44134
 928  49.74523
 929  192.1926
 930  270.022
 931  443.6295
 932  346.3486
 933  300.9346
 934  289.4156
 935  377.1606
 936  306.4186
 937  196.2243
 938  182.3434
 939  193.4547
 940  195.7855
 941  217.265
 942  336.4229
 943  400.5277
 944  395.3116
 945  323.299
 946  359.804
 947  277.257
 948  314.5444
 949  385.3123
 950  410.2781
 951  272.295
 952  181.9069
 953  197.9173
 954  178.3166
 955  152.8707
 956  49.72763
 957  6.633058
 958  43.66284
 959  198.3885
 960  271.5867
 961  357.0152
 962  479.4755
 963  556.368
 964  505.7766
 965  371.2224
 966  203.4986
 967  204.1858
 968  236.882
 969  245.2456
 970  311.714
 971  269.8627
 972  179.9898
 973  144.2496
 974  179.1748
 975  312.339
 976  273.4624
 977  379.6073
 978  431.9357
 979  358.5578
 980  229.4312
 981  231.6196
 982  248.6125
 983  284.8319
 984  284.7517
 985  232.9149
 986  183.0235
 987  113.3962
 988  196.3884
 989  179.8992
 990  143.5103
 991  144.2279
 992  108.1372
 993  189.7723
 994  215.5985
 995  261.2162
 996  214.8456
 997  229.5775
 998  224.417
 999  282.5695
1000  288.0353
1001  396.4323
1002  403.7726
1003  437.2206
1004  170.0133
1005  9.745715
1006  20.78633
1007  261.3546
1008  394.6991
1009  237.8888
1010  224.9995
1011  252.6404
1012  327.5759
1013  249.6104
1014  202.8121
1015  214.6132
1016  201.459
1017  153.8932
1018  198.2394
1019  263.2856
1020  261.3704
1021  357.6063
1022  221.2052
1023  65.74701
