# Input file       =  1178857381.107616_cleaned.dat
# Candidate        =  PSR_0332+5434
# Telescope        =  AR
# Epoch_topo       =  57888.182871615929
# Epoch_bary       =  N/A
# T_sample         =  0.002
# Data Folded      =  7208960
# Data Avg         =  0.178778104071336
# Data StdDev      =  4.44208890012695 
# Profile Bins     =  1024
# Profile Avg      =  1258.664666655   
# Profile StdDev   =  372.712171424925 
# Reduced chi-sqr  =  0.779
# Prob(Noise)      <  1   (~0.0 sigma)
# P_topo (ms)      =  714.533085239956  +/- 5.18e-05
# P'_topo (s/s)    =  -0                +/- 2.78e-11
# P''_topo (s/s^2) =  0                 +/- 1.25e-14
# P_bary (ms)      =  N/A
# P'_bary (s/s)    =  N/A
# P''_bary (s/s^2) =  N/A
# P_orb (s)        =  N/A
# asin(i)/c (s)    =  N/A
# eccentricity     =  N/A
# w (rad)          =  N/A
# T_peri           =  N/A
######################################################
   0  1191.879
   1  1159.633
   2  1245.654
   3  1273.535
   4  1306.859
   5  1151.014
   6  1047.088
   7  1284.342
   8  1462.367
   9  1516.453
  10  1366.221
  11  1455.579
  12  1574.365
  13  1592.563
  14  1501.492
  15  1303.374
  16  1165.162
  17  1274.634
  18  1418.93
  19  1403.926
  20  1306.784
  21  1293.875
  22  1223.86
  23  967.9933
  24  969.4403
  25  1194.559
  26  1367.29
  27  1313.979
  28  1272.372
  29  1285.261
  30  1126.746
  31  1143.283
  32  1183.704
  33  1238.102
  34  1130.19
  35  1214.881
  36  1315.838
  37  1429.856
  38  1354.144
  39  1314.115
  40  1258.067
  41  1296.035
  42  1192.146
  43  1244.534
  44  1423.842
  45  1514.441
  46  1456.438
  47  1317.142
  48  1319.384
  49  1339.065
  50  1248.702
  51  1193.838
  52  1136.145
  53  1192.357
  54  1217.17
  55  1167.383
  56  1196.32
  57  1179.941
  58  1192.095
  59  1116.791
  60  975.1536
  61  1056.664
  62  1186.696
  63  1230.191
  64  1096.608
  65  903.7252
  66  1034.239
  67  1297.778
  68  1431.084
  69  1414.55
  70  1278.763
  71  1451.682
  72  1434.728
  73  1398.106
  74  1249.488
  75  1265.109
  76  1457.898
  77  1578.43
  78  1507.3
  79  1280.609
  80  1125.652
  81  1196.22
  82  1131.694
  83  1109.795
  84  1092.699
  85  1171.38
  86  1304.469
  87  1288.822
  88  1272.234
  89  1154.902
  90  1097.979
  91  1191.709
  92  1181.82
  93  1405.682
  94  1426.585
  95  1424.55
  96  1327.623
  97  1236.925
  98  1248.081
  99  1197.005
 100  1195.326
 101  1225.163
 102  1203.981
 103  1227.4
 104  1318.34
 105  1371.992
 106  1385.861
 107  1343.394
 108  1464.135
 109  1712.709
 110  1681.194
 111  1609.587
 112  1347.128
 113  1337.091
 114  1428.919
 115  1441.027
 116  1317.376
 117  1224.824
 118  1218.38
 119  1397.213
 120  1332.522
 121  1142.337
 122  1000.293
 123  1061.606
 124  1199.06
 125  1110.269
 126  1381.307
 127  1515.442
 128  1623.852
 129  1325.289
 130  1153.154
 131  1091.626
 132  1123.932
 133  1193.042
 134  1215.984
 135  1204.482
 136  1163.621
 137  1201.56
 138  1158.702
 139  1067.603
 140  1049.49
 141  1349.736
 142  1633.81
 143  1558
 144  1479.78
 145  1500.417
 146  1549.422
 147  1360.688
 148  1203.504
 149  1103.174
 150  1227.746
 151  1218.371
 152  1143.635
 153  1061.476
 154  970.259
 155  1098.49
 156  1085.626
 157  1131.769
 158  1068.674
 159  1216.397
 160  1297.388
 161  1315.059
 162  1238.963
 163  1151.603
 164  1127.655
 165  1091.815
 166  1271.004
 167  1356.601
 168  1316.726
 169  1225.891
 170  1180.451
 171  1172.322
 172  1129.132
 173  1186.87
 174  1166.244
 175  1232.423
 176  1217.112
 177  1328.032
 178  1285.48
 179  1315.949
 180  1288.583
 181  1312.818
 182  1276.95
 183  1243.999
 184  1319.346
 185  1312.23
 186  1264.083
 187  1254.935
 188  1211.471
 189  1211.471
 190  1184.604
 191  1371.587
 192  1464.436
 193  1453.981
 194  1321.807
 195  1220.094
 196  1258.115
 197  1260.571
 198  1191.193
 199  1151.053
 200  1304.85
 201  1353.471
 202  1332.836
 203  1040.956
 204  947.6864
 205  975.4818
 206  1184.914
 207  1331.454
 208  1306.042
 209  1278.17
 210  1239.928
 211  1146.039
 212  1021.049
 213  890.6168
 214  1137.961
 215  1174.502
 216  1153.024
 217  935.2004
 218  921.7138
 219  1004.937
 220  1054.459
 221  1053.864
 222  984.8355
 223  1041.572
 224  1123.135
 225  1246.405
 226  1145.624
 227  1108.842
 228  1086.532
 229  1179.902
 230  1138.578
 231  1021.262
 232  1013.284
 233  1076.656
 234  1215.721
 235  1136.302
 236  1089.153
 237  1087.117
 238  1119.615
 239  1280.257
 240  1393.67
 241  1505.767
 242  1486.146
 243  1489.885
 244  1467.8
 245  1336.925
 246  1219.787
 247  1125.913
 248  1114.687
 249  1116.496
 250  1057.978
 251  1008.039
 252  1150.273
 253  1205.089
 254  1142.874
 255  988.6744
 256  1075.424
 257  1291.941
 258  1384.375
 259  1358.622
 260  1271.738
 261  1228.071
 262  1135.762
 263  1017.405
 264  921.7944
 265  915.9038
 266  1036.359
 267  1279.542
 268  1233.232
 269  1066.068
 270  1043.241
 271  1272.208
 272  1543.559
 273  1481.247
 274  1532.751
 275  1513.203
 276  1414.535
 277  1242.493
 278  1165.413
 279  1201.7
 280  1084.66
 281  1048.329
 282  1055.958
 283  1169.412
 284  1153.955
 285  1137.801
 286  1036.597
 287  959.6989
 288  984.7375
 289  1107.589
 290  1298.486
 291  1225.462
 292  1267.685
 293  1282.52
 294  1360.874
 295  1142.385
 296  976.6808
 297  995.4651
 298  1214.335
 299  1372.356
 300  1439.374
 301  1379.906
 302  1344.8
 303  1369.621
 304  1402.868
 305  1183.524
 306  1202.23
 307  1316.05
 308  1611.496
 309  1550.667
 310  1458.549
 311  1415.763
 312  1369.341
 313  1202.245
 314  1053.139
 315  1066.441
 316  1164.297
 317  1221.651
 318  1153.478
 319  1046.197
 320  872.7968
 321  868.6747
 322  1001.574
 323  1078.602
 324  1152.876
 325  1261.762
 326  1285.305
 327  1345.314
 328  1267.511
 329  1257.117
 330  1290.886
 331  1367.563
 332  1476.358
 333  1355.021
 334  1298.135
 335  1227.52
 336  1140.378
 337  1068.311
 338  1189.459
 339  1392.778
 340  1420.756
 341  1418.033
 342  1401.037
 343  1426.784
 344  1227.25
 345  1130.915
 346  1124.969
 347  1203.367
 348  1276.385
 349  1287.34
 350  1215.177
 351  1103.761
 352  1017.014
 353  1116.776
 354  1262.118
 355  1294.271
 356  1274.035
 357  1285.398
 358  1355.46
 359  1339.014
 360  1274.366
 361  1234.654
 362  1208.657
 363  1211.334
 364  1150.624
 365  1260.074
 366  1207.169
 367  1246.111
 368  1217.2
 369  1239.625
 370  1312.176
 371  1425.189
 372  1575.147
 373  1609.268
 374  1515.353
 375  1525.621
 376  1576.853
 377  1585.303
 378  1491.795
 379  1455.012
 380  1392.832
 381  1395.411
 382  1210.183
 383  1099.078
 384  1137.4
 385  1334.055
 386  1328.151
 387  1195.308
 388  1143.606
 389  1193.684
 390  1338.922
 391  1354.389
 392  1391.56
 393  1148.31
 394  927.4879
 395  943.2472
 396  1018.044
 397  971.1086
 398  877.4263
 399  1039.419
 400  1287.271
 401  1331.798
 402  1244.52
 403  1136.176
 404  1223.19
 405  1443.093
 406  1619.12
 407  1608.992
 408  1405.448
 409  1253.465
 410  1123.225
 411  950.0481
 412  922.1227
 413  911.3064
 414  1010.667
 415  1238.908
 416  1337.693
 417  1221.958
 418  1063.531
 419  995.6525
 420  1079.271
 421  1088.98
 422  1237.893
 423  1383.598
 424  1343.354
 425  1310.58
 426  1277.046
 427  1262.812
 428  1033.91
 429  923.9472
 430  1108.308
 431  1234.927
 432  1163.021
 433  1027.594
 434  1067.941
 435  1289.322
 436  1436.79
 437  1605.203
 438  1550.894
 439  1432.879
 440  1383.049
 441  1475.104
 442  1500.539
 443  1369.297
 444  1215.177
 445  1208.878
 446  1182.987
 447  1297.999
 448  1316.892
 449  1367.551
 450  1338.401
 451  1255.793
 452  1291.62
 453  1264.32
 454  1317.467
 455  1273.891
 456  1329.852
 457  1378.203
 458  1436.769
 459  1499.797
 460  1534.153
 461  1470.027
 462  1368.779
 463  1330.208
 464  1454.725
 465  1594.531
 466  1604.828
 467  1488.854
 468  1482.121
 469  1430.146
 470  1501.055
 471  1426.922
 472  1618.674
 473  1700.824
 474  1764.694
 475  1658.35
 476  1609.084
 477  1533.781
 478  1459.909
 479  1435.77
 480  1474.768
 481  1291.201
 482  1150.323
 483  1160.542
 484  1307.405
 485  1252.431
 486  1167.466
 487  1216.287
 488  1373.43
 489  1507.695
 490  1625.155
 491  1693.911
 492  1638.698
 493  1389.281
 494  1259.446
 495  1090.146
 496  1152.963
 497  1220.339
 498  1328.662
 499  1267.341
 500  1208.867
 501  1273.378
 502  1340.109
 503  1234.613
 504  1099.124
 505  1166.218
 506  1438.946
 507  1514.815
 508  1426.434
 509  1405.818
 510  1352.929
 511  1351.538
 512  1336.351
 513  1213.348
 514  1113.378
 515  1011.509
 516  1014.707
 517  902.6584
 518  870.5363
 519  1034.547
 520  1284.451
 521  1343.129
 522  1376.633
 523  1387.512
 524  1368.31
 525  1183.458
 526  1067.004
 527  1089.225
 528  1185.187
 529  1224.209
 530  1288.931
 531  1277.459
 532  1300.164
 533  1342.137
 534  1444.405
 535  1384.822
 536  1240.977
 537  1264.594
 538  1542.302
 539  1649.925
 540  1597.135
 541  1461.165
 542  1415.42
 543  1297.651
 544  1193.502
 545  1056.141
 546  988.1599
 547  1041.644
 548  1135.151
 549  1098.016
 550  1024.692
 551  1065.012
 552  1181.896
 553  1113.879
 554  980.434
 555  1037.366
 556  1199.414
 557  1300.173
 558  1232.812
 559  1162.19
 560  1054.237
 561  964.7602
 562  931.1178
 563  935.3926
 564  982.7396
 565  1150.416
 566  1243.943
 567  1159.001
 568  1028.89
 569  956.2078
 570  1193.876
 571  1406.544
 572  1573.557
 573  1476.374
 574  1419.327
 575  1362.112
 576  1235.134
 577  1065.787
 578  1026.754
 579  1150.021
 580  1178.375
 581  1008.099
 582  980.0484
 583  993.5779
 584  1048.658
 585  1025.275
 586  962.3282
 587  995.0312
 588  967.9965
 589  1130.276
 590  1167.78
 591  1031.555
 592  1002.739
 593  1202.836
 594  1182.313
 595  1039.902
 596  993.1367
 597  1097.977
 598  1180.37
 599  1126.764
 600  1124.158
 601  1185.011
 602  1298.704
 603  1436.64
 604  1479.825
 605  1468.687
 606  1425.962
 607  1451.894
 608  1421.734
 609  1330.614
 610  1202.176
 611  1105.078
 612  1038.191
 613  1115.644
 614  1176.934
 615  1106.422
 616  1114.537
 617  1133.765
 618  1084.39
 619  980.8925
 620  1033.042
 621  1192.692
 622  1127.094
 623  1111.832
 624  1125.774
 625  1324.591
 626  1371.606
 627  1317.896
 628  1326.491
 629  1304.688
 630  1332.129
 631  1434.215
 632  1456.879
 633  1367.588
 634  1309.514
 635  1315.272
 636  1398.293
 637  1411.858
 638  1654.292
 639  1725.855
 640  1659.245
 641  1332.99
 642  1224.862
 643  1263.71
 644  1345.999
 645  1305.925
 646  1239.582
 647  1284.361
 648  1365.145
 649  1365.107
 650  1389.464
 651  1236.989
 652  1336.878
 653  1337.597
 654  1338.441
 655  1275.321
 656  1318.342
 657  1523.499
 658  1460.092
 659  1261.19
 660  1165.341
 661  1291.109
 662  1374.439
 663  1297.238
 664  1143.122
 665  1205.079
 666  1322.715
 667  1614.299
 668  1748.882
 669  1669.03
 670  1367.773
 671  1274.382
 672  1395.955
 673  1485.083
 674  1380.79
 675  1386.289
 676  1420.19
 677  1446.559
 678  1544.867
 679  1466.205
 680  1431.98
 681  1307.528
 682  1265.305
 683  1054.527
 684  907.0509
 685  1028.333
 686  1131.67
 687  1403.597
 688  1357.164
 689  1511.622
 690  1319.964
 691  1208.805
 692  988.2681
 693  1136.559
 694  1203.901
 695  1262.805
 696  1307.075
 697  1356.332
 698  1394.448
 699  1408.261
 700  1401.127
 701  1282.247
 702  1256.34
 703  1351.023
 704  1407.415
 705  1340.045
 706  1232.868
 707  1205.456
 708  1188.2
 709  1241.21
 710  1173.713
 711  1147.416
 712  1132.267
 713  1196.277
 714  1195.918
 715  1162.758
 716  1130.043
 717  1282.435
 718  1357.215
 719  1360.899
 720  1343.226
 721  1333.552
 722  1373.618
 723  1374.695
 724  1291.336
 725  1074.826
 726  1096.165
 727  1112.11
 728  1253.57
 729  1253.133
 730  1206.074
 731  1251.398
 732  1355.411
 733  1457.349
 734  1447.649
 735  1478.491
 736  1614.771
 737  1692.005
 738  1657.947
 739  1594.013
 740  1430.578
 741  1358.766
 742  1275.903
 743  1251.867
 744  1287.37
 745  1237.328
 746  1212.423
 747  1030.244
 748  1057.905
 749  1200.191
 750  1306.922
 751  1244.25
 752  1214.855
 753  1336.065
 754  1617.056
 755  1765.798
 756  1942.173
 757  1883.123
 758  1783.638
 759  1804.834
 760  1840.381
 761  1741.444
 762  1593.709
 763  1538.053
 764  1587.281
 765  1423.181
 766  1361.476
 767  1276.793
 768  1365.73
 769  1427.248
 770  1380.554
 771  1339.755
 772  1316.343
 773  1316.129
 774  1321.86
 775  1172.279
 776  1070.14
 777  1014.221
 778  1044.124
 779  989.6429
 780  933.3511
 781  827.9258
 782  961.9492
 783  996.5221
 784  1038.429
 785  1042.527
 786  1274.501
 787  1581.737
 788  1619.759
 789  1502.575
 790  1408.87
 791  1492.486
 792  1406.239
 793  1359.274
 794  1252.97
 795  1254.76
 796  1302.61
 797  1378.863
 798  1380.068
 799  1298.917
 800  1342.316
 801  1541.479
 802  1706.202
 803  1659.997
 804  1592.423
 805  1629.457
 806  1547.443
 807  1409.017
 808  1322.412
 809  1300.517
 810  1269.399
 811  1207.503
 812  1121.371
 813  1032.085
 814  945.0698
 815  1086.094
 816  1162.145
 817  1157.734
 818  1018.381
 819  1131.044
 820  1244.562
 821  1278.707
 822  1238.303
 823  1255.699
 824  1283.491
 825  1226.74
 826  1215.332
 827  1125.758
 828  1289.659
 829  1363.484
 830  1380.018
 831  1196.715
 832  1159.493
 833  1261.225
 834  1290.451
 835  1348.789
 836  1316.653
 837  1354.427
 838  1393.301
 839  1308.791
 840  1184.565
 841  1199.195
 842  1315.871
 843  1329.722
 844  1314.544
 845  1133.285
 846  1014.729
 847  942.8334
 848  997.5143
 849  872.829
 850  938.1875
 851  1058.615
 852  1241.022
 853  1211.274
 854  1149.496
 855  1096.596
 856  1154.513
 857  1163.658
 858  1024.791
 859  949.9718
 860  1048.284
 861  1317.493
 862  1373.15
 863  1298.65
 864  1155.177
 865  1285.914
 866  1423.147
 867  1522.584
 868  1414.849
 869  1424.507
 870  1473.712
 871  1374.153
 872  1160.979
 873  1056.788
 874  1167.693
 875  1176.534
 876  1160.635
 877  1085.465
 878  1191.063
 879  1189.738
 880  1201.528
 881  1035.863
 882  921.7126
 883  996.4945
 884  1032.558
 885  1081.201
 886  1066.447
 887  1210.401
 888  1268.365
 889  1254.699
 890  1236.215
 891  1091.977
 892  937.7115
 893  967.1256
 894  1052.834
 895  1306.913
 896  1281.768
 897  1388.077
 898  1332.255
 899  1340.756
 900  1261.193
 901  1281.947
 902  1460.726
 903  1482.559
 904  1445.535
 905  1306.141
 906  1239.003
 907  1279.627
 908  1314.403
 909  1335.036
 910  1175.531
 911  1043.41
 912  1065.661
 913  946.8825
 914  896.5574
 915  981.4352
 916  1027.771
 917  1030.115
 918  1051.052
 919  1162.187
 920  1162.302
 921  1059.111
 922  1017.692
 923  903.8306
 924  907.0295
 925  908.7209
 926  1045.319
 927  911.7112
 928  842.2794
 929  847.489
 930  942.1222
 931  961.2975
 932  1061.218
 933  1145.671
 934  1356.472
 935  1465.275
 936  1503.285
 937  1418.54
 938  1278.857
 939  1252.19
 940  1192.443
 941  1015.871
 942  870.205
 943  848.5409
 944  1186.148
 945  1202.572
 946  1217.456
 947  1102.728
 948  1155.463
 949  1284.63
 950  1400.744
 951  1458.06
 952  1467.792
 953  1366.763
 954  1406.358
 955  1290.553
 956  1287.126
 957  1315.669
 958  1307.482
 959  1238.202
 960  1126.218
 961  1195.867
 962  1139.651
 963  1145.993
 964  1080.637
 965  1248.406
 966  1430.985
 967  1782.748
 968  1766.733
 969  1703.857
 970  1416.431
 971  1449.139
 972  1374.06
 973  1324.88
 974  1216.998
 975  973.7126
 976  1021.721
 977  1063.673
 978  1097.058
 979  966.4051
 980  867.8967
 981  1030.542
 982  1124.355
 983  1222.685
 984  1312.563
 985  1417.616
 986  1372.565
 987  1286.8
 988  1380.762
 989  1418.853
 990  1462.093
 991  1402.683
 992  1427.105
 993  1404.751
 994  1500.075
 995  1539.334
 996  1444.606
 997  1306.648
 998  1361.767
 999  1565.623
1000  1679.063
1001  1594.429
1002  1596.944
1003  1517.393
1004  1439.434
1005  1225.495
1006  1260.427
1007  1295.644
1008  1468.725
1009  1452.806
1010  1439.528
1011  1263.389
1012  1021.397
1013  1005.636
1014  1134.62
1015  1236.817
1016  1343.103
1017  1261.466
1018  1246.765
1019  1070.496
1020  1053.325
1021  1100.046
1022  1210.962
1023  1177.736
