# Input file       =  1178771242.111134_cleaned.dat
# Candidate        =  PSR_0332+5434
# Telescope        =  AR
# Epoch_topo       =  57887.185892489979
# Epoch_bary       =  N/A
# T_sample         =  0.002
# Data Folded      =  7208960
# Data Avg         =  0.169416093297133
# Data StdDev      =  4.08348879281493 
# Profile Bins     =  256
# Profile Avg      =  4770.8041559291  
# Profile StdDev   =  685.247868369272 
# Reduced chi-sqr  =  1.440
# Prob(Noise)      <  5.15e-06   (~4.4 sigma)
# P_topo (ms)      =  714.534046309117  +/- 5.96e-05
# P'_topo (s/s)    =  -0                +/- 3.2e-11
# P''_topo (s/s^2) =  0                 +/- 1.44e-14
# P_bary (ms)      =  N/A
# P'_bary (s/s)    =  N/A
# P''_bary (s/s^2) =  N/A
# P_orb (s)        =  N/A
# asin(i)/c (s)    =  N/A
# eccentricity     =  N/A
# w (rad)          =  N/A
# T_peri           =  N/A
######################################################
   0  4049.915
   1  3719.431
   2  4490.326
   3  4468.679
   4  4588.648
   5  4529.715
   6  5268.143
   7  4282.373
   8  4164.339
   9  3073.453
  10  4251.893
  11  5165.503
  12  5410.688
  13  4926.462
  14  5662.562
  15  5015.965
  16  4132.862
  17  3481.763
  18  3726.156
  19  4591.111
  20  4735.593
  21  4408.293
  22  5267.702
  23  4344.807
  24  4375.618
  25  3713.479
  26  3930.917
  27  4094.923
  28  4967.371
  29  4979.933
  30  5095.616
  31  4768.7
  32  4085.813
  33  3210.227
  34  3477.887
  35  4539.175
  36  4473.782
  37  4385.231
  38  5166.796
  39  5377.957
  40  4942.446
  41  4145.74
  42  3252.005
  43  4769.637
  44  4856.909
  45  5445.331
  46  5211.758
  47  5314.052
  48  5005.364
  49  4542.315
  50  3321.759
  51  4151.145
  52  4712.111
  53  4756.202
  54  4865.083
  55  4857.287
  56  5529.111
  57  4880.847
  58  3331.555
  59  3687.904
  60  4111.607
  61  5208.021
  62  5250.034
  63  5426.92
  64  4563.365
  65  4775.851
  66  4468.366
  67  4090.638
  68  4726.438
  69  5183.915
  70  5299.9
  71  5617.753
  72  5734.086
  73  4314.2
  74  4099.466
  75  3554.35
  76  4518.427
  77  4950.919
  78  4869.841
  79  4719.79
  80  5891.83
  81  3889.926
  82  4868.813
  83  3643.736
  84  4599.964
  85  4757.273
  86  4991.937
  87  5307.449
  88  5199.843
  89  4869.72
  90  4633.01
  91  3757.662
  92  4098.771
  93  4784.906
  94  5663.436
  95  5414.07
  96  5223.595
  97  4593.519
  98  5361.566
  99  4007.583
 100  3691.551
 101  3593.757
 102  4635.148
 103  5098.507
 104  5084.667
 105  5407.623
 106  5007.344
 107  4748.052
 108  3443.566
 109  4602.024
 110  4402.112
 111  4665.121
 112  5639.945
 113  5578.646
 114  4108.657
 115  4224.458
 116  3663.534
 117  4614.632
 118  4828.135
 119  5904.323
 120  5373.662
 121  5881.936
 122  5125.004
 123  4253.375
 124  3464.416
 125  3845.825
 126  5045.946
 127  4874.45
 128  4445.86
 129  5255.624
 130  6219.013
 131  4987.308
 132  3995.426
 133  4010.765
 134  4290.638
 135  5173.178
 136  5059.494
 137  4951.319
 138  5284.106
 139  4526.2
 140  4356.407
 141  3474.365
 142  3866.638
 143  4238.044
 144  4906.969
 145  4911.341
 146  5310.925
 147  5137.695
 148  4673.134
 149  4045.203
 150  3871.051
 151  4616.081
 152  4099.137
 153  5488.917
 154  5634.354
 155  4771.866
 156  4748.843
 157  3900.799
 158  4190.492
 159  4404.426
 160  5461.625
 161  5165.122
 162  5787.144
 163  6580.402
 164  7501.494
 165  6647.013
 166  5751.639
 167  4792.231
 168  5473.595
 169  5312.882
 170  5099.32
 171  5649.263
 172  5378.395
 173  4647.072
 174  3260.992
 175  4258.772
 176  5460.227
 177  5104.05
 178  4472.037
 179  5544.18
 180  5559.819
 181  4779.619
 182  3848.795
 183  4548.181
 184  5212.188
 185  5787.576
 186  4901.865
 187  5331.511
 188  5580.853
 189  5713.9
 190  4616.2
 191  3951.42
 192  5640.963
 193  5076.981
 194  5466.983
 195  5744.725
 196  5793.585
 197  4641.65
 198  4076.215
 199  4219.487
 200  4663.869
 201  5194.348
 202  5033.413
 203  5517.526
 204  5343.768
 205  4507.902
 206  4010.897
 207  3050.792
 208  4607.224
 209  5374.313
 210  5667.739
 211  4697.482
 212  5817.806
 213  5214.005
 214  4866.87
 215  3545.542
 216  4301.566
 217  5739.001
 218  5451.718
 219  5059.367
 220  5786.177
 221  5712.317
 222  4376.09
 223  3573.997
 224  3930.756
 225  5146.442
 226  4591.649
 227  5421.367
 228  4646.25
 229  4568.827
 230  4693.904
 231  4382.1
 232  4517.34
 233  5249.42
 234  5861.667
 235  5972.213
 236  5662.833
 237  5436.759
 238  5171.116
 239  4617.18
 240  3839.955
 241  3798.248
 242  4165.826
 243  5123.711
 244  5202.502
 245  5649.902
 246  4678.468
 247  4365.883
 248  3311.585
 249  4704.703
 250  5070.277
 251  5316.331
 252  4495.029
 253  5841.384
 254  5658.576
 255  4607.065
