# Input file       =  1178629155.093812_cleaned.dat
# Candidate        =  PSR_0332+5434
# Telescope        =  AR
# Epoch_topo       =  57885.541366826525
# Epoch_bary       =  N/A
# T_sample         =  0.002
# Data Folded      =  7340032
# Data Avg         =  0.049677919766899
# Data StdDev      =  4.10213522280239 
# Profile Bins     =  512
# Profile Avg      =  712.194343526174 
# Profile StdDev   =  491.161105854212 
# Reduced chi-sqr  =  0.955
# Prob(Noise)      <  0.762   (~0.0 sigma)
# P_topo (ms)      =  714.535987542802  +/- 3.11e-05
# P'_topo (s/s)    =  -0                +/- 1.64e-11
# P''_topo (s/s^2) =  0                 +/- 7.24e-15
# P_bary (ms)      =  N/A
# P'_bary (s/s)    =  N/A
# P''_bary (s/s^2) =  N/A
# P_orb (s)        =  N/A
# asin(i)/c (s)    =  N/A
# eccentricity     =  N/A
# w (rad)          =  N/A
# T_peri           =  N/A
######################################################
   0  1002.805
   1  803.1144
   2  609.4165
   3  814.9824
   4  566.3013
   5  479.5331
   6  351.5159
   7  582.9337
   8  483.6928
   9  381.9154
  10  450.6125
  11  1018.709
  12  913.5812
  13  683.6334
  14  757.5328
  15  956.425
  16  587.6687
  17  173.0469
  18  518.1313
  19  577.0198
  20  242.0489
  21  644.9135
  22  326.5166
  23  402.1173
  24  433.6048
  25  33.82196
  26  420.8847
  27  321.5301
  28  355.4886
  29  350.3811
  30  529.6187
  31  745.3458
  32  719.0388
  33  920.1968
  34  793.5931
  35  556.9542
  36  776.501
  37  604.5495
  38  458.8403
  39  839.5215
  40  1233.887
  41  787.8868
  42  662.5487
  43  703.337
  44  565.0224
  45  605.2782
  46  966.1418
  47  1436.104
  48  1081.306
  49  985.636
  50  1332.658
  51  913.358
  52  134.8176
  53  409.7873
  54  755.3495
  55  712.0759
  56  467.7145
  57  685.6601
  58  797.8658
  59  481.4747
  60  447.4991
  61  274.7388
  62  768.3848
  63  606.4792
  64  930.2419
  65  745.9824
  66  262.9028
  67  812.7102
  68  716.0431
  69  422.1191
  70  330.4794
  71  868
  72  1247.708
  73  719.3651
  74  671.0558
  75  794.6589
  76  56.08907
  77  75.98145
  78  468.6446
  79  651.7579
  80  472.3119
  81  338.8382
  82  736.6854
  83  435.5645
  84  -102.9379
  85  341.9655
  86  1195.863
  87  474.0855
  88  529.4995
  89  722.951
  90  519.0431
  91  -6.485726
  92  6.173143
  93  455.1983
  94  711.447
  95  287.7746
  96  151.5957
  97  731.6652
  98  724.0206
  99  594.8972
 100  381.4641
 101  724.127
 102  593.4421
 103  924.6417
 104  1272.05
 105  928.0038
 106  477.7137
 107  899.0026
 108  1093.015
 109  589.0212
 110  493.2841
 111  921.877
 112  1042.686
 113  925.9309
 114  873.2941
 115  809.8995
 116  412.1392
 117  65.30429
 118  747.8741
 119  838.4283
 120  935.4949
 121  771.9305
 122  275.7527
 123  184.7917
 124  219.1709
 125  437.6149
 126  205.0342
 127  257.6132
 128  375.9207
 129  1044.71
 130  760.6544
 131  745.9592
 132  1016.104
 133  1003.718
 134  835.9573
 135  909.9247
 136  1060.641
 137  868.6833
 138  832.0489
 139  717.4648
 140  901.4804
 141  630.3914
 142  478.8452
 143  693.5541
 144  562.0639
 145  150.1267
 146  781.0217
 147  1045.217
 148  1288.115
 149  728.4884
 150  293.2202
 151  400.0036
 152  506.4865
 153  178.3172
 154  420.4803
 155  644.4039
 156  665.8005
 157  441.1442
 158  720.6588
 159  778.9289
 160  918.3112
 161  1277
 162  1376.324
 163  1008.098
 164  1205.256
 165  1371.56
 166  1017.711
 167  649.3902
 168  1233.957
 169  1401.719
 170  1121.909
 171  788.442
 172  941.2867
 173  639.9297
 174  1107.759
 175  1217.782
 176  807.1946
 177  361.6512
 178  609.1281
 179  1012.61
 180  1017.831
 181  665.7614
 182  595.1364
 183  891.028
 184  462.4945
 185  377.7763
 186  661.8199
 187  810.5349
 188  550.7881
 189  472.571
 190  637.7566
 191  670.0596
 192  431.694
 193  228.9075
 194  445.511
 195  559.939
 196  685.784
 197  788.7487
 198  914.2531
 199  483.079
 200  477.9969
 201  743.4023
 202  340.5805
 203  524.8295
 204  546.214
 205  274.4005
 206  309.535
 207  714.3264
 208  722.7545
 209  290.3975
 210  382.1428
 211  465.7169
 212  364.8684
 213  823.715
 214  742.4594
 215  958.2623
 216  834.051
 217  534.106
 218  755.6458
 219  480.2451
 220  130.9873
 221  715.7321
 222  1039.424
 223  615.9352
 224  629.1168
 225  708.308
 226  631.9487
 227  330.5895
 228  198.8676
 229  863.6172
 230  627.5875
 231  117.3553
 232  508.8592
 233  800.7073
 234  606.2372
 235  674.1457
 236  596.0238
 237  415.8038
 238  71.3269
 239  521.7961
 240  774.1724
 241  487.2052
 242  536.2714
 243  985.8227
 244  435.9598
 245  354.9926
 246  227.2059
 247  240.4359
 248  629.5734
 249  495.0552
 250  607.4756
 251  696.6643
 252  632.8009
 253  781.4794
 254  788.395
 255  187.6921
 256  43.98548
 257  622.3307
 258  1437.942
 259  635.626
 260  264.8775
 261  521.0786
 262  548.7758
 263  628.2809
 264  785.0704
 265  951.0208
 266  723.4615
 267  760.9529
 268  632.1753
 269  538.854
 270  735.418
 271  605.1621
 272  883.7089
 273  989.3107
 274  444.6833
 275  892.2209
 276  1142.059
 277  637.2723
 278  7.588768
 279  379.0175
 280  815.9222
 281  715.6573
 282  844.9413
 283  1199.358
 284  1158.995
 285  1003.075
 286  1070.038
 287  838.361
 288  865.504
 289  811.1202
 290  848.5755
 291  621.0954
 292  892.1791
 293  973.5961
 294  1010.384
 295  757.3865
 296  486.0032
 297  680.6624
 298  519.8408
 299  579.719
 300  505.6427
 301  1095.543
 302  498.0363
 303  403.814
 304  1091.701
 305  792.5334
 306  433.0544
 307  200.0225
 308  594.5143
 309  623.052
 310  122.9288
 311  200.8108
 312  435.9655
 313  402.1813
 314  587.6464
 315  814.688
 316  770.519
 317  336.2691
 318  237.5408
 319  271.4555
 320  100.8228
 321  -283.6979
 322  139.1382
 323  505.7198
 324  517.9703
 325  350.2343
 326  412.8701
 327  287.6251
 328  194.6734
 329  565.7481
 330  389.1011
 331  268.3188
 332  318.4989
 333  496.967
 334  783.6382
 335  757.2346
 336  933.7046
 337  1049.671
 338  755.1649
 339  567.0901
 340  717.3506
 341  265.6602
 342  246.2145
 343  397.6394
 344  1457.714
 345  951.1578
 346  391.5411
 347  858.2092
 348  672.5671
 349  334.455
 350  641.8304
 351  1308.467
 352  608.4172
 353  640.5328
 354  1215.192
 355  1118.207
 356  604.9545
 357  672.7606
 358  1050.768
 359  716.7875
 360  236.3862
 361  759.4623
 362  995.2172
 363  811.9554
 364  760.3337
 365  696.8093
 366  675.4106
 367  263.7601
 368  461.0204
 369  1387.013
 370  1311.912
 371  815.4725
 372  1128.684
 373  1146.395
 374  999.4684
 375  1322.135
 376  1412.909
 377  1005.116
 378  1065.748
 379  793.9606
 380  952.9813
 381  933.223
 382  1193.23
 383  1275.034
 384  902.0048
 385  1076.242
 386  710.0631
 387  1047.31
 388  777.9809
 389  860.2149
 390  1108.603
 391  996.2383
 392  1024.595
 393  791.733
 394  1052.229
 395  912.402
 396  744.8508
 397  866.416
 398  982.6379
 399  957.1913
 400  1123.683
 401  1104.386
 402  820.4124
 403  335.2624
 404  887.2427
 405  644.3172
 406  562.142
 407  804.1614
 408  823.3403
 409  178.9878
 410  -99.77155
 411  485.1263
 412  690.7949
 413  799.7204
 414  493.0435
 415  851.165
 416  968.0835
 417  675.7731
 418  428.4899
 419  1213.035
 420  935.3896
 421  1323.865
 422  1017.451
 423  661.3456
 424  669.7092
 425  863.69
 426  1066.639
 427  977.4131
 428  670.2426
 429  488.9843
 430  835.3129
 431  492.0307
 432  411.4689
 433  940.2599
 434  801.2608
 435  1224.365
 436  938.5212
 437  1288.414
 438  1328.349
 439  983.0978
 440  1326.5
 441  1603.317
 442  2010.222
 443  2187.322
 444  2397.092
 445  2746.239
 446  2301.999
 447  1427.003
 448  1011.323
 449  718.3724
 450  579.6502
 451  830.6704
 452  923.3077
 453  728.2358
 454  691.8806
 455  906.1376
 456  643.3967
 457  130.5654
 458  234.2737
 459  563.6006
 460  681.4122
 461  863.119
 462  811.8564
 463  832.3349
 464  406.5058
 465  407.7814
 466  485.249
 467  542.1661
 468  569.292
 469  591.9421
 470  728.6039
 471  672.6107
 472  547.0415
 473  1043.02
 474  738.282
 475  703.7054
 476  1096.135
 477  1366.883
 478  862.4363
 479  500.5927
 480  923.0683
 481  862.6121
 482  990.4812
 483  1223.658
 484  1283.82
 485  692.824
 486  886.4562
 487  1113.833
 488  478.7686
 489  160.7749
 490  693.1373
 491  886.6117
 492  802.1368
 493  768.066
 494  808.3567
 495  738.2451
 496  519.7894
 497  598.6984
 498  724.2816
 499  659.2575
 500  664.4691
 501  857.6555
 502  979.7104
 503  638.7419
 504  765.1865
 505  1212.314
 506  1048.551
 507  627.2685
 508  784.3667
 509  1117.564
 510  948.204
 511  701.045
