# Input file       =  1178886977.099836_cleaned.dat
# Candidate        =  PSR_0332+5434
# Telescope        =  AR
# Epoch_topo       =  57888.525417822180
# Epoch_bary       =  N/A
# T_sample         =  0.002
# Data Folded      =  7340032
# Data Avg         =  0.0480220950308388
# Data StdDev      =  2.80197136175232 
# Profile Bins     =  512
# Profile Avg      =  688.303293342969 
# Profile StdDev   =  335.488538983348 
# Reduced chi-sqr  =  1.287
# Prob(Noise)      <  1.18e-05   (~4.2 sigma)
# P_topo (ms)      =  714.533099565814  +/- 0.000256
# P'_topo (s/s)    =  -0                +/- 1.35e-10
# P''_topo (s/s^2) =  0                 +/- 5.96e-14
# P_bary (ms)      =  N/A
# P'_bary (s/s)    =  N/A
# P''_bary (s/s^2) =  N/A
# P_orb (s)        =  N/A
# asin(i)/c (s)    =  N/A
# eccentricity     =  N/A
# w (rad)          =  N/A
# T_peri           =  N/A
######################################################
   0  807.7025
   1  649.9496
   2  420.8522
   3  648.8412
   4  750.0684
   5  778.2009
   6  450.0435
   7  432.2175
   8  394.6438
   9  441.3904
  10  731.0025
  11  931.2851
  12  1096.972
  13  533.4248
  14  461.8682
  15  618.5016
  16  432.907
  17  754.6794
  18  911.4717
  19  953.7466
  20  789.1678
  21  708.0932
  22  515.4006
  23  508.4196
  24  364.4427
  25  675.3032
  26  941.7953
  27  585.085
  28  655.8609
  29  806.9888
  30  795.3364
  31  568.5898
  32  878.7479
  33  829.3222
  34  652.3552
  35  965.9054
  36  753.2225
  37  624.3066
  38  849.1202
  39  643.0879
  40  473.013
  41  159.8256
  42  529.9829
  43  766.9874
  44  581.8472
  45  691.712
  46  649.0043
  47  851.0457
  48  820.5434
  49  260.8682
  50  514.2827
  51  740.8812
  52  912.5223
  53  899.1838
  54  651.869
  55  577.6672
  56  425.8466
  57  360.0653
  58  681.924
  59  1006.693
  60  919.0284
  61  771.2756
  62  905.9601
  63  888.3855
  64  914.4883
  65  674.8358
  66  717.144
  67  400.7795
  68  522.1758
  69  875.4691
  70  856.0024
  71  725.5018
  72  614.6405
  73  552.9842
  74  732.6796
  75  826.7127
  76  627.2307
  77  805.0971
  78  673.7538
  79  628.4844
  80  703.4377
  81  1072.387
  82  1034.17
  83  822.444
  84  1128.874
  85  964.9538
  86  640.384
  87  677.106
  88  757.6946
  89  599.7448
  90  829.0166
  91  905.354
  92  895.9034
  93  602.3511
  94  452.6025
  95  114.6417
  96  301.1204
  97  619.8698
  98  691.0086
  99  825.6795
 100  465.909
 101  265.847
 102  576.7819
 103  720.4442
 104  860.7934
 105  959.9404
 106  768.3888
 107  575.9819
 108  327.277
 109  518.5048
 110  668.8647
 111  837.1728
 112  795.1013
 113  910.0354
 114  725.0022
 115  465.6965
 116  1013.988
 117  550.343
 118  304.9959
 119  428.3602
 120  466.585
 121  632.7546
 122  594.4791
 123  379.776
 124  337.6602
 125  47.72215
 126  110.4282
 127  436.4645
 128  285.6954
 129  545.6566
 130  546.824
 131  567.7521
 132  645.0146
 133  364.0639
 134  679.9772
 135  842.4399
 136  424.4073
 137  263.832
 138  419.782
 139  443.3545
 140  660.9409
 141  876.9158
 142  499.1909
 143  305.2969
 144  462.6567
 145  958.8157
 146  1070.767
 147  950.5829
 148  897.6116
 149  1116.561
 150  1037.332
 151  841.9919
 152  721.1924
 153  783.8736
 154  641.1017
 155  657.3113
 156  671.5598
 157  1112.964
 158  940.0211
 159  796.4286
 160  866.1689
 161  657.0165
 162  632.0029
 163  545.9619
 164  648.1539
 165  816.7231
 166  780.8528
 167  561.6172
 168  509.8029
 169  492.3077
 170  744.9463
 171  652.3958
 172  689.5079
 173  663.8029
 174  717.4128
 175  375.0106
 176  393.6773
 177  377.997
 178  403.7012
 179  335.3396
 180  228.0038
 181  546.1375
 182  317.9336
 183  328.1351
 184  509.6845
 185  590.2386
 186  694.7488
 187  685.2537
 188  775.1946
 189  657.0869
 190  329.796
 191  402.7984
 192  766.3343
 193  686.3906
 194  514.4732
 195  549.4091
 196  934.6365
 197  668.1696
 198  504.5456
 199  708.4623
 200  859.0947
 201  701.8785
 202  770.6689
 203  829.1786
 204  876.7377
 205  517.3124
 206  676.3015
 207  788.8094
 208  632.8778
 209  583.9401
 210  845.8927
 211  684.7358
 212  610.5568
 213  744.4002
 214  830.2758
 215  668.9651
 216  1024.166
 217  1068.557
 218  1319.123
 219  846.3102
 220  674.1677
 221  655.0788
 222  582.0286
 223  685.7959
 224  648.5934
 225  731.6819
 226  656.5914
 227  500.3386
 228  554.2285
 229  726.9647
 230  661.858
 231  367.7606
 232  422.1959
 233  717.7227
 234  796.7503
 235  507.2383
 236  170.6052
 237  253.4394
 238  314.3959
 239  503.2532
 240  396.6834
 241  586.9037
 242  501.7252
 243  424.2699
 244  644.7176
 245  715.818
 246  786.7112
 247  711.4534
 248  585.3766
 249  299.8284
 250  648.6069
 251  955.8788
 252  689.0054
 253  581.2729
 254  719.6135
 255  702.4218
 256  605.6964
 257  835.6373
 258  731.9581
 259  485.8322
 260  838.7872
 261  888.7204
 262  744.699
 263  839.0385
 264  511.6438
 265  441.2738
 266  423.2442
 267  733.2861
 268  597.7332
 269  369.299
 270  373.2513
 271  439.8855
 272  356.4532
 273  427.267
 274  606.8068
 275  789.2565
 276  600.2537
 277  594.1414
 278  783.8036
 279  797.921
 280  944.8992
 281  686.2642
 282  604.0235
 283  724.7908
 284  405.5647
 285  571.914
 286  558.4251
 287  614.2062
 288  178.0122
 289  382.263
 290  468.7321
 291  506.7379
 292  808.0813
 293  333.2373
 294  641.9063
 295  731.3395
 296  566.1931
 297  640.8114
 298  987.4332
 299  639.7933
 300  425.8222
 301  155.0075
 302  148.7739
 303  497.5901
 304  472.7807
 305  645.0223
 306  610.4547
 307  318.6237
 308  559.6829
 309  597.3903
 310  559.2767
 311  330.1311
 312  566.6789
 313  864.6887
 314  689.7866
 315  1033.588
 316  634.14
 317  997.3765
 318  867.1678
 319  641.0322
 320  984.7343
 321  1257.363
 322  1051.328
 323  967.4512
 324  1150.969
 325  1081.502
 326  1234.229
 327  1612.12
 328  2038.959
 329  2558.193
 330  2653.063
 331  2300.584
 332  1390.641
 333  941.2148
 334  889.454
 335  731.7546
 336  686.8491
 337  735.3991
 338  727.2517
 339  582.6621
 340  524.5937
 341  999.3217
 342  1155.781
 343  1034.277
 344  1025.455
 345  531.8052
 346  381.6777
 347  846.8985
 348  841.7576
 349  256.9763
 350  481.2827
 351  564.2632
 352  306.1074
 353  381.7728
 354  698.9748
 355  391.8086
 356  163.8545
 357  834.1591
 358  803.3907
 359  709.1429
 360  738.0375
 361  683.9739
 362  493.2335
 363  567.384
 364  609.284
 365  491.1861
 366  478.8469
 367  731.6883
 368  597.0237
 369  378.8806
 370  315.1226
 371  486.7333
 372  392.9801
 373  380.1187
 374  430.4517
 375  148.0065
 376  104.2837
 377  346.1519
 378  336.0759
 379  623.9413
 380  767.1927
 381  472.9852
 382  392.7327
 383  343.4025
 384  481.4206
 385  363.9935
 386  287.8488
 387  268.3976
 388  383.1109
 389  552.865
 390  320.0177
 391  636.0269
 392  733.5059
 393  710.9288
 394  730.5079
 395  909.8918
 396  781.6098
 397  510.2999
 398  694.4185
 399  584.6009
 400  444.0955
 401  367.1412
 402  727.0064
 403  747.0024
 404  777.5184
 405  849.2916
 406  608.3486
 407  514.4515
 408  613.766
 409  820.4575
 410  792.1681
 411  608.2334
 412  987.4667
 413  978.4229
 414  919.1789
 415  803.584
 416  752.4205
 417  863.4147
 418  1024.561
 419  1156.774
 420  1260.745
 421  1245.3
 422  993.1757
 423  863.8237
 424  773.7048
 425  774.0713
 426  602.5143
 427  780.9484
 428  1054.632
 429  787.6377
 430  546.6383
 431  417.7645
 432  659.7653
 433  599.7667
 434  830.2059
 435  764.0018
 436  565.9903
 437  520.2143
 438  507.5329
 439  760.5764
 440  639.1512
 441  564.412
 442  846.7063
 443  531.1763
 444  471.5159
 445  594.6572
 446  666.419
 447  750.5618
 448  919.3184
 449  713.2889
 450  521.5026
 451  603.1985
 452  886.3494
 453  906.2224
 454  724.4708
 455  957.1976
 456  883.2821
 457  1195.444
 458  996.6423
 459  618.3537
 460  932.3081
 461  942.1956
 462  617.6902
 463  700.2472
 464  512.2338
 465  415.6599
 466  426.9876
 467  913.258
 468  1043.098
 469  775.2183
 470  673.8361
 471  775.1075
 472  452.2692
 473  575.7957
 474  683.4518
 475  1016.216
 476  1134.241
 477  1149.209
 478  1032.101
 479  811.7744
 480  755.3232
 481  949.8445
 482  880.5122
 483  744.381
 484  778.6984
 485  896.2889
 486  996.4496
 487  842.0352
 488  374.4772
 489  711.8102
 490  933.0569
 491  569.7167
 492  861.5403
 493  1038.695
 494  828.8899
 495  941.9966
 496  638.136
 497  924.3229
 498  710.0339
 499  798.4908
 500  575.0547
 501  655.4106
 502  856.7232
 503  994.7438
 504  961.3893
 505  1094.151
 506  959.4897
 507  1075.117
 508  799.5546
 509  961.9901
 510  934.7332
 511  800.1703
