# Input file       =  1178857381.107616_cleaned.dat
# Candidate        =  PSR_0332+5434
# Telescope        =  AR
# Epoch_topo       =  57888.182871615929
# Epoch_bary       =  N/A
# T_sample         =  0.002
# Data Folded      =  7208960
# Data Avg         =  0.0413044222923391
# Data StdDev      =  1.00009459512935 
# Profile Bins     =  512
# Profile Avg      =  581.622073323608 
# Profile StdDev   =  118.670400373613 
# Reduced chi-sqr  =  0.928
# Prob(Noise)      <  0.877   (~0.0 sigma)
# P_topo (ms)      =  714.533084615541  +/- 0.000211
# P'_topo (s/s)    =  -0                +/- 1.13e-10
# P''_topo (s/s^2) =  0                 +/- 5.09e-14
# P_bary (ms)      =  N/A
# P'_bary (s/s)    =  N/A
# P''_bary (s/s^2) =  N/A
# P_orb (s)        =  N/A
# asin(i)/c (s)    =  N/A
# eccentricity     =  N/A
# w (rad)          =  N/A
# T_peri           =  N/A
######################################################
   0  1024.121
   1  935.8204
   2  786.2117
   3  671.4045
   4  610.077
   5  590.5289
   6  526.1594
   7  559.1674
   8  532.0385
   9  455.973
  10  473.4795
  11  429.8887
  12  456.5215
  13  476.59
  14  670.542
  15  695.1853
  16  704.682
  17  657.083
  18  637.7139
  19  645.9785
  20  640.4507
  21  656.2946
  22  712.6851
  23  707.7124
  24  677.6429
  25  621.7375
  26  565.5964
  27  524.4794
  28  589.4506
  29  561.3621
  30  499.7905
  31  552.8885
  32  601.3896
  33  631.6838
  34  594.1996
  35  644.1868
  36  574.7276
  37  545.0668
  38  604.9783
  39  594.3909
  40  551.8013
  41  554.8105
  42  589.0451
  43  526.5526
  44  462.0395
  45  434.2555
  46  469.7817
  47  541.3642
  48  543.8597
  49  547.2641
  50  482.5179
  51  543.8177
  52  573.4114
  53  581.0854
  54  643.4385
  55  629.1273
  56  584.8817
  57  540.9227
  58  587.5959
  59  531.0786
  60  548.6498
  61  495.3846
  62  489.5248
  63  506.964
  64  592.5099
  65  595.3923
  66  548.7012
  67  495.5195
  68  558.1958
  69  604.1605
  70  546.5477
  71  561.7621
  72  604.1677
  73  592.2283
  74  590.4725
  75  606.3817
  76  478.5409
  77  451.7942
  78  467.0256
  79  513.4557
  80  535.9789
  81  458.3388
  82  426.9573
  83  420.1821
  84  419.694
  85  389.3165
  86  403.9585
  87  524.2285
  88  600.6343
  89  631.6732
  90  598.668
  91  477.5745
  92  394.3886
  93  571.6734
  94  572.4652
  95  617.0967
  96  682.3004
  97  626.1257
  98  615.2639
  99  663.1932
 100  581.3801
 101  538.1957
 102  516.9861
 103  561.1241
 104  733.8377
 105  658.2332
 106  578.2397
 107  568.816
 108  481.0937
 109  543.5395
 110  503.6577
 111  479.4139
 112  591.7356
 113  581.0489
 114  547.0858
 115  703.9611
 116  741.2084
 117  706.3541
 118  732.2554
 119  614.7612
 120  673.058
 121  678.9868
 122  696.6735
 123  571.6448
 124  636.0284
 125  677.7986
 126  641.9205
 127  526.9097
 128  582.3677
 129  573.0308
 130  473.1601
 131  491.8874
 132  549.2261
 133  565.5848
 134  607.2924
 135  509.2304
 136  544.452
 137  653.5196
 138  597.4222
 139  673.3662
 140  580.848
 141  584.0854
 142  649.9974
 143  621.4803
 144  525.2698
 145  585.558
 146  602.0717
 147  577.6531
 148  538.5473
 149  593.0146
 150  564.6398
 151  629.8615
 152  594.9767
 153  523.131
 154  494.1545
 155  609.4003
 156  671.3921
 157  635.9733
 158  537.0765
 159  562.5875
 160  550.2729
 161  569.0814
 162  503.2975
 163  476.4608
 164  580.1257
 165  491.9776
 166  575.9904
 167  631.1827
 168  666.278
 169  589.3513
 170  534.334
 171  583.0555
 172  512.837
 173  469.1877
 174  513.2852
 175  592.5457
 176  644.4265
 177  612.283
 178  519.3325
 179  560.3438
 180  600.2543
 181  577.6603
 182  619.0593
 183  575.935
 184  587.5372
 185  657.74
 186  576.1545
 187  613.6534
 188  636.139
 189  587.5384
 190  639.6862
 191  607.8527
 192  712.7001
 193  578.8261
 194  494.1223
 195  579.4359
 196  667.9296
 197  651.2195
 198  527.3579
 199  546.6492
 200  537.0716
 201  536.5266
 202  486.0843
 203  571.1178
 204  710.321
 205  626.2711
 206  613.3434
 207  511.8775
 208  532.6355
 209  529.2244
 210  549.6506
 211  500.8928
 212  508.5175
 213  562.5158
 214  565.9869
 215  566.8421
 216  618.7371
 217  534.5635
 218  488.243
 219  503.3113
 220  517.2913
 221  544.5264
 222  562.6616
 223  593.9066
 224  531.4402
 225  620.7788
 226  604.7017
 227  544.1823
 228  633.8794
 229  697.2878
 230  585.8735
 231  565.0546
 232  615.46
 233  680.6873
 234  485.2502
 235  444.2558
 236  612.7421
 237  575.1749
 238  429.3519
 239  438.5606
 240  522.334
 241  451.366
 242  428.8073
 243  482.3081
 244  433.1803
 245  508.8122
 246  516.3732
 247  550.9855
 248  490.9633
 249  516.5084
 250  509.2603
 251  476.3003
 252  550.3749
 253  630.0363
 254  603.3875
 255  550.5507
 256  489.5427
 257  488.7323
 258  465.8841
 259  595.9175
 260  525.8267
 261  559.968
 262  590.0771
 263  503.0907
 264  479.264
 265  442.4883
 266  583.0544
 267  485.5482
 268  515.4122
 269  643.6685
 270  612.2856
 271  522.3646
 272  523.1003
 273  532.4177
 274  597.41
 275  587.8192
 276  474.0594
 277  560.8365
 278  558.9835
 279  583.0732
 280  537.4921
 281  501.8071
 282  667.7703
 283  676.7515
 284  677.3527
 285  608.8184
 286  582.2763
 287  684.5147
 288  657.5818
 289  528.1323
 290  458.5518
 291  559.3688
 292  525.5573
 293  435.9638
 294  522.2349
 295  588.217
 296  617.8918
 297  653.3644
 298  663.9139
 299  639.254
 300  583.9335
 301  507.3016
 302  628.8301
 303  638.6486
 304  628.3735
 305  466.8002
 306  568.2012
 307  638.7509
 308  536.9124
 309  537.5953
 310  628.2767
 311  636.5126
 312  620.3087
 313  614.6653
 314  605.4428
 315  622.8182
 316  574.988
 317  589.368
 318  613.3535
 319  647.1221
 320  650.481
 321  704.2329
 322  706.5637
 323  667.8685
 324  515.9812
 325  620.721
 326  574.6062
 327  549.0538
 328  585.5665
 329  574.7071
 330  486.8654
 331  514.7543
 332  546.3519
 333  624.6298
 334  501.6604
 335  557.4141
 336  685.7334
 337  588.0797
 338  466.7401
 339  483.1457
 340  609.483
 341  692.9897
 342  529.3583
 343  517.9667
 344  592.3486
 345  574.1086
 346  617.4958
 347  525.6072
 348  582.4768
 349  470.3584
 350  568.7365
 351  680.7097
 352  615.5865
 353  675.4225
 354  696.8478
 355  539.9317
 356  600.6533
 357  678.94
 358  621.8779
 359  661.119
 360  605.9443
 361  626.2522
 362  749.8445
 363  749.2372
 364  668.5316
 365  703.6235
 366  725.1497
 367  646.6695
 368  667.3851
 369  800.5878
 370  741.6418
 371  736.7985
 372  703.8489
 373  678.7203
 374  589.9806
 375  637.0202
 376  613.9578
 377  642.3281
 378  729.1094
 379  671.2231
 380  559.1981
 381  620.87
 382  628.1031
 383  625.5353
 384  516.0919
 385  456.1808
 386  637.0215
 387  610.2039
 388  606.827
 389  580.86
 390  453.5561
 391  432.4018
 392  473.4455
 393  608.0957
 394  666.2866
 395  564.5056
 396  512.6187
 397  591.3653
 398  646.9302
 399  621.9642
 400  572.3761
 401  532.6566
 402  685.2576
 403  695.3108
 404  644.0706
 405  545.9692
 406  565.186
 407  533.8818
 408  531.8624
 409  540.5557
 410  449.1069
 411  558.0456
 412  548.6057
 413  484.2566
 414  428.5496
 415  476.4243
 416  521.0634
 417  405.8953
 418  535.6066
 419  585.8792
 420  573.9547
 421  500.6667
 422  532.2309
 423  490.2057
 424  474.4452
 425  479.3186
 426  435.3458
 427  459.0044
 428  455.1227
 429  518.3964
 430  478.6549
 431  508.8948
 432  496.9637
 433  508.5923
 434  613.939
 435  674.7924
 436  644.437
 437  612.6699
 438  541.2837
 439  566.4875
 440  564.1167
 441  558.2805
 442  491.6704
 443  485.2087
 444  447.9945
 445  602.7358
 446  673.4057
 447  703.8264
 448  688.5663
 449  660.134
 450  630.2743
 451  615.4484
 452  702.1931
 453  647.949
 454  629.8289
 455  642.523
 456  648.8911
 457  705.2874
 458  628.8457
 459  623.1849
 460  550.7224
 461  659.0316
 462  619.3229
 463  611.6019
 464  611.3082
 465  528.3264
 466  701.2628
 467  692.9189
 468  493.9011
 469  616.7135
 470  663.1321
 471  678.8464
 472  747.1689
 473  623.106
 474  497.3566
 475  513.4913
 476  596.1505
 477  667.069
 478  527.6268
 479  521.7587
 480  600.7255
 481  665.3775
 482  665.4999
 483  563.3557
 484  531.5134
 485  540.9024
 486  496.2618
 487  511.8187
 488  517.8456
 489  561.0744
 490  576.1044
 491  603.877
 492  617.3646
 493  609.8635
 494  601.0374
 495  585.5969
 496  567.7256
 497  609.3825
 498  593.3105
 499  648.9005
 500  683.0007
 501  758.6594
 502  775.4316
 503  671.0498
 504  650.5797
 505  622.3022
 506  514.9332
 507  577.2984
 508  601.3728
 509  687.7736
 510  938.5734
 511  1036.632
