# Input file       =  1178527507.106305_cleaned.dat
# Candidate        =  PSR_0332+5434
# Telescope        =  AR
# Epoch_topo       =  57884.364885489638
# Epoch_bary       =  N/A
# T_sample         =  0.002
# Data Folded      =  7340032
# Data Avg         =  0.12435493715228 
# Data StdDev      =  5.40689146470504 
# Profile Bins     =  512
# Profile Avg      =  1782.69568695486 
# Profile StdDev   =  647.383532428755 
# Reduced chi-sqr  =  1.265
# Prob(Noise)      <  4.18e-05   (~3.9 sigma)
# P_topo (ms)      =  714.536760778833  +/- 7.03e-05
# P'_topo (s/s)    =  -0                +/- 3.71e-11
# P''_topo (s/s^2) =  0                 +/- 1.64e-14
# P_bary (ms)      =  N/A
# P'_bary (s/s)    =  N/A
# P''_bary (s/s^2) =  N/A
# P_orb (s)        =  N/A
# asin(i)/c (s)    =  N/A
# eccentricity     =  N/A
# w (rad)          =  N/A
# T_peri           =  N/A
######################################################
   0  2199.976
   1  1642.605
   2  1204.979
   3  1456.641
   4  1596.314
   5  1488.537
   6  1829.149
   7  1857.258
   8  1808.11
   9  1466.045
  10  1890.765
  11  1918.088
  12  1986.657
  13  1394.577
  14  988.9855
  15  1790.092
  16  1473
  17  1665.701
  18  1128
  19  1523.179
  20  1417.88
  21  1526.275
  22  1383.928
  23  616.758
  24  298.8029
  25  1121.707
  26  2204.158
  27  2001.399
  28  1544.032
  29  1488.763
  30  1406.21
  31  2203.604
  32  2676.79
  33  2487.747
  34  2282.43
  35  1437.891
  36  1113.813
  37  1794.234
  38  2263.629
  39  1715.442
  40  1302.312
  41  1284.613
  42  1208.002
  43  2086.204
  44  2421.61
  45  2203.655
  46  2197.323
  47  1577.849
  48  1434.175
  49  1901.751
  50  2138.888
  51  2205.159
  52  2616.667
  53  3050.468
  54  3099.167
  55  3765.807
  56  4140.478
  57  3606.174
  58  2889
  59  1966.053
  60  1749.93
  61  2200.773
  62  1992.672
  63  1702.357
  64  1868.3
  65  1656.21
  66  1586.993
  67  2074.407
  68  2255.507
  69  2212.478
  70  2211.594
  71  2025.789
  72  1482.658
  73  1528.96
  74  1840.524
  75  1474.598
  76  1221.965
  77  1290.671
  78  1510.093
  79  1934.701
  80  2607.547
  81  2578.278
  82  2085.863
  83  2174.866
  84  1975.43
  85  2223.277
  86  2831.238
  87  2857.749
  88  1405.343
  89  1597.385
  90  2198.246
  91  2611.553
  92  2133.041
  93  2042.836
  94  1147.3
  95  1097.388
  96  1134.25
  97  2580.265
  98  1607.197
  99  1037.421
 100  1374.448
 101  2230.602
 102  2092.878
 103  1704.171
 104  1949.74
 105  1965.689
 106  1783.117
 107  2289.809
 108  2020.441
 109  1727.208
 110  2217.771
 111  2211.937
 112  2725.488
 113  3320.487
 114  2591.69
 115  2440.649
 116  2440.393
 117  1914.905
 118  2119.946
 119  2309.615
 120  2532.014
 121  1992.701
 122  2045.468
 123  1810.678
 124  2133.735
 125  2028.329
 126  2204.761
 127  1934.737
 128  1788.298
 129  2108.527
 130  2354.511
 131  1905.698
 132  1387.906
 133  1884.472
 134  2046.386
 135  1973.602
 136  1928.623
 137  2449.345
 138  1980.657
 139  2155.843
 140  1747.594
 141  2208.907
 142  2113.741
 143  2304.427
 144  2120.936
 145  2472.985
 146  2459.684
 147  2422.866
 148  2113.07
 149  1442.96
 150  1741.086
 151  2528.589
 152  2300.414
 153  2056.681
 154  1790.589
 155  1535.891
 156  2106.257
 157  2309.799
 158  2413.855
 159  2454.465
 160  1730.534
 161  2028.366
 162  2359.221
 163  2739.319
 164  3072.776
 165  2357.399
 166  1591.709
 167  2611.279
 168  2547.634
 169  2621.7
 170  2756.154
 171  1615.357
 172  1528.775
 173  2926.479
 174  1926.894
 175  1778.062
 176  1867.392
 177  1709.265
 178  2142.243
 179  2445.245
 180  2146.905
 181  1598.501
 182  1844.663
 183  2156.834
 184  1812.635
 185  1917.958
 186  2095.498
 187  2519.173
 188  2467.4
 189  2006.843
 190  1085.234
 191  2033.09
 192  2630.328
 193  1894.395
 194  1827.22
 195  1876.522
 196  1654.185
 197  1628.943
 198  1091.599
 199  1321.382
 200  1931.695
 201  2294.216
 202  2193.503
 203  2028.187
 204  1936.805
 205  2275.038
 206  1516.475
 207  1260.808
 208  1509.852
 209  1363.639
 210  2428.157
 211  2228.129
 212  1871.034
 213  2504.428
 214  2451.056
 215  1952.059
 216  2017.837
 217  1988.216
 218  2124.655
 219  2466.952
 220  2947.539
 221  2632.261
 222  1598.438
 223  2012.868
 224  2295.022
 225  2005.338
 226  2152.406
 227  1727.071
 228  1786.91
 229  1700.807
 230  2204.722
 231  2124.381
 232  2152.517
 233  1227.483
 234  1794.986
 235  1576.479
 236  2045.652
 237  2131.338
 238  1923.991
 239  1430.767
 240  1214.642
 241  1457.605
 242  1931.734
 243  2655.789
 244  2934.326
 245  2530.89
 246  2513.591
 247  2337.26
 248  2136.213
 249  2349.617
 250  2278.431
 251  1869.361
 252  1747.316
 253  2216.472
 254  2216.692
 255  2208.404
 256  2285.247
 257  1742.609
 258  2101.269
 259  2344.712
 260  1896.908
 261  1427.301
 262  1010.108
 263  1663.916
 264  1411.983
 265  1338.594
 266  1096.415
 267  836.1566
 268  1276.454
 269  1781.295
 270  1911.493
 271  2049.99
 272  1568.567
 273  1729.082
 274  2200.327
 275  1793.931
 276  2290.83
 277  1530.471
 278  925.4953
 279  1178.145
 280  1499.935
 281  1611.115
 282  1808.732
 283  560.3806
 284  865.1993
 285  1045.75
 286  1414.288
 287  1819.694
 288  1550.059
 289  626.1707
 290  1076.124
 291  967.1715
 292  1268.488
 293  1755.242
 294  2026.99
 295  1606.243
 296  1406.907
 297  1497.707
 298  1302.984
 299  1805.302
 300  1880.254
 301  2303.129
 302  2223.679
 303  2604.507
 304  1803.873
 305  1635.84
 306  1719.097
 307  1790.41
 308  1681.797
 309  1254.102
 310  1489.033
 311  1422.681
 312  1550.853
 313  1646.233
 314  1172.133
 315  601.2838
 316  795.361
 317  913.265
 318  1097.44
 319  1495.224
 320  1771.985
 321  1497.228
 322  1312.604
 323  1477.031
 324  1558.33
 325  1475.446
 326  1615.914
 327  1929.161
 328  2236
 329  1929.857
 330  1686.032
 331  1245.889
 332  1540.314
 333  1036.689
 334  718.2098
 335  813.701
 336  837.5473
 337  1265.658
 338  1809.141
 339  1459.804
 340  1051.989
 341  1065.438
 342  1510.007
 343  1424.743
 344  1200.421
 345  1372.859
 346  1442.497
 347  948.1974
 348  1104.296
 349  1600.023
 350  1353.089
 351  763.238
 352  1128.261
 353  1729.316
 354  1573.626
 355  1796.753
 356  1255.422
 357  880.2868
 358  841.1443
 359  1126.529
 360  1172.474
 361  1393.014
 362  844.9734
 363  589.6078
 364  801.9686
 365  1316.699
 366  999.868
 367  1106.63
 368  861.1428
 369  745.356
 370  617.0878
 371  1551.359
 372  1242.298
 373  1102.509
 374  822.4608
 375  1275.112
 376  1897.997
 377  2031.204
 378  2005.448
 379  1457.582
 380  930.2748
 381  1752.086
 382  1829.855
 383  1559.004
 384  1382.328
 385  1366.027
 386  1089.805
 387  1231.852
 388  1870.825
 389  1836.618
 390  1693.814
 391  960.1761
 392  718.8938
 393  1155.829
 394  2135.811
 395  2165.579
 396  1532.83
 397  864.1244
 398  1328.539
 399  1839.645
 400  2272.663
 401  2301.41
 402  1328.256
 403  1179.009
 404  1470.357
 405  2055.271
 406  2133.432
 407  1814.132
 408  1274.945
 409  1448.08
 410  1835.76
 411  1944.252
 412  2093.863
 413  2038.772
 414  910.5424
 415  1406.646
 416  1771.012
 417  1872.224
 418  1756.63
 419  1663.482
 420  1721.935
 421  1773.076
 422  1508.863
 423  1401.146
 424  900.3874
 425  964.0599
 426  1329.012
 427  2127.677
 428  1889.35
 429  1113.265
 430  1004.357
 431  915.9099
 432  1478.015
 433  1742.36
 434  1269.429
 435  795.9318
 436  998.6376
 437  1613.104
 438  1851.304
 439  1654.157
 440  1589.176
 441  1337.463
 442  1471.894
 443  1720.583
 444  1911.508
 445  1684.758
 446  1462.204
 447  1532.06
 448  2202.68
 449  2480.166
 450  1905.486
 451  1796.265
 452  1947.196
 453  1804.385
 454  1941.986
 455  2059.969
 456  2448.864
 457  1802.996
 458  1866.838
 459  2474.813
 460  2868.321
 461  2721.914
 462  3168.544
 463  1755.455
 464  1454.769
 465  1911.759
 466  1897.673
 467  2053.029
 468  2032.683
 469  1976.549
 470  1963.171
 471  1548.652
 472  2243.121
 473  2722.646
 474  1821.077
 475  1575.424
 476  1818.297
 477  2381.026
 478  1762.408
 479  2204.942
 480  1859.078
 481  1618.954
 482  1811.151
 483  2069.144
 484  1687.654
 485  1544.29
 486  1296.922
 487  1492.54
 488  1776.775
 489  1765.676
 490  1283.847
 491  1531.881
 492  1326.517
 493  2158.024
 494  2569.445
 495  1790.549
 496  1449.733
 497  1671.839
 498  2182.047
 499  1744.932
 500  2070.878
 501  2092.086
 502  1568.504
 503  1551.494
 504  1785.812
 505  1918.019
 506  1621.103
 507  1254.994
 508  1086.133
 509  1199.659
 510  1315.125
 511  2014.174
