# Input file       =  1178685143.103464_cleaned.dat
# Candidate        =  PSR_0332+5434
# Telescope        =  AR
# Epoch_topo       =  57886.189376197501
# Epoch_bary       =  N/A
# T_sample         =  0.002
# Data Folded      =  7143424
# Data Avg         =  0.256403567538588
# Data StdDev      =  5.02116339054829 
# Profile Bins     =  1024
# Profile Avg      =  1788.6210024664  
# Profile StdDev   =  419.379878629158 
# Reduced chi-sqr  =  0.997
# Prob(Noise)      <  0.518   (~0.0 sigma)
# P_topo (ms)      =  714.535003027721  +/- 2.52e-05
# P'_topo (s/s)    =  -0                +/- 1.37e-11
# P''_topo (s/s^2) =  0                 +/- 6.2e-15
# P_bary (ms)      =  N/A
# P'_bary (s/s)    =  N/A
# P''_bary (s/s^2) =  N/A
# P_orb (s)        =  N/A
# asin(i)/c (s)    =  N/A
# eccentricity     =  N/A
# w (rad)          =  N/A
# T_peri           =  N/A
######################################################
   0  2118.927
   1  1957.362
   2  2054.58
   3  2061.816
   4  1986.163
   5  1769.708
   6  1714.712
   7  1869.511
   8  1648.892
   9  1678.035
  10  1752.47
  11  1728.353
  12  1748.128
  13  1662.533
  14  1673.066
  15  1683.099
  16  1678.017
  17  2034.97
  18  2058.437
  19  2004.936
  20  1903.347
  21  1841.434
  22  1936.187
  23  1742.263
  24  1827.09
  25  1863.531
  26  1733.38
  27  1753.746
  28  1827.562
  29  1919.742
  30  1823.648
  31  1773.857
  32  1911.925
  33  1842.829
  34  1898.929
  35  1961.85
  36  1939.059
  37  1897.42
  38  1699.921
  39  1847.54
  40  1879.153
  41  1847.095
  42  1854.585
  43  1888.28
  44  1954.943
  45  1738.229
  46  1789.845
  47  1905.041
  48  1910.658
  49  2028.254
  50  2246.717
  51  2410.556
  52  2321.869
  53  2255.926
  54  2255.677
  55  2038.556
  56  1815.167
  57  1796.184
  58  1671.358
  59  1577.931
  60  1344.64
  61  1666.235
  62  1706.595
  63  1788.677
  64  1916.908
  65  2004.033
  66  1980.792
  67  2137.215
  68  2294.201
  69  2391.635
  70  1995.083
  71  1937.15
  72  1906.979
  73  1823.906
  74  1684.084
  75  1509.125
  76  1523.933
  77  1484.915
  78  1535.148
  79  1735.376
  80  1603.081
  81  1655.226
  82  1731.323
  83  2008.089
  84  2109.586
  85  1956.072
  86  2120.258
  87  1885.616
  88  1637.968
  89  1386.665
  90  1379.421
  91  1416.153
  92  1248.99
  93  1260.454
  94  1445.766
  95  1508.889
  96  1734.552
  97  1790.851
  98  1896.239
  99  1913.333
 100  2005.537
 101  2108.248
 102  1773.746
 103  1781.07
 104  1813.58
 105  1645.517
 106  1444.232
 107  1291.939
 108  1654.958
 109  1618.024
 110  1509.854
 111  1461.824
 112  1490.052
 113  1668.159
 114  1857.047
 115  2035.151
 116  2102.082
 117  1755.352
 118  1856.373
 119  1914.749
 120  1727.399
 121  1599.703
 122  1354.766
 123  1385.672
 124  1217.2
 125  1244.87
 126  1467.234
 127  1374.091
 128  1573.927
 129  1663.263
 130  1696.18
 131  1755.123
 132  1816.18
 133  2306.034
 134  2259.126
 135  2092.2
 136  2082.409
 137  2055.377
 138  1956.956
 139  1650.336
 140  1596.722
 141  1716.844
 142  1574.144
 143  1623.069
 144  1592.77
 145  1711.501
 146  1939.436
 147  2030.973
 148  2163.18
 149  2037.01
 150  2110.76
 151  2234.397
 152  1997.203
 153  1857.474
 154  1755.028
 155  1860.054
 156  1629.212
 157  1313.161
 158  1509.389
 159  1424.55
 160  1486.131
 161  1426.181
 162  1695.862
 163  1812.144
 164  1747.639
 165  1926.525
 166  2015.363
 167  1910.105
 168  1944.637
 169  1959.393
 170  1977.637
 171  1796.041
 172  1757.572
 173  1881.808
 174  1777.919
 175  1814.656
 176  1764.218
 177  1533.058
 178  1487.89
 179  1468.735
 180  1774.538
 181  1695.744
 182  1633.815
 183  1939.296
 184  2121.908
 185  2138.794
 186  1920.497
 187  1849.874
 188  1871.5
 189  1628.703
 190  1639.237
 191  1579.199
 192  1579.606
 193  1669.165
 194  1806.55
 195  1866.866
 196  1746.394
 197  1734.843
 198  1942.808
 199  1992.462
 200  2171.48
 201  2222.528
 202  2172.013
 203  2011.367
 204  1742.71
 205  1793.929
 206  1567.231
 207  1552.812
 208  1556.511
 209  1654.536
 210  1886.315
 211  1997.234
 212  2241.427
 213  2174.313
 214  1934.861
 215  2011.191
 216  2107.524
 217  2091.151
 218  1878.898
 219  1824.305
 220  2022.527
 221  1816.848
 222  1788.714
 223  1755.856
 224  1737.829
 225  1740.274
 226  1637.936
 227  1803.409
 228  1776.711
 229  1849.1
 230  1958.919
 231  1936.542
 232  2028.231
 233  2136.458
 234  2249.33
 235  2143.442
 236  1779.705
 237  1833.952
 238  1899.885
 239  1985.383
 240  2018.298
 241  1890.657
 242  1916.75
 243  1865.376
 244  1996.624
 245  2001.852
 246  1915.605
 247  1954.677
 248  2013.176
 249  2039.038
 250  1864.807
 251  1865.238
 252  2078.763
 253  1825.712
 254  1616.685
 255  1564.26
 256  1678.517
 257  1646.848
 258  1499.595
 259  1779.599
 260  1851.467
 261  1894.263
 262  1995.863
 263  1908.253
 264  1920.833
 265  1848.55
 266  2076.106
 267  2106.874
 268  1662.495
 269  1502.59
 270  1527.618
 271  1590.934
 272  1668.959
 273  1512.557
 274  1778.039
 275  1671.57
 276  1747.835
 277  1791.63
 278  1780.566
 279  2019.672
 280  2190.715
 281  2384.608
 282  2190.183
 283  1890.229
 284  2092.156
 285  2036.029
 286  1833.368
 287  1619.087
 288  1561.33
 289  1627.775
 290  1388.206
 291  1492.703
 292  1542.755
 293  1510.592
 294  1656.946
 295  1749.359
 296  1911.09
 297  1939.359
 298  2024
 299  2270.443
 300  2101.71
 301  2112.517
 302  2095.349
 303  1939.813
 304  1707.686
 305  1447.344
 306  1531.078
 307  1586.919
 308  1508.357
 309  1518.24
 310  1427.444
 311  1527.908
 312  1612.436
 313  1862.486
 314  1968.861
 315  1748.039
 316  1985.035
 317  2105.702
 318  2114.675
 319  1914.2
 320  1651.202
 321  1713.717
 322  1449.037
 323  1413.247
 324  1499.31
 325  1440.759
 326  1560.567
 327  1564.121
 328  1702.46
 329  1684.93
 330  1552.108
 331  1894.021
 332  1813.065
 333  1782.167
 334  1873.53
 335  1907.676
 336  1840.319
 337  1400.695
 338  1421.025
 339  1512.84
 340  1495.612
 341  1602.558
 342  1526.484
 343  1609.6
 344  1577.437
 345  1777.542
 346  1887.796
 347  1753.179
 348  1632.798
 349  1924.268
 350  1971.638
 351  2024.657
 352  1768.558
 353  1914.337
 354  1738.825
 355  1573.11
 356  1583.81
 357  1425.177
 358  1470.056
 359  1471.465
 360  1536.965
 361  1414.621
 362  1302.697
 363  1634.842
 364  1783.12
 365  1746.386
 366  1889.796
 367  2034.19
 368  2061.063
 369  1668.307
 370  1528.777
 371  1655.627
 372  1585.092
 373  1566.704
 374  1593.274
 375  1663.718
 376  1657.428
 377  1471.255
 378  1646.56
 379  1648.793
 380  1712.117
 381  1942.396
 382  2086.25
 383  1943.746
 384  1733.453
 385  1745.168
 386  1856.596
 387  1662.411
 388  1718.233
 389  1684.403
 390  1569.454
 391  1618.157
 392  1663.913
 393  1787.702
 394  1592.856
 395  1730.76
 396  1884.677
 397  1829.589
 398  1804.697
 399  1839.922
 400  1865.384
 401  1646.416
 402  1575.678
 403  1768.321
 404  1872.026
 405  1854.09
 406  1765.928
 407  1891.328
 408  1932.465
 409  1869.045
 410  1949.966
 411  2029.041
 412  1969.396
 413  1933.009
 414  1945.155
 415  2106.588
 416  1856.817
 417  1868.939
 418  1897.468
 419  1713.078
 420  1485.107
 421  1435.096
 422  1600.865
 423  1611.591
 424  1610.827
 425  1854.585
 426  1838.363
 427  1864.663
 428  2037.431
 429  2122.053
 430  2102.267
 431  2027.406
 432  2246.108
 433  2229.424
 434  1863.451
 435  1734.429
 436  1599.479
 437  1590.685
 438  1487.155
 439  1421.87
 440  1561.243
 441  1488.182
 442  1780.047
 443  1972.962
 444  2113.592
 445  2057.875
 446  2100.153
 447  2263.068
 448  2155.254
 449  1984.882
 450  1912.888
 451  1774.713
 452  1699.357
 453  1646.897
 454  1702.612
 455  1593.534
 456  1321.161
 457  1550.782
 458  1622.687
 459  1793.432
 460  1889.7
 461  2143.968
 462  2279.1
 463  2212.894
 464  2365.579
 465  2449.804
 466  2239.512
 467  2130.84
 468  2010.388
 469  1913.054
 470  1685.298
 471  1570.429
 472  1690.012
 473  1624.101
 474  1589.949
 475  1731.599
 476  1640.947
 477  1719.39
 478  1691.961
 479  2061.297
 480  2126.031
 481  1929.406
 482  2129.346
 483  2096.248
 484  1987.114
 485  1649.838
 486  1688.251
 487  1751.78
 488  1489.725
 489  1548.126
 490  1726.447
 491  1722.911
 492  1822.001
 493  1886.161
 494  1934.67
 495  1755.08
 496  1832.299
 497  2122.607
 498  1937.58
 499  1819.301
 500  1896.861
 501  1943.429
 502  1852.624
 503  1603.384
 504  1840.021
 505  1817.287
 506  1764.619
 507  1804.165
 508  1834.292
 509  1934.833
 510  1803.086
 511  1983.174
 512  2157.216
 513  1916.342
 514  2009.131
 515  1965.182
 516  1992.834
 517  1800.241
 518  1657.745
 519  1746.537
 520  1443.393
 521  1361.614
 522  1558.161
 523  1574.775
 524  1677.838
 525  1691.214
 526  1963.902
 527  1931.749
 528  1882.669
 529  2147.614
 530  2118.492
 531  1919.927
 532  1881.431
 533  1997.558
 534  2072.596
 535  1740.753
 536  1819.618
 537  1841.531
 538  1704.697
 539  1627.723
 540  1663.827
 541  1695.022
 542  1614.157
 543  1596.071
 544  1797.764
 545  1720.607
 546  1745.435
 547  2037.098
 548  2143.551
 549  2013.565
 550  1719.366
 551  1846.972
 552  1721.691
 553  1409.401
 554  1440.672
 555  1612.651
 556  1725.847
 557  1596.293
 558  1707.446
 559  1732.629
 560  1555.109
 561  1813.982
 562  1955.639
 563  2050.302
 564  1909.172
 565  2028.978
 566  2096.134
 567  1892.045
 568  1650.208
 569  1660.476
 570  1692.851
 571  1709.543
 572  1683.718
 573  1745.664
 574  1715.041
 575  1743.693
 576  2113.867
 577  2175.342
 578  2049.79
 579  1952.396
 580  2109.646
 581  2119.62
 582  1738.379
 583  1558.873
 584  1475.641
 585  1338.156
 586  1277.165
 587  1398.979
 588  1579.68
 589  1580.403
 590  1690.857
 591  2046.036
 592  2075.907
 593  2091.721
 594  2104.041
 595  2123.578
 596  2118.569
 597  1970.023
 598  1986.781
 599  1862.582
 600  1707.696
 601  1647.967
 602  1540.253
 603  1558.209
 604  1517.192
 605  1652.003
 606  1781.893
 607  1640.936
 608  1820.935
 609  1987.018
 610  2073.524
 611  2018.882
 612  2016.194
 613  2312.996
 614  2064.611
 615  1975.434
 616  1926.288
 617  1837.562
 618  1633.507
 619  1369.45
 620  1511.174
 621  1498.128
 622  1586.167
 623  1833.892
 624  1752.21
 625  1719.229
 626  1770.639
 627  1957.298
 628  2036.87
 629  1892.374
 630  2169.707
 631  2089.018
 632  1754.652
 633  1505.847
 634  1492.529
 635  1719.517
 636  1529.06
 637  1511.858
 638  1600.051
 639  1464.094
 640  1454.905
 641  1588.694
 642  1736.758
 643  1769.927
 644  1797.479
 645  2191.951
 646  1983.832
 647  1710.645
 648  1822.525
 649  1909.062
 650  1673.093
 651  1423.947
 652  1739.132
 653  1763.02
 654  1435.879
 655  1526.34
 656  1770.987
 657  1814.018
 658  1778.733
 659  1872.853
 660  2066.513
 661  1994.987
 662  2050.981
 663  2194.114
 664  1914.034
 665  1802.837
 666  1665.086
 667  1892.77
 668  1697.189
 669  1520.818
 670  1621.624
 671  1514.902
 672  1533.902
 673  1661.916
 674  1886.221
 675  1959.92
 676  1713.384
 677  1948.532
 678  2023.779
 679  1853.869
 680  1932.898
 681  2004.006
 682  2109.387
 683  1810.484
 684  1615.735
 685  1752.468
 686  1617.779
 687  1769.549
 688  1797.055
 689  1638.474
 690  1491.983
 691  1471.396
 692  1771.561
 693  1749.327
 694  1860.825
 695  2249.876
 696  2277.098
 697  2074.558
 698  1816.459
 699  1858.583
 700  1933.721
 701  1645.496
 702  1727.624
 703  1792.777
 704  1764.879
 705  1666.906
 706  1710.787
 707  1905.976
 708  1848.18
 709  1899.141
 710  2068.899
 711  1930.118
 712  1876.186
 713  2000.627
 714  2142.425
 715  2004.597
 716  1771.077
 717  1879.855
 718  1792.277
 719  1672.843
 720  1846.699
 721  1970.967
 722  1927.881
 723  1716.048
 724  1882.943
 725  1895.45
 726  1757.665
 727  1916.204
 728  2069.551
 729  2095.364
 730  1818.625
 731  1777.141
 732  1802.04
 733  1603.606
 734  1615.831
 735  1706.27
 736  1737.819
 737  1640.483
 738  1519.427
 739  1702.728
 740  1676.624
 741  1758.166
 742  2064.265
 743  2078.687
 744  2020.892
 745  1950.002
 746  2157.698
 747  1944.489
 748  1515.595
 749  1532.037
 750  1667.971
 751  1812.931
 752  1901.3
 753  2028.631
 754  2114.758
 755  2058.347
 756  2390.157
 757  2622.759
 758  2525.793
 759  2636.653
 760  2735.62
 761  2755.244
 762  2441.393
 763  2337.306
 764  2381.814
 765  1952.083
 766  1692.707
 767  1500.114
 768  1621.937
 769  1720.434
 770  1670.8
 771  1821.601
 772  1691.684
 773  1644.469
 774  1880.46
 775  1974.69
 776  1974.599
 777  1614.185
 778  1751.721
 779  1968.853
 780  1736.205
 781  1566.154
 782  1538.872
 783  1584.151
 784  1577.61
 785  1436.586
 786  1574.804
 787  1378.033
 788  1432.947
 789  1712.803
 790  1763.691
 791  1875.778
 792  1959.888
 793  2033.023
 794  1972.663
 795  1704.104
 796  1918.383
 797  1813.133
 798  1648.566
 799  1558.693
 800  1598.432
 801  1684.52
 802  1497.318
 803  1489.098
 804  1614.467
 805  1627.733
 806  1759.365
 807  1834.833
 808  1908.806
 809  1829.046
 810  1883.07
 811  2090.024
 812  1942.548
 813  1891.275
 814  1888.642
 815  1838.194
 816  1568.33
 817  1265.007
 818  1285.051
 819  1179.864
 820  1176.236
 821  1544.276
 822  1663.774
 823  1614.141
 824  1445.869
 825  1603.049
 826  1861.799
 827  1656.756
 828  1755.75
 829  1801.002
 830  1757.016
 831  1532.854
 832  1427.985
 833  1590.353
 834  1492.794
 835  1443.303
 836  1473.054
 837  1408.006
 838  1406.472
 839  1403.012
 840  1581.796
 841  1727.309
 842  1714.863
 843  2012.443
 844  2128.131
 845  2117.342
 846  2089.182
 847  2043.929
 848  2028.965
 849  1760.625
 850  1612.164
 851  1514.498
 852  1317.402
 853  1490.303
 854  1530.578
 855  1481.473
 856  1532.079
 857  1631.419
 858  1867.483
 859  1686.361
 860  1791.524
 861  2017.788
 862  1863.925
 863  1739.411
 864  1548.517
 865  1660.364
 866  1433.925
 867  1171.732
 868  1273.867
 869  1407.1
 870  1589.187
 871  1639.12
 872  1697.893
 873  1706.408
 874  1590.146
 875  1766.176
 876  1923.481
 877  1834.874
 878  1821.457
 879  1797.56
 880  1844.521
 881  1547.859
 882  1320.511
 883  1453.729
 884  1433.757
 885  1565.238
 886  1685.315
 887  1843.69
 888  1850.093
 889  1751.028
 890  1794.137
 891  1633.4
 892  1681.431
 893  1911.333
 894  1973.385
 895  1829.452
 896  1644.548
 897  1787.243
 898  1829.852
 899  1601.812
 900  1570.473
 901  1551.031
 902  1619.749
 903  1471.393
 904  1455.345
 905  1583.797
 906  1511.509
 907  1593.163
 908  1720.794
 909  1896.714
 910  1869.273
 911  1883.303
 912  1936.548
 913  1668.143
 914  1368.036
 915  1360.455
 916  1441.194
 917  1539.048
 918  1591.081
 919  1718.047
 920  1785.825
 921  1598.871
 922  1732.143
 923  1676.191
 924  1755.353
 925  1791.366
 926  1893.819
 927  1937.064
 928  1792.82
 929  1818.491
 930  1840.453
 931  1711.194
 932  1576.234
 933  1511.458
 934  1730.318
 935  1787.783
 936  1716.861
 937  1904.877
 938  1897.688
 939  1981.551
 940  2015.992
 941  2051.885
 942  1936.182
 943  1572.332
 944  1740.73
 945  1844.143
 946  1616.443
 947  1504.125
 948  1496.189
 949  1566.671
 950  1589.653
 951  1485.495
 952  1643.013
 953  1451.027
 954  1690.634
 955  1948.011
 956  1926.653
 957  1870.774
 958  1730.006
 959  1965.455
 960  1974.167
 961  1926.184
 962  1991.388
 963  1796.405
 964  1744.683
 965  1631.079
 966  1674.88
 967  1754.609
 968  1672.121
 969  1787.755
 970  1739.55
 971  1667.884
 972  1755.472
 973  1836.818
 974  2097.705
 975  2043.955
 976  2214.503
 977  2278.431
 978  2048.554
 979  1877.266
 980  1677.876
 981  1685.141
 982  1494.235
 983  1342.049
 984  1457.97
 985  1409.196
 986  1278.999
 987  1537.365
 988  1717.924
 989  1881.347
 990  1915.766
 991  2142.016
 992  2128.82
 993  1919.34
 994  1980.484
 995  1992.997
 996  1902.33
 997  1740.055
 998  1639.985
 999  1817.477
1000  1640.562
1001  1675.004
1002  1680.343
1003  1728.021
1004  1756.695
1005  1757.327
1006  1815.682
1007  1677.865
1008  1847.476
1009  2283.172
1010  2298.333
1011  2140.953
1012  2080.035
1013  2048.729
1014  1832.765
1015  1477.151
1016  1558.202
1017  1487.465
1018  1358.092
1019  1490.082
1020  1732.419
1021  1915.456
1022  1823.568
1023  1992.246
