# Input file       =  1178685143.103464_cleaned.dat
# Candidate        =  PSR_0332+5434
# Telescope        =  AR
# Epoch_topo       =  57886.189376197501
# Epoch_bary       =  N/A
# T_sample         =  0.002
# Data Folded      =  7143424
# Data Avg         =  0.0413966271910631
# Data StdDev      =  1.00006771665742 
# Profile Bins     =  512
# Profile Avg      =  577.518026257498 
# Profile StdDev   =  118.126583077588 
# Reduced chi-sqr  =  1.178
# Prob(Noise)      <  0.00339   (~2.7 sigma)
# P_topo (ms)      =  714.535002385787  +/- 0.000115
# P'_topo (s/s)    =  -0                +/- 6.23e-11
# P''_topo (s/s^2) =  0                 +/- 2.82e-14
# P_bary (ms)      =  N/A
# P'_bary (s/s)    =  N/A
# P''_bary (s/s^2) =  N/A
# P_orb (s)        =  N/A
# asin(i)/c (s)    =  N/A
# eccentricity     =  N/A
# w (rad)          =  N/A
# T_peri           =  N/A
######################################################
   0  1149.661
   1  1120.007
   2  969.1434
   3  734.1751
   4  494.8511
   5  533.8757
   6  567.0389
   7  529.251
   8  635.557
   9  538.4642
  10  626.621
  11  534.9006
  12  536.3589
  13  541.0563
  14  506.2854
  15  589.718
  16  661.5562
  17  605.264
  18  507.1671
  19  553.3997
  20  513.0018
  21  597.0615
  22  536.7213
  23  538.59
  24  574.4489
  25  580.2792
  26  594.7087
  27  638.9808
  28  585.5097
  29  456.3236
  30  348.2807
  31  471.5531
  32  491.9969
  33  405.4968
  34  444.855
  35  458.6982
  36  378.127
  37  478.4092
  38  489.7879
  39  404.4912
  40  460.2196
  41  536.5949
  42  627.968
  43  715.2816
  44  673.8674
  45  633.9914
  46  508.5693
  47  551.2004
  48  490.1862
  49  511.6443
  50  547.7094
  51  538.4322
  52  436.7442
  53  427.4259
  54  277.4679
  55  426.6465
  56  530.7977
  57  539.524
  58  511.7058
  59  452.2388
  60  562.0829
  61  465.8267
  62  415.5936
  63  553.3875
  64  634.9038
  65  570.5622
  66  475.9298
  67  560.6572
  68  510.8141
  69  575.2217
  70  542.8099
  71  544.761
  72  549.5851
  73  530.5285
  74  488.7684
  75  505.9576
  76  606.8479
  77  519.8619
  78  376.749
  79  498.9637
  80  572.2737
  81  500.4021
  82  466.579
  83  564.4315
  84  548.2621
  85  595.1028
  86  547.9471
  87  511.7753
  88  567.3487
  89  567.9982
  90  624.2127
  91  624.0143
  92  452.422
  93  538.1436
  94  500.3464
  95  538.8022
  96  578.7506
  97  524.3035
  98  543.8072
  99  533.8056
 100  507.2321
 101  555.106
 102  501.4146
 103  559.2001
 104  609.0898
 105  635.9469
 106  553.6201
 107  556.3417
 108  609.0708
 109  649.8065
 110  604.0991
 111  549.632
 112  487.7916
 113  454.8572
 114  466.5492
 115  556.5704
 116  598.7037
 117  507.2442
 118  497.0288
 119  519.2757
 120  556.819
 121  516.2264
 122  513.4757
 123  529.4039
 124  450.6481
 125  613.128
 126  686.7212
 127  663.4977
 128  441.3611
 129  397.2887
 130  484.1175
 131  655.9502
 132  578.6469
 133  597.8602
 134  546.5493
 135  473.5703
 136  482.9915
 137  502.1301
 138  552.6801
 139  490.5674
 140  528.3587
 141  588.5779
 142  582.5694
 143  561.1324
 144  585.8777
 145  619.5243
 146  598.3158
 147  628.1605
 148  617.8463
 149  527.8995
 150  486.1449
 151  536.4991
 152  604.2847
 153  671.3605
 154  660.3809
 155  587.7947
 156  582.5485
 157  663.9072
 158  857.0845
 159  847.2906
 160  686.489
 161  604.495
 162  497.5427
 163  511.8674
 164  602.2968
 165  634.7231
 166  667.9177
 167  736.9148
 168  653.1343
 169  614.5452
 170  471.0212
 171  453.3447
 172  478.0251
 173  439.3955
 174  544.0582
 175  673.8694
 176  620.6213
 177  466.6959
 178  451.9742
 179  309.0934
 180  422.912
 181  509.3332
 182  570.9834
 183  503.1711
 184  469.6196
 185  479.3318
 186  497.0482
 187  517.181
 188  400.4922
 189  469.4601
 190  624.1255
 191  483.4806
 192  469.8567
 193  470.6085
 194  389.0151
 195  394.4142
 196  466.9062
 197  433.5677
 198  464.728
 199  674.1261
 200  660.9577
 201  549.1226
 202  524.5657
 203  546.4813
 204  486.1108
 205  624.4006
 206  727.9509
 207  654.8283
 208  609.4498
 209  560.579
 210  592.9119
 211  499.4825
 212  569.1727
 213  527.0778
 214  586.2753
 215  608.6736
 216  605.1771
 217  570.2655
 218  600.6495
 219  622.14
 220  615.502
 221  487.8648
 222  502.6271
 223  558.8278
 224  623.667
 225  736.0319
 226  623.932
 227  616.5607
 228  534.8917
 229  595.8472
 230  635.486
 231  526.7252
 232  638.8611
 233  698.132
 234  609.3161
 235  564.8967
 236  487.1111
 237  548.8699
 238  709.4142
 239  739.879
 240  652.9204
 241  638.5124
 242  606.0599
 243  584.7619
 244  588.3344
 245  512.0889
 246  591.0627
 247  688.6171
 248  665.5981
 249  727.6213
 250  677.8594
 251  611.3959
 252  708.3888
 253  668.9148
 254  680.9263
 255  661.3578
 256  659.0121
 257  630.0201
 258  649.3348
 259  639.6805
 260  621.4155
 261  620.1754
 262  667.7521
 263  692.7706
 264  590.1043
 265  566.3669
 266  551.3738
 267  435.8602
 268  536.1821
 269  586.3427
 270  611.8673
 271  508.6387
 272  601.0432
 273  671.0645
 274  597.1725
 275  644.2596
 276  582.2252
 277  606.3752
 278  537.6293
 279  516.2861
 280  534.4675
 281  621.054
 282  681.0317
 283  689.8917
 284  611.15
 285  520.1572
 286  573.121
 287  514.7445
 288  484.075
 289  525.9816
 290  471.604
 291  574.1019
 292  623.3843
 293  573.1558
 294  562.5664
 295  537.12
 296  573.7703
 297  546.1661
 298  485.532
 299  504.731
 300  570.002
 301  441.3255
 302  497.7072
 303  495.8187
 304  498.8937
 305  625.4608
 306  580.5845
 307  592.0302
 308  654.3572
 309  641.2944
 310  549.2169
 311  475.6674
 312  455.5279
 313  358.9812
 314  454.9199
 315  546.1389
 316  654.5789
 317  518.8737
 318  537.7143
 319  568.0602
 320  597.3259
 321  528.3666
 322  509.0471
 323  601.2704
 324  586.4748
 325  533.8231
 326  568.5294
 327  552.906
 328  549.2449
 329  521.8639
 330  543.9041
 331  498.4293
 332  516.5986
 333  501.9975
 334  605.7808
 335  620.9059
 336  651.8046
 337  648.0558
 338  651.3387
 339  634.4016
 340  654.92
 341  644.9667
 342  611.1199
 343  534.0391
 344  576.8745
 345  632.8223
 346  575.7694
 347  620.6987
 348  648.3355
 349  720.2759
 350  617.6232
 351  558.1718
 352  529.64
 353  603.7114
 354  669.6888
 355  612.5286
 356  590.4734
 357  623.3867
 358  557.3652
 359  614.6898
 360  562.0638
 361  527.0519
 362  606.7584
 363  716.431
 364  754.59
 365  781.9805
 366  737.5999
 367  623.754
 368  616.3148
 369  650.4633
 370  612.6903
 371  560.7999
 372  650.7262
 373  662.4567
 374  702.9904
 375  627.7924
 376  606.9024
 377  601.601
 378  684.7255
 379  620.7795
 380  567.9761
 381  646.9285
 382  612.9412
 383  658.3369
 384  681.1094
 385  758.8371
 386  695.736
 387  719.79
 388  713.011
 389  705.6955
 390  646.1874
 391  575.7898
 392  552.6904
 393  536.0967
 394  526.399
 395  648.3406
 396  659.6359
 397  667.883
 398  609.44
 399  662.4019
 400  682.278
 401  642.0231
 402  600.3484
 403  556.827
 404  520.9738
 405  516.6392
 406  697.3668
 407  665.4924
 408  555.3555
 409  457.6368
 410  532.5416
 411  596.6133
 412  559.5024
 413  571.8604
 414  651.0734
 415  647.7054
 416  677.5596
 417  591.0671
 418  574.7975
 419  560.6762
 420  618.2009
 421  713.2159
 422  685.4102
 423  679.2262
 424  484.422
 425  428.4622
 426  487.3904
 427  553.8045
 428  675.0076
 429  698.622
 430  672.9422
 431  665.4348
 432  560.2
 433  548.5011
 434  544.7652
 435  581.1346
 436  559.0397
 437  680.0087
 438  643.3309
 439  667.2748
 440  625.9218
 441  598.623
 442  503.2152
 443  565.2407
 444  700.6127
 445  591.2251
 446  593.7752
 447  633.1769
 448  575.8389
 449  420.4529
 450  540.5686
 451  467.4745
 452  434.6295
 453  485.9025
 454  584.522
 455  607.9856
 456  479.3476
 457  546.9153
 458  537.9012
 459  611.7634
 460  566.0779
 461  670.1576
 462  595.0792
 463  607.6169
 464  616.5808
 465  493.7945
 466  597.4799
 467  557.0095
 468  514.0308
 469  580.6182
 470  605.3191
 471  537.6744
 472  531.6876
 473  600.0988
 474  566.0641
 475  576.8909
 476  655.4585
 477  528.3181
 478  494.8752
 479  536.512
 480  662.946
 481  589.3942
 482  572.0591
 483  555.2632
 484  552.8008
 485  542.6827
 486  668.075
 487  654.3954
 488  558.7092
 489  630.4809
 490  627.6583
 491  583.3612
 492  563.9579
 493  688.8154
 494  610.694
 495  594.2617
 496  542.947
 497  581.1567
 498  501.695
 499  485.1252
 500  560.1362
 501  530.9996
 502  501.679
 503  571.0748
 504  657.3187
 505  663.8359
 506  593.8088
 507  503.3518
 508  703.3053
 509  844.4077
 510  913.5114
 511  1085.648
