# Input file       =  1179546704.108974_cleaned.dat
# Candidate        =  PSR_0332+5434
# Telescope        =  AR
# Epoch_topo       =  57896.161147094608
# Epoch_bary       =  N/A
# T_sample         =  0.002
# Data Folded      =  7208960
# Data Avg         =  0.283444274229591
# Data StdDev      =  6.99698342335579 
# Profile Bins     =  1024
# Profile Avg      =  1995.55154418963 
# Profile StdDev   =  587.079849993235 
# Reduced chi-sqr  =  0.802
# Prob(Noise)      <  1   (~0.0 sigma)
# P_topo (ms)      =  714.52528690436   +/- 3.53e-05
# P'_topo (s/s)    =  -0                +/- 1.9e-11
# P''_topo (s/s^2) =  0                 +/- 8.52e-15
# P_bary (ms)      =  N/A
# P'_bary (s/s)    =  N/A
# P''_bary (s/s^2) =  N/A
# P_orb (s)        =  N/A
# asin(i)/c (s)    =  N/A
# eccentricity     =  N/A
# w (rad)          =  N/A
# T_peri           =  N/A
######################################################
   0  2176.831
   1  2439.408
   2  2344.537
   3  2217.188
   4  2047.995
   5  1902.638
   6  1687.806
   7  1738.692
   8  1707.583
   9  1650.513
  10  1668.674
  11  1689.7
  12  1795.107
  13  1774.65
  14  1874.381
  15  1980.894
  16  2005.066
  17  2095.326
  18  2127.903
  19  2227.805
  20  2096.79
  21  2015.244
  22  1892.861
  23  1803.342
  24  1547.046
  25  1531.651
  26  1536.61
  27  1653.82
  28  1860.117
  29  2089.249
  30  2116.233
  31  2086.755
  32  2291.358
  33  2410.435
  34  2231.21
  35  2256.077
  36  2414.926
  37  2420.339
  38  2167.3
  39  1901.302
  40  1633.768
  41  1322.292
  42  1231.826
  43  1459.464
  44  1573.758
  45  1541.419
  46  1670.671
  47  1790.838
  48  1901.684
  49  1687.378
  50  1888.282
  51  2109.98
  52  2170.279
  53  2205.015
  54  2170.79
  55  2061.165
  56  1688.365
  57  1535.337
  58  1485.286
  59  1531.973
  60  1644.003
  61  1761.323
  62  1757.188
  63  1647.917
  64  1831.258
  65  2077.467
  66  2160.773
  67  2122.918
  68  2481.055
  69  2620.35
  70  2574.365
  71  2445.324
  72  2361.58
  73  2138.814
  74  1833.784
  75  1708.035
  76  1728.135
  77  1566.043
  78  1727.331
  79  1839.158
  80  1948.723
  81  1722.271
  82  1560.967
  83  1734.75
  84  1936.295
  85  1998.613
  86  2077.288
  87  2150.902
  88  2171.809
  89  1767.144
  90  1738.154
  91  1667.849
  92  1751.718
  93  1835.996
  94  1958.039
  95  2042.498
  96  1895.547
  97  1817.108
  98  1795.755
  99  1770.767
 100  2040.37
 101  2323.73
 102  2643.035
 103  2579.441
 104  2317.181
 105  1948.937
 106  1844.828
 107  1609.01
 108  1660.535
 109  1609.432
 110  1831.519
 111  2022.023
 112  2154.77
 113  1908.662
 114  1725.982
 115  1652.342
 116  1910.745
 117  1916.396
 118  2058.674
 119  2080.399
 120  2153.793
 121  1973.936
 122  1742.632
 123  1486.196
 124  1523.165
 125  1646.896
 126  1990.952
 127  2147.32
 128  2171.065
 129  2132.323
 130  2167.349
 131  2084.575
 132  2035.517
 133  2219.639
 134  2487.247
 135  2528.488
 136  2402.611
 137  2190.099
 138  2069.562
 139  1992.305
 140  1925.504
 141  1633.87
 142  1636.304
 143  1615.484
 144  1878.083
 145  2075.708
 146  2037.578
 147  1883.982
 148  1909.913
 149  1922.501
 150  1782.703
 151  1706.338
 152  2025.572
 153  2017.68
 154  1903.068
 155  1769.148
 156  1829.749
 157  1709.246
 158  1795.147
 159  1901.433
 160  2062.409
 161  2159.644
 162  2227.046
 163  2289.194
 164  2055.401
 165  2247.411
 166  2446.081
 167  2548.008
 168  2365.736
 169  2223.729
 170  2067.241
 171  1918.665
 172  1647.831
 173  1679.215
 174  1651.105
 175  1812.663
 176  1971.583
 177  2017.516
 178  2043.9
 179  1974.673
 180  2055.625
 181  1965.542
 182  1804.116
 183  2095.085
 184  2256.571
 185  2314.79
 186  1913.845
 187  1773.096
 188  1693.091
 189  1476.936
 190  1439.444
 191  1460.568
 192  1643.312
 193  1720.134
 194  1881.107
 195  2043.917
 196  1947.393
 197  1983.495
 198  2239.418
 199  2619.681
 200  2676.007
 201  2727.636
 202  2812.422
 203  2616.354
 204  2166.403
 205  1717.08
 206  1476.13
 207  1474.171
 208  1488.851
 209  1573.725
 210  1559.854
 211  1548.848
 212  1486.076
 213  1658.003
 214  1846.566
 215  1916.411
 216  2110.846
 217  2386.664
 218  2516.039
 219  2323.404
 220  2259.105
 221  1890.75
 222  1701.627
 223  1677.549
 224  1951.112
 225  1974.059
 226  1909.131
 227  1867.759
 228  1917.207
 229  1953.939
 230  2152.713
 231  2394.188
 232  2492.231
 233  2404.403
 234  2486.963
 235  2674.196
 236  2671.812
 237  2394.105
 238  2129.8
 239  1821.556
 240  1753.234
 241  1745.199
 242  1854.49
 243  1945.146
 244  2102.328
 245  1990.489
 246  1664.236
 247  1449.642
 248  1712.029
 249  2067.307
 250  2200.857
 251  2123.191
 252  1951.129
 253  1961.225
 254  1921.124
 255  1739.4
 256  1759.472
 257  1826.193
 258  2111.804
 259  2185.773
 260  2192.867
 261  2031.318
 262  1948.826
 263  2064.852
 264  2186.435
 265  2259.483
 266  2486.193
 267  2572.609
 268  2698.769
 269  2519.663
 270  2298.761
 271  2051.067
 272  1931.324
 273  1735.814
 274  1704.21
 275  1659.031
 276  1754.173
 277  1757.344
 278  1867.547
 279  1876.745
 280  1795.714
 281  1756.692
 282  1958.626
 283  2049.974
 284  2103.489
 285  1952.076
 286  1827.083
 287  1624.381
 288  1479.448
 289  1566.321
 290  1729.192
 291  2016.247
 292  2132.278
 293  2137.515
 294  1938.944
 295  1947.706
 296  2079.417
 297  2203.266
 298  2154.241
 299  2226.876
 300  2251.048
 301  2268.847
 302  2267.821
 303  2223.981
 304  1972.676
 305  1758.929
 306  1542.188
 307  1636.892
 308  1721.674
 309  1931.363
 310  1921.514
 311  1820.627
 312  1610.943
 313  1743.796
 314  1813.744
 315  1874.124
 316  1923.641
 317  2107.726
 318  2141.456
 319  1874.705
 320  1563.21
 321  1580.281
 322  1639.494
 323  1741.771
 324  1791.489
 325  1869.897
 326  1991.388
 327  2079.43
 328  2109.045
 329  1946.183
 330  1849.948
 331  2268.693
 332  2550.783
 333  2701.78
 334  2490.33
 335  2435.896
 336  2112.822
 337  1949.966
 338  1796.785
 339  1768.511
 340  1638.123
 341  1655.594
 342  1888.961
 343  2061.165
 344  1989.34
 345  1841.16
 346  2044.555
 347  2191.887
 348  2288.715
 349  2377.764
 350  2314.218
 351  2124.124
 352  1778.35
 353  1680.042
 354  1650.294
 355  1681.917
 356  1585.174
 357  1584.835
 358  1732.166
 359  1898.643
 360  1951.379
 361  2042.229
 362  2159.088
 363  2226.931
 364  2442.343
 365  2647.572
 366  2703.983
 367  2620.317
 368  2450.12
 369  2370.826
 370  2121.58
 371  1918.661
 372  1622.114
 373  1530.27
 374  1732.677
 375  1936.416
 376  1991.306
 377  1799.514
 378  1616.909
 379  1644.518
 380  1554.371
 381  1616.237
 382  1847.462
 383  2169.796
 384  2288.954
 385  1965.825
 386  1981.676
 387  1806.135
 388  1669.155
 389  1588.044
 390  1686.891
 391  1951.457
 392  2116.83
 393  2147.927
 394  1923.908
 395  1695.077
 396  2047.468
 397  2471.825
 398  2623.339
 399  2551.189
 400  2689.458
 401  2678.587
 402  2502.876
 403  1994.537
 404  1930.496
 405  1896.7
 406  1871.852
 407  1927.507
 408  1855.841
 409  1999.09
 410  1866.751
 411  1953.212
 412  1868.573
 413  1763.879
 414  1909.515
 415  2141.412
 416  2280.046
 417  2198.321
 418  2058.497
 419  1934.828
 420  1933.718
 421  1915.253
 422  2180.426
 423  2152.536
 424  2199.166
 425  2252.282
 426  2173.744
 427  2114.701
 428  1926.203
 429  2122.169
 430  2277.256
 431  2313.134
 432  2571.331
 433  2514.065
 434  2581.555
 435  2358.105
 436  2272.321
 437  2069.941
 438  1966.619
 439  1917.005
 440  2024.602
 441  1964.336
 442  1941.304
 443  1773.716
 444  1745.253
 445  1763.994
 446  1656.575
 447  1731.784
 448  1893.025
 449  1967.429
 450  2103.999
 451  2193.15
 452  2085.043
 453  1821.811
 454  1762.578
 455  1897.402
 456  1968.77
 457  2115.476
 458  2084.623
 459  2064.449
 460  1963.06
 461  2172.382
 462  2109.287
 463  2019.621
 464  2040.734
 465  2435.286
 466  2534.648
 467  2343.159
 468  2046.588
 469  1926.883
 470  1875.841
 471  1632.678
 472  1614.951
 473  1678.649
 474  1822.687
 475  1956.075
 476  1970.031
 477  1951.944
 478  1715.242
 479  1953.81
 480  2147.064
 481  2294.787
 482  2075.056
 483  2220.85
 484  2245.805
 485  2103.498
 486  1812.725
 487  1709.688
 488  1734.596
 489  1835.154
 490  2081.879
 491  2336.681
 492  2326.816
 493  2347.134
 494  2440.101
 495  2537.792
 496  2329.772
 497  2524.783
 498  2684.532
 499  2676.728
 500  2243.83
 501  2218.842
 502  2012.411
 503  1846.864
 504  1710.595
 505  1840.074
 506  1871.688
 507  1807.801
 508  1818.854
 509  1966.94
 510  1837.71
 511  1830.028
 512  1860.263
 513  2139.039
 514  2152.455
 515  2275.349
 516  2331.737
 517  2304.614
 518  1832.272
 519  1749.069
 520  1570.801
 521  1545.226
 522  1720.625
 523  1974.312
 524  2257.15
 525  2162.95
 526  2111.543
 527  2059.095
 528  1998.898
 529  2267.625
 530  2475.549
 531  2577.279
 532  2432.531
 533  2194.363
 534  2074.353
 535  1732.417
 536  1515.996
 537  1460.846
 538  1509.57
 539  1705.527
 540  1999.631
 541  1985.959
 542  1825.894
 543  1687.695
 544  2020.443
 545  2192.026
 546  2108.247
 547  2133.486
 548  2205.485
 549  2255.126
 550  2061.535
 551  1881.783
 552  1883.149
 553  1770.257
 554  1775.149
 555  1804.981
 556  1812.373
 557  1897.496
 558  2001.827
 559  2230.692
 560  2226.901
 561  2174.87
 562  2358.148
 563  2574.153
 564  2684.574
 565  2713.546
 566  2559.603
 567  2434.781
 568  2272.869
 569  2081.469
 570  1800.202
 571  1641.941
 572  1830.331
 573  2058.531
 574  2269.635
 575  2131.31
 576  2008.632
 577  1980.905
 578  2134.754
 579  2105.766
 580  2245.035
 581  2363.657
 582  2485.795
 583  2329.504
 584  2221.337
 585  2168.473
 586  2039.228
 587  2064.234
 588  2246.003
 589  2262.202
 590  2276.491
 591  2038.599
 592  2061.248
 593  2025.095
 594  2197.775
 595  2349.922
 596  2452.392
 597  2386.708
 598  2393.422
 599  2394.922
 600  2377.979
 601  2121.672
 602  2007.505
 603  2016.641
 604  2188.985
 605  2286.557
 606  2159.194
 607  2137.697
 608  2152.065
 609  1971.411
 610  1767.472
 611  1671.271
 612  1767.502
 613  2062.415
 614  2213.6
 615  2282.287
 616  1993.331
 617  1984.667
 618  2030.947
 619  2055.348
 620  1934.926
 621  1923.904
 622  2004.616
 623  2132.541
 624  2158.925
 625  2068.406
 626  1926.427
 627  2034.8
 628  2199.826
 629  2168.232
 630  2155.005
 631  2268.676
 632  2517.458
 633  2467.951
 634  1952.435
 635  1619.024
 636  1623.77
 637  1725.644
 638  1737.541
 639  1776.6
 640  1796.492
 641  1851.042
 642  2117.925
 643  2215.885
 644  1862.967
 645  1641.549
 646  2072.727
 647  2272.428
 648  2266.746
 649  2007.861
 650  2037.291
 651  1809.528
 652  1786.955
 653  1910.624
 654  2057.153
 655  2082.844
 656  2169.846
 657  2488.871
 658  2309.992
 659  2177.379
 660  2096.911
 661  2226.568
 662  2336.888
 663  2537.888
 664  2841.521
 665  2656.842
 666  2236.294
 667  1960.077
 668  1796.072
 669  1655.129
 670  1735.276
 671  1890.01
 672  2275.188
 673  2276.823
 674  2303.293
 675  2083.338
 676  1764.863
 677  1754.279
 678  1907.029
 679  2380.725
 680  2326.699
 681  2146.603
 682  2018.836
 683  1928.949
 684  1855.126
 685  1807.93
 686  1906.12
 687  2017.587
 688  2174.584
 689  2220.108
 690  2224.544
 691  2239.167
 692  2503.818
 693  2569.092
 694  2435.584
 695  2456.461
 696  2744.909
 697  2843.281
 698  2486.304
 699  2154.254
 700  1979.714
 701  1829.263
 702  1721.522
 703  1598.125
 704  1519.147
 705  1350.489
 706  1732.119
 707  2199.337
 708  2236.557
 709  1836.788
 710  1773.263
 711  2104.366
 712  2238.677
 713  2226.912
 714  2144.012
 715  2045.13
 716  1843.061
 717  1792.896
 718  1758.225
 719  1554.417
 720  1442.093
 721  1561.635
 722  1857.836
 723  1967.229
 724  2000.194
 725  2150.502
 726  2266.254
 727  2230.722
 728  2377.895
 729  2474.125
 730  2628.048
 731  2577.922
 732  2386.632
 733  2162.321
 734  1951.122
 735  1933.761
 736  1904.419
 737  1916.069
 738  1869.567
 739  1878.673
 740  1796.663
 741  1738.575
 742  1556.446
 743  1533.474
 744  1685.725
 745  2062.698
 746  2531.501
 747  2649.288
 748  2445.895
 749  2087.638
 750  2073.871
 751  1991.312
 752  2025.364
 753  2161.302
 754  2552.492
 755  2741.558
 756  2835.354
 757  2705.58
 758  2537.846
 759  2464.651
 760  2664.973
 761  2943.035
 762  2930.393
 763  2644.279
 764  2334.065
 765  2184.499
 766  2086.895
 767  1931.254
 768  1719.828
 769  1705.072
 770  1795.911
 771  1985.09
 772  1979.582
 773  2071.596
 774  1997.16
 775  2039.448
 776  1996.036
 777  1910.653
 778  1917.923
 779  2009.243
 780  1947.007
 781  1969.81
 782  1788.496
 783  1796.707
 784  1535.574
 785  1682.193
 786  1951.343
 787  2182.832
 788  2137.954
 789  2213.772
 790  2128.242
 791  2120.758
 792  1923.184
 793  2028.946
 794  2027.517
 795  2174.122
 796  2405.958
 797  2391.66
 798  2198.139
 799  1962.044
 800  1840.388
 801  1814.929
 802  1659.544
 803  1664.549
 804  1694.829
 805  1923.203
 806  1835.309
 807  1655.307
 808  1516.692
 809  1681.44
 810  1813.018
 811  1882.37
 812  2037.98
 813  1931.191
 814  1964.361
 815  1885.951
 816  1856.019
 817  1619.021
 818  1448.252
 819  1671.494
 820  2000.193
 821  2137.235
 822  1965.482
 823  1885.127
 824  1957.591
 825  2084.474
 826  2195.059
 827  2164.425
 828  2192.425
 829  2135.776
 830  2187.432
 831  2142.546
 832  1852.561
 833  1592.462
 834  1549.346
 835  1599.34
 836  1728.173
 837  1708.752
 838  1786.753
 839  1656.898
 840  1723.02
 841  1752.998
 842  1661.826
 843  1673.221
 844  1694.269
 845  1747.171
 846  1725.705
 847  1674.833
 848  1671.534
 849  1525.565
 850  1531.211
 851  1686.643
 852  1836.846
 853  1825.675
 854  1889.262
 855  1973.902
 856  2039.669
 857  2071.952
 858  2245.843
 859  2214.894
 860  2028.099
 861  2219.491
 862  2405.646
 863  2442.295
 864  2147.705
 865  1930.809
 866  1853.031
 867  1793.07
 868  1775.536
 869  1820.9
 870  1863.133
 871  1752.899
 872  1710.966
 873  1861.078
 874  1922.068
 875  1800.491
 876  1823.452
 877  1985.39
 878  2221.389
 879  2243.968
 880  2281.097
 881  1858.788
 882  1443.218
 883  1290.469
 884  1459.845
 885  1668.159
 886  1778.056
 887  1779.061
 888  1744
 889  1618.189
 890  1925.196
 891  2039.721
 892  1968.968
 893  2127.405
 894  2520.374
 895  2685.703
 896  2382.119
 897  2070.935
 898  1995.126
 899  1908.381
 900  1791.085
 901  1718.971
 902  1556.911
 903  1668.659
 904  1810.62
 905  1854.024
 906  1822.394
 907  1655.712
 908  1685.084
 909  1693.276
 910  1872.89
 911  2051.623
 912  2169.887
 913  2167.476
 914  2113.479
 915  1817.597
 916  1699.56
 917  1561.198
 918  1627.565
 919  1836.252
 920  1860.829
 921  1927.776
 922  1974.553
 923  1988.663
 924  1979.941
 925  1912.49
 926  2212.919
 927  2333.508
 928  2417.946
 929  2491.714
 930  2307.507
 931  2076.716
 932  1822.199
 933  1711.821
 934  1601.912
 935  1505.698
 936  1621.003
 937  1916.428
 938  1917.957
 939  1817.333
 940  1568.273
 941  1588.86
 942  1606.937
 943  1792.042
 944  2120.794
 945  2309.964
 946  2168.856
 947  1910.124
 948  1682.987
 949  1540.406
 950  1305.247
 951  1493.775
 952  1799.116
 953  2030.961
 954  2025.839
 955  2026.083
 956  1950.67
 957  1967.176
 958  2034.411
 959  2366.761
 960  2551.15
 961  2481.064
 962  2377.001
 963  2196.881
 964  1998.613
 965  1681.04
 966  1567.476
 967  1761.333
 968  1796.154
 969  1918.41
 970  1762.054
 971  1786.066
 972  1717.498
 973  1686.027
 974  1593.644
 975  1497.871
 976  1499.852
 977  1718.433
 978  1973.945
 979  1823.906
 980  1605.999
 981  1647.48
 982  1805.21
 983  1790.6
 984  1920.023
 985  1977.854
 986  2069.605
 987  1983.707
 988  1824.556
 989  1723.246
 990  1755.611
 991  2034.957
 992  2139.938
 993  2093.315
 994  2044.87
 995  2005.65
 996  2102.147
 997  1879.413
 998  1675.599
 999  1540.896
1000  1558.571
1001  1678.448
1002  1897.043
1003  2055.018
1004  1902.344
1005  1846.322
1006  1899.652
1007  2046.691
1008  1921.595
1009  1972.621
1010  2065.706
1011  2137.597
1012  1860.262
1013  1776.879
1014  1660.991
1015  1568.379
1016  1746.722
1017  1969.928
1018  2192.076
1019  2091.408
1020  2160.291
1021  2313.103
1022  2151.254
1023  2191.175
