# Input file       =  1179561381.09626_cleaned.dat
# Candidate        =  PSR_0332+5434
# Telescope        =  AR
# Epoch_topo       =  57896.331019632642
# Epoch_bary       =  N/A
# T_sample         =  0.002
# Data Folded      =  7340032
# Data Avg         =  0.0874081511065015
# Data StdDev      =  2.88240572165109 
# Profile Bins     =  1024
# Profile Avg      =  626.503455287256 
# Profile StdDev   =  244.03611894651  
# Reduced chi-sqr  =  0.797
# Prob(Noise)      <  1   (~0.0 sigma)
# P_topo (ms)      =  714.525130465639  +/- 0.000438
# P'_topo (s/s)    =  -0                +/- 2.31e-10
# P''_topo (s/s^2) =  0                 +/- 1.02e-13
# P_bary (ms)      =  N/A
# P'_bary (s/s)    =  N/A
# P''_bary (s/s^2) =  N/A
# P_orb (s)        =  N/A
# asin(i)/c (s)    =  N/A
# eccentricity     =  N/A
# w (rad)          =  N/A
# T_peri           =  N/A
######################################################
   0  633.7483
   1  602.418
   2  686.709
   3  740.6152
   4  704.7701
   5  591.2292
   6  482.5869
   7  403.4101
   8  456.7501
   9  463.363
  10  631.611
  11  737.6638
  12  747.6043
  13  644.6774
  14  583.3382
  15  512.6441
  16  571.3415
  17  618.9189
  18  667.1882
  19  679.756
  20  641.6711
  21  566.4736
  22  520.166
  23  496.9906
  24  568.554
  25  529.9391
  26  556.5473
  27  581.3585
  28  618.3633
  29  653.8734
  30  617.9098
  31  690.1171
  32  648.1446
  33  644.8993
  34  559.0201
  35  542.9068
  36  458.9702
  37  473.9713
  38  470.2287
  39  607.2584
  40  713.3528
  41  758.6191
  42  737.7135
  43  674.0742
  44  708.7128
  45  653.7048
  46  532.5607
  47  522.1861
  48  636.2841
  49  733.7975
  50  662.4916
  51  534.9828
  52  537.7089
  53  661.8541
  54  751.5295
  55  658.6304
  56  628.2079
  57  638.0702
  58  649.0059
  59  581.3882
  60  605.807
  61  727.6398
  62  636.7228
  63  665.9305
  64  566.5437
  65  554.2959
  66  522.5729
  67  566.6308
  68  661.4006
  69  590.3458
  70  614.7884
  71  545.8539
  72  713.4409
  73  754.7142
  74  781.5571
  75  691.6275
  76  660.6659
  77  606.1467
  78  518.6149
  79  638.3425
  80  654.7382
  81  734.9838
  82  750.6743
  83  822.2843
  84  775.1533
  85  760.3292
  86  693.5695
  87  704.6262
  88  602.3695
  89  579.107
  90  489.0844
  91  537.0795
  92  623.72
  93  702.2778
  94  654.0522
  95  675.2731
  96  692.0759
  97  688.874
  98  707.327
  99  694.9519
 100  709.9787
 101  702.4863
 102  688.989
 103  683.0352
 104  631.8547
 105  624.6661
 106  630.1319
 107  630.381
 108  615.5219
 109  527.7805
 110  531.8582
 111  537.989
 112  641.8149
 113  617.0263
 114  755.6084
 115  638.9634
 116  588.9062
 117  512.0172
 118  627.267
 119  788.4408
 120  864.5191
 121  855.8994
 122  771.7352
 123  682.1841
 124  647.0431
 125  628.8047
 126  616.0496
 127  670.0297
 128  628.0668
 129  558.7443
 130  493.5052
 131  493.2112
 132  560.2155
 133  600.0946
 134  506.9415
 135  392.4014
 136  328.0742
 137  377.89
 138  587.6543
 139  773.7008
 140  757.562
 141  649.3864
 142  482.3065
 143  487.3786
 144  317.6715
 145  370.3184
 146  462.9229
 147  630.871
 148  560.8342
 149  550.9544
 150  583.4414
 151  671.3718
 152  629.4952
 153  559.9742
 154  580.9289
 155  583.1583
 156  592.6811
 157  612.0164
 158  613.6212
 159  578.8709
 160  572.4164
 161  606.2092
 162  640.7642
 163  631.5361
 164  516.6293
 165  458.4097
 166  515.5383
 167  579.0041
 168  575.2291
 169  427.2666
 170  391.7836
 171  301.2585
 172  387.3272
 173  433.0524
 174  559.9857
 175  629.7108
 176  657.8496
 177  717.7743
 178  679.061
 179  599.6741
 180  546.162
 181  604.5383
 182  624.5712
 183  689.2624
 184  720.1151
 185  649.5485
 186  729.7158
 187  844.1385
 188  998.716
 189  847.4333
 190  730.4133
 191  605.611
 192  602.8871
 193  641.8063
 194  626.9877
 195  658.2437
 196  535.194
 197  574.2912
 198  492.7323
 199  538.93
 200  603.8328
 201  606.8734
 202  583.414
 203  549.265
 204  661.2555
 205  778.3537
 206  742.1884
 207  721.5829
 208  646.8448
 209  719.3395
 210  713.7543
 211  683.1079
 212  591.5146
 213  607.746
 214  673.7894
 215  636.374
 216  523.0305
 217  409.3489
 218  472.7517
 219  566.3477
 220  692.1608
 221  733.3654
 222  710.6511
 223  665.3192
 224  661.9543
 225  670.008
 226  609.7697
 227  584.0939
 228  659.5603
 229  679.4761
 230  644.2556
 231  705.9158
 232  708.0955
 233  717.3057
 234  663.1569
 235  648.795
 236  567.2562
 237  644.6696
 238  647.8003
 239  652.7302
 240  574.6216
 241  654.5656
 242  773.1095
 243  771.0237
 244  848.0514
 245  778.9462
 246  709.3549
 247  644.8202
 248  782.3427
 249  736.117
 250  669.7046
 251  692.9443
 252  728.7559
 253  714.1398
 254  547.4565
 255  651.9565
 256  664.5404
 257  865.534
 258  904.7732
 259  733.822
 260  490.1513
 261  394.9634
 262  586.3367
 263  674.1331
 264  760.5573
 265  682.0141
 266  777.4006
 267  729.3622
 268  642.3867
 269  558.0117
 270  566.9179
 271  526.6622
 272  513.478
 273  604.5448
 274  715.0795
 275  631.9841
 276  612.3156
 277  626.0784
 278  642.7254
 279  707.8888
 280  748.2279
 281  776.4542
 282  700.293
 283  606.3036
 284  566.5214
 285  611.3672
 286  746.8046
 287  742.1182
 288  610.1788
 289  709.6679
 290  701.2356
 291  794.3196
 292  666.3445
 293  647.2251
 294  530.7025
 295  479.0196
 296  537.4134
 297  483.3345
 298  493.3018
 299  536.753
 300  573.1691
 301  551.919
 302  471.5341
 303  555.6956
 304  502.2485
 305  530.0531
 306  556.3745
 307  709.9707
 308  720.0275
 309  715.7903
 310  709.5546
 311  701.8585
 312  746.9136
 313  761.8062
 314  738.765
 315  674.0307
 316  620.53
 317  553.064
 318  507.9044
 319  545.4023
 320  653.6501
 321  821.5841
 322  805.4647
 323  710.8026
 324  702.7687
 325  828.2686
 326  804.2088
 327  660.5948
 328  627.9919
 329  708.322
 330  666.3136
 331  625.8459
 332  637.8669
 333  716.3805
 334  688.574
 335  697.8527
 336  652.0494
 337  679.8976
 338  561.2255
 339  579.2269
 340  531.9519
 341  634.6221
 342  696.3265
 343  737.6705
 344  677.1116
 345  714.0592
 346  696.0169
 347  665.2371
 348  581.1025
 349  599.8899
 350  601.974
 351  548.7642
 352  579.0107
 353  593.6786
 354  617.7618
 355  706.6115
 356  741.3872
 357  748.3658
 358  665.106
 359  611.5663
 360  555.395
 361  541.14
 362  605.6482
 363  744.9326
 364  778.7051
 365  745.5554
 366  661.095
 367  608.1492
 368  646.4883
 369  689.0233
 370  756.9288
 371  704.5143
 372  823.9772
 373  866.0845
 374  839.8325
 375  650.8235
 376  523.1465
 377  441.8941
 378  458.4879
 379  518.9136
 380  570.1447
 381  558.1752
 382  559.5012
 383  559.0742
 384  556.5967
 385  572.147
 386  600.1432
 387  548.9215
 388  556.1519
 389  566.3071
 390  579.6777
 391  504.5693
 392  512.3692
 393  573.7769
 394  607.2598
 395  747.3376
 396  672.8713
 397  567.1219
 398  404.1404
 399  525.8101
 400  623.8992
 401  683.0892
 402  639.1693
 403  601.8383
 404  644.3783
 405  651.6635
 406  712.7711
 407  687.1713
 408  645.6545
 409  548.6188
 410  486.4044
 411  580.585
 412  693.4087
 413  687.7386
 414  501.4982
 415  472.6811
 416  508.3798
 417  617.6872
 418  668.0297
 419  731.2512
 420  710.4824
 421  649.7798
 422  657.5394
 423  753.9605
 424  790.7223
 425  799.5743
 426  830.1528
 427  832.4466
 428  686.3699
 429  518.3046
 430  410.8086
 431  440.838
 432  543.6953
 433  617.5916
 434  643.544
 435  671.3431
 436  725.4542
 437  683.9356
 438  597.457
 439  524.5146
 440  524.711
 441  457.8266
 442  336.5786
 443  317.4409
 444  412.7089
 445  557.0949
 446  621.2479
 447  555.7947
 448  508.2268
 449  477.2944
 450  553.6294
 451  578.2867
 452  562.1421
 453  584.0732
 454  551.5322
 455  453.3977
 456  366.6015
 457  328.5722
 458  327.0043
 459  267.6171
 460  294.9945
 461  394.6189
 462  582.439
 463  555.5468
 464  483.2579
 465  434.0708
 466  540.8356
 467  522.611
 468  529.3008
 469  482.7622
 470  523.4255
 471  606.0316
 472  673.6449
 473  649.6658
 474  487.376
 475  521.8188
 476  532.3279
 477  576.4204
 478  559.8495
 479  535.5159
 480  598.2934
 481  611.3788
 482  682.3859
 483  751.062
 484  738.6759
 485  650.8344
 486  500.4738
 487  454.2617
 488  445.8507
 489  457.0952
 490  477.3996
 491  505.4166
 492  536.2695
 493  627.1058
 494  590.8011
 495  624.5416
 496  531.2225
 497  543.1923
 498  538.4854
 499  545.5198
 500  473.4514
 501  489.0314
 502  665.9017
 503  739.5486
 504  782.0985
 505  823.9411
 506  757.3162
 507  721.1678
 508  664.4543
 509  742.3698
 510  764.9092
 511  679.4222
 512  741.9717
 513  749.3661
 514  921.6804
 515  893.2161
 516  899.012
 517  796.6071
 518  812.088
 519  777.9665
 520  805.6386
 521  751.2369
 522  703.9736
 523  671.6096
 524  673.3114
 525  603.4576
 526  623.4441
 527  690.9233
 528  722.3442
 529  691.6046
 530  670.8704
 531  632.1987
 532  611.3514
 533  558.2249
 534  592.2004
 535  552.9782
 536  501.9679
 537  495.7752
 538  527.2109
 539  533.4696
 540  570.0394
 541  578.7822
 542  577.0354
 543  507.1819
 544  372.5089
 545  346.8446
 546  503.7538
 547  578.629
 548  655.5867
 549  624.7728
 550  616.6035
 551  639.7
 552  654.0796
 553  642.5755
 554  560.19
 555  459.3592
 556  456.3302
 557  483.5364
 558  586.873
 559  635.0745
 560  639.6363
 561  562.5847
 562  580.3764
 563  602.3392
 564  606.5118
 565  552.8458
 566  474.6986
 567  434.8062
 568  483.3751
 569  447.2605
 570  490.0759
 571  589.2911
 572  753.139
 573  762.226
 574  683.7692
 575  566.5665
 576  470.8963
 577  436.0382
 578  505.5578
 579  552.2182
 580  598.5367
 581  632.2291
 582  611.2744
 583  558.2257
 584  560.7134
 585  537.9786
 586  519.8252
 587  442.3824
 588  403.8223
 589  452.5026
 590  621.9369
 591  677.4882
 592  658.2194
 593  605.7494
 594  571.6404
 595  574.2121
 596  578.0161
 597  637.2888
 598  656.1747
 599  608.4496
 600  555.7674
 601  576.1475
 602  549.6665
 603  580.6523
 604  561.1429
 605  657.9158
 606  688.6018
 607  663.0706
 608  594.1134
 609  532.7449
 610  548.0541
 611  614.2184
 612  639.2203
 613  717.8278
 614  674.3694
 615  584.2921
 616  567.3627
 617  565.3808
 618  616.8442
 619  624.8597
 620  674.934
 621  600.7139
 622  543.27
 623  559.9563
 624  621.1069
 625  607.2725
 626  564.1384
 627  582.9615
 628  522.6897
 629  493.1386
 630  574.6623
 631  669.3795
 632  699.5535
 633  604.0848
 634  627.0644
 635  641.1554
 636  637.3157
 637  609.4646
 638  543.0472
 639  612.481
 640  581.9801
 641  563.804
 642  482.6152
 643  531.8641
 644  639.2111
 645  724.1721
 646  788.2296
 647  721.8831
 648  719.4041
 649  684.3215
 650  653.6996
 651  718.5125
 652  673.5732
 653  735.9156
 654  652.7283
 655  708.2605
 656  672.0409
 657  736.4826
 658  726.2558
 659  631.7177
 660  547.1452
 661  446.9537
 662  516.0681
 663  557.3701
 664  632.5445
 665  616.4445
 666  564.7496
 667  550.1865
 668  623.1111
 669  681.8574
 670  611.395
 671  552.2607
 672  640.6824
 673  635.9242
 674  640.0196
 675  506.8689
 676  503.4145
 677  482.8849
 678  484.093
 679  456.9946
 680  493.0605
 681  554.3927
 682  609.7153
 683  531.947
 684  497.5548
 685  460.1724
 686  467.7401
 687  553.0673
 688  628.8259
 689  660.5115
 690  615.0533
 691  508.3207
 692  389.2574
 693  311.3947
 694  290.8746
 695  369.8814
 696  467.5261
 697  504.2009
 698  470.6414
 699  535.7936
 700  556.3727
 701  512.8083
 702  414.9969
 703  488.4574
 704  517.4941
 705  493.1634
 706  495.0474
 707  632.9871
 708  697.955
 709  715.133
 710  630.2858
 711  703.7905
 712  675.489
 713  711.1978
 714  665.4116
 715  570.5757
 716  465.658
 717  417.2227
 718  514.5078
 719  613.7182
 720  708.312
 721  641.9244
 722  490.0167
 723  427.3244
 724  474.6943
 725  517.3973
 726  557.8646
 727  586.1865
 728  715.736
 729  691.5204
 730  662.6891
 731  460.3266
 732  416.106
 733  432.9976
 734  564.7733
 735  598.4506
 736  659.0375
 737  673.4789
 738  714.944
 739  653.5335
 740  648.4848
 741  718.4344
 742  805.097
 743  745.3003
 744  658.1498
 745  633.7551
 746  715.4752
 747  695.5823
 748  670.6818
 749  744.8287
 750  978.5792
 751  1102.283
 752  1053.359
 753  1033.698
 754  1138.339
 755  1146.302
 756  1262.236
 757  1271.713
 758  1339.459
 759  1302.613
 760  1196.364
 761  1085.758
 762  962.0305
 763  971.0694
 764  917.435
 765  716.7281
 766  616.7823
 767  645.4029
 768  676.0063
 769  769.3168
 770  752.9678
 771  762.3063
 772  585.8571
 773  526.8792
 774  482.8986
 775  676.43
 776  662.7141
 777  659.2753
 778  587.2906
 779  692.0862
 780  655.5983
 781  613.1158
 782  619.1143
 783  645.7812
 784  642.2195
 785  587.1486
 786  547.8478
 787  625.3557
 788  688.5187
 789  787.3586
 790  724.611
 791  707.3595
 792  690.7781
 793  735.1324
 794  750.6765
 795  772.9323
 796  806.98
 797  759.8718
 798  707.1396
 799  584.5508
 800  661.051
 801  686.3721
 802  697.2657
 803  686.4246
 804  615.6227
 805  666.6677
 806  569.7043
 807  641.2172
 808  580.3649
 809  566.2595
 810  523.6323
 811  583.701
 812  655.8314
 813  615.9724
 814  578.3239
 815  457.4422
 816  438.7228
 817  450.77
 818  473.1583
 819  491.3277
 820  589.334
 821  670.7696
 822  642.4399
 823  618.8854
 824  660.8769
 825  777.7379
 826  710.1979
 827  624.5037
 828  520.7307
 829  552.1021
 830  646.2675
 831  640.6127
 832  512.5488
 833  506.9706
 834  561.7661
 835  591.636
 836  629.1271
 837  661.2429
 838  710.6115
 839  714.7001
 840  808.1943
 841  786.9514
 842  712.413
 843  526.21
 844  494.6526
 845  552.1434
 846  654.2556
 847  763.8597
 848  682.5957
 849  675.9932
 850  702.003
 851  788.7087
 852  811.1873
 853  688.0476
 854  695.4879
 855  678.9411
 856  713.7825
 857  650.9692
 858  628.7904
 859  573.7895
 860  647.0165
 861  704.5582
 862  738.9178
 863  795.8726
 864  738.9955
 865  637.7125
 866  604.4318
 867  607.4272
 868  602.0672
 869  566.657
 870  544.9185
 871  517.1697
 872  607.7761
 873  578.3937
 874  609.4838
 875  600.2647
 876  654.5079
 877  652.548
 878  540.3509
 879  575.088
 880  623.0577
 881  585.5923
 882  464.1251
 883  484.1802
 884  470.0853
 885  419.5435
 886  468.016
 887  584.0718
 888  631.5394
 889  629.1544
 890  668.5576
 891  767.2986
 892  728.6957
 893  720.6179
 894  663.6148
 895  646.1265
 896  677.9301
 897  669.3113
 898  626.2213
 899  582.2529
 900  668.7523
 901  674.8133
 902  585.217
 903  475.1304
 904  530.6459
 905  682.2114
 906  725.2899
 907  771.9302
 908  613.3016
 909  623.3409
 910  672.1348
 911  748.3973
 912  698.3992
 913  636.2538
 914  671.1373
 915  771.5081
 916  784.1167
 917  711.997
 918  626.3011
 919  565.6741
 920  576.4651
 921  570.5066
 922  670.521
 923  752.6475
 924  767.284
 925  730.1653
 926  689.8555
 927  661.8756
 928  730.3188
 929  871.8542
 930  850.0193
 931  746.7524
 932  655.1036
 933  626.569
 934  633.7852
 935  585.3914
 936  591.1334
 937  590.9006
 938  690.8483
 939  651.8771
 940  614.7404
 941  587.3474
 942  606.0712
 943  603.2733
 944  543.8055
 945  627.0135
 946  688.7736
 947  729.8648
 948  649.9583
 949  624.2758
 950  656.0718
 951  766.095
 952  869.7036
 953  846.7641
 954  814.3041
 955  780.8493
 956  690.6747
 957  634.0514
 958  593.0876
 959  660.1209
 960  635.5505
 961  653.9899
 962  705.9189
 963  656.5408
 964  499.0948
 965  497.3516
 966  646.8332
 967  693.4521
 968  570.9993
 969  495.0126
 970  591.0637
 971  600.3715
 972  697.5579
 973  730.8187
 974  825.0425
 975  782.0534
 976  793.0886
 977  710.167
 978  732.1008
 979  725.008
 980  683.5408
 981  660.5386
 982  705.7027
 983  696.9671
 984  541.1873
 985  546.0106
 986  571.4036
 987  663.6024
 988  555.9013
 989  579.1191
 990  562.381
 991  577.9788
 992  491.57
 993  454.2406
 994  401.7806
 995  444.8678
 996  476.2284
 997  483.4941
 998  454.6308
 999  498.4004
1000  546.8098
1001  556.6815
1002  539.1185
1003  577.5189
1004  675.7563
1005  759.9115
1006  726.8499
1007  514.2578
1008  474.6521
1009  516.4802
1010  566.8364
1011  497.4941
1012  502.7412
1013  594.8021
1014  641.0665
1015  649.5853
1016  681.104
1017  676.5457
1018  765.5372
1019  871.1543
1020  915.1991
1021  796.7889
1022  720.0589
1023  666.6751
