# Input file       =  1179733660.1152_cleaned.dat
# Candidate        =  PSR_0332+5434
# Telescope        =  AR
# Epoch_topo       =  57898.324989759261
# Epoch_bary       =  N/A
# T_sample         =  0.002
# Data Folded      =  7340032
# Data Avg         =  0.082480678836873
# Data StdDev      =  2.91718607517017 
# Profile Bins     =  1024
# Profile Avg      =  591.222755443633 
# Profile StdDev   =  246.980764256027 
# Reduced chi-sqr  =  1.018
# Prob(Noise)      <  0.341   (~0.4 sigma)
# P_topo (ms)      =  714.523158816918  +/- 0.000246
# P'_topo (s/s)    =  -0                +/- 1.3e-10
# P''_topo (s/s^2) =  0                 +/- 5.72e-14
# P_bary (ms)      =  N/A
# P'_bary (s/s)    =  N/A
# P''_bary (s/s^2) =  N/A
# P_orb (s)        =  N/A
# asin(i)/c (s)    =  N/A
# eccentricity     =  N/A
# w (rad)          =  N/A
# T_peri           =  N/A
######################################################
   0  390.7536
   1  453.5114
   2  559.6487
   3  582.0338
   4  556.5007
   5  393.3334
   6  371.8022
   7  268.5462
   8  410.809
   9  441.3487
  10  476.9932
  11  454.3702
  12  441.2647
  13  448.3557
  14  368.2814
  15  341.311
  16  328.8123
  17  388.0583
  18  328.5501
  19  289.5059
  20  231.3807
  21  342.245
  22  499.7093
  23  566.6681
  24  633.1987
  25  617.1111
  26  538.1044
  27  438.1165
  28  492.1786
  29  528.735
  30  538.3668
  31  467.5347
  32  511.9409
  33  488.2981
  34  483.233
  35  474.2316
  36  523.8415
  37  614.0005
  38  706.852
  39  658.8247
  40  602.1415
  41  560.2224
  42  715.3869
  43  652.4025
  44  508.1252
  45  332.9706
  46  419.9825
  47  455.1277
  48  443.5652
  49  470.7236
  50  525.8635
  51  573.2823
  52  658.3707
  53  717.5877
  54  731.8215
  55  586.7331
  56  523.0991
  57  431.6561
  58  467.5489
  59  572.3561
  60  739.8375
  61  730.1853
  62  720.0416
  63  644.9122
  64  680.4411
  65  713.5079
  66  772.44
  67  697.2994
  68  653.7286
  69  737.9523
  70  698.2485
  71  661.9832
  72  591.6124
  73  769.5142
  74  674.8424
  75  600.6271
  76  576.7402
  77  644.077
  78  648.2513
  79  498.981
  80  455.1328
  81  557.5977
  82  625.1267
  83  621.6771
  84  613.7173
  85  621.6418
  86  564.7657
  87  512.4688
  88  508.8508
  89  562.1583
  90  602.4981
  91  634.8604
  92  589.1333
  93  571.5564
  94  604.0032
  95  709.3252
  96  661.6857
  97  636.556
  98  635.0101
  99  724.2112
 100  628.3281
 101  531.683
 102  643.3744
 103  788.144
 104  813.4084
 105  840.6082
 106  837.8776
 107  906.174
 108  761.7803
 109  764.2772
 110  691.5687
 111  747.0569
 112  747.9761
 113  732.0254
 114  721.4628
 115  791.4373
 116  844.0055
 117  768.4727
 118  695.1421
 119  728.0173
 120  878.2922
 121  977.9702
 122  1032.424
 123  944.8367
 124  883.2056
 125  840.8278
 126  922.4428
 127  756.2146
 128  648.4676
 129  653.1277
 130  815.4592
 131  752.7284
 132  659.4046
 133  664.5245
 134  796.4164
 135  805.5276
 136  711.15
 137  720.1436
 138  909.4493
 139  994.0416
 140  917.1198
 141  792.3483
 142  854.093
 143  872.8298
 144  877.9473
 145  824.6483
 146  808.9856
 147  768.5468
 148  760.4743
 149  781.0149
 150  767.0677
 151  774.249
 152  674.9966
 153  595.8823
 154  558.9267
 155  544.1637
 156  509.4087
 157  440.9801
 158  503.2708
 159  597.9244
 160  656.0979
 161  663.8364
 162  667.5788
 163  637.7462
 164  625.4542
 165  585.3912
 166  574.552
 167  575.5433
 168  544.4166
 169  596.209
 170  487.0183
 171  488.5875
 172  563.8482
 173  642.5381
 174  624.7109
 175  693.4946
 176  798.0277
 177  768.0761
 178  649.5966
 179  518.6432
 180  428.3838
 181  388.3438
 182  426.4481
 183  487.6263
 184  558.1304
 185  594.9556
 186  615.2836
 187  577.814
 188  573.0011
 189  626.9905
 190  673.8546
 191  660.6514
 192  501.7294
 193  368.4764
 194  463.6124
 195  559.4486
 196  694.434
 197  539.6554
 198  546.4617
 199  620.3115
 200  653.8427
 201  523.0009
 202  411.7513
 203  529.1641
 204  668.9716
 205  737.6383
 206  643.8069
 207  428.4655
 208  496.9229
 209  641.9534
 210  640.4928
 211  522.8229
 212  511.111
 213  615.9293
 214  618.9504
 215  549.3987
 216  492.7343
 217  454.3554
 218  446.3921
 219  450.4977
 220  579.114
 221  654.564
 222  613.7465
 223  549.957
 224  480.9956
 225  465.2304
 226  380.5733
 227  434.0852
 228  622.3508
 229  792.5565
 230  745.3468
 231  553.402
 232  531.6358
 233  596.7184
 234  541.7598
 235  437.9737
 236  460.5524
 237  539.0103
 238  573.3072
 239  555.0941
 240  584.8837
 241  546.0381
 242  499.864
 243  453.1539
 244  518.7864
 245  590.0729
 246  606.4717
 247  580.071
 248  626.4953
 249  626.7931
 250  616.1152
 251  604.5805
 252  695.2139
 253  772.7585
 254  777.8123
 255  733.3369
 256  762.4913
 257  729.1884
 258  652.126
 259  564.4884
 260  559.8185
 261  611.2473
 262  731.801
 263  759.1437
 264  789.1997
 265  746.5839
 266  744.5986
 267  688.1297
 268  621.0401
 269  583.8835
 270  480.0857
 271  409.6823
 272  476.8034
 273  571.7192
 274  750.6494
 275  807.497
 276  793.3589
 277  739.7134
 278  683.4064
 279  540.8381
 280  390.0194
 281  288.417
 282  433.5628
 283  589.8967
 284  723.6332
 285  715.9803
 286  680.0289
 287  651.8173
 288  585.7571
 289  590.1013
 290  625.015
 291  679.7556
 292  595.7612
 293  590.1868
 294  577.8068
 295  663.93
 296  622.6705
 297  527.0201
 298  614.3854
 299  658.1845
 300  744.4483
 301  658.3066
 302  601.2877
 303  669.4198
 304  739.6429
 305  794.8086
 306  716.2112
 307  607.868
 308  600.6334
 309  537.822
 310  555.3579
 311  562.96
 312  487.7301
 313  483.7285
 314  395.9642
 315  502.0972
 316  552.4835
 317  489.8931
 318  402.4864
 319  426.2974
 320  638.6174
 321  742.1707
 322  738.0723
 323  669.7591
 324  611.3137
 325  584.1375
 326  474.8844
 327  517.5884
 328  508.3633
 329  461.1455
 330  415.2432
 331  410.5487
 332  491.2236
 333  465.3532
 334  400.2526
 335  349.026
 336  357.7967
 337  374.8962
 338  374.5832
 339  294.8095
 340  291.2111
 341  308.8424
 342  325.2554
 343  319.3927
 344  377.3367
 345  434.9904
 346  477.407
 347  356.6088
 348  238.0755
 349  261.4166
 350  325.2849
 351  400.2247
 352  325.8021
 353  337.6187
 354  277.1125
 355  290.899
 356  409.801
 357  529.0794
 358  604.0338
 359  520.6523
 360  396.4548
 361  429.3433
 362  464.5787
 363  519.6976
 364  501.2836
 365  488.7298
 366  477.9585
 367  476.0008
 368  517.4835
 369  451.0897
 370  415.1022
 371  450.1673
 372  599.1799
 373  493.1554
 374  362.0215
 375  227.5304
 376  282.9933
 377  366.1847
 378  539.027
 379  669.3052
 380  594.1517
 381  478.3595
 382  454.9449
 383  504.3826
 384  588.0889
 385  529.8954
 386  501.8716
 387  549.2056
 388  680.7944
 389  663.4257
 390  629.0058
 391  542.2028
 392  663.5605
 393  680.9373
 394  651.1644
 395  549.5258
 396  558.2165
 397  636.3948
 398  659.691
 399  676.4061
 400  768.2051
 401  698.0839
 402  518.0839
 403  405.849
 404  436.3826
 405  506.5991
 406  592.2166
 407  584.1565
 408  611.5765
 409  559.0988
 410  553.0678
 411  545.7899
 412  524.2296
 413  681.8418
 414  738.7649
 415  724.9067
 416  671.2456
 417  599.5861
 418  619.2568
 419  511.1519
 420  556.907
 421  489.6381
 422  463.0875
 423  425.6856
 424  510.8636
 425  709.0888
 426  776.7588
 427  761.2451
 428  564.3367
 429  481.9977
 430  408.0208
 431  564.52
 432  716.2498
 433  748.0715
 434  680.5378
 435  644.8642
 436  607.476
 437  532.9604
 438  573.0696
 439  684.5128
 440  730.2538
 441  688.6927
 442  613.2387
 443  617.3627
 444  617.4893
 445  593.3154
 446  605.9127
 447  635.2053
 448  701.0621
 449  627.8298
 450  636.3541
 451  584.4268
 452  655.1985
 453  715.231
 454  829.3411
 455  801.953
 456  707.3928
 457  566.745
 458  562.794
 459  610.8867
 460  677.5153
 461  614.3253
 462  706.736
 463  778.9242
 464  802.2448
 465  794.2353
 466  716.7118
 467  587.4519
 468  469.7956
 469  384.8916
 470  395.289
 471  447.9707
 472  489.5962
 473  489.751
 474  411.9828
 475  491.7842
 476  458.1007
 477  502.1482
 478  503.6797
 479  525.2375
 480  599.1581
 481  604.3655
 482  573.2254
 483  508.1613
 484  464.9062
 485  493.04
 486  450.3777
 487  458.8567
 488  392.9062
 489  401.6387
 490  314.8119
 491  280.6124
 492  232.2913
 493  371.0585
 494  452.7784
 495  536.6838
 496  551.1927
 497  545.0394
 498  457.4362
 499  339.6703
 500  289.2286
 501  347.7257
 502  406.002
 503  452.2202
 504  457.78
 505  438.3511
 506  376.1087
 507  446.1288
 508  531.2526
 509  441.3866
 510  348.1597
 511  275.845
 512  317.7173
 513  328.6745
 514  390.968
 515  531.5197
 516  555.7057
 517  518.9771
 518  363.9919
 519  261.4139
 520  245.2583
 521  333.2358
 522  353.952
 523  285.6766
 524  287.5191
 525  327.2658
 526  397.9904
 527  420.126
 528  486.7409
 529  465.6396
 530  484.209
 531  496.6263
 532  492.6882
 533  466.7249
 534  523.1184
 535  518.7512
 536  584.6643
 537  691.1279
 538  784.0974
 539  690.4174
 540  554.9077
 541  520.1862
 542  508.7008
 543  542.0819
 544  559.8837
 545  521.4309
 546  537.7419
 547  553.3417
 548  594.4069
 549  530.6565
 550  557.3948
 551  618.5463
 552  646.0369
 553  630.0787
 554  684.1051
 555  790.0861
 556  768.9168
 557  594.5823
 558  398.6043
 559  413.8575
 560  523.6923
 561  574.0844
 562  495.1665
 563  448.2921
 564  540.5558
 565  595.0633
 566  586.1589
 567  614.283
 568  601.5294
 569  675.559
 570  648.0099
 571  630.4356
 572  553.3492
 573  462.442
 574  462.9128
 575  531.568
 576  582.6008
 577  569.3505
 578  521.9856
 579  533.7156
 580  590.4964
 581  591.954
 582  581.8402
 583  576.4825
 584  470.6513
 585  340.4551
 586  330.4734
 587  426.843
 588  520.2363
 589  553.0797
 590  527.8202
 591  586.3054
 592  513.7372
 593  629.889
 594  563.8931
 595  735.1853
 596  903.0229
 597  844.407
 598  633.647
 599  455.3397
 600  418.265
 601  448.3307
 602  442.1106
 603  587.7274
 604  629.6039
 605  555.3829
 606  500.132
 607  568.8619
 608  682.9811
 609  599.9051
 610  565.8948
 611  523.1658
 612  673.4745
 613  730.8705
 614  883.3285
 615  834.3584
 616  805.4048
 617  715.2415
 618  741.8815
 619  702.9174
 620  632.7529
 621  628.6921
 622  654.6226
 623  633.7768
 624  604.7075
 625  527.5007
 626  605.3434
 627  665.5615
 628  787.0118
 629  744.7279
 630  586.1689
 631  543.2115
 632  600.2556
 633  726.0447
 634  787.1195
 635  822.9368
 636  660.7964
 637  424.9
 638  320.1159
 639  422.6422
 640  458.1944
 641  367.3545
 642  398.0349
 643  569.163
 644  656.6181
 645  498.826
 646  487.4023
 647  600.9231
 648  699.761
 649  615.0059
 650  564.2772
 651  561.0688
 652  539.009
 653  517.0672
 654  613.1688
 655  597.1164
 656  521.2072
 657  448.5778
 658  518.717
 659  483.3167
 660  588.3446
 661  713.3524
 662  778.8346
 663  626.5492
 664  495.272
 665  502.5606
 666  569.3348
 667  631.9219
 668  623.1675
 669  573.1805
 670  494.5399
 671  476.115
 672  516.9387
 673  506.6679
 674  515.1384
 675  521.6442
 676  534.7484
 677  457.7922
 678  377.6829
 679  461.0191
 680  474.6398
 681  526.1224
 682  508.67
 683  546.4506
 684  458.3813
 685  452.2048
 686  533.9291
 687  652.2647
 688  673.8668
 689  661.813
 690  690.3658
 691  770.3636
 692  776.877
 693  657.102
 694  600.0043
 695  490.2979
 696  551.5421
 697  608.4548
 698  700.4131
 699  662.5505
 700  664.9922
 701  619.3924
 702  591.5134
 703  563.9708
 704  550.0394
 705  522.1212
 706  588.5788
 707  743.4177
 708  769.3747
 709  737.5029
 710  650.444
 711  705.1143
 712  689.8973
 713  666.3889
 714  639.9337
 715  577.8228
 716  595.0043
 717  626.2505
 718  674.4211
 719  645.0413
 720  600.3637
 721  645.0944
 722  799.1788
 723  828.7488
 724  822.6496
 725  657.2917
 726  607.8486
 727  617.3911
 728  715.5078
 729  674.4901
 730  643.8404
 731  598.0202
 732  628.2506
 733  615.3281
 734  679.8192
 735  626.6363
 736  595.9221
 737  455.1939
 738  448.6122
 739  508.9247
 740  551.6826
 741  633.8894
 742  612.0634
 743  555.2811
 744  579.4777
 745  763.4099
 746  836.8826
 747  755.1816
 748  655.5258
 749  751.5873
 750  796.4704
 751  822.0973
 752  869.7073
 753  925.9612
 754  975.8326
 755  967.2579
 756  1057.63
 757  1081.956
 758  1091.18
 759  1090.016
 760  1073.667
 761  926.4606
 762  726.6422
 763  711.0781
 764  726.0099
 765  720.6295
 766  714.9796
 767  781.798
 768  737.0865
 769  726.6577
 770  657.1136
 771  655.3074
 772  617.9437
 773  696.4149
 774  757.4512
 775  699.0939
 776  492.9003
 777  550.7941
 778  629.2674
 779  707.2497
 780  665.9331
 781  723.0915
 782  692.7256
 783  687.0397
 784  636.2084
 785  696.3682
 786  686.2155
 787  730.8548
 788  782.1801
 789  716.7532
 790  638.6358
 791  618.6835
 792  747.5619
 793  781.1461
 794  711.7892
 795  595.4037
 796  604.7324
 797  740.6686
 798  833.8336
 799  854.3675
 800  811.0482
 801  630.7059
 802  556.8273
 803  471.8356
 804  651.3602
 805  760.8217
 806  688.2649
 807  591.6262
 808  456.4926
 809  426.3505
 810  479.4786
 811  607.1678
 812  724.9517
 813  738.0797
 814  733.2726
 815  661.3453
 816  510.0096
 817  398.4986
 818  453.5205
 819  515.5218
 820  610.1067
 821  594.2061
 822  628.207
 823  638.7313
 824  594.92
 825  652.301
 826  683.7971
 827  727.425
 828  639.5949
 829  524.0134
 830  505.4508
 831  526.9346
 832  542.9695
 833  504.4883
 834  496.0154
 835  630.812
 836  663.1653
 837  527.4637
 838  446.4893
 839  536.9027
 840  690.7222
 841  796.8449
 842  725.9937
 843  717.376
 844  656.6002
 845  618.6339
 846  511.0364
 847  494.635
 848  538.749
 849  576.0428
 850  657.814
 851  712.0129
 852  729.1503
 853  718.4106
 854  685.2076
 855  654.2126
 856  574.4076
 857  553.0297
 858  587.1447
 859  709.0225
 860  844.5454
 861  759.1643
 862  666.0688
 863  478.7238
 864  464.904
 865  344.5301
 866  525.0737
 867  752.877
 868  916.2853
 869  849.924
 870  730.8227
 871  642.5612
 872  556.1901
 873  454.6894
 874  553.3535
 875  592.973
 876  696.7864
 877  645.1668
 878  586.4728
 879  518.2286
 880  539.9655
 881  544.7424
 882  627.9357
 883  679.3209
 884  802.418
 885  832.395
 886  834.7819
 887  758.4313
 888  743.7216
 889  695.9904
 890  626.3638
 891  571.9761
 892  589.2553
 893  592.4795
 894  572.414
 895  611.4845
 896  680.6751
 897  718.5108
 898  628.5895
 899  502.9943
 900  361.7385
 901  357.922
 902  388.9779
 903  478.7809
 904  470.8914
 905  493.5974
 906  550.6841
 907  669.1665
 908  756.1767
 909  761.3876
 910  746.9239
 911  722.8724
 912  673.9851
 913  557.2695
 914  484.6732
 915  549.0605
 916  496.9425
 917  494.3098
 918  428.1977
 919  591.5914
 920  696.7603
 921  695.3434
 922  703.3215
 923  618.9132
 924  657.9313
 925  602.407
 926  735.2719
 927  832.4187
 928  813.5115
 929  647.5
 930  582.392
 931  650.8548
 932  671.1373
 933  667.0425
 934  667.8537
 935  674.3551
 936  659.6187
 937  632.2421
 938  525.5195
 939  484.6417
 940  456.8445
 941  552.0588
 942  548.4293
 943  594.2405
 944  548.4166
 945  592.92
 946  687.8438
 947  786.6569
 948  770.2422
 949  724.1988
 950  697.2348
 951  782.2907
 952  769.5323
 953  801.204
 954  634.1884
 955  632.8019
 956  702.3624
 957  763.487
 958  660.5645
 959  655.0149
 960  671.3532
 961  635.3832
 962  536.3273
 963  558.0658
 964  583.8043
 965  686.3421
 966  714.4548
 967  695.9818
 968  621.9465
 969  608.1149
 970  580.9328
 971  629.2275
 972  600.2026
 973  632.6645
 974  607.1106
 975  720.4182
 976  622.7667
 977  517.5391
 978  507.1463
 979  572.3775
 980  558.714
 981  489.5464
 982  466.1184
 983  467.1222
 984  499.7528
 985  535.7512
 986  560.7783
 987  685.0448
 988  707.5596
 989  653.7968
 990  607.803
 991  523.4869
 992  529.527
 993  465.5302
 994  573.2123
 995  717.1374
 996  704.1085
 997  708.9862
 998  616.5414
 999  514.9736
1000  445.2482
1001  415.3212
1002  543.343
1003  595.2632
1004  569.1135
1005  473.7473
1006  260.0269
1007  290.2215
1008  306.0262
1009  496.1277
1010  538.6793
1011  570.5072
1012  492.9635
1013  424.547
1014  475.3711
1015  460.1653
1016  410.2601
1017  305.9795
1018  316.4801
1019  444.0535
1020  546.809
1021  560.7268
1022  482.1028
1023  403.8284
