# Input file       =  1179288241.096729_cleaned.dat
# Candidate        =  PSR_0332+5434
# Telescope        =  AR
# Epoch_topo       =  57893.169677045473
# Epoch_bary       =  N/A
# T_sample         =  0.002
# Data Folded      =  7208960
# Data Avg         =  0.0398895564652345
# Data StdDev      =  1.00003583073064 
# Profile Bins     =  512
# Profile Avg      =  561.663875826528 
# Profile StdDev   =  118.663427438496 
# Reduced chi-sqr  =  1.443
# Prob(Noise)      <  1.87e-10   (~6.3 sigma)
# P_topo (ms)      =  714.528229820173  +/- 6.5e-05
# P'_topo (s/s)    =  -0                +/- 3.49e-11
# P''_topo (s/s^2) =  0                 +/- 1.57e-14
# P_bary (ms)      =  N/A
# P'_bary (s/s)    =  N/A
# P''_bary (s/s^2) =  N/A
# P_orb (s)        =  N/A
# asin(i)/c (s)    =  N/A
# eccentricity     =  N/A
# w (rad)          =  N/A
# T_peri           =  N/A
######################################################
   0  1159.641
   1  1109.188
   2  955.5536
   3  703.3201
   4  529.4623
   5  494.8955
   6  465.3604
   7  468.1554
   8  484.8828
   9  610.4755
  10  585.3773
  11  604.4648
  12  707.3865
  13  628.9308
  14  590.4572
  15  482.16
  16  423.9788
  17  387.7197
  18  490.5831
  19  571.5049
  20  517.1921
  21  602.1577
  22  724.5883
  23  693.4708
  24  541.3624
  25  384.6531
  26  557.9024
  27  629.5138
  28  646.5826
  29  671.4439
  30  543.0598
  31  463.1903
  32  514.6057
  33  498.6989
  34  464.4065
  35  481.4186
  36  585.9256
  37  562.1166
  38  494.0956
  39  461.4684
  40  548.4467
  41  519.4152
  42  526.4697
  43  512.2578
  44  492.1871
  45  551.1924
  46  443.9232
  47  446.4416
  48  468.7399
  49  463.154
  50  430.2845
  51  571.7723
  52  536.3008
  53  535.6381
  54  550.3395
  55  579.7708
  56  518.189
  57  444.8983
  58  440.5595
  59  570.1719
  60  596.3049
  61  564.3467
  62  565.1646
  63  519.0343
  64  426.6129
  65  499.1246
  66  500.0091
  67  588.0172
  68  564.6457
  69  527.407
  70  565.628
  71  531.0456
  72  587.3531
  73  650.9961
  74  653.4209
  75  668.0397
  76  629.5739
  77  683.9803
  78  705.4037
  79  567.0416
  80  534.1087
  81  532.8472
  82  529.6632
  83  518.1519
  84  584.0062
  85  614.7178
  86  614.2737
  87  623.392
  88  549.954
  89  527.0981
  90  511.1367
  91  527.8177
  92  593.9078
  93  642.2336
  94  749.3295
  95  599.5471
  96  481.0164
  97  443.2913
  98  472.3921
  99  405.5135
 100  442.0529
 101  467.8818
 102  531.1589
 103  629.9498
 104  492.3074
 105  465.3574
 106  451.081
 107  466.9216
 108  543.774
 109  567.7092
 110  544.52
 111  587.4582
 112  609.6893
 113  617.5635
 114  561.5778
 115  446.6719
 116  443.7952
 117  488.0137
 118  587.1212
 119  554.3188
 120  511.1471
 121  570.5183
 122  488.1335
 123  404.2303
 124  599.0497
 125  597.1752
 126  566.8476
 127  571.7375
 128  580.098
 129  447.4015
 130  537.2786
 131  564.2859
 132  499.485
 133  475.7106
 134  527.7972
 135  537.6026
 136  411.6103
 137  298.6131
 138  416.9538
 139  513.6696
 140  528.9097
 141  583.0192
 142  587.5353
 143  514.7079
 144  513.7884
 145  612.845
 146  577.4976
 147  544.6348
 148  537.6782
 149  574.8423
 150  587.9723
 151  690.8305
 152  683.2404
 153  631.5056
 154  553.0565
 155  658.0834
 156  559.5872
 157  555.8466
 158  699.9423
 159  719.8625
 160  660.3962
 161  671.0593
 162  502.6368
 163  510.2466
 164  563.6309
 165  558.9301
 166  461.3793
 167  662.9814
 168  733.0777
 169  599.9535
 170  484.5814
 171  453.5839
 172  544.0394
 173  535.6499
 174  661.2157
 175  715.6774
 176  639.6964
 177  567.3683
 178  560.9871
 179  583.0618
 180  526.7997
 181  608.8428
 182  611.9695
 183  631.5068
 184  645.4933
 185  675.6005
 186  692.6548
 187  667.6647
 188  709.2421
 189  584.8809
 190  562.2872
 191  625.9658
 192  661.9997
 193  601.1342
 194  575.605
 195  560.0626
 196  531.0328
 197  647.702
 198  673.0132
 199  696.0608
 200  608.6159
 201  594.1849
 202  534.5984
 203  581.0588
 204  522.3469
 205  559.8408
 206  637.3714
 207  665.3063
 208  704.8583
 209  802.2402
 210  728.1359
 211  531.2303
 212  521.126
 213  548.7712
 214  499.423
 215  500.1764
 216  548.4597
 217  521.4935
 218  499.3143
 219  578.1369
 220  590.1946
 221  666.0322
 222  587.0851
 223  573.3943
 224  651.6364
 225  781.1307
 226  701.4031
 227  586.3561
 228  489.3338
 229  483.2368
 230  615.757
 231  624.8933
 232  607.7545
 233  589.6692
 234  805.9417
 235  717.721
 236  510.8727
 237  563.6667
 238  565.0136
 239  561.0068
 240  650.6594
 241  692.8551
 242  694.3354
 243  614.683
 244  578.1774
 245  552.2023
 246  546.7534
 247  543.5261
 248  535.191
 249  495.8093
 250  458.5051
 251  441.5032
 252  409.1559
 253  435.3488
 254  433.7808
 255  478.8261
 256  598.6171
 257  548.0375
 258  636.6396
 259  704.3176
 260  561.8867
 261  517.9362
 262  587.4974
 263  634.3295
 264  612.35
 265  602.3635
 266  622.0361
 267  655.9173
 268  648.9478
 269  461.7845
 270  426.968
 271  463.476
 272  485.226
 273  417.0526
 274  535.4181
 275  598.8015
 276  474.9162
 277  414.7668
 278  463.1367
 279  420.717
 280  423.4237
 281  539.8508
 282  562.608
 283  514.309
 284  668.7466
 285  633.4772
 286  469.4336
 287  490.7404
 288  547.2382
 289  623.3646
 290  610.2834
 291  568.8616
 292  607.0988
 293  549.517
 294  518.6436
 295  487.0739
 296  461.7485
 297  526.925
 298  589.6317
 299  593.8741
 300  554.5895
 301  577.8966
 302  506.7068
 303  425.4366
 304  358.6923
 305  527.5627
 306  713.798
 307  756.2495
 308  684.6088
 309  528.243
 310  498.3129
 311  472.7208
 312  401.9019
 313  479.4859
 314  494.6287
 315  544.9395
 316  543.3066
 317  441.4648
 318  421.9447
 319  415.1672
 320  444.3136
 321  520.3993
 322  524.6385
 323  675.1243
 324  710.0783
 325  637.272
 326  670.5447
 327  557.1487
 328  470.1348
 329  566.4017
 330  532.0624
 331  614.3741
 332  675.8668
 333  585.3309
 334  613.9287
 335  571.9918
 336  525.8777
 337  508.2912
 338  512.1476
 339  544.2155
 340  682.6512
 341  691.4856
 342  612.8264
 343  559.0181
 344  586.2892
 345  526.5344
 346  459.8199
 347  499.6214
 348  514.9928
 349  568.4984
 350  685.7762
 351  652.1496
 352  499.5507
 353  464.8385
 354  481.4229
 355  431.9842
 356  471.1136
 357  722.7431
 358  700.2685
 359  526.1674
 360  439.6714
 361  459.6671
 362  501.4347
 363  466.8186
 364  578.6328
 365  622.0185
 366  580.3822
 367  470.7746
 368  504.0163
 369  470.9271
 370  514.193
 371  486.0673
 372  539.4805
 373  626.6005
 374  547.7252
 375  575.3394
 376  512.5754
 377  636.0681
 378  619.407
 379  622.338
 380  536.1516
 381  637.3235
 382  707.7911
 383  696.3405
 384  491.7383
 385  401.7739
 386  485.8509
 387  521.4708
 388  549.9204
 389  615.3518
 390  517.825
 391  602.5669
 392  584.7208
 393  465.6651
 394  408.4409
 395  519.8001
 396  553.7117
 397  516.7687
 398  586.9394
 399  553.8212
 400  504.0551
 401  413.6273
 402  385.7241
 403  462.1613
 404  583.4604
 405  377.0963
 406  450.2562
 407  649.3571
 408  698.8179
 409  580.8204
 410  468.0816
 411  492.4635
 412  492.6001
 413  522.6712
 414  632.0281
 415  611.5496
 416  639.1928
 417  551.9587
 418  525.3159
 419  414.1599
 420  438.128
 421  594.7576
 422  603.353
 423  650.645
 424  659.3968
 425  748.864
 426  685.3601
 427  569.6293
 428  492.8734
 429  577.1581
 430  538.2556
 431  497.8903
 432  587.5892
 433  524.4474
 434  429.4898
 435  460.3183
 436  485.2792
 437  463.0183
 438  458.0017
 439  427.2986
 440  497.528
 441  543.7266
 442  541.9155
 443  453.8634
 444  436.4796
 445  429.9513
 446  469.0896
 447  397.9349
 448  464.3245
 449  467.7782
 450  369.701
 451  386.8393
 452  416.6052
 453  498.2397
 454  452.8109
 455  501.7483
 456  457.933
 457  435.5427
 458  561.7042
 459  570.7877
 460  469.4998
 461  436.8526
 462  480.7707
 463  530.4753
 464  574.516
 465  417.0811
 466  488.8485
 467  539.9883
 468  571.5896
 469  533.5755
 470  544.409
 471  514.4168
 472  498.7328
 473  573.8299
 474  632.8807
 475  617.842
 476  514.0283
 477  475.3627
 478  596.0152
 479  574.8447
 480  598.3577
 481  711.7361
 482  593.455
 483  468.1384
 484  434.8298
 485  614.2924
 486  665.9925
 487  610.7481
 488  656.1656
 489  714.632
 490  725.96
 491  691.402
 492  711.1321
 493  583.6149
 494  603.2153
 495  541.377
 496  519.8333
 497  546.6668
 498  646.5758
 499  698.2458
 500  729.702
 501  646.7707
 502  591.2385
 503  533.1811
 504  545.4454
 505  688.8502
 506  799.3126
 507  947.144
 508  924.2291
 509  932.5732
 510  1038.089
 511  1115.653
