# Input file       =  1179029680.096024_cleaned.dat
# Candidate        =  PSR_0332+5434
# Telescope        =  AR
# Epoch_topo       =  57890.177072870647
# Epoch_bary       =  N/A
# T_sample         =  0.002
# Data Folded      =  7208960
# Data Avg         =  0.179836779770399
# Data StdDev      =  4.27400365098976 
# Profile Bins     =  512
# Profile Avg      =  2532.30017673289 
# Profile StdDev   =  507.149750564985 
# Reduced chi-sqr  =  0.684
# Prob(Noise)      <  1   (~0.0 sigma)
# P_topo (ms)      =  714.531153372479  +/- 5.37e-05
# P'_topo (s/s)    =  -0                +/- 2.88e-11
# P''_topo (s/s^2) =  0                 +/- 1.3e-14
# P_bary (ms)      =  N/A
# P'_bary (s/s)    =  N/A
# P''_bary (s/s^2) =  N/A
# P_orb (s)        =  N/A
# asin(i)/c (s)    =  N/A
# eccentricity     =  N/A
# w (rad)          =  N/A
# T_peri           =  N/A
######################################################
   0  2589.914
   1  2649.725
   2  2719.534
   3  2341.177
   4  1721.876
   5  2188.378
   6  2253.05
   7  2140.842
   8  2173.781
   9  2551.414
  10  2649.272
  11  2576.452
  12  2448.223
  13  2312.291
  14  2533.328
  15  2304.399
  16  2867.541
  17  2856.976
  18  2870.117
  19  2502.102
  20  2541.406
  21  2621.088
  22  2492.763
  23  2534.947
  24  2208.371
  25  2633.666
  26  2795.285
  27  2809.132
  28  2307.187
  29  2009.238
  30  2444.507
  31  2661.761
  32  2935.578
  33  2551.583
  34  3030.082
  35  3082.388
  36  2718
  37  2312.562
  38  2114.055
  39  2198.946
  40  1956.733
  41  2319.207
  42  2305.067
  43  2536.997
  44  2640.06
  45  2490.935
  46  2617.592
  47  2620.54
  48  2602.398
  49  2166.481
  50  2386.937
  51  2470.339
  52  2460.289
  53  2468.084
  54  2605.534
  55  2768.405
  56  2396.001
  57  2662.428
  58  2312.405
  59  2469.719
  60  2381.952
  61  2047.916
  62  2364.05
  63  2497.498
  64  3020.942
  65  3126.052
  66  2852.722
  67  2716.825
  68  2731.523
  69  2176.412
  70  1799.333
  71  1959.044
  72  2902.096
  73  2695.46
  74  2260.124
  75  2439.497
  76  2506.027
  77  2212.098
  78  2132.891
  79  2323.164
  80  2564.369
  81  2681.882
  82  2623.155
  83  2869.75
  84  3058.968
  85  2438.196
  86  2021.063
  87  1995.748
  88  1742.766
  89  2312.329
  90  2635.534
  91  2834.125
  92  2811.813
  93  2626.818
  94  2301.063
  95  1930.019
  96  2228.251
  97  2684.595
  98  2651.42
  99  3096.846
 100  3014.573
 101  2996.975
 102  2469.817
 103  2085.35
 104  2283.215
 105  1991.098
 106  2321.105
 107  2544.708
 108  2924.858
 109  2893.308
 110  3159.92
 111  2910.838
 112  2406.711
 113  2690.793
 114  2447.942
 115  2553.295
 116  2308.851
 117  2922.488
 118  2664.172
 119  2374.039
 120  2238.756
 121  2384.704
 122  2529.229
 123  2323.558
 124  2469.91
 125  2315.493
 126  2446.434
 127  2520.682
 128  2470.978
 129  2992.537
 130  2914.964
 131  2691.772
 132  2447.112
 133  2947.931
 134  2780.637
 135  2440.209
 136  1996.711
 137  2258.184
 138  2792.244
 139  2496.593
 140  2366.355
 141  2281.868
 142  2528.02
 143  2612.159
 144  2536.713
 145  2495.384
 146  2612.08
 147  2563.453
 148  2563.458
 149  2846.341
 150  2682.998
 151  2441.695
 152  1991.153
 153  2108.916
 154  2638.382
 155  2646.225
 156  2501.542
 157  2048.392
 158  2209.198
 159  2300.743
 160  2182.232
 161  2361.254
 162  2827.82
 163  2713.105
 164  2557.974
 165  2766.791
 166  2753.785
 167  2348.811
 168  2485.633
 169  2167.264
 170  1803.702
 171  2072.085
 172  2380.384
 173  2481.259
 174  2526.872
 175  2801.463
 176  2640.116
 177  2238.001
 178  2171.547
 179  2444.358
 180  2662.301
 181  2235.356
 182  2886.591
 183  3138.591
 184  3056.18
 185  2510.253
 186  1768.316
 187  2069.28
 188  1960.437
 189  2256.287
 190  2177.986
 191  2829.171
 192  2808.629
 193  2213.543
 194  2235.402
 195  2569.75
 196  2854.041
 197  2729.356
 198  2491.27
 199  2343.232
 200  2786.246
 201  2880.061
 202  2576.53
 203  3135.676
 204  2916.988
 205  2386.016
 206  2285.41
 207  2498.384
 208  2385.271
 209  2343.26
 210  2483.112
 211  2204.065
 212  2866.464
 213  2702.164
 214  2546.24
 215  2252.688
 216  2557.691
 217  2685.377
 218  2289.053
 219  2235.292
 220  2496.399
 221  2927.062
 222  2259.47
 223  2236.127
 224  2256.428
 225  2281.875
 226  2123.971
 227  2298.161
 228  2493.573
 229  2468.755
 230  2646.143
 231  2220.653
 232  2638.024
 233  2865.108
 234  2355.381
 235  2063.007
 236  2229.536
 237  3039.692
 238  2697.835
 239  2589.19
 240  2506.668
 241  2758.05
 242  2818.017
 243  2465.88
 244  2567.838
 245  2510.262
 246  2985.953
 247  3175.648
 248  3230.24
 249  3143.773
 250  3170.141
 251  3184.915
 252  3035.49
 253  3005.073
 254  3273.274
 255  3278.19
 256  3234.258
 257  2963.802
 258  2940.54
 259  2579.169
 260  2373.337
 261  2490.759
 262  2420.108
 263  2283.728
 264  2653.957
 265  3086.522
 266  2950.031
 267  2849.562
 268  2383.879
 269  2301.839
 270  2314.215
 271  2640.79
 272  2595.488
 273  2432.179
 274  2717.282
 275  2662.653
 276  2415.611
 277  2421.88
 278  2675.637
 279  2822.117
 280  2173.126
 281  2486.337
 282  2581.158
 283  2883.438
 284  2951.69
 285  2530.057
 286  2655.908
 287  2235.776
 288  2207.105
 289  2014.494
 290  2490.624
 291  3068.646
 292  2514.308
 293  2716.168
 294  2723.154
 295  2670.981
 296  2785.484
 297  2906.977
 298  2754.927
 299  2749.104
 300  2584.526
 301  2564.892
 302  2260.095
 303  2523.803
 304  2982.194
 305  2957.182
 306  2710.069
 307  2586.669
 308  2561.003
 309  2373.836
 310  2597.914
 311  3341.703
 312  3335.191
 313  3091.478
 314  2475.226
 315  2711.356
 316  2452.068
 317  2353.128
 318  2427.205
 319  2581.897
 320  2883.452
 321  2675.513
 322  2750.213
 323  2915.265
 324  2792.989
 325  2029.89
 326  1760.775
 327  2069.417
 328  2229.061
 329  2333.741
 330  2521.064
 331  3040.428
 332  3296.219
 333  2709.252
 334  1988.32
 335  1903.559
 336  2084.697
 337  2550.337
 338  2195.765
 339  2504.488
 340  2537.684
 341  2585.743
 342  2308.63
 343  2293.504
 344  2619.786
 345  2788.562
 346  2789.657
 347  2546.732
 348  2559.149
 349  2337.922
 350  2544.681
 351  2580.932
 352  2276.092
 353  2330.895
 354  2148.293
 355  2279.346
 356  2953.703
 357  2814.19
 358  2429.035
 359  1964.11
 360  2437.914
 361  2514.617
 362  2624.747
 363  2421.401
 364  2552.269
 365  2427.171
 366  2296.333
 367  2601.064
 368  2465.447
 369  2485.395
 370  2278.513
 371  2165.152
 372  1945.401
 373  2416.175
 374  2680.697
 375  2357.929
 376  2172.668
 377  2597.572
 378  2792.289
 379  2521.845
 380  2902.274
 381  2945.604
 382  2646.912
 383  2456.721
 384  2479.53
 385  2642.552
 386  2625.983
 387  2999.962
 388  2597.569
 389  2545.532
 390  2592.982
 391  2248.251
 392  2054.499
 393  2240.571
 394  2859.779
 395  3005.547
 396  2689.272
 397  3010.235
 398  2915.706
 399  2254.02
 400  2235.388
 401  2148.504
 402  2697.239
 403  2904.809
 404  2935.228
 405  2948.821
 406  2828.135
 407  2590.826
 408  2355.342
 409  2398.284
 410  2793.756
 411  2937.716
 412  2552.163
 413  2715.236
 414  2719.009
 415  2884.748
 416  2656.402
 417  2213.92
 418  2041.798
 419  2500.146
 420  2573.666
 421  2647.686
 422  2400.273
 423  2184.417
 424  2273.869
 425  1976.74
 426  2218.072
 427  2202.602
 428  2522.123
 429  2599.104
 430  2669.024
 431  2672.844
 432  2222.339
 433  2147.579
 434  2110.886
 435  2235.044
 436  2345.486
 437  2152.78
 438  2492.331
 439  2953.659
 440  2755.412
 441  2506.916
 442  2242.713
 443  2803.64
 444  2918.184
 445  2384.223
 446  2436.652
 447  2834.696
 448  2790.564
 449  2332.541
 450  2098.252
 451  2435.317
 452  2870.65
 453  2311.446
 454  2032.208
 455  2356.101
 456  2539.809
 457  2233.1
 458  2006.143
 459  2503.733
 460  2385.039
 461  2745.445
 462  2549.1
 463  2709.314
 464  2694.189
 465  2661.105
 466  2318.563
 467  2485.942
 468  2740.742
 469  2465.151
 470  2695.373
 471  2293.967
 472  2453.332
 473  3001.164
 474  2701.084
 475  2428.201
 476  2775.522
 477  2989.572
 478  2696.032
 479  2698.065
 480  2872.951
 481  3167.669
 482  2716.424
 483  2184.011
 484  2168.665
 485  2183.178
 486  2694.663
 487  2463.467
 488  2679.506
 489  2381.422
 490  2201.458
 491  1984.18
 492  1894.187
 493  2478.54
 494  2731.423
 495  3046.235
 496  2733.976
 497  2542.014
 498  2108.907
 499  1848.187
 500  2542.645
 501  2872.26
 502  2849.123
 503  2752.375
 504  2855.701
 505  2626.046
 506  2576.361
 507  2394.431
 508  2064.705
 509  2278.967
 510  2563.689
 511  2378.293
