# Input file       =  1179805725.112519_cleaned.dat
# Candidate        =  PSR_0332+5434
# Telescope        =  AR
# Epoch_topo       =  57899.159075376381
# Epoch_bary       =  N/A
# T_sample         =  0.002
# Data Folded      =  7208960
# Data Avg         =  0.155323091183196
# Data StdDev      =  5.26769953769225 
# Profile Bins     =  512
# Profile Avg      =  2187.32561571812 
# Profile StdDev   =  625.060885470524 
# Reduced chi-sqr  =  0.462
# Prob(Noise)      <  1   (~0.0 sigma)
# P_topo (ms)      =  714.522316441661  +/- 9.84e-05
# P'_topo (s/s)    =  -0                +/- 5.29e-11
# P''_topo (s/s^2) =  0                 +/- 2.38e-14
# P_bary (ms)      =  N/A
# P'_bary (s/s)    =  N/A
# P''_bary (s/s^2) =  N/A
# P_orb (s)        =  N/A
# asin(i)/c (s)    =  N/A
# eccentricity     =  N/A
# w (rad)          =  N/A
# T_peri           =  N/A
######################################################
   0  1752.604
   1  2475.354
   2  2389.255
   3  2484.34
   4  2112.181
   5  1595.059
   6  1611.704
   7  1522.436
   8  2523.245
   9  2436.489
  10  2691.979
  11  2394.068
  12  2049.444
  13  1854.115
  14  1460.117
  15  1963.346
  16  2349.99
  17  2237.268
  18  1835.158
  19  1687.638
  20  1868.664
  21  2084.384
  22  2119.681
  23  1715.156
  24  2383.616
  25  2621.949
  26  2570.507
  27  2237.78
  28  2086.538
  29  2248.371
  30  2200.227
  31  2498.182
  32  2130.5
  33  2014.537
  34  2153.827
  35  2611.558
  36  2376.654
  37  2127.358
  38  2093.834
  39  1885.106
  40  1933.088
  41  1725.708
  42  2110.351
  43  2370.553
  44  2443.52
  45  2346.587
  46  2458.589
  47  2392.011
  48  1909.388
  49  2358.771
  50  2620.263
  51  2537.852
  52  2870.584
  53  2922.212
  54  2655.283
  55  2359.836
  56  1986.874
  57  2042.934
  58  2594.067
  59  2813.389
  60  2731.253
  61  2229.458
  62  1840.455
  63  2049.786
  64  1972.705
  65  1959.691
  66  1915.641
  67  2283.419
  68  2353.787
  69  1724.891
  70  1669.243
  71  1674.807
  72  1511.566
  73  1210.979
  74  1508.58
  75  1943.516
  76  2384.273
  77  2499.149
  78  2685.147
  79  2385.014
  80  2066.32
  81  1999.802
  82  2158.319
  83  2369.262
  84  2740.598
  85  2324.985
  86  2035.038
  87  2197.391
  88  2359.308
  89  2110.81
  90  1891.521
  91  2407.539
  92  3047.26
  93  2938.121
  94  2536.722
  95  2479.13
  96  2482.272
  97  2034.494
  98  2156.987
  99  2441.656
 100  2212.858
 101  2123.716
 102  1916.268
 103  2420.274
 104  2421.74
 105  2346.954
 106  2252.708
 107  2243.929
 108  2461.641
 109  2175.204
 110  2473.701
 111  2195.891
 112  2188.423
 113  2230.88
 114  1938.032
 115  1925.84
 116  1521.322
 117  1788.841
 118  1971.172
 119  1840.945
 120  1999.378
 121  2587.999
 122  2513.413
 123  2178.46
 124  1929.669
 125  1912.274
 126  2309.947
 127  2237.001
 128  2447.908
 129  2008.498
 130  2217.391
 131  2087.182
 132  1990.608
 133  2228.569
 134  2532.554
 135  2780.739
 136  2921.492
 137  2979.159
 138  2579.8
 139  2657.404
 140  2706.179
 141  2803.749
 142  3341.624
 143  2636.075
 144  2085.243
 145  2065.878
 146  2291.32
 147  2096.651
 148  2188.186
 149  2466.835
 150  2192.895
 151  2173.322
 152  2135.461
 153  2491.834
 154  2499.629
 155  1985.303
 156  1799.28
 157  1975.222
 158  2143.964
 159  1771.029
 160  1835.137
 161  1960.125
 162  1766.142
 163  1727.24
 164  2037.255
 165  2082.411
 166  1849.562
 167  1709.52
 168  1725.328
 169  1862.693
 170  1954.109
 171  2198.433
 172  1886.912
 173  2211.079
 174  2295.973
 175  2240.066
 176  2044.469
 177  2045.266
 178  2403.401
 179  2347.191
 180  2068.49
 181  1688.499
 182  2164.892
 183  2210.947
 184  2156.651
 185  2590.898
 186  2265.65
 187  2267.735
 188  1968.327
 189  2132.154
 190  2559.665
 191  2426.117
 192  2564.581
 193  2856.163
 194  3131.527
 195  2546.22
 196  2106.163
 197  1975.993
 198  1968.116
 199  2104.742
 200  2353.666
 201  2388.006
 202  2615.854
 203  2260.254
 204  1963.602
 205  1941.846
 206  1947.284
 207  2405.534
 208  2722.142
 209  2703.771
 210  2534.389
 211  2250.767
 212  2195.176
 213  2347.857
 214  2800.316
 215  2410.948
 216  2305.605
 217  2197.83
 218  2597.585
 219  2327.622
 220  2198.931
 221  2311.666
 222  2283.177
 223  2150.016
 224  1960.052
 225  2302.737
 226  2320.747
 227  2103.001
 228  2379.533
 229  1888.366
 230  1890.679
 231  2011.613
 232  2496.604
 233  2413.572
 234  2142.787
 235  1929.992
 236  2195.313
 237  2349.405
 238  1956.487
 239  2322.115
 240  2116.621
 241  2156.096
 242  2084.43
 243  2434.837
 244  2231.46
 245  1830.84
 246  2061.179
 247  1967.251
 248  2182.892
 249  2206.037
 250  2654.17
 251  2275.521
 252  2134.118
 253  2483.277
 254  1881.558
 255  1929.522
 256  1581.252
 257  1857.803
 258  2310.725
 259  2121.605
 260  2651.525
 261  2576.355
 262  1950.489
 263  1693.696
 264  1696.646
 265  1818.092
 266  1749.185
 267  1741.149
 268  2014.322
 269  2533.727
 270  2123.704
 271  1888.345
 272  1805.865
 273  2006.161
 274  1779.981
 275  2270.552
 276  2385.233
 277  1883.837
 278  2021.526
 279  1854.359
 280  2200.646
 281  1904.536
 282  2034.088
 283  2099.891
 284  2088.903
 285  2169.814
 286  1946.118
 287  1911.802
 288  1712.344
 289  1994.35
 290  2248.732
 291  2431.737
 292  2101.088
 293  2477.362
 294  2304.121
 295  1810.103
 296  2024.675
 297  1901.479
 298  2142.689
 299  1986.296
 300  2195.544
 301  2148.04
 302  2234.954
 303  2480.222
 304  2503.408
 305  2367.897
 306  2199.937
 307  2422.247
 308  2559.533
 309  2413.667
 310  2142.878
 311  2194.471
 312  2442.411
 313  2032.115
 314  1835.305
 315  2129.829
 316  2209.419
 317  2081.696
 318  2132.249
 319  2225.418
 320  1964.792
 321  2339.795
 322  2652.788
 323  2772.712
 324  2428.129
 325  2627.898
 326  2338.346
 327  2508.084
 328  2755.853
 329  3188.425
 330  2633.903
 331  2476.206
 332  2303.887
 333  1938.87
 334  2222.106
 335  1928.964
 336  1993.672
 337  2028.139
 338  2084.516
 339  2407.157
 340  2360.331
 341  2377.367
 342  2339.298
 343  2424.732
 344  1676.421
 345  1782.89
 346  2345.802
 347  1952.525
 348  2256.665
 349  2036.488
 350  1853.094
 351  2284.331
 352  2424.39
 353  1873.931
 354  2128.772
 355  1956.465
 356  2148.316
 357  2182.33
 358  2128.468
 359  2488.609
 360  2553.967
 361  2107.753
 362  1816.429
 363  2082.811
 364  2395.028
 365  2122.138
 366  2065.778
 367  2049.923
 368  2220.233
 369  1896.065
 370  1712.424
 371  1607.928
 372  1837.469
 373  1720.513
 374  1813.746
 375  2164.854
 376  2112.162
 377  1826.395
 378  1732.465
 379  1915.77
 380  1922.512
 381  2050.518
 382  2485.906
 383  2100.665
 384  2662.511
 385  2672.67
 386  2349.54
 387  2005.863
 388  1863.233
 389  2400.971
 390  2305.478
 391  2360.438
 392  2187.57
 393  2472.263
 394  2190.537
 395  2008.382
 396  2290.944
 397  2157.494
 398  2358.641
 399  2100.922
 400  2339.236
 401  2362.113
 402  2309.931
 403  2380.714
 404  2139.198
 405  2316.385
 406  2480.16
 407  2202.43
 408  2219.583
 409  2329.194
 410  1835.267
 411  2024.82
 412  1779.295
 413  1976.138
 414  2156.697
 415  1925.42
 416  2007.143
 417  2076.588
 418  2286.325
 419  2170.319
 420  2096.719
 421  1998.444
 422  2051.543
 423  2432.977
 424  2441.147
 425  2373.234
 426  2134.256
 427  1996.567
 428  2159.974
 429  1861.74
 430  1686.169
 431  2073.409
 432  2280.596
 433  2350.698
 434  2292.086
 435  2056.761
 436  1885.746
 437  2304.578
 438  2469.803
 439  2662.397
 440  2470.898
 441  2939.474
 442  2497.299
 443  2019.179
 444  1638.121
 445  2010.169
 446  2456.367
 447  2568.139
 448  2850.988
 449  2449.678
 450  2155.315
 451  1943.076
 452  2152.289
 453  2614.5
 454  2892.494
 455  2806.227
 456  2498.833
 457  2129.314
 458  2109.009
 459  2143.866
 460  2061.894
 461  2326.267
 462  1801.174
 463  1637.548
 464  1571.385
 465  1921.401
 466  1924.152
 467  2119.941
 468  2362.782
 469  1989.524
 470  1955.811
 471  1787.179
 472  2626.256
 473  2752.65
 474  2567.958
 475  2826.451
 476  2371.401
 477  2313.817
 478  2547.011
 479  2305.77
 480  2366.858
 481  2533.492
 482  2302.78
 483  1991.226
 484  1572.307
 485  1761.457
 486  1983.853
 487  1905.781
 488  2106.53
 489  2112.654
 490  2438.327
 491  2235.838
 492  2007.458
 493  2140.673
 494  1992.958
 495  1780.183
 496  1742.013
 497  2054.542
 498  1866.226
 499  1750.464
 500  2099.016
 501  1931.955
 502  1884.702
 503  1810.041
 504  2184.523
 505  2304.753
 506  2097.009
 507  2215.174
 508  2306.09
 509  1970.245
 510  1522.892
 511  1563.827
