# Input file       =  1179288241.096729_cleaned.dat
# Candidate        =  PSR_0332+5434
# Telescope        =  AR
# Epoch_topo       =  57893.169677045473
# Epoch_bary       =  N/A
# T_sample         =  0.002
# Data Folded      =  7208960
# Data Avg         =  0.0398895564652345
# Data StdDev      =  1.00003583073064 
# Profile Bins     =  512
# Profile Avg      =  561.663885127022 
# Profile StdDev   =  118.663427438496 
# Reduced chi-sqr  =  1.449
# Prob(Noise)      <  1.19e-10   (~6.3 sigma)
# P_topo (ms)      =  714.528230583423  +/- 6.51e-05
# P'_topo (s/s)    =  -0                +/- 3.5e-11
# P''_topo (s/s^2) =  0                 +/- 1.57e-14
# P_bary (ms)      =  N/A
# P'_bary (s/s)    =  N/A
# P''_bary (s/s^2) =  N/A
# P_orb (s)        =  N/A
# asin(i)/c (s)    =  N/A
# eccentricity     =  N/A
# w (rad)          =  N/A
# T_peri           =  N/A
######################################################
   0  645.3023
   1  657.0717
   2  657.7208
   3  623.3544
   4  741.7238
   5  626.8608
   6  543.8589
   7  528.5681
   8  544.0569
   9  505.6751
  10  541.0103
  11  622.2047
  12  607.2068
  13  627.314
  14  582.0887
  15  536.7173
  16  531.2221
  17  501.4314
  18  563.2323
  19  604.6376
  20  716.6531
  21  692.1755
  22  531.0277
  23  443.3175
  24  469.5086
  25  433.8278
  26  422.3862
  27  454.9644
  28  486.5294
  29  597.1618
  30  581.28
  31  447.5129
  32  476.4148
  33  430.308
  34  519.9326
  35  562.179
  36  554.9908
  37  565.7853
  38  595.5623
  39  618.2114
  40  601.6844
  41  499.2461
  42  441.163
  43  450.2473
  44  532.6942
  45  591.5137
  46  520.7506
  47  549.8196
  48  550.7482
  49  410.0252
  50  496.5835
  51  630.4166
  52  567.7775
  53  561.2418
  54  589.1866
  55  522.8461
  56  445.8654
  57  589.596
  58  536.5403
  59  479.5564
  60  493.5665
  61  536.3412
  62  497.8279
  63  332.5979
  64  335.7638
  65  476.668
  66  540.008
  67  541.4211
  68  613.3015
  69  541.1382
  70  502.2084
  71  568.3724
  72  596.103
  73  570.8699
  74  525.7022
  75  566.3672
  76  566.1096
  77  640.8873
  78  685.9588
  79  673.0808
  80  566.1266
  81  613.7239
  82  632.88
  83  524.1323
  84  628.3168
  85  739.2694
  86  680.8583
  87  664.6772
  88  610.1937
  89  465.9085
  90  555.2766
  91  569.9215
  92  488.4417
  93  535.3576
  94  740.1407
  95  669.747
  96  540.6041
  97  456.1915
  98  498.8908
  99  545.8726
 100  583.072
 101  703.6858
 102  683.1026
 103  599.2601
 104  542.5256
 105  590.9714
 106  548.1762
 107  558.5458
 108  622.2571
 109  613.2357
 110  654.6801
 111  651.6718
 112  690.8595
 113  662.5125
 114  713.8259
 115  654.0872
 116  548.7761
 117  586.4988
 118  659.4023
 119  646.1572
 120  565.043
 121  587.0703
 122  518.9792
 123  597.5142
 124  673.7798
 125  691.4647
 126  656.698
 127  590.1827
 128  574.476
 129  539.3421
 130  572.0945
 131  504.9643
 132  611.0735
 133  664.7073
 134  667.0935
 135  768.8578
 136  785.6335
 137  640.8978
 138  485.1393
 139  549.871
 140  524.7795
 141  484.087
 142  522.5424
 143  547.3116
 144  491.7983
 145  559.962
 146  557.5817
 147  642.1457
 148  642.7672
 149  575.6138
 150  583.7683
 151  731.0195
 152  762.9398
 153  645.9257
 154  535.409
 155  453.6716
 156  546.9771
 157  631.3653
 158  642.1927
 159  576.3312
 160  690.7961
 161  807.8011
 162  583.5718
 163  519.0378
 164  595.808
 165  533.2366
 166  617.001
 167  657.5249
 168  715.3592
 169  655.2736
 170  590.535
 171  566.7862
 172  551.8069
 173  550.9416
 174  545.0761
 175  522.0337
 176  466.6547
 177  435.9147
 178  434.4765
 179  411.9413
 180  451.5657
 181  413.3346
 182  571.4764
 183  573.6841
 184  580.6737
 185  687.5242
 186  654.8738
 187  505.6832
 188  553.5201
 189  609.8065
 190  624.2958
 191  615.7344
 192  610.3804
 193  626.6675
 194  674.4279
 195  561.4078
 196  412.8508
 197  452.7147
 198  478.5463
 199  444.3248
 200  457.0333
 201  594.8527
 202  558.122
 203  430.6818
 204  434.8446
 205  443.6531
 206  410.5379
 207  473.8001
 208  578.2604
 209  515.2409
 210  576.6196
 211  709.8854
 212  525.9679
 213  475.6027
 214  496.3184
 215  601.1039
 216  620.7458
 217  585.4309
 218  597.1034
 219  582.4992
 220  537.2613
 221  493.6321
 222  480.9915
 223  470.8188
 224  577.0646
 225  590.3049
 226  589.3758
 227  541.5117
 228  573.7821
 229  440.8132
 230  403.2596
 231  399.1357
 232  636.8334
 233  738.2961
 234  757.0293
 235  604.4398
 236  502.1238
 237  486.0687
 238  434.2934
 239  434.616
 240  493.7621
 241  514.3688
 242  547.6222
 243  509.2862
 244  404.5037
 245  430.239
 246  417.263
 247  484.1128
 248  516.1498
 249  590.8055
 250  721.4838
 251  662.8798
 252  647.1088
 253  653.7964
 254  477.0745
 255  523.1971
 256  554.4062
 257  550.9957
 258  668.2595
 259  617.6554
 260  601.4941
 261  611.1327
 262  536.0785
 263  517.9728
 264  490.8598
 265  541.9112
 266  591.0586
 267  711.7828
 268  656.6364
 269  580.558
 270  574.9791
 271  561.3955
 272  487.8515
 273  471.0792
 274  522.5608
 275  514.7491
 276  645.7488
 277  686.4541
 278  587.0776
 279  458.7911
 280  468.8361
 281  472.2237
 282  415.6626
 283  607.3608
 284  734.7794
 285  629.8248
 286  456.5762
 287  439.2372
 288  488.0371
 289  466.2124
 290  528.8309
 291  608.2853
 292  625.6685
 293  504.0135
 294  483.4376
 295  494.9901
 296  486.9011
 297  519.9158
 298  475.9338
 299  607.9722
 300  598.955
 301  541.9354
 302  548.5723
 303  548.029
 304  662.1243
 305  626.4942
 306  570.4422
 307  572.8256
 308  672.3475
 309  740.8354
 310  584.2396
 311  444.1538
 312  408.298
 313  549.2717
 314  487.9071
 315  613.6483
 316  551.258
 317  564.4496
 318  607.1799
 319  533.6923
 320  400.3839
 321  460.2915
 322  551.1237
 323  535.6238
 324  552.7907
 325  583.568
 326  529.596
 327  444.8108
 328  401.1561
 329  404.3448
 330  549.0859
 331  512.1178
 332  343.4676
 333  577.7015
 334  684.5322
 335  653.7353
 336  507.5124
 337  462.3735
 338  513.624
 339  483.314
 340  603.4724
 341  615.7971
 342  641.0598
 343  592.6542
 344  531.7852
 345  481.5542
 346  391.429
 347  539.1082
 348  592.7867
 349  625.2731
 350  625.8737
 351  734.3167
 352  732.699
 353  639.7216
 354  509.7975
 355  522.8284
 356  589.2207
 357  476.9207
 358  547.6204
 359  573.892
 360  474.561
 361  438.5619
 362  481.3748
 363  475.2784
 364  459.7094
 365  430.4616
 366  461.6696
 367  520.4803
 368  566.7402
 369  483.2443
 370  447.114
 371  415.1479
 372  468.0261
 373  428.7566
 374  413.2587
 375  490.7615
 376  414.5006
 377  375.6469
 378  397.4845
 379  466.4342
 380  471.8157
 381  466.9212
 382  497.0197
 383  434.0947
 384  486.7834
 385  595.3938
 386  508.2632
 387  447.9488
 388  445.6085
 389  506.8433
 390  584.863
 391  489.1747
 392  420.7477
 393  517.204
 394  571.8157
 395  556.7325
 396  527.3735
 397  538.7531
 398  511.6992
 399  533.3663
 400  600.4009
 401  624.5834
 402  582.8147
 403  460.0676
 404  544.627
 405  579.9199
 406  590.0887
 407  666.9111
 408  690.7454
 409  498.3332
 410  441.0746
 411  491.1101
 412  686.292
 413  629.309
 414  624.8799
 415  695.2888
 416  731.818
 417  701.3088
 418  715.5645
 419  649.9847
 420  566.5114
 421  591.98
 422  504.8887
 423  539.0719
 424  595.2299
 425  672.1567
 426  733.8663
 427  668.3213
 428  636.4884
 429  543.9979
 430  540.3495
 431  591.1969
 432  754.2138
 433  867.9001
 434  972.7767
 435  910.9652
 436  980.8706
 437  1084.534
 438  1132.566
 439  1158.724
 440  1041.502
 441  839.7136
 442  594.8071
 443  493.3304
 444  493.8824
 445  459.0978
 446  478.0992
 447  530.0342
 448  630.8281
 449  563.1901
 450  679.7818
 451  661.6088
 452  619.9941
 453  540.0823
 454  440.3167
 455  408.5052
 456  401.7441
 457  569.8837
 458  529.889
 459  560.1034
 460  668.5263
 461  723.4274
 462  630.5178
 463  438.3859
 464  437.872
 465  627.4405
 466  623.8823
 467  676.687
 468  626.8477
 469  473.0405
 470  488.1269
 471  512.078
 472  496.9636
 473  455.8071
 474  536.8405
 475  576.1576
 476  537.0565
 477  451.2353
 478  522.8184
 479  516.7422
 480  543.8649
 481  515.6206
 482  495.1836
 483  531.192
 484  520.8934
 485  427.1513
 486  444.2611
 487  481.9496
 488  409.135
 489  524.7525
 490  543.8967
 491  540.738
 492  539.7292
 493  574.1115
 494  551.8055
 495  492.1721
 496  419.3464
 497  501.5124
 498  603.6877
 499  572.091
 500  571.2548
 501  563.116
 502  453.107
 503  458.675
 504  501.6825
 505  531.1711
 506  607.8818
 507  524.6628
 508  553.1735
 509  547.0588
 510  528.4631
 511  652.1761
