# Input file       =  1179490092.10149_cleaned.dat
# Candidate        =  PSR_0332+5434
# Telescope        =  AR
# Epoch_topo       =  57895.505915526504
# Epoch_bary       =  N/A
# T_sample         =  0.002
# Data Folded      =  7340032
# Data Avg         =  0.0838600870650096
# Data StdDev      =  3.19079913130689 
# Profile Bins     =  1024
# Profile Avg      =  601.105096998706 
# Profile StdDev   =  270.145951519967 
# Reduced chi-sqr  =  1.131
# Prob(Noise)      <  0.00216   (~2.9 sigma)
# P_topo (ms)      =  714.526277855554  +/- 0.000176
# P'_topo (s/s)    =  -0                +/- 9.29e-11
# P''_topo (s/s^2) =  0                 +/- 4.1e-14
# P_bary (ms)      =  N/A
# P'_bary (s/s)    =  N/A
# P''_bary (s/s^2) =  N/A
# P_orb (s)        =  N/A
# asin(i)/c (s)    =  N/A
# eccentricity     =  N/A
# w (rad)          =  N/A
# T_peri           =  N/A
######################################################
   0  686.6066
   1  583.4914
   2  598.5085
   3  629.2578
   4  673.3223
   5  628.9265
   6  634.25
   7  742.6743
   8  736.6113
   9  719.5015
  10  550.5812
  11  560.298
  12  463.6364
  13  403.4731
  14  370.3456
  15  261.3608
  16  416.9517
  17  459.5382
  18  535.6855
  19  424.9813
  20  447.1771
  21  594.4903
  22  730.2183
  23  603.6653
  24  540.6812
  25  473.5604
  26  603.4067
  27  519.9203
  28  503.3192
  29  497.1996
  30  443.263
  31  314.2519
  32  226.0614
  33  301.5111
  34  367.5905
  35  525.7237
  36  564.7567
  37  720.0196
  38  738.5744
  39  756.9029
  40  696.2776
  41  678.0469
  42  766.3796
  43  734.4795
  44  744.032
  45  712.2224
  46  616.3443
  47  534.8486
  48  473.9404
  49  493.5934
  50  547.1534
  51  478.3757
  52  551.4066
  53  577.2787
  54  708.5258
  55  800.2513
  56  836.0917
  57  864.9768
  58  825.4677
  59  645.233
  60  634.2265
  61  682.992
  62  650.5087
  63  532.7753
  64  580.287
  65  707.4777
  66  695.8359
  67  642.7474
  68  700.7999
  69  786.8688
  70  795.0809
  71  628.6004
  72  515.4839
  73  522.0941
  74  636.3582
  75  588.404
  76  518.6005
  77  449.818
  78  399.9876
  79  336.5949
  80  427.2369
  81  557.7952
  82  643.1599
  83  674.1434
  84  630.6623
  85  665.9282
  86  557.3022
  87  599.5642
  88  572.4807
  89  623.2016
  90  572.451
  91  552.3354
  92  478.5178
  93  342.1136
  94  326.199
  95  372.6967
  96  459.3936
  97  377.1865
  98  314.9942
  99  329.8228
 100  369.0303
 101  561.8197
 102  700.4626
 103  791.3974
 104  704.0947
 105  520.2878
 106  483.2807
 107  413.9297
 108  523.4867
 109  488.6003
 110  475.3305
 111  380.0732
 112  452.8737
 113  436.1822
 114  446.4752
 115  439.4298
 116  568.9201
 117  581.7423
 118  546.6472
 119  477.8015
 120  571.7404
 121  611.1445
 122  609.2896
 123  537.8929
 124  553.6052
 125  527.1154
 126  397.8104
 127  195.1996
 128  178.1128
 129  383.1638
 130  496.4978
 131  519.7132
 132  401.4656
 133  462.1946
 134  477.2755
 135  519.5775
 136  551.7569
 137  425.8357
 138  432.593
 139  437.4059
 140  486.6436
 141  480.11
 142  426.4924
 143  342.2329
 144  285.2755
 145  269.3689
 146  406.1005
 147  501.875
 148  576.311
 149  724.0572
 150  704.43
 151  581.9402
 152  469.874
 153  499.6795
 154  588.3767
 155  506.4611
 156  480.7971
 157  511.1648
 158  657.5994
 159  597.7365
 160  465.1808
 161  398.1322
 162  549.4881
 163  622.9327
 164  715.7014
 165  622.0972
 166  748.0068
 167  720.4041
 168  677.1346
 169  511.7909
 170  494.2681
 171  562.2719
 172  636.7415
 173  699.2958
 174  767.6362
 175  654.8135
 176  628.5916
 177  526.9684
 178  672.8445
 179  653.1581
 180  744.3378
 181  637.1811
 182  625.7124
 183  571.0106
 184  552.9058
 185  548.6249
 186  504.6541
 187  545.1126
 188  651.5582
 189  764.8656
 190  801.769
 191  673.7487
 192  541.4999
 193  490.8492
 194  527.6121
 195  523.5299
 196  570.5255
 197  564.6895
 198  552.2461
 199  468.3526
 200  400.4938
 201  422.537
 202  396.4314
 203  384.7911
 204  305.3176
 205  434.2813
 206  550.491
 207  598.0879
 208  604.5292
 209  599.6544
 210  568.6973
 211  414.5782
 212  321.8694
 213  378.5716
 214  503.3854
 215  462.1267
 216  470.2677
 217  516.4592
 218  579.3508
 219  610.5296
 220  636.1006
 221  685.0749
 222  751.4498
 223  813.48
 224  733.8257
 225  657.6855
 226  607.7253
 227  690.2726
 228  765.3757
 229  793.4871
 230  652.7136
 231  588.2567
 232  579.1468
 233  517.3659
 234  303.9731
 235  267.8357
 236  369.7391
 237  598.7936
 238  756.021
 239  821.434
 240  789.3735
 241  696.7618
 242  628.1554
 243  634.6733
 244  601.7183
 245  613.6245
 246  733.8555
 247  872.8118
 248  886.9088
 249  757.8669
 250  603.9864
 251  579.5044
 252  540.0838
 253  598.4268
 254  494.9746
 255  512.3195
 256  443.3189
 257  475.9918
 258  560.542
 259  586.5037
 260  482.2758
 261  388.8776
 262  448.5273
 263  450.4266
 264  263.3125
 265  205.3005
 266  328.0777
 267  491.2714
 268  563.3422
 269  518.0759
 270  394.4702
 271  344.498
 272  385.631
 273  394.9721
 274  387.9161
 275  392.9633
 276  441.4828
 277  383.8408
 278  399.2168
 279  305.6089
 280  278.3709
 281  401.8817
 282  633.8377
 283  607.806
 284  503.4675
 285  459.4998
 286  481.1437
 287  514.9435
 288  431.6722
 289  412.9101
 290  363.7151
 291  437.3687
 292  422.5978
 293  421.9831
 294  426.836
 295  367.557
 296  412.6387
 297  454.7206
 298  624.1884
 299  724.5327
 300  702.5529
 301  726.0724
 302  696.7643
 303  642.6526
 304  495.2564
 305  538.3744
 306  709.3655
 307  949.5279
 308  860.7747
 309  730.2366
 310  677.2485
 311  766.5236
 312  774.548
 313  712.1362
 314  710.2504
 315  771.754
 316  861.7822
 317  861.309
 318  681.5697
 319  478.5482
 320  491.2948
 321  595.082
 322  761.3046
 323  844.1169
 324  916.0666
 325  909.4612
 326  845.6217
 327  760.3331
 328  742.9297
 329  724.7943
 330  674.2007
 331  592.1129
 332  541.725
 333  573.795
 334  617.8938
 335  570.9099
 336  549.1393
 337  561.8705
 338  670.5436
 339  526.95
 340  547.3959
 341  488.3437
 342  497.7845
 343  541.8938
 344  540.7988
 345  571.5942
 346  531.5153
 347  565.6864
 348  589.1002
 349  486.6199
 350  382.4379
 351  474.5288
 352  659.6495
 353  762.1931
 354  788.9257
 355  745.5181
 356  707.0267
 357  617.0572
 358  696.9602
 359  774.4807
 360  663.4467
 361  563.0745
 362  428.5654
 363  491.4561
 364  390.4545
 365  407.0958
 366  343.5043
 367  472.2536
 368  474.655
 369  576.7341
 370  498.0226
 371  467.3492
 372  394.4818
 373  450.7623
 374  547.1642
 375  677.8333
 376  711.8929
 377  588.7487
 378  568.4087
 379  568.2263
 380  590.4467
 381  415.3348
 382  409.6862
 383  506.8772
 384  681.5393
 385  776.9536
 386  688.1586
 387  712.0743
 388  720.6308
 389  757.8361
 390  740.9758
 391  625.7415
 392  566.2542
 393  662.748
 394  761.4502
 395  751.5045
 396  719.9358
 397  722.3302
 398  707.4177
 399  541.6158
 400  449.3563
 401  462.6257
 402  658.9078
 403  716.5029
 404  713.2827
 405  627.0758
 406  665.624
 407  758.4579
 408  756.4186
 409  791.3044
 410  721.6667
 411  681.6553
 412  582.355
 413  638.5345
 414  677.5006
 415  704.2758
 416  661.3045
 417  656.6876
 418  727.7684
 419  646.3786
 420  565.0784
 421  405.103
 422  436.5651
 423  488.9201
 424  579.6449
 425  664.0074
 426  632.9075
 427  668.8558
 428  641.9683
 429  765.0385
 430  620.3707
 431  466.1841
 432  389.0805
 433  500.5522
 434  688.6951
 435  705.6351
 436  591.9669
 437  286.4773
 438  267.3136
 439  236.8913
 440  391.658
 441  389.0629
 442  584.2549
 443  736.3089
 444  747.6783
 445  739.559
 446  699.6018
 447  636.1262
 448  545.8341
 449  417.6155
 450  588.7902
 451  640.5153
 452  758.4636
 453  687.395
 454  680.7158
 455  661.8145
 456  620.317
 457  539.2755
 458  476.3056
 459  512.7913
 460  568.2609
 461  549.8677
 462  462.0635
 463  448.0444
 464  567.5618
 465  521.5543
 466  512.7473
 467  424.7345
 468  506.1501
 469  586.33
 470  657.0573
 471  628.7294
 472  591.8361
 473  613.0424
 474  771.6503
 475  754.8924
 476  851.4417
 477  813.4554
 478  866.4713
 479  765.8817
 480  636.889
 481  488.8489
 482  472.8546
 483  522.6685
 484  618.1852
 485  665.9419
 486  695.3713
 487  639.6288
 488  674.0121
 489  787.5245
 490  801.963
 491  612.2006
 492  368.5773
 493  445.2712
 494  631.3367
 495  773.461
 496  772.6566
 497  684.9882
 498  622.6721
 499  592.1144
 500  532.355
 501  591.505
 502  518.4658
 503  546.7274
 504  561.6329
 505  593.9576
 506  549.5214
 507  578.5049
 508  590.3097
 509  549.9797
 510  488.6829
 511  519.1369
 512  559.9325
 513  443.4047
 514  447.6899
 515  626.2448
 516  794.5162
 517  970.2466
 518  948.0649
 519  896.4615
 520  684.9974
 521  694.1962
 522  747.6007
 523  774.4933
 524  715.8848
 525  678.0615
 526  651.9265
 527  669.5319
 528  731.5038
 529  844.616
 530  667.8089
 531  608.2719
 532  578.5314
 533  770.685
 534  744.5901
 535  743.7294
 536  633.9028
 537  606.2919
 538  696.678
 539  792.2842
 540  775.0377
 541  721.5331
 542  760.284
 543  764.4025
 544  708.4269
 545  672.5744
 546  738.4377
 547  805.8256
 548  758.4403
 549  741.9282
 550  704.336
 551  740.1776
 552  580.2955
 553  586.0308
 554  720.8108
 555  791.8159
 556  585.0914
 557  393.2821
 558  437.3333
 559  615.9641
 560  748.7603
 561  803.35
 562  723.9285
 563  653.1985
 564  478.1801
 565  471.8906
 566  525.1438
 567  552.475
 568  567.8586
 569  708.5869
 570  724.81
 571  604.7072
 572  563.4448
 573  578.6206
 574  633.2925
 575  616.325
 576  773.2402
 577  872.2194
 578  886.358
 579  783.9614
 580  661.1256
 581  557.2252
 582  418.5509
 583  370.9993
 584  456.5534
 585  594.6528
 586  679.7369
 587  629.5135
 588  576.3451
 589  475.2433
 590  588.1703
 591  683.207
 592  675.8203
 593  485.0119
 594  523.4306
 595  695.2439
 596  826.3919
 597  743.7834
 598  605.2622
 599  583.5135
 600  638.365
 601  697.159
 602  646.257
 603  550.8339
 604  485.9458
 605  465.2285
 606  463.2695
 607  379.5114
 608  428.8897
 609  456.2881
 610  491.2379
 611  498.3978
 612  625.8561
 613  698.4622
 614  716.8483
 615  569.2966
 616  591.7267
 617  688.3332
 618  776.929
 619  736.2328
 620  612.9109
 621  563.3826
 622  616.8276
 623  719.5192
 624  839.4354
 625  795.7922
 626  648.1361
 627  484.7887
 628  370.4952
 629  479.7146
 630  448.3376
 631  382.5966
 632  301.2039
 633  422.906
 634  574.2026
 635  573.7963
 636  644.3552
 637  767.149
 638  892.9977
 639  826.3148
 640  833.7746
 641  701.8436
 642  522.0851
 643  472.969
 644  581.0998
 645  678.753
 646  624.9441
 647  621.4337
 648  548.3222
 649  612.4206
 650  763.1942
 651  829.2173
 652  812.0642
 653  646.7303
 654  609.4685
 655  649.9382
 656  634.4362
 657  618.7042
 658  510.4833
 659  600.7114
 660  698.0927
 661  662.5981
 662  757.9692
 663  810.9127
 664  975.4002
 665  960.4877
 666  781.9703
 667  633.6283
 668  472.4877
 669  623.2187
 670  693.2238
 671  733.0645
 672  631.9967
 673  629.8535
 674  612.6416
 675  582.8484
 676  587.1852
 677  626.1199
 678  641.5881
 679  605.9388
 680  631.0692
 681  657.2576
 682  760.5753
 683  804.8949
 684  799.752
 685  789.6658
 686  781.6026
 687  789.2541
 688  656.4609
 689  618.8729
 690  461.6316
 691  486.2909
 692  451.9385
 693  581.4872
 694  607.1161
 695  574.2862
 696  521.8741
 697  501.786
 698  490.6552
 699  518.8535
 700  609.0817
 701  637.0206
 702  598.8936
 703  575.032
 704  612.9474
 705  567.4314
 706  550.6026
 707  511.8958
 708  569.9214
 709  705.8513
 710  754.8972
 711  703.1744
 712  646.1899
 713  669.4948
 714  576.5283
 715  485.9017
 716  484.3522
 717  517.5328
 718  496.3528
 719  391.2905
 720  413.5383
 721  506.9031
 722  647.537
 723  648.5766
 724  631.9125
 725  554.7938
 726  470.3816
 727  565.0407
 728  635.8637
 729  805.1094
 730  812.882
 731  837.6257
 732  747.4884
 733  732.0409
 734  617.9215
 735  738.0118
 736  736.8904
 737  746.3594
 738  683.9605
 739  747.1262
 740  800.3375
 741  784.3864
 742  860.142
 743  973.2847
 744  962.2659
 745  898.2255
 746  912.1577
 747  913.9906
 748  941.223
 749  918.534
 750  870.0321
 751  831.3378
 752  911.7448
 753  1083.765
 754  1178.515
 755  1269.974
 756  1391.493
 757  1557.804
 758  1594.802
 759  1557.342
 760  1454.943
 761  1287.079
 762  1152.14
 763  977.8641
 764  887.6783
 765  778.0034
 766  690.8895
 767  723.0441
 768  695.5699
 769  641.6357
 770  552.287
 771  581.7592
 772  597.7612
 773  593.9674
 774  539.8935
 775  596.0311
 776  581.9545
 777  565.145
 778  656.4284
 779  733.806
 780  792.765
 781  776.8488
 782  820.6668
 783  809.8168
 784  653.1592
 785  596.658
 786  692.2013
 787  742.2207
 788  675.9855
 789  688.5242
 790  687.5187
 791  801.958
 792  702.8303
 793  712.8029
 794  641.0686
 795  661.6017
 796  683.1362
 797  777.3202
 798  673.491
 799  536.6002
 800  483.5852
 801  518.1404
 802  548.483
 803  586.2604
 804  553.2068
 805  531.8614
 806  500.0209
 807  569.5744
 808  644.5826
 809  594.64
 810  631.2491
 811  682.2966
 812  820.7479
 813  833.9292
 814  851.7562
 815  792.6818
 816  777.6567
 817  715.8828
 818  745.5977
 819  745.5483
 820  709.5219
 821  671.0096
 822  662.9935
 823  723.3718
 824  778.5
 825  676.4302
 826  614.7784
 827  557.7065
 828  568.9367
 829  690.4212
 830  839.1895
 831  820.3649
 832  784.7852
 833  646.1094
 834  636.8623
 835  593.9383
 836  642.786
 837  664.6644
 838  677.5735
 839  658.8906
 840  682.9957
 841  625.8308
 842  647.04
 843  595.2543
 844  698.129
 845  687.7773
 846  642.9296
 847  546.7064
 848  607.9199
 849  668.9587
 850  692.227
 851  640.0259
 852  505.6271
 853  496.8752
 854  568.9193
 855  609.306
 856  659.582
 857  733.2784
 858  696.8326
 859  631.5321
 860  586.2667
 861  659.9787
 862  612.1073
 863  618.8892
 864  618.8506
 865  655.2202
 866  761.1808
 867  730.4442
 868  691.8359
 869  546.7726
 870  425.5847
 871  420.1398
 872  576.4489
 873  679.6807
 874  650.7735
 875  630.3339
 876  615.8771
 877  546.5961
 878  493.7694
 879  572.5208
 880  609.2357
 881  662.1294
 882  558.3025
 883  593.8221
 884  486.0294
 885  451.5379
 886  500.1255
 887  608.4762
 888  672.8788
 889  710.4216
 890  669.2615
 891  564.4615
 892  428.07
 893  326.5177
 894  334.3442
 895  331.9975
 896  415.5735
 897  403.4013
 898  574.074
 899  725.7794
 900  630.7747
 901  522.8584
 902  532.4149
 903  561.723
 904  525.6787
 905  516.9238
 906  666.3489
 907  776.2678
 908  742.027
 909  653.6672
 910  502.937
 911  468.4379
 912  373.8719
 913  378.0054
 914  443.6596
 915  507.1101
 916  592.6015
 917  559.8258
 918  633.3994
 919  645.1861
 920  661.4443
 921  600.5874
 922  453.3681
 923  489.2074
 924  482.9809
 925  523.515
 926  484.2571
 927  390.1314
 928  304.0311
 929  416.9402
 930  489.1162
 931  543.4655
 932  481.1045
 933  536.1191
 934  603.6165
 935  500.2338
 936  360.9788
 937  267.2447
 938  235.4075
 939  351.9282
 940  436.2017
 941  592.6256
 942  662.8503
 943  657.8768
 944  690.6484
 945  561.3549
 946  555.8199
 947  537.7394
 948  686.5686
 949  557.9015
 950  437.2551
 951  377.7625
 952  432.498
 953  526.3806
 954  508.3055
 955  439.9366
 956  536.95
 957  638.5199
 958  698.2919
 959  583.8572
 960  472.5816
 961  478.9206
 962  568.8195
 963  594.5131
 964  567.5453
 965  400.5208
 966  452.7132
 967  429.3573
 968  461.4714
 969  448.948
 970  520.3771
 971  558.043
 972  517.9223
 973  528.1618
 974  540.5579
 975  492.9936
 976  354.6584
 977  484.6895
 978  522.9527
 979  611.8378
 980  627.6178
 981  668.6008
 982  668.9684
 983  552.8663
 984  418.5731
 985  214.125
 986  166.598
 987  302.3037
 988  441.9736
 989  418.42
 990  299.9919
 991  255.5798
 992  375.5382
 993  493.6089
 994  512.9165
 995  590.8738
 996  645.988
 997  679.068
 998  497.6604
 999  489.7627
1000  525.5464
1001  573.1906
1002  537.0563
1003  405.0321
1004  342.9345
1005  321.5647
1006  398.1784
1007  371.8657
1008  430.4615
1009  472.0667
1010  514.9451
1011  556.8404
1012  653.5718
1013  666.5583
1014  633.1824
1015  662.6046
1016  735.5098
1017  723.5213
1018  430.9208
1019  340.1428
1020  274.5729
1021  470.4053
1022  595.9007
1023  684.9166
