# Input file       =  1179029680.096024_cleaned.dat
# Candidate        =  PSR_0332+5434
# Telescope        =  AR
# Epoch_topo       =  57890.177072870647
# Epoch_bary       =  N/A
# T_sample         =  0.002
# Data Folded      =  7208960
# Data Avg         =  0.179836779770399
# Data StdDev      =  4.27400365098976 
# Profile Bins     =  1024
# Profile Avg      =  1266.15008831297 
# Profile StdDev   =  358.609027701567 
# Reduced chi-sqr  =  0.659
# Prob(Noise)      <  1   (~0.0 sigma)
# P_topo (ms)      =  714.53115341905   +/- 4.39e-05
# P'_topo (s/s)    =  -0                +/- 2.36e-11
# P''_topo (s/s^2) =  0                 +/- 1.06e-14
# P_bary (ms)      =  N/A
# P'_bary (s/s)    =  N/A
# P''_bary (s/s^2) =  N/A
# P_orb (s)        =  N/A
# asin(i)/c (s)    =  N/A
# eccentricity     =  N/A
# w (rad)          =  N/A
# T_peri           =  N/A
######################################################
   0  1485.708
   1  1515.88
   2  1331.812
   3  1262.889
   4  1266.547
   5  1280.013
   6  1284.443
   7  1305.279
   8  1191.639
   9  1042.195
  10  1001.492
  11  1058.286
  12  1112.245
  13  1129.274
  14  1316.94
  15  1563.611
  16  1588.985
  17  1407.532
  18  1285.808
  19  1400.709
  20  1452.774
  21  1568.993
  22  1529.051
  23  1374.62
  24  1111.881
  25  1134.806
  26  1151.763
  27  1077.672
  28  1010.561
  29  1148.454
  30  1318.326
  31  1383.667
  32  1435.344
  33  1473.888
  34  1479.574
  35  1453.853
  36  1434.749
  37  1512.388
  38  1426.06
  39  1401.092
  40  1329.031
  41  1255.901
  42  1194.212
  43  1159.09
  44  1196.661
  45  1205.234
  46  1316.731
  47  1486.994
  48  1562.006
  49  1362.984
  50  1254.576
  51  1299.844
  52  1380.241
  53  1334.804
  54  1313.348
  55  1414.227
  56  1456.39
  57  1427.656
  58  1350.742
  59  1295.559
  60  1131.404
  61  1079.11
  62  1022.792
  63  1019.89
  64  1169.825
  65  1337.605
  66  1299.924
  67  1272.24
  68  1287.846
  69  1362.152
  70  1266.111
  71  1125.137
  72  1113.941
  73  1072.35
  74  1160.433
  75  1111.156
  76  1039.627
  77  929.3276
  78  1047.091
  79  1181.629
  80  1114.919
  81  1085.325
  82  1150.08
  83  1381.356
  84  1352.662
  85  1241.349
  86  1308.456
  87  1368.643
  88  1433.795
  89  1229.136
  90  1125.274
  91  1092.256
  92  1095.191
  93  1054.374
  94  1038.045
  95  1071.691
  96  1047.871
  97  1193.109
  98  1217.846
  99  1121.89
 100  1061.846
 101  1095.044
 102  1228.099
 103  1270.376
 104  1449.847
 105  1510.902
 106  1448.54
 107  1300.528
 108  1307.929
 109  1190.609
 110  1073.741
 111  1175.017
 112  1322.51
 113  1490.734
 114  1491.51
 115  1417.385
 116  1256.933
 117  1116.979
 118  1114.326
 119  1335.915
 120  1410.972
 121  1422.945
 122  1370.923
 123  1420.067
 124  1281.116
 125  1035.602
 126  1027.828
 127  1074.471
 128  1097.595
 129  1351.039
 130  1466.841
 131  1396.262
 132  1128.969
 133  1180.74
 134  1066.063
 135  957.1213
 136  1095.189
 137  1278.06
 138  1329.037
 139  1201.386
 140  1130.764
 141  1092.718
 142  964.4392
 143  1047.093
 144  1235.431
 145  1276.702
 146  1189.651
 147  1195.986
 148  1391.155
 149  1355.795
 150  1276.287
 151  1272.379
 152  1343.864
 153  1364.421
 154  1348.153
 155  1347.853
 156  1366.35
 157  1292.218
 158  1159.416
 159  1152.875
 160  1196.803
 161  1301.974
 162  1407.587
 163  1326.911
 164  1211.449
 165  1255.167
 166  1329.282
 167  1364.951
 168  1129.123
 169  1160.004
 170  1154.576
 171  1309.31
 172  1467.136
 173  1537.31
 174  1446.261
 175  1241.974
 176  1197.581
 177  1234.999
 178  1344.578
 179  1436.061
 180  1508.385
 181  1481.333
 182  1405.391
 183  1287.975
 184  1341.541
 185  1360.062
 186  1394.754
 187  1482.046
 188  1645.002
 189  1520.9
 190  1452.79
 191  1253.523
 192  1162.113
 193  1013.48
 194  1116.943
 195  1051.466
 196  1079.73
 197  1111.61
 198  1388.694
 199  1304.843
 200  1206.284
 201  1261.166
 202  1356.964
 203  1319.582
 204  1234.537
 205  1143.555
 206  1170.073
 207  1028.375
 208  1069.446
 209  907.4536
 210  915.8743
 211  987.1201
 212  1173.765
 213  1317.455
 214  1383.516
 215  1346.615
 216  1534.419
 217  1517.339
 218  1461.076
 219  1262.685
 220  1254.62
 221  1284.57
 222  1121.157
 223  977.823
 224  891.8719
 225  962.0216
 226  1165.284
 227  1389.795
 228  1493.764
 229  1376.036
 230  1410.517
 231  1443.315
 232  1418.767
 233  1329.379
 234  1411.239
 235  1446.832
 236  1359.286
 237  1262.875
 238  1337.794
 239  1234.203
 240  1161.512
 241  1233.171
 242  1072.455
 243  979.6624
 244  1002.314
 245  1298.003
 246  1374.018
 247  1176.745
 248  1107.714
 249  1277.259
 250  1370.62
 251  1217.068
 252  1270.693
 253  1388.538
 254  1434.155
 255  1276.7
 256  1240.496
 257  1088.835
 258  834.295
 259  889.1418
 260  1066.45
 261  1125.568
 262  1103.261
 263  1152.886
 264  1145.97
 265  987.8993
 266  1025.045
 267  1159.496
 268  1274.486
 269  1282.196
 270  1308.682
 271  1339.471
 272  1276.714
 273  1297.704
 274  1257.392
 275  1180.441
 276  1080.215
 277  1240.78
 278  1302.249
 279  1224.728
 280  1035.054
 281  1278.07
 282  1415.481
 283  1455.426
 284  1341.896
 285  1522.045
 286  1507.56
 287  1349.678
 288  1203.181
 289  1302.639
 290  1303.258
 291  1234.7
 292  1329.515
 293  1291.752
 294  1253.162
 295  1240.452
 296  1305.787
 297  1221.031
 298  1059.111
 299  1154.613
 300  1274.521
 301  1363.903
 302  1370.546
 303  1428.972
 304  1430.925
 305  1374.474
 306  1231.301
 307  1061.432
 308  942.7147
 309  1068.728
 310  1189.687
 311  1263.944
 312  1286.946
 313  1383.429
 314  1504.549
 315  1421.42
 316  1236.185
 317  1322.626
 318  1519.792
 319  1511.456
 320  1533.798
 321  1551.373
 322  1452.137
 323  1252.01
 324  1146.634
 325  1160.963
 326  1052.688
 327  1060.587
 328  1083.128
 329  1116.949
 330  939.2859
 331  1017.17
 332  1120.552
 333  1203.838
 334  1094.822
 335  1212.862
 336  1262.997
 337  1272.564
 338  1291.944
 339  1351.795
 340  1284.714
 341  1200.74
 342  1291.772
 343  1332.324
 344  1335.714
 345  1283.663
 346  1319.912
 347  1280.141
 348  1131.381
 349  1027.464
 350  1125.857
 351  1272.272
 352  1264.643
 353  1200.57
 354  1235.605
 355  1224.625
 356  1205.965
 357  1264.009
 358  1294.984
 359  1312.467
 360  1403.739
 361  1367.139
 362  1236.882
 363  1154.217
 364  1297.531
 365  1366.724
 366  1190.993
 367  1113.3
 368  1219.164
 369  1256.689
 370  1228.756
 371  1149.17
 372  1045.367
 373  999.1901
 374  1128.701
 375  1244.317
 376  1258.57
 377  1237.259
 378  1434.939
 379  1603.247
 380  1643.358
 381  1474.287
 382  1449.607
 383  1397.903
 384  1407.401
 385  1309.458
 386  1378.715
 387  1351.172
 388  1154.038
 389  1009.443
 390  925.3685
 391  870.551
 392  856.8417
 393  1115.799
 394  1505.477
 395  1400.225
 396  1418.108
 397  1276.403
 398  1251.08
 399  998.8791
 400  1141.834
 401  1310.071
 402  1351.287
 403  1143.537
 404  1133.323
 405  1078.301
 406  1101.448
 407  1029.986
 408  1137.068
 409  1192.855
 410  1237.598
 411  1336.782
 412  1397.264
 413  1279.301
 414  1312.518
 415  1313.753
 416  1456.909
 417  1416.309
 418  1538.022
 419  1518.447
 420  1336.855
 421  1085.873
 422  1003.383
 423  1016.702
 424  993.0554
 425  1004.628
 426  882.1204
 427  857.4961
 428  1016.778
 429  1313.218
 430  1374.609
 431  1256.056
 432  1339.389
 433  1505.618
 434  1456.094
 435  1346.643
 436  1302.223
 437  1325.467
 438  1205.199
 439  1082.596
 440  961.4351
 441  968.6015
 442  1027.04
 443  1209.952
 444  1341.43
 445  1345.089
 446  1227.821
 447  1433.045
 448  1548.323
 449  1547.982
 450  1443.402
 451  1575.634
 452  1550.31
 453  1437.522
 454  1279.258
 455  1178.894
 456  1027.218
 457  1057.682
 458  1159.142
 459  1124.533
 460  1017.486
 461  972.0336
 462  1128.039
 463  1197.975
 464  1211.028
 465  1342.282
 466  1458.121
 467  1466.464
 468  1397.758
 469  1501.501
 470  1599.564
 471  1561.253
 472  1502.239
 473  1401.842
 474  1227.44
 475  1172.756
 476  1255.454
 477  1439.65
 478  1241.899
 479  1199.218
 480  1245.694
 481  1308.793
 482  1124.972
 483  1190.491
 484  1452.66
 485  1472.192
 486  1358.475
 487  1303.257
 488  1278.127
 489  1087.212
 490  1097.069
 491  1146.469
 492  1218.43
 493  1166.006
 494  1282.81
 495  1244.025
 496  1130.527
 497  1193.207
 498  1254.247
 499  1214.473
 500  1148.472
 501  1169.471
 502  1222.103
 503  1224.172
 504  1284.378
 505  1236.666
 506  1189.902
 507  1290.236
 508  1470.171
 509  1526.368
 510  1524.543
 511  1384.957
 512  1431.062
 513  1254.349
 514  1217.442
 515  1229.454
 516  1463.181
 517  1494.085
 518  1440.08
 519  1334.074
 520  1325.236
 521  1101.2
 522  986.8272
 523  1010.391
 524  1097.024
 525  1168.911
 526  1380.167
 527  1420
 528  1322.438
 529  1167.619
 530  1158.871
 531  1205.025
 532  1097.145
 533  1187.621
 534  1253.453
 535  1277.614
 536  1314.03
 537  1297.686
 538  1310.804
 539  1220.965
 540  1243.073
 541  1257.067
 542  1316.945
 543  1294.747
 544  1258.238
 545  1305.129
 546  1234.398
 547  1330.995
 548  1353.465
 549  1498.799
 550  1379.512
 551  1294.863
 552  1253.164
 553  1182.898
 554  1005.971
 555  981.79
 556  1000.127
 557  1114.042
 558  1240.258
 559  1408.188
 560  1392.347
 561  1249.843
 562  1300.407
 563  1197.62
 564  1085.159
 565  953.3751
 566  1073.553
 567  1142.893
 568  1191.636
 569  1109.005
 570  1117.951
 571  1058.703
 572  1116.81
 573  1256.45
 574  1405.367
 575  1421.975
 576  1351.256
 577  1361.948
 578  1305.777
 579  1250.628
 580  1309.119
 581  1468.018
 582  1481.7
 583  1254.735
 584  1149.104
 585  1204.998
 586  1263.97
 587  1219.498
 588  1130.29
 589  1027.634
 590  904.3774
 591  900.0283
 592  1019.455
 593  1058.037
 594  1143.992
 595  1244.028
 596  1267.319
 597  1209.596
 598  1225.313
 599  1307.038
 600  1386.79
 601  1418.496
 602  1408.175
 603  1220.712
 604  1098.278
 605  1139.83
 606  1135.193
 607  1029.443
 608  1139.405
 609  1322.339
 610  1423.988
 611  1227.349
 612  1069.153
 613  1171.105
 614  1377.645
 615  1520.27
 616  1538.327
 617  1602.098
 618  1545.312
 619  1505.122
 620  1368.977
 621  1124.425
 622  885.1133
 623  883.9909
 624  1068.299
 625  997.651
 626  930.3917
 627  1035.24
 628  1192.489
 629  1061.807
 630  1034.402
 631  1153.929
 632  1386.801
 633  1450.567
 634  1480.259
 635  1318.526
 636  1152.887
 637  1053.875
 638  1102.814
 639  1135.694
 640  1188.356
 641  1393.003
 642  1414.603
 643  1436.03
 644  1339.22
 645  1390.784
 646  1292.051
 647  1188.565
 648  1138.176
 649  1210.373
 650  1358.181
 651  1435.613
 652  1422.402
 653  1457.163
 654  1298.325
 655  1275.242
 656  1495.915
 657  1655.895
 658  1557.546
 659  1340.986
 660  1241.447
 661  1137.713
 662  1086.956
 663  1205.23
 664  1252.918
 665  1239.371
 666  1183.409
 667  1201.302
 668  1132.563
 669  1215.054
 670  1272.003
 671  1205.089
 672  1052.065
 673  1159.022
 674  1385.329
 675  1488.624
 676  1395.809
 677  1301.699
 678  1323.7
 679  1217.202
 680  1110.427
 681  1140.229
 682  1271.327
 683  1292.321
 684  1352.277
 685  1335.498
 686  1235.85
 687  1041.433
 688  1103.63
 689  1135.132
 690  1188.296
 691  1319.846
 692  1510.539
 693  1408.084
 694  1138.38
 695  1118.746
 696  1176.496
 697  1055.872
 698  1090.355
 699  1171.313
 700  1204.769
 701  1069.682
 702  1012.155
 703  1116.64
 704  1146.151
 705  1152.564
 706  1236.627
 707  1261.017
 708  1267.411
 709  1200.783
 710  1321.354
 711  1325.787
 712  1135.942
 713  1079.596
 714  1180.674
 715  1471.636
 716  1436.076
 717  1426.26
 718  1269.899
 719  1071.86
 720  998.2672
 721  1062.11
 722  1098.729
 723  1139.215
 724  1440.902
 725  1613.463
 726  1475.215
 727  1209.303
 728  1317.633
 729  1273.69
 730  1266.725
 731  1242.388
 732  1364.642
 733  1394.071
 734  1381.31
 735  1438.924
 736  1320.406
 737  1133.592
 738  1228.908
 739  1351.502
 740  1329.952
 741  1171.262
 742  1320.488
 743  1685.044
 744  1655.969
 745  1512.556
 746  1568.848
 747  1666.673
 748  1605.223
 749  1534.511
 750  1580.904
 751  1587.85
 752  1540.95
 753  1652.517
 754  1576.8
 755  1444.987
 756  1405.981
 757  1611.403
 758  1683.448
 759  1585.873
 760  1613.758
 761  1666.84
 762  1699.059
 763  1530.217
 764  1492.188
 765  1470.645
 766  1501.985
 767  1436.008
 768  1356.599
 769  1213.296
 770  1153.485
 771  1219.759
 772  1200.168
 773  1291.44
 774  1193.607
 775  1221.602
 776  1116.334
 777  1169.048
 778  1212.968
 779  1455.179
 780  1562.069
 781  1522.585
 782  1436.408
 783  1513.847
 784  1515.36
 785  1323.297
 786  1206.419
 787  1177.805
 788  1159.164
 789  1139.711
 790  1168.239
 791  1145.415
 792  1265.874
 793  1385.355
 794  1395.211
 795  1192.567
 796  1175.512
 797  1264.077
 798  1377.874
 799  1336.049
 800  1334.293
 801  1327.698
 802  1217.971
 803  1192.474
 804  1211.629
 805  1211.977
 806  1283.933
 807  1404.793
 808  1465.89
 809  1345.462
 810  1070.539
 811  1100.608
 812  1248.258
 813  1237.458
 814  1269.01
 815  1319.657
 816  1424.76
 817  1461.871
 818  1465.108
 819  1481.947
 820  1274.521
 821  1251.408
 822  1344.379
 823  1311.925
 824  1161.057
 825  1069.708
 826  1160.539
 827  1041.885
 828  1008.505
 829  1009.485
 830  1169.168
 831  1331.75
 832  1513.445
 833  1561.67
 834  1333.093
 835  1168.276
 836  1263.881
 837  1464.984
 838  1409.21
 839  1304.447
 840  1266.568
 841  1413.225
 842  1379.002
 843  1405.276
 844  1463.731
 845  1439.619
 846  1400.587
 847  1356.014
 848  1420.905
 849  1319.318
 850  1243.261
 851  1345.617
 852  1334.948
 853  1223.146
 854  1106.594
 855  1156.635
 856  1236.879
 857  1294.378
 858  1457.095
 859  1531.56
 860  1492.874
 861  1460.132
 862  1391.258
 863  1314.308
 864  1298.658
 865  1286.423
 866  1328.921
 867  1228.604
 868  1191.35
 869  1182.284
 870  1225.042
 871  1382.535
 872  1588.249
 873  1769.054
 874  1735.12
 875  1590.538
 876  1599.595
 877  1480.513
 878  1314.197
 879  1160.296
 880  1333.129
 881  1380.132
 882  1266.584
 883  1180.18
 884  1225.685
 885  1123.333
 886  1156.446
 887  1280.462
 888  1316.041
 889  1263.366
 890  1349.629
 891  1545.632
 892  1413.402
 893  1248.036
 894  1309.135
 895  1448
 896  1473.983
 897  1443.975
 898  1484.112
 899  1297.246
 900  1062.206
 901  958.0192
 902  894.5315
 903  863.0549
 904  983.5344
 905  1095.925
 906  1181.808
 907  1046.693
 908  1128.352
 909  1213.521
 910  1312.091
 911  1206.805
 912  1411.33
 913  1644.649
 914  1710.89
 915  1576.064
 916  1433.6
 917  1261.692
 918  1025.478
 919  961.3854
 920  949.6028
 921  950.6115
 922  935.5883
 923  1162.006
 924  1333.431
 925  1216.809
 926  1079.777
 927  1115.375
 928  1231.345
 929  1275.962
 930  1245.816
 931  1294.346
 932  1324.523
 933  1254.987
 934  1214.333
 935  1090.908
 936  1138.855
 937  1159.658
 938  1281.863
 939  1343.69
 940  1333.832
 941  1456.074
 942  1422.958
 943  1360.625
 944  1222.333
 945  1327.262
 946  1339.453
 947  1209.754
 948  1140.47
 949  1203.887
 950  1285.204
 951  1261.376
 952  1289.89
 953  1287.27
 954  1122.715
 955  1151.532
 956  1176.565
 957  1155.155
 958  1062.608
 959  1083.726
 960  1115.342
 961  1168.719
 962  1384.861
 963  1581.622
 964  1467.451
 965  1337.509
 966  1255.218
 967  1161.284
 968  989.0444
 969  975.3793
 970  1163.435
 971  1286.111
 972  1287.35
 973  1221.671
 974  1292.602
 975  1331.712
 976  1227.301
 977  1193.665
 978  1282.547
 979  1272.756
 980  1234.187
 981  1189.343
 982  1162.277
 983  1133.502
 984  1255.732
 985  1352.445
 986  1233.438
 987  1226.089
 988  1226.202
 989  1259.493
 990  1115.364
 991  1163.358
 992  1150.514
 993  1004.501
 994  940.5708
 995  1010.776
 996  1194.582
 997  1227.627
 998  1322.109
 999  1363.627
1000  1233.203
1001  1113.848
1002  1042.128
1003  1133.838
1004  1236.365
1005  1369.81
1006  1420.898
1007  1370.687
1008  1221.876
1009  1299.325
1010  1399.055
1011  1510.084
1012  1511.293
1013  1433.341
1014  1404.228
1015  1232.6
1016  1240.508
1017  1215.613
1018  1282.284
1019  1197.219
1020  1324.367
1021  1321.687
1022  1285.085
1023  1344.144
