# Input file       =  1179632897.101483_cleaned.dat
# Candidate        =  PSR_0332+5434
# Telescope        =  AR
# Epoch_topo       =  57897.158751174575
# Epoch_bary       =  N/A
# T_sample         =  0.002
# Data Folded      =  7208960
# Data Avg         =  0.180922722267199
# Data StdDev      =  4.19578736629965 
# Profile Bins     =  1024
# Profile Avg      =  1273.70961618933 
# Profile StdDev   =  352.046313185249 
# Reduced chi-sqr  =  0.627
# Prob(Noise)      <  1   (~0.0 sigma)
# P_topo (ms)      =  714.524301014128  +/- 0.000155
# P'_topo (s/s)    =  -0                +/- 8.35e-11
# P''_topo (s/s^2) =  0                 +/- 3.75e-14
# P_bary (ms)      =  N/A
# P'_bary (s/s)    =  N/A
# P''_bary (s/s^2) =  N/A
# P_orb (s)        =  N/A
# asin(i)/c (s)    =  N/A
# eccentricity     =  N/A
# w (rad)          =  N/A
# T_peri           =  N/A
######################################################
   0  1264.291
   1  1253.472
   2  1200.84
   3  1147.501
   4  1199.759
   5  1236.279
   6  1185.976
   7  1186.732
   8  1226.388
   9  1357.973
  10  1280.808
  11  1207.167
  12  1052.953
  13  1093.613
  14  1075.481
  15  1110.579
  16  1052.265
  17  1094.071
  18  1129.756
  19  1169.958
  20  1207.216
  21  1245.393
  22  1206.152
  23  1212.035
  24  1213.633
  25  1197.355
  26  1065.645
  27  827.5485
  28  965.4379
  29  1118.383
  30  1196.545
  31  996.1246
  32  946.5541
  33  1090.978
  34  1222.03
  35  1256.079
  36  1207.697
  37  1215.058
  38  1094.297
  39  1069.423
  40  1097.418
  41  1251.35
  42  1284.574
  43  1225.455
  44  1203.483
  45  1201.372
  46  1202.216
  47  1210.476
  48  1274.202
  49  1420.991
  50  1486.511
  51  1350.262
  52  1265.488
  53  1093.564
  54  1122.214
  55  1074.64
  56  1237.968
  57  1140.511
  58  1109.876
  59  1063.769
  60  1169.603
  61  1188.819
  62  1314.694
  63  1338.933
  64  1514.05
  65  1563.049
  66  1647.05
  67  1520.278
  68  1453.403
  69  1365.691
  70  1318.882
  71  1194.797
  72  1100.044
  73  1076.147
  74  1096.707
  75  1077.401
  76  1201.336
  77  1205.232
  78  1303.629
  79  1214.702
  80  1254.55
  81  1346.582
  82  1456.409
  83  1528.085
  84  1503.835
  85  1422.205
  86  1391.952
  87  1308.482
  88  1270.646
  89  1236.372
  90  1237.422
  91  1290.905
  92  1237.26
  93  1178.051
  94  1177.572
  95  1154.891
  96  1234.917
  97  1317.484
  98  1302.499
  99  1291.47
 100  1314.198
 101  1405.625
 102  1332.749
 103  1294.907
 104  1234.597
 105  1236.403
 106  1191.382
 107  1171.663
 108  1168.631
 109  1232.319
 110  1276.041
 111  1329.059
 112  1218.518
 113  1128.162
 114  1032.102
 115  1039.718
 116  1045.784
 117  1126.158
 118  1151.761
 119  1142.929
 120  1186.186
 121  1199.396
 122  1130.954
 123  1045.134
 124  1099.338
 125  1224.541
 126  1355.897
 127  1261.646
 128  1159.983
 129  1118.046
 130  1307.802
 131  1189.907
 132  1142.967
 133  1137.331
 134  1285.436
 135  1244.004
 136  1216.208
 137  1163.436
 138  1205.93
 139  1205.887
 140  1213.574
 141  1115.883
 142  1130.947
 143  1157.549
 144  1264.91
 145  1215.522
 146  1119.225
 147  1126.365
 148  1289.604
 149  1426.936
 150  1510.363
 151  1394.868
 152  1268.281
 153  1078.932
 154  1182.881
 155  1311.238
 156  1383.796
 157  1323.375
 158  1311.495
 159  1264.854
 160  1172.962
 161  1226.054
 162  1383.21
 163  1399.054
 164  1339.381
 165  1355.768
 166  1469.624
 167  1446.287
 168  1443.404
 169  1453.764
 170  1549.943
 171  1596.919
 172  1610.685
 173  1356.686
 174  1286.294
 175  1262.419
 176  1380.83
 177  1232.857
 178  1065.526
 179  1133.974
 180  1273.5
 181  1386.918
 182  1238.56
 183  1122.103
 184  1160.446
 185  1270.067
 186  1404.86
 187  1557.412
 188  1659.19
 189  1741.95
 190  1616.73
 191  1643.85
 192  1533.333
 193  1456.898
 194  1334.1
 195  1356.996
 196  1327.177
 197  1282.455
 198  1422.298
 199  1599.82
 200  1568.369
 201  1360.415
 202  1322.153
 203  1452.775
 204  1563.285
 205  1510.164
 206  1400.191
 207  1342.049
 208  1480.181
 209  1436.997
 210  1409.846
 211  1349.312
 212  1317.363
 213  1236.546
 214  1160.282
 215  1116.21
 216  1174.582
 217  1241.359
 218  1324.827
 219  1298.304
 220  1324.264
 221  1230.53
 222  1279.406
 223  1402.504
 224  1331.348
 225  1272.725
 226  1168.933
 227  1250.064
 228  1246.359
 229  1247.424
 230  1311.269
 231  1423.699
 232  1562.821
 233  1536.005
 234  1388.623
 235  1324.205
 236  1344.6
 237  1491.207
 238  1420.161
 239  1328.603
 240  1183.529
 241  1301.283
 242  1342.872
 243  1444.293
 244  1347.314
 245  1307.182
 246  1231.783
 247  1287.665
 248  1224.855
 249  1339.988
 250  1374.88
 251  1455.423
 252  1397.953
 253  1349.769
 254  1297.129
 255  1279.939
 256  1364.953
 257  1407.894
 258  1278.609
 259  1217.134
 260  1150.474
 261  1124.435
 262  1103.456
 263  1287.811
 264  1418.469
 265  1282.669
 266  1228.407
 267  1432.602
 268  1606.467
 269  1512.911
 270  1405.028
 271  1433.885
 272  1374.961
 273  1352.508
 274  1346.297
 275  1370.294
 276  1354.526
 277  1270.039
 278  1192.894
 279  1115.388
 280  1190.624
 281  1373.932
 282  1576.613
 283  1552.5
 284  1433.326
 285  1375.016
 286  1350.374
 287  1344.868
 288  1295.555
 289  1320.742
 290  1232.263
 291  1311.893
 292  1373.048
 293  1403.142
 294  1255.05
 295  1190.941
 296  1245.194
 297  1261.107
 298  1223.921
 299  1319.9
 300  1379.736
 301  1296.047
 302  1132.659
 303  1215.012
 304  1315.896
 305  1329.17
 306  1382.617
 307  1408.491
 308  1206.536
 309  996.709
 310  994.7816
 311  1121.887
 312  1145.398
 313  1086.132
 314  1202.914
 315  1247.561
 316  1296.95
 317  1322.672
 318  1339.42
 319  1241.622
 320  1180.636
 321  1187.478
 322  1395.236
 323  1414.386
 324  1498.804
 325  1464.211
 326  1242.901
 327  1039.574
 328  1128.637
 329  1308.222
 330  1292.142
 331  1339.419
 332  1422.656
 333  1311.91
 334  1198.959
 335  1236.981
 336  1439.273
 337  1324.484
 338  1131.234
 339  1111.919
 340  1120.372
 341  1148.688
 342  1095.444
 343  1119.181
 344  1128.31
 345  1137.942
 346  1118.709
 347  1096.996
 348  1044.784
 349  1140.506
 350  1185.016
 351  1149.32
 352  906.1259
 353  810.6283
 354  798.8846
 355  986.0459
 356  1030.922
 357  1141.163
 358  1085.2
 359  1085.05
 360  1161.764
 361  1095.821
 362  1016.378
 363  957.392
 364  1235.303
 365  1372.918
 366  1359.897
 367  1161.983
 368  1142.863
 369  1056.92
 370  1064.019
 371  1087.968
 372  1156.325
 373  1089.31
 374  1067.449
 375  1001.206
 376  1047.69
 377  1009.554
 378  1127.667
 379  1247.599
 380  1190.798
 381  1229.946
 382  1277.708
 383  1332.813
 384  1315.913
 385  1196.967
 386  1113.951
 387  1009.657
 388  1036.059
 389  1189.454
 390  1172.212
 391  1101.995
 392  1029.156
 393  1035.501
 394  1025.103
 395  975.6373
 396  1180.616
 397  1235.988
 398  1313.215
 399  1296.551
 400  1349.087
 401  1323.866
 402  1157.564
 403  1117.386
 404  1064.012
 405  1214.117
 406  1275.013
 407  1372.511
 408  1319.132
 409  1325.504
 410  1298.334
 411  1297.162
 412  1258.732
 413  1170.399
 414  1195.857
 415  1317.445
 416  1302.779
 417  1216.337
 418  1049.979
 419  1095.732
 420  1146.647
 421  1215.311
 422  1268.648
 423  1316.486
 424  1394.34
 425  1449.859
 426  1452.459
 427  1247.207
 428  1198.738
 429  1417.952
 430  1589.066
 431  1482.029
 432  1240.109
 433  1240.991
 434  1239.359
 435  1291.352
 436  1241.179
 437  1261.033
 438  1177.642
 439  1221.136
 440  1223.91
 441  1268.063
 442  1292.289
 443  1272.915
 444  1292.577
 445  1332.42
 446  1333.239
 447  1416.842
 448  1437.529
 449  1671.901
 450  1713.313
 451  1574.653
 452  1197.801
 453  1119.842
 454  1204.727
 455  1315.727
 456  1294.546
 457  1287.946
 458  1400.132
 459  1438.028
 460  1364.781
 461  1357.339
 462  1455.327
 463  1631.079
 464  1729.842
 465  1690.408
 466  1561.547
 467  1344.493
 468  1190.943
 469  1216.09
 470  1341.946
 471  1299.572
 472  1226.589
 473  1184.703
 474  1236.224
 475  1209.24
 476  1120.2
 477  1111.687
 478  1133.406
 479  1164.875
 480  1228.999
 481  1200.833
 482  1089.315
 483  1024.995
 484  1079.153
 485  1168.854
 486  1171.033
 487  1188.056
 488  1253.173
 489  1283.833
 490  1324.949
 491  1389.365
 492  1287.199
 493  1113.368
 494  1035.228
 495  1012.203
 496  1069.428
 497  1215.212
 498  1404.145
 499  1520.889
 500  1472.203
 501  1316.115
 502  1108.92
 503  1035.262
 504  1069.472
 505  1202.468
 506  1153.218
 507  1267.246
 508  1305.039
 509  1237.334
 510  1155.839
 511  1195.663
 512  1345.326
 513  1374.2
 514  1267.969
 515  1153.952
 516  1044.067
 517  1034.307
 518  1081.356
 519  1144.471
 520  1185.12
 521  1164.809
 522  1149.321
 523  1138.157
 524  1113.168
 525  1210.006
 526  1189.109
 527  1295.425
 528  1352.211
 529  1362.797
 530  1250.907
 531  1240.498
 532  1268.057
 533  1398.229
 534  1333.764
 535  1302.09
 536  1158.559
 537  1041.445
 538  947.8972
 539  917.9307
 540  996.5206
 541  999.7802
 542  1137.873
 543  1101.342
 544  1081.5
 545  1183.192
 546  1412.481
 547  1579.529
 548  1712.703
 549  1665.501
 550  1508.901
 551  1261.978
 552  1263.772
 553  1382.584
 554  1446.085
 555  1423.847
 556  1265.576
 557  1145.649
 558  1107.195
 559  1211.234
 560  1365.294
 561  1327.768
 562  1370.908
 563  1466.886
 564  1483.43
 565  1347.729
 566  1208.895
 567  1161.785
 568  1124.349
 569  1178.804
 570  1285.9
 571  1284.583
 572  1232.35
 573  1186.606
 574  1279.048
 575  1308.57
 576  1291.532
 577  1244.309
 578  1230.406
 579  1219.338
 580  1190.361
 581  1285.545
 582  1312.477
 583  1337.549
 584  1178.571
 585  1100.802
 586  997.5366
 587  985.79
 588  1092.198
 589  1136.757
 590  1203.227
 591  1143.769
 592  1292.617
 593  1344.871
 594  1438.364
 595  1438.683
 596  1589.623
 597  1492.42
 598  1317.073
 599  1280.163
 600  1275.982
 601  1185.635
 602  1130.476
 603  1148.585
 604  1177.754
 605  1150.464
 606  1112.653
 607  1143.896
 608  1062.614
 609  1162.215
 610  1149.195
 611  1241.083
 612  1252.874
 613  1365.341
 614  1402.209
 615  1315.092
 616  1253.893
 617  1241.15
 618  1204.062
 619  1036.299
 620  1042.418
 621  1119.964
 622  1178.584
 623  1283.118
 624  1392.433
 625  1275.019
 626  1088.381
 627  1183.429
 628  1267.975
 629  1380.861
 630  1376.396
 631  1510.39
 632  1511.419
 633  1348.823
 634  1206.646
 635  1193.895
 636  1304.145
 637  1306.316
 638  1291.671
 639  1173.507
 640  1077.414
 641  1183.953
 642  1303.33
 643  1277.646
 644  1244.807
 645  1189.462
 646  1317.629
 647  1359.143
 648  1467.683
 649  1439.617
 650  1388.639
 651  1495.02
 652  1488.927
 653  1483.146
 654  1354.755
 655  1429.147
 656  1543.689
 657  1550.489
 658  1375.895
 659  1259.524
 660  1431.53
 661  1657.921
 662  1549.902
 663  1403.004
 664  1206.497
 665  1133.344
 666  1148.87
 667  1250.697
 668  1317.761
 669  1176.956
 670  1204.878
 671  1252.302
 672  1264.921
 673  1210.109
 674  1208.703
 675  1262.557
 676  1263.115
 677  1247.152
 678  1297.86
 679  1173.042
 680  1159.914
 681  1169.236
 682  1256.5
 683  1198.024
 684  1106.069
 685  1235.227
 686  1300.19
 687  1312.105
 688  1365.622
 689  1370.231
 690  1337.71
 691  1219.196
 692  1324.787
 693  1455.263
 694  1527.718
 695  1523.67
 696  1576.169
 697  1446.111
 698  1463.407
 699  1425.453
 700  1508.178
 701  1511.356
 702  1550.387
 703  1561.921
 704  1533.623
 705  1452.241
 706  1329.764
 707  1230.198
 708  1229.923
 709  1311.449
 710  1303.763
 711  1270.552
 712  1155.044
 713  1192.963
 714  1210.886
 715  1230.828
 716  1130.826
 717  1102.961
 718  1127.784
 719  1273.277
 720  1236.938
 721  1161.974
 722  1058.754
 723  1108.691
 724  1049.173
 725  1037.406
 726  1051.223
 727  1165.271
 728  1310.364
 729  1442.093
 730  1304.108
 731  1174.101
 732  1211.66
 733  1225.231
 734  1138.56
 735  1070.321
 736  1084.824
 737  1215.195
 738  1176.409
 739  1144.27
 740  1158.078
 741  1213.575
 742  1366.19
 743  1483.628
 744  1602.81
 745  1640.663
 746  1646.418
 747  1673.755
 748  1527.002
 749  1399.709
 750  1424.74
 751  1527.254
 752  1565.401
 753  1597.842
 754  1635.008
 755  1691.886
 756  1766.323
 757  1886.57
 758  1982
 759  1940.697
 760  1935.335
 761  1919.041
 762  1897.667
 763  1639.898
 764  1537.531
 765  1430.853
 766  1356.012
 767  1234.619
 768  1321.283
 769  1355.027
 770  1284.818
 771  1201.715
 772  1234.906
 773  1319.283
 774  1388.564
 775  1337.626
 776  1270.25
 777  1268.187
 778  1484.413
 779  1660.702
 780  1715.472
 781  1642.591
 782  1535.932
 783  1466.951
 784  1384.76
 785  1365.495
 786  1347.914
 787  1445.016
 788  1462.175
 789  1453.59
 790  1486.324
 791  1500.718
 792  1441.887
 793  1456.9
 794  1520.573
 795  1448.848
 796  1244.6
 797  1260.647
 798  1284.241
 799  1392.406
 800  1406.762
 801  1452.387
 802  1307.724
 803  1156.514
 804  1155.26
 805  1233.717
 806  1259.406
 807  1282.905
 808  1313.49
 809  1377.924
 810  1266.53
 811  1306.25
 812  1381.417
 813  1365.458
 814  1324.937
 815  1322.408
 816  1407.82
 817  1301.528
 818  1245.46
 819  1206.336
 820  1218.868
 821  1201.119
 822  1272.121
 823  1366.71
 824  1263.344
 825  1229.963
 826  1293.251
 827  1517.38
 828  1466.513
 829  1448.605
 830  1397.877
 831  1337.419
 832  1335.146
 833  1432.643
 834  1482.172
 835  1385.525
 836  1307.364
 837  1235.199
 838  1102.984
 839  1080.954
 840  1148.474
 841  1252.424
 842  1154.224
 843  1092.796
 844  1047.518
 845  1053.423
 846  978.2427
 847  1050.412
 848  1044.572
 849  1156.218
 850  1149.901
 851  1322.676
 852  1417.801
 853  1386.463
 854  1216.697
 855  1198.106
 856  1111.89
 857  1114.105
 858  1136.749
 859  1184.835
 860  1161.195
 861  1088.112
 862  1268.988
 863  1206.982
 864  1133.111
 865  1069.016
 866  1167.91
 867  1285.013
 868  1286.766
 869  1289.899
 870  1448.4
 871  1578.404
 872  1560.836
 873  1384.593
 874  1259.661
 875  1280.273
 876  1176.042
 877  1184.856
 878  1172.371
 879  1275.018
 880  1291.171
 881  1288.027
 882  1225.685
 883  1250.426
 884  1139.743
 885  1139.897
 886  1147.83
 887  1160.67
 888  1183.818
 889  1174.414
 890  1251.869
 891  1259.805
 892  1348.188
 893  1359.2
 894  1438.659
 895  1387.387
 896  1348.802
 897  1187.402
 898  1132.026
 899  1182.591
 900  1227.264
 901  1196.33
 902  1085.1
 903  1078.502
 904  1068.703
 905  1095.034
 906  1141.536
 907  1202.446
 908  1209.224
 909  1127.411
 910  1184.943
 911  1271.23
 912  1462.696
 913  1466.175
 914  1372.246
 915  1255.618
 916  1193.687
 917  1182.947
 918  1248.436
 919  1216.029
 920  1252.511
 921  1263.391
 922  1245.319
 923  1335.654
 924  1279.428
 925  1273.359
 926  1299.67
 927  1420.331
 928  1461.802
 929  1312.084
 930  1333.929
 931  1279.366
 932  1200.409
 933  1084.145
 934  1153.432
 935  1209.438
 936  1143.698
 937  1033.095
 938  1003.688
 939  1054.1
 940  1154.095
 941  1266.141
 942  1392.947
 943  1428.999
 944  1359.505
 945  1285.474
 946  1172.086
 947  1149.096
 948  1112.053
 949  1146.443
 950  1139.538
 951  1106.255
 952  1197.146
 953  1229.534
 954  1185.717
 955  1169.452
 956  1192.546
 957  1233.042
 958  1123.143
 959  1099.754
 960  1190.487
 961  1338.557
 962  1309.95
 963  1299.266
 964  1359.244
 965  1387.197
 966  1396.496
 967  1341.924
 968  1382.305
 969  1257.912
 970  1192.459
 971  1198.907
 972  1190.941
 973  1250.864
 974  1219.607
 975  1314.54
 976  1263.22
 977  1334.68
 978  1386.989
 979  1334.37
 980  1176.94
 981  1172.365
 982  1267.391
 983  1244.417
 984  1174.768
 985  1208.595
 986  1244.474
 987  1222.863
 988  1270.676
 989  1272.223
 990  1282.744
 991  1323.331
 992  1362.969
 993  1442.112
 994  1369.078
 995  1368.109
 996  1334.826
 997  1337.706
 998  1272.964
 999  1182.553
1000  1159.559
1001  1144.452
1002  1162.208
1003  1118.437
1004  1187.414
1005  1238.646
1006  1354.762
1007  1188.397
1008  1163.786
1009  1156.563
1010  1309.63
1011  1260.836
1012  1240.218
1013  1216.784
1014  1363.914
1015  1390.26
1016  1435.023
1017  1402.998
1018  1457.45
1019  1441.974
1020  1380.369
1021  1299.49
1022  1282.481
1023  1256.64
