# Input file       =  1179662434.104653_cleaned.dat
# Candidate        =  PSR_0332+5434
# Telescope        =  AR
# Epoch_topo       =  57897.500614637189
# Epoch_bary       =  N/A
# T_sample         =  0.002
# Data Folded      =  7340032
# Data Avg         =  0.11418685690504 
# Data StdDev      =  3.46922995803345 
# Profile Bins     =  512
# Profile Avg      =  1636.93515428942 
# Profile StdDev   =  415.381436764586 
# Reduced chi-sqr  =  1.075
# Prob(Noise)      <  0.117   (~1.2 sigma)
# P_topo (ms)      =  714.524308062966  +/- 0.000347
# P'_topo (s/s)    =  -0                +/- 1.83e-10
# P''_topo (s/s^2) =  0                 +/- 8.08e-14
# P_bary (ms)      =  N/A
# P'_bary (s/s)    =  N/A
# P''_bary (s/s^2) =  N/A
# P_orb (s)        =  N/A
# asin(i)/c (s)    =  N/A
# eccentricity     =  N/A
# w (rad)          =  N/A
# T_peri           =  N/A
######################################################
   0  1880.973
   1  1653.291
   2  1729.014
   3  1930.042
   4  1915.118
   5  1872.549
   6  2205.631
   7  2270.339
   8  2060.71
   9  1711.362
  10  1745.775
  11  2065.33
  12  2186.242
  13  1908.586
  14  1947.133
  15  1677.383
  16  1801.842
  17  2190.073
  18  1892.281
  19  1690.281
  20  1813.429
  21  1977.031
  22  1660.452
  23  1654.48
  24  1697.241
  25  1688.47
  26  1696.641
  27  2204.162
  28  1897.141
  29  1654.711
  30  1720.171
  31  1543.78
  32  1375.454
  33  2006.118
  34  1885.32
  35  1742.589
  36  1987.269
  37  1544.262
  38  1606.233
  39  1921.202
  40  1116.831
  41  984.4751
  42  1302.031
  43  1626.08
  44  1373.539
  45  1193.49
  46  1352.955
  47  1544.571
  48  1528.04
  49  1709.519
  50  1881.76
  51  1568.947
  52  1706.04
  53  1530.739
  54  1349.466
  55  1634.563
  56  1627.951
  57  1534.393
  58  1750.633
  59  2146.772
  60  2414.323
  61  1930.258
  62  1501.525
  63  1528.76
  64  1759.547
  65  1724.595
  66  1794.472
  67  1948.65
  68  1850.573
  69  1712.527
  70  1816.78
  71  1791.627
  72  1773.794
  73  1574.55
  74  1705.106
  75  1714.472
  76  1987.936
  77  2002.249
  78  1939.026
  79  1933.975
  80  1977.792
  81  1764.08
  82  1447.162
  83  1639.986
  84  1775.258
  85  1355.715
  86  1316.983
  87  1703.729
  88  2102.055
  89  1651.161
  90  1436.36
  91  1848.963
  92  1297.366
  93  1197.534
  94  1593.496
  95  1847.356
  96  1704.495
  97  1584.787
  98  1580.841
  99  1846.894
 100  1782.344
 101  1930.041
 102  1873.574
 103  1373.395
 104  1261.683
 105  1538.051
 106  1648.391
 107  1852.733
 108  1931.707
 109  2054.103
 110  2007.414
 111  1881.381
 112  1839.775
 113  2128.886
 114  1668.972
 115  1459.931
 116  1120.694
 117  1388.944
 118  1861.695
 119  1656.552
 120  1363.06
 121  1407.43
 122  1399.988
 123  1463.271
 124  1335.835
 125  1186.756
 126  1665.18
 127  1922.954
 128  1359.875
 129  1208.624
 130  1081.051
 131  1385.072
 132  1804.351
 133  1622.72
 134  1282.356
 135  1358.905
 136  1565.675
 137  1505.302
 138  1681.791
 139  1701.011
 140  1449.168
 141  1694.586
 142  1646.645
 143  1553.939
 144  1661.909
 145  1591.752
 146  1640.083
 147  1470.678
 148  1371.92
 149  1532.684
 150  1425.672
 151  1526.61
 152  1524.774
 153  1937.655
 154  1839.078
 155  1635.58
 156  1432.053
 157  1801.304
 158  1376.566
 159  1278.071
 160  1245.002
 161  1294.073
 162  1146.63
 163  1269.593
 164  1499.491
 165  1641.266
 166  1129.832
 167  1511.622
 168  1783.211
 169  1779.13
 170  1738.726
 171  1757.714
 172  1913.011
 173  1375.202
 174  1576.343
 175  1576.454
 176  1270.19
 177  1568.482
 178  1488.304
 179  1401.383
 180  1186.164
 181  1633.387
 182  1836.743
 183  1841.795
 184  1467.207
 185  1280.259
 186  1604.998
 187  1904.366
 188  2242.591
 189  1907.805
 190  1703.78
 191  1711.441
 192  1309.367
 193  973.1206
 194  1307.411
 195  1729.762
 196  1762.807
 197  1588.189
 198  1261.797
 199  995.5428
 200  869.6874
 201  1821.172
 202  1595.622
 203  1183.225
 204  1543.015
 205  1593.187
 206  1533.027
 207  1271.466
 208  1097.41
 209  822.9807
 210  1200.864
 211  1633.156
 212  1983.368
 213  1662.178
 214  1529.453
 215  1243.218
 216  1270.054
 217  1272.847
 218  1848.973
 219  1915.988
 220  1564.38
 221  1299.103
 222  1233.823
 223  1431.096
 224  1387.503
 225  1774.749
 226  1425.214
 227  1121.275
 228  1254.891
 229  1272.155
 230  1614.828
 231  1691.221
 232  1456.386
 233  1505.802
 234  1388.571
 235  1193.07
 236  1357.227
 237  1755.178
 238  2009.835
 239  1531.063
 240  1467.127
 241  1542.25
 242  1555.755
 243  1904.719
 244  2025.142
 245  1954.955
 246  1527.011
 247  1516.207
 248  1772.535
 249  1618.592
 250  1759.744
 251  1643.815
 252  1976.95
 253  1799.415
 254  1598.98
 255  1478.768
 256  1437.217
 257  1418.444
 258  1715.528
 259  1832.948
 260  1788.086
 261  2033.356
 262  2167.105
 263  1801.367
 264  1483.251
 265  1711.321
 266  1659.723
 267  1467.763
 268  1243.996
 269  1348.552
 270  1495.871
 271  1376.345
 272  1447.694
 273  1477.765
 274  1623.847
 275  1492.263
 276  1362.813
 277  1071.982
 278  1384.467
 279  1314.221
 280  1411.077
 281  1332.15
 282  1392.168
 283  1492.642
 284  1695.548
 285  1482.5
 286  1251.022
 287  1029.254
 288  1176.664
 289  1423.146
 290  1635.884
 291  1556.011
 292  1385.874
 293  729.4609
 294  526.8652
 295  1150.155
 296  1163.397
 297  1333.426
 298  1349.879
 299  1462.04
 300  1130.131
 301  1128.219
 302  1312.53
 303  833.5314
 304  978.5094
 305  1273.797
 306  1362.698
 307  1768.763
 308  2232.106
 309  2102.977
 310  1585.445
 311  1220.915
 312  1295.088
 313  1563.069
 314  1732.514
 315  2031.999
 316  2054.175
 317  1675.336
 318  1626.649
 319  1752.49
 320  1545.894
 321  1749.28
 322  2230.161
 323  1962.36
 324  2087.357
 325  1942.037
 326  2032.905
 327  2290.401
 328  2828.232
 329  3283.037
 330  2944.383
 331  2296.163
 332  2073.052
 333  1805.819
 334  2000.336
 335  2046.617
 336  1954.09
 337  1561.614
 338  1826.88
 339  1779.048
 340  2277.77
 341  2159.013
 342  2096.262
 343  2043.539
 344  1779.151
 345  1736.46
 346  1752.99
 347  2031.182
 348  1963.21
 349  1653.24
 350  1851.061
 351  1894.358
 352  1637.211
 353  1231.018
 354  1214.039
 355  1683.798
 356  2098.729
 357  1878.086
 358  1718.175
 359  1737.149
 360  1350.61
 361  1101.281
 362  916.5554
 363  1241.662
 364  1678.104
 365  1589.751
 366  1623.355
 367  1890.01
 368  1944.374
 369  1683.022
 370  1346.025
 371  1409.66
 372  1374.959
 373  1806.576
 374  1653.296
 375  1768.532
 376  1362.044
 377  1391.004
 378  1703.511
 379  1178.469
 380  1121.831
 381  1640.255
 382  1980.115
 383  1835.862
 384  1949.576
 385  1867.32
 386  1694.194
 387  1248.213
 388  919.481
 389  1436.298
 390  1492.088
 391  1310.594
 392  1421.758
 393  1532.853
 394  1698.091
 395  1341.169
 396  1331.799
 397  1472.864
 398  1219.424
 399  1132.781
 400  1572.926
 401  1644.424
 402  1764.436
 403  1953.346
 404  1956.587
 405  1578.947
 406  1442.794
 407  1595.214
 408  1725.737
 409  1793.334
 410  2005.792
 411  2135.628
 412  1866.034
 413  1863.419
 414  1862.638
 415  1788.411
 416  1498.856
 417  1292.508
 418  1181.343
 419  1133.255
 420  1318.174
 421  1686.839
 422  1802.96
 423  1547.889
 424  1811.718
 425  1625.434
 426  1800.112
 427  1896.034
 428  1786.53
 429  1711.718
 430  1807.255
 431  1817.59
 432  1686.899
 433  1330.908
 434  1427.093
 435  1382.545
 436  1626.413
 437  1764.719
 438  1526.253
 439  1416.66
 440  1504.983
 441  1732.865
 442  2118.694
 443  2113.857
 444  1695.805
 445  1588.129
 446  1505.053
 447  1819.749
 448  1704.003
 449  1837.272
 450  1830.741
 451  1329.414
 452  1318.535
 453  1497.742
 454  1635.726
 455  1593.176
 456  1822.134
 457  2049.742
 458  1807.332
 459  1342.336
 460  1571.797
 461  1118.729
 462  1518.972
 463  1800.239
 464  1549.267
 465  1580.175
 466  2137.047
 467  2273.758
 468  1847.497
 469  1575.207
 470  1663.148
 471  1676.282
 472  1393.74
 473  1848.693
 474  2049.548
 475  1842.039
 476  1587.601
 477  1917.227
 478  1642.344
 479  1839.342
 480  2111.249
 481  1528.11
 482  1458.001
 483  2279.806
 484  2043.092
 485  1616.105
 486  1650.543
 487  2259.824
 488  2298.919
 489  2014.218
 490  1884.008
 491  1443.104
 492  1378.386
 493  1707.842
 494  1628.257
 495  1527.468
 496  1647.054
 497  1603.799
 498  1799.005
 499  1600.509
 500  1651.157
 501  1697.109
 502  1562.241
 503  1733.925
 504  1455.389
 505  1502.476
 506  1674.2
 507  1794.773
 508  1889.946
 509  2368.396
 510  2077.161
 511  1767.631
