# Input file       =  1179288241.096729_cleaned.dat
# Candidate        =  PSR_0332+5434
# Telescope        =  AR
# Epoch_topo       =  57893.169677045473
# Epoch_bary       =  N/A
# T_sample         =  0.002
# Data Folded      =  7208960
# Data Avg         =  0.292589468097272
# Data StdDev      =  6.49964980382684 
# Profile Bins     =  256
# Profile Avg      =  8239.40759178816 
# Profile StdDev   =  1090.70243588176 
# Reduced chi-sqr  =  1.723
# Prob(Noise)      <  5.9e-12   (~6.8 sigma)
# P_topo (ms)      =  714.528230608875  +/- 3.31e-05
# P'_topo (s/s)    =  -0                +/- 1.78e-11
# P''_topo (s/s^2) =  0                 +/- 8e-15
# P_bary (ms)      =  N/A
# P'_bary (s/s)    =  N/A
# P''_bary (s/s^2) =  N/A
# P_orb (s)        =  N/A
# asin(i)/c (s)    =  N/A
# eccentricity     =  N/A
# w (rad)          =  N/A
# T_peri           =  N/A
######################################################
   0  8560.985
   1  9287.968
   2  7775.054
   3  7389.198
   4  8805.158
   5  9955.555
   6  8074.237
   7  8021.877
   8  8443.255
   9  8309.299
  10  7714.576
  11  7816.213
  12  9150.058
  13  10828.87
  14  8888.933
  15  7863.037
  16  7756.419
  17  8311.757
  18  8002.832
  19  7850.821
  20  8839.652
  21  10937.2
  22  9325.973
  23  7307.867
  24  8378.653
  25  9789.175
  26  9271.766
  27  7041.669
  28  8701.495
  29  11080.24
  30  10325.57
  31  8379.58
  32  7976.862
  33  7657.844
  34  7380.012
  35  6601.651
  36  7409.371
  37  8930.377
  38  10350.33
  39  8432.896
  40  7299.832
  41  8054.349
  42  9591.002
  43  6963.271
  44  6253.087
  45  7103.481
  46  10071.51
  47  7642.547
  48  6730.891
  49  7328.822
  50  7796.58
  51  7448.84
  52  7225.924
  53  8089.624
  54  9183.199
  55  9553.494
  56  7694.227
  57  7604.056
  58  8284.078
  59  8025.804
  60  5967.865
  61  8385.814
  62  10837.86
  63  9586.752
  64  7258.588
  65  7273.079
  66  7931.863
  67  7805.029
  68  6178.756
  69  7564.372
  70  9193.563
  71  9980.655
  72  8370.224
  73  7959.878
  74  8033.133
  75  8314.707
  76  6913.307
  77  6594.005
  78  8453.396
  79  10983.06
  80  8750.365
  81  6596.345
  82  6684.906
  83  8859.906
  84  8668.12
  85  7101.786
  86  7391.119
  87  10411.33
  88  8937.519
  89  7093.289
  90  7503.062
  91  8299.551
  92  7381.803
  93  7239.5
  94  8398.478
  95  9198.742
  96  9174.474
  97  8741.242
  98  8685.267
  99  8078.537
 100  9305.519
 101  6496.095
 102  7472.128
 103  8973.521
 104  10207.62
 105  7829.98
 106  7278.124
 107  8219.883
 108  7997.882
 109  6040.236
 110  6855.17
 111  8056.916
 112  9773.313
 113  7875.127
 114  6805.626
 115  7362.631
 116  8951.289
 117  7783.988
 118  6209.546
 119  8075.332
 120  11351.82
 121  10671.9
 122  7806.22
 123  7673.837
 124  8055.969
 125  8377.693
 126  6311.568
 127  6602.175
 128  8457.464
 129  9526.944
 130  7082.38
 131  6314.432
 132  6352.8
 133  6930.565
 134  6283.525
 135  7504.108
 136  7820.445
 137  9308.396
 138  8763.422
 139  6917.381
 140  7399.671
 141  7516.76
 142  7768.173
 143  7714.05
 144  8143.236
 145  9625.7
 146  9340.111
 147  7411.441
 148  8027.59
 149  9664.222
 150  7331.397
 151  7296.823
 152  9657.57
 153  11458.66
 154  10537.2
 155  7928.032
 156  7659.417
 157  8627.783
 158  9567.288
 159  7898.51
 160  7800.15
 161  9864.368
 162  12572.93
 163  10853.08
 164  11861
 165  11302.64
 166  9793.048
 167  7109.071
 168  7119.795
 169  8938.479
 170  9977.007
 171  8407.151
 172  6914.085
 173  6668.346
 174  7909.363
 175  7995.036
 176  7975.603
 177  6819.38
 178  9622.631
 179  9255.029
 180  7077.846
 181  7174.092
 182  7517.805
 183  7821.94
 184  6926.344
 185  7810.47
 186  8630.588
 187  9043.943
 188  7294.725
 189  7084.633
 190  7824.796
 191  8233.66
 192  6340.588
 193  6636.209
 194  9283.637
 195  9948.091
 196  7577.818
 197  7133.373
 198  7677.669
 199  8356.854
 200  7006.509
 201  8243.366
 202  9495.573
 203  10846.71
 204  8718.366
 205  7701.992
 206  7180.385
 207  8639.051
 208  8144.894
 209  7189.786
 210  8051.012
 211  10582.11
 212  9804.012
 213  7514.315
 214  6830.292
 215  6890.991
 216  8424.106
 217  6878.577
 218  6836.186
 219  8623.828
 220  9397.297
 221  8223.665
 222  6575.153
 223  7348.964
 224  8162.472
 225  7538.718
 226  7747.721
 227  9557.528
 228  9721.402
 229  7488.095
 230  7602.742
 231  6887.318
 232  7967.645
 233  5805.888
 234  7429.298
 235  8644.93
 236  9885.617
 237  8939.68
 238  7599.768
 239  8310.951
 240  9684.396
 241  8438.911
 242  8012.334
 243  8543.398
 244  10568.52
 245  9632.528
 246  7253.116
 247  7113.422
 248  8562.575
 249  8747.83
 250  6644.281
 251  7409.885
 252  10151.4
 253  10464.49
 254  8260.513
 255  7303.797
