# Input file       =  1179130528.109754_cleaned.dat
# Candidate        =  PSR_0332+5434
# Telescope        =  AR
# Epoch_topo       =  57891.344295251780
# Epoch_bary       =  N/A
# T_sample         =  0.002
# Data Folded      =  7340032
# Data Avg         =  0.0760112545082977
# Data StdDev      =  2.81200249183169 
# Profile Bins     =  512
# Profile Avg      =  1089.7269964273  
# Profile StdDev   =  336.689596646041 
# Reduced chi-sqr  =  1.017
# Prob(Noise)      <  0.383   (~0.3 sigma)
# P_topo (ms)      =  714.53002716378   +/- 0.000533
# P'_topo (s/s)    =  -0                +/- 2.81e-10
# P''_topo (s/s^2) =  0                 +/- 1.24e-13
# P_bary (ms)      =  N/A
# P'_bary (s/s)    =  N/A
# P''_bary (s/s^2) =  N/A
# P_orb (s)        =  N/A
# asin(i)/c (s)    =  N/A
# eccentricity     =  N/A
# w (rad)          =  N/A
# T_peri           =  N/A
######################################################
   0  854.3512
   1  1061.487
   2  1032.239
   3  1151.628
   4  1037.828
   5  1184.762
   6  1197.506
   7  1158.894
   8  1214.503
   9  1253.429
  10  1149.633
  11  815.8609
  12  800.1699
  13  1014.292
  14  962.1142
  15  719.2115
  16  983.9894
  17  847.4572
  18  629.5464
  19  520.4291
  20  976.7003
  21  1107.801
  22  457.8436
  23  447.7276
  24  1041.85
  25  1185.192
  26  928.2565
  27  1081.596
  28  972.8074
  29  961.1754
  30  991.999
  31  858.9495
  32  804.2048
  33  1025.131
  34  1171.938
  35  886.708
  36  805.6679
  37  919.2692
  38  1062.708
  39  796.662
  40  740.863
  41  999.0555
  42  960.1342
  43  1010.502
  44  987.2012
  45  812.923
  46  657.5073
  47  964.3618
  48  1152.612
  49  951.7362
  50  980.259
  51  1032.551
  52  965.9094
  53  929.1014
  54  871.9592
  55  1044.94
  56  1050.463
  57  1053.302
  58  832.9372
  59  1259.136
  60  1338.403
  61  1200.684
  62  1398.844
  63  1240.932
  64  999.4011
  65  1305.346
  66  1304.384
  67  1089.453
  68  1044.521
  69  1106.625
  70  836.9819
  71  840.2604
  72  850.1027
  73  871.1481
  74  790.9867
  75  759.4337
  76  905.2813
  77  731.8235
  78  555.1503
  79  581.9558
  80  1038.873
  81  907.2016
  82  825.4825
  83  1176.755
  84  876.3285
  85  903.1083
  86  1090.595
  87  936.2415
  88  809.6542
  89  1031.658
  90  1103.756
  91  1047.675
  92  876.5193
  93  918.9012
  94  954.7991
  95  843.4819
  96  656.0023
  97  787.1655
  98  959.3724
  99  728.4867
 100  960.6318
 101  1033.898
 102  1209.058
 103  1200.304
 104  915.6835
 105  997.6351
 106  734.0931
 107  981.6142
 108  939.6758
 109  638.4777
 110  728.2211
 111  624.243
 112  841.8734
 113  1005.571
 114  1108.586
 115  1174.727
 116  1140.94
 117  1060.781
 118  917.8958
 119  961.469
 120  1160.152
 121  1188.289
 122  1145.586
 123  1108.622
 124  1085.63
 125  1357.767
 126  1439.385
 127  1139.992
 128  1207.143
 129  1037.366
 130  975.8945
 131  1137.005
 132  1044.14
 133  1140.69
 134  1041.603
 135  1103.492
 136  1124.466
 137  999.7029
 138  1254.105
 139  1580.312
 140  1425.527
 141  1212.918
 142  1285.333
 143  1154.397
 144  1500.006
 145  1486.261
 146  1277.105
 147  1286.223
 148  1234.98
 149  1339.367
 150  1198.184
 151  1123.602
 152  1107.037
 153  1057.557
 154  1436.026
 155  1325.912
 156  1174.199
 157  1187.568
 158  1163.638
 159  871.5531
 160  1061.782
 161  947.2355
 162  927.1688
 163  873.4557
 164  704.917
 165  552.8973
 166  966.1403
 167  942.5901
 168  850.0187
 169  1083.877
 170  1479.351
 171  1335.194
 172  1340.557
 173  1011.802
 174  986.5468
 175  1118.419
 176  1177.651
 177  1108.308
 178  1397.869
 179  1380.34
 180  1151.234
 181  910.1028
 182  932.244
 183  1183.52
 184  1172.871
 185  944.0516
 186  870.7068
 187  1063.524
 188  1237.109
 189  1142.196
 190  1161.843
 191  1195.001
 192  1102.394
 193  1164.882
 194  1169.443
 195  1165.711
 196  1192.516
 197  1313.385
 198  1318.098
 199  1128.957
 200  975.5631
 201  1097.902
 202  1353.728
 203  983.3315
 204  609.5059
 205  1072.413
 206  1001.337
 207  1396.115
 208  1161.951
 209  852.1596
 210  1210.913
 211  1082.391
 212  988.1052
 213  976.5215
 214  1188.407
 215  1415.061
 216  935.9813
 217  1242.254
 218  1073.374
 219  1099.64
 220  1275.644
 221  1311.537
 222  1049.689
 223  1043.369
 224  1391.822
 225  1504.908
 226  1466.5
 227  1005
 228  761.9833
 229  1098.98
 230  1654.029
 231  1321.166
 232  766.1251
 233  824.3142
 234  1310.436
 235  1372.67
 236  1150.591
 237  858.5861
 238  1066.171
 239  1236.723
 240  1059.714
 241  971.897
 242  1048.615
 243  1052.041
 244  809.1379
 245  887.4883
 246  703.6985
 247  795.8304
 248  1100.479
 249  1167.695
 250  1035.801
 251  1015.723
 252  1077.129
 253  1311.907
 254  932.0796
 255  712.404
 256  1102.968
 257  1035.844
 258  794.3551
 259  969.688
 260  1119.455
 261  954.1522
 262  1134.393
 263  1294.134
 264  1194.012
 265  933.1394
 266  1013.222
 267  850.1085
 268  1172.38
 269  1129.182
 270  1241.377
 271  1168.345
 272  1008.495
 273  839.9435
 274  627.2727
 275  750.9803
 276  864.5278
 277  727.7764
 278  879.8188
 279  809.8844
 280  758.5339
 281  1358.061
 282  797.2891
 283  698.4276
 284  992.0589
 285  1068.702
 286  1064.927
 287  986.014
 288  716.5322
 289  627.8652
 290  528.0702
 291  670.6333
 292  944.1599
 293  963.7679
 294  976.0774
 295  1192.887
 296  749.4457
 297  924.1057
 298  963.3194
 299  1011.127
 300  831.4052
 301  856.4565
 302  957.4148
 303  980.0565
 304  1105.43
 305  1020.313
 306  1178.911
 307  1159.718
 308  911.7075
 309  1067.791
 310  1434.017
 311  1724.653
 312  1400.98
 313  1061.106
 314  874.3602
 315  950.9981
 316  884.2878
 317  1181.312
 318  1198.319
 319  1301.547
 320  1039.598
 321  1128.362
 322  1329.308
 323  942.3751
 324  1193.927
 325  1502.683
 326  1619.384
 327  1834.785
 328  2332.164
 329  2454.254
 330  2307.301
 331  1890.158
 332  1520.248
 333  1417.215
 334  1304.035
 335  1009.244
 336  1141.4
 337  1073.976
 338  933.5922
 339  1333.997
 340  1342.509
 341  1138.049
 342  1211.82
 343  1151.594
 344  1297.023
 345  1487.443
 346  1102.436
 347  810.9991
 348  949.3106
 349  837.8561
 350  1034.887
 351  950.6127
 352  936.3998
 353  1018.133
 354  927.5758
 355  745.8771
 356  976.9542
 357  1062.75
 358  832.8271
 359  981.0995
 360  1459.274
 361  1350.203
 362  1159.776
 363  1339.03
 364  1446.263
 365  1515.535
 366  1545.815
 367  1146.422
 368  1007.2
 369  1125.714
 370  1339.066
 371  1316.26
 372  1121.602
 373  1389.758
 374  1451.984
 375  1156.098
 376  1400.415
 377  1490.175
 378  1386.766
 379  1194.33
 380  1105.908
 381  1406.908
 382  1257.616
 383  1371.885
 384  1184.918
 385  1096.148
 386  1280.396
 387  1314.846
 388  1329.225
 389  1417.348
 390  1129.922
 391  986.1898
 392  1104.257
 393  1264.883
 394  1332.457
 395  1289.933
 396  1243.592
 397  1325.708
 398  1048.881
 399  1128.373
 400  1808.493
 401  1667.102
 402  1524.377
 403  1221.922
 404  1257.978
 405  1474.854
 406  1057.599
 407  1009.711
 408  1179.283
 409  1415.383
 410  1250.068
 411  1129.4
 412  1269.099
 413  1434.977
 414  1664.946
 415  1327.016
 416  1282.925
 417  1474.011
 418  1342.628
 419  1412.09
 420  1346.471
 421  1363.487
 422  1158.94
 423  1455.359
 424  1445.941
 425  1315.809
 426  1292.504
 427  1313.132
 428  1020.324
 429  1070.69
 430  1380.675
 431  1166.154
 432  777.5669
 433  995.7385
 434  1135.241
 435  1156.328
 436  1221.065
 437  1149.964
 438  1160.948
 439  1036.43
 440  782.6197
 441  878.9664
 442  797.1635
 443  665.0927
 444  1035.018
 445  1400.512
 446  1086.049
 447  1007.502
 448  1293.445
 449  1209.977
 450  1119.714
 451  1020.919
 452  1135.091
 453  773.8817
 454  773.6031
 455  1008.348
 456  822.4092
 457  695.4528
 458  989.1462
 459  1164.405
 460  1314.677
 461  1229.029
 462  1337.786
 463  983.6518
 464  764.7082
 465  799.5735
 466  893.2276
 467  826.8788
 468  896.5431
 469  1062.734
 470  1268.855
 471  1046.438
 472  1071.345
 473  888.4346
 474  1026.155
 475  1033.292
 476  867.7415
 477  806.3802
 478  867.4873
 479  1103.361
 480  1239.151
 481  1173.47
 482  920.1457
 483  1096.303
 484  922.2897
 485  1014.172
 486  830.2847
 487  788.1621
 488  888.5543
 489  1093.024
 490  1234.966
 491  1076.988
 492  865.2036
 493  831.8234
 494  1200.343
 495  1266.302
 496  1137.399
 497  859.7072
 498  1284.113
 499  1263.779
 500  1177.724
 501  1404.281
 502  1023.42
 503  1124.788
 504  1139.101
 505  1378.587
 506  1169.67
 507  1108.327
 508  1333.648
 509  1328.127
 510  1049.903
 511  565.4355
