# Input file       =  1179044386.113434_cleaned.dat
# Candidate        =  PSR_0332+5434
# Telescope        =  AR
# Epoch_topo       =  57890.347281405484
# Epoch_bary       =  N/A
# T_sample         =  0.002
# Data Folded      =  7340032
# Data Avg         =  0.0908496632203295
# Data StdDev      =  2.85574439652562 
# Profile Bins     =  1024
# Profile Avg      =  651.20588561632  
# Profile StdDev   =  241.778863397537 
# Reduced chi-sqr  =  0.905
# Prob(Noise)      <  0.987   (~0.0 sigma)
# P_topo (ms)      =  714.530998426632  +/- 0.000525
# P'_topo (s/s)    =  -0                +/- 2.77e-10
# P''_topo (s/s^2) =  0                 +/- 1.22e-13
# P_bary (ms)      =  N/A
# P'_bary (s/s)    =  N/A
# P''_bary (s/s^2) =  N/A
# P_orb (s)        =  N/A
# asin(i)/c (s)    =  N/A
# eccentricity     =  N/A
# w (rad)          =  N/A
# T_peri           =  N/A
######################################################
   0  611.4181
   1  510.2527
   2  517.9641
   3  599.058
   4  762.3708
   5  723.2408
   6  677.0433
   7  726.1848
   8  743.9192
   9  715.3657
  10  612.8515
  11  622.314
  12  647.5699
  13  659.4251
  14  723.5933
  15  794.2555
  16  715.9185
  17  593.9
  18  523.6649
  19  571.7642
  20  517.2344
  21  510.3834
  22  564.3016
  23  711.1028
  24  720.0341
  25  680.9634
  26  575.9197
  27  537.9796
  28  566.5876
  29  534.7714
  30  660.5283
  31  637.6034
  32  652.7379
  33  637.0699
  34  677.8992
  35  682.569
  36  666.7562
  37  665.1786
  38  651.7421
  39  567.6416
  40  588.3665
  41  604.3226
  42  706.0756
  43  636.5755
  44  563.7275
  45  522.2222
  46  517.6147
  47  574.422
  48  612.8365
  49  803.8781
  50  863.9457
  51  795.0364
  52  659.6279
  53  562.1736
  54  510.8292
  55  517.2893
  56  562.0695
  57  549.6314
  58  575.0453
  59  553.3224
  60  609.6559
  61  643.8311
  62  545.3535
  63  503.5074
  64  542.2488
  65  636.2855
  66  646.5904
  67  636.3354
  68  668.9905
  69  697.3672
  70  617.3516
  71  581.9655
  72  542.7969
  73  584.1232
  74  525.3524
  75  481.6879
  76  438.2632
  77  531.7404
  78  515.6962
  79  558.562
  80  580.6664
  81  700.2182
  82  703.9468
  83  653.6636
  84  515.3852
  85  515.4541
  86  488.1139
  87  629.0165
  88  634.3015
  89  666.0496
  90  697.4456
  91  680.1209
  92  602.7636
  93  577.136
  94  585.5549
  95  645.8885
  96  462.1811
  97  438.133
  98  469.5822
  99  622.9892
 100  547.957
 101  533.2065
 102  485.6583
 103  669.7308
 104  684.3265
 105  793.4174
 106  700.9015
 107  715.1038
 108  686.2217
 109  614.4029
 110  548.0568
 111  528.2169
 112  544.2205
 113  538.0161
 114  578.9901
 115  692.9699
 116  836.6906
 117  706.5192
 118  529.7557
 119  438.8591
 120  537.8729
 121  664.9812
 122  657.1029
 123  672.9281
 124  727.8266
 125  799.0678
 126  819.8411
 127  724.4806
 128  694.8992
 129  730.5106
 130  777.3429
 131  775.117
 132  684.8382
 133  678.8437
 134  618.977
 135  610.3622
 136  544.7839
 137  530.037
 138  508.2535
 139  456.1121
 140  519.4586
 141  495.2796
 142  580.4319
 143  631.073
 144  819.448
 145  868.5749
 146  823.22
 147  772.4148
 148  749.8227
 149  746.196
 150  621.5974
 151  699.8961
 152  676.5979
 153  668.3412
 154  685.8746
 155  787.5595
 156  664.437
 157  589.5845
 158  605.3493
 159  651.6445
 160  609.1824
 161  577.8844
 162  706.1365
 163  826.6098
 164  867.3713
 165  814.3328
 166  688.89
 167  595.1116
 168  597.3578
 169  585.0265
 170  675.4782
 171  709.4863
 172  754.8387
 173  753.7287
 174  692.2509
 175  731.9137
 176  647.1063
 177  626.9137
 178  581.2891
 179  623.0828
 180  584.8993
 181  516.9498
 182  601.2787
 183  729.6613
 184  750.2404
 185  762.4958
 186  664.4062
 187  667.5521
 188  636.3582
 189  744.0712
 190  757.7538
 191  786.2786
 192  720.4598
 193  694.8593
 194  671.2426
 195  753.6584
 196  715.4661
 197  748.3403
 198  713.7176
 199  675.3476
 200  590.5457
 201  580.767
 202  535.9313
 203  568.6077
 204  531.6802
 205  485.5276
 206  497.004
 207  515.3956
 208  648.6265
 209  556.5555
 210  540.9052
 211  529.0076
 212  567.4692
 213  605.7589
 214  581.0511
 215  553.5463
 216  408.0737
 217  345.5819
 218  438.2566
 219  544.1843
 220  518.1231
 221  477.7875
 222  520.2397
 223  607.3828
 224  523.5633
 225  456.536
 226  433.1801
 227  360.5097
 228  404.9861
 229  421.7117
 230  598.6288
 231  665.9982
 232  696.4857
 233  769.2825
 234  794.761
 235  780.1565
 236  674.7698
 237  610.613
 238  607.3819
 239  561.1825
 240  569.247
 241  564.7394
 242  555.5723
 243  647.7327
 244  730.3477
 245  737.6007
 246  778.4913
 247  727.2399
 248  795.2703
 249  648.5507
 250  621.9617
 251  576.1319
 252  674.0759
 253  727.9524
 254  752.6951
 255  636.1502
 256  537.0952
 257  488.4152
 258  619.9326
 259  639.0914
 260  621.2433
 261  566.0767
 262  662.8412
 263  711.9109
 264  649.0385
 265  582.8255
 266  619.2783
 267  527.537
 268  475.8329
 269  432.3783
 270  524.1044
 271  587.6033
 272  669.3391
 273  745.0829
 274  748.8828
 275  748.1094
 276  695.5117
 277  654.3676
 278  611.8702
 279  688.0815
 280  679.9962
 281  712.4871
 282  643.9492
 283  666.777
 284  641.0107
 285  701.3121
 286  629.4042
 287  684.4706
 288  692.6367
 289  747.7817
 290  680.0892
 291  701.5377
 292  612.5571
 293  547.0644
 294  500.5187
 295  501.9678
 296  564.7706
 297  641.8239
 298  695.8478
 299  776.2347
 300  848.1691
 301  898.9505
 302  765.09
 303  659.7905
 304  703.3038
 305  721.2495
 306  707.8427
 307  676.4492
 308  659.6314
 309  613.171
 310  531.0645
 311  464.3766
 312  436.3885
 313  472.6823
 314  456.905
 315  475.6609
 316  482.4612
 317  596.8078
 318  533.6929
 319  571.0817
 320  465.6044
 321  542.1759
 322  610.5607
 323  713.7773
 324  736.6008
 325  699.4832
 326  718.9438
 327  778.3643
 328  838.7006
 329  855.0533
 330  838.0682
 331  733.2368
 332  629.4097
 333  440.9132
 334  478.85
 335  533.4395
 336  692.8188
 337  710.6144
 338  726.9524
 339  709.6049
 340  622.4745
 341  600.5247
 342  567.1876
 343  688.3885
 344  671.2379
 345  627.586
 346  550.2448
 347  575.9595
 348  574.8527
 349  554.7127
 350  437.4715
 351  420.5335
 352  576.951
 353  679.726
 354  734.5759
 355  583.1474
 356  561.415
 357  402.7826
 358  469.7585
 359  537.0804
 360  671.7722
 361  557.4073
 362  531.5653
 363  433.4734
 364  454.1763
 365  462.7475
 366  504.5284
 367  557.3167
 368  606.5981
 369  626.9108
 370  627.2772
 371  590.3058
 372  582.4532
 373  522.7285
 374  504.2255
 375  550.0474
 376  670.7018
 377  685.2554
 378  651.3086
 379  596.506
 380  613.2596
 381  684.5114
 382  764.674
 383  687.2408
 384  618.2731
 385  720.2643
 386  874.0946
 387  825.3003
 388  608.473
 389  501.6409
 390  584.5153
 391  582.5528
 392  692.9642
 393  700.4243
 394  760.3319
 395  678.6312
 396  718.2667
 397  794.0753
 398  799.7473
 399  802.8325
 400  674.3195
 401  650.6631
 402  526.38
 403  483.3158
 404  427.83
 405  421.229
 406  574.4745
 407  722.5875
 408  732.912
 409  677.6625
 410  656.9036
 411  728.2485
 412  590.4824
 413  516.6712
 414  435.3003
 415  509.3035
 416  565.5497
 417  646.1268
 418  709.5636
 419  760.4614
 420  753.1917
 421  727.1824
 422  697.5308
 423  684.0642
 424  823.8559
 425  924.8867
 426  985.6824
 427  822.0858
 428  786.2706
 429  786.7248
 430  801.9698
 431  817.7519
 432  762.8193
 433  740.4979
 434  725.0331
 435  728.9749
 436  738.566
 437  728.6832
 438  705.1331
 439  776.7128
 440  798.1366
 441  784.5059
 442  754.061
 443  785.3053
 444  790.9059
 445  798.9344
 446  810.7054
 447  811.0465
 448  795.912
 449  751.9143
 450  701.443
 451  620.5208
 452  698.9296
 453  806.4056
 454  828.5307
 455  858.2632
 456  1010.896
 457  1101.529
 458  993.287
 459  846.6478
 460  816.4116
 461  741.3206
 462  645.5696
 463  590.5773
 464  632.5513
 465  638.7178
 466  736.4845
 467  752.7143
 468  714.7679
 469  707.8431
 470  748.8015
 471  725.8661
 472  614.1562
 473  562.2151
 474  609.8491
 475  585.3259
 476  599.7233
 477  704.1257
 478  652.3291
 479  596.1771
 480  533.8668
 481  676.2183
 482  613.646
 483  572.9986
 484  504.7721
 485  497.5315
 486  507.0879
 487  582.8629
 488  711.1351
 489  666.3161
 490  569.587
 491  543.446
 492  559.6047
 493  561.2994
 494  490.6233
 495  585.9677
 496  695.9074
 497  762.1288
 498  718.0369
 499  671.2459
 500  601.978
 501  604.0024
 502  759.0178
 503  721.3428
 504  743.24
 505  666.5166
 506  790.027
 507  880.3706
 508  842.9873
 509  779.4773
 510  695.7883
 511  581.7464
 512  533.88
 513  537.1713
 514  552.7399
 515  563.6469
 516  652.7581
 517  726.5114
 518  739.5842
 519  672.0853
 520  635.2768
 521  642.5341
 522  642.0375
 523  715.6901
 524  755.7171
 525  821.9224
 526  841.8859
 527  783.8541
 528  728.5782
 529  845.9777
 530  892.349
 531  885.1658
 532  632.1429
 533  505.5324
 534  564.7328
 535  610.4591
 536  590.4558
 537  625.6965
 538  785.7843
 539  866.8843
 540  738.6668
 541  653.7689
 542  545.4092
 543  569.0811
 544  588.5786
 545  749.4313
 546  702.0803
 547  597.3392
 548  476.1089
 549  517.1606
 550  510.7973
 551  538.7877
 552  527.884
 553  477.6025
 554  421.1208
 555  474.8304
 556  539.9954
 557  659.1177
 558  782.9808
 559  828.5502
 560  825.1752
 561  858.4228
 562  796.3523
 563  672.483
 564  593.199
 565  569.0475
 566  677.8677
 567  755.1244
 568  808.8307
 569  660.0493
 570  601.5443
 571  617.1273
 572  679.5963
 573  749.7267
 574  764.5632
 575  743.9166
 576  751.095
 577  791.2422
 578  740.8004
 579  628.9418
 580  574.2427
 581  497.6948
 582  362.0528
 583  326.5999
 584  330.0921
 585  554.527
 586  571.6077
 587  676.2599
 588  633.7625
 589  620.1167
 590  663.4112
 591  682.8997
 592  731.3413
 593  655.5719
 594  666.2938
 595  584.4159
 596  572.3303
 597  533.9973
 598  593.0489
 599  652.7793
 600  733.8131
 601  683.1866
 602  543.4205
 603  533.0933
 604  633.6595
 605  742.4731
 606  606.2278
 607  543.0382
 608  460.4904
 609  511.2821
 610  536.7303
 611  569.7541
 612  593.9249
 613  509.5399
 614  532.0129
 615  458.6168
 616  568.9631
 617  654.9745
 618  752.5242
 619  782.5971
 620  825.5396
 621  830.0739
 622  826.2349
 623  796.0212
 624  812.2791
 625  791.4374
 626  809.2219
 627  759.5018
 628  705.5963
 629  694.0734
 630  656.6287
 631  679.1611
 632  720.0812
 633  811.8568
 634  891.9919
 635  857.9739
 636  747.5219
 637  651.0771
 638  716.1414
 639  793.139
 640  884.4187
 641  807.08
 642  879.9519
 643  814.0172
 644  834.6728
 645  738.6439
 646  731.6605
 647  784.5342
 648  795.7654
 649  772.5663
 650  760.9695
 651  707.2335
 652  704.4172
 653  685.1725
 654  797.9379
 655  833.7807
 656  854.8087
 657  813.0808
 658  810.3957
 659  770.2609
 660  688.0159
 661  618.8773
 662  685.2641
 663  684.949
 664  669.8752
 665  614.6633
 666  603.3951
 667  570.6654
 668  560.6772
 669  585.205
 670  561.2747
 671  615.3405
 672  728.6699
 673  766.1962
 674  676.3349
 675  592.8053
 676  624.636
 677  761.2819
 678  608.0337
 679  490.8206
 680  410.0852
 681  501.4018
 682  561.3106
 683  620.6876
 684  586.3835
 685  559.8641
 686  474.8516
 687  463.8104
 688  519.7131
 689  478.2569
 690  537.795
 691  517.2637
 692  559.5137
 693  516.7471
 694  464.1967
 695  531.1185
 696  601.9392
 697  753.1541
 698  833.3297
 699  738.3211
 700  711.1674
 701  625.4998
 702  721.3725
 703  603.7521
 704  665.8506
 705  659.7665
 706  647.7031
 707  638.7242
 708  678.4786
 709  704.3141
 710  729.6096
 711  658.1545
 712  619.668
 713  531.6512
 714  508.011
 715  569.0538
 716  541.6439
 717  558.0148
 718  593.2223
 719  695.0035
 720  757.6619
 721  848.3519
 722  974.9903
 723  963.6823
 724  847.2675
 725  682.6962
 726  661.1577
 727  556.7407
 728  417.9455
 729  344.2612
 730  446.7869
 731  585.1177
 732  595.5206
 733  593.229
 734  623.2711
 735  802.407
 736  813.0767
 737  841.6519
 738  763.5733
 739  690.5969
 740  638.9524
 741  702.4686
 742  797.8902
 743  744.9917
 744  618.7379
 745  631.1435
 746  650.5773
 747  653.3824
 748  625.7043
 749  647.0683
 750  660.4711
 751  772.6827
 752  846.2936
 753  1021.471
 754  1074.403
 755  1156.021
 756  1133.769
 757  1229.701
 758  1272.607
 759  1280.856
 760  1169.526
 761  1154.32
 762  1092.526
 763  1150.665
 764  1117.626
 765  1103.001
 766  986.298
 767  853.1805
 768  742.7804
 769  684.0034
 770  655.007
 771  606.7137
 772  562.8268
 773  695.3721
 774  760.041
 775  764.7619
 776  709.3034
 777  670.1313
 778  654.221
 779  628.7544
 780  687.1136
 781  702.6364
 782  759.0319
 783  853.2515
 784  830.5165
 785  791.6364
 786  759.5513
 787  734.5384
 788  726.0809
 789  683.7921
 790  897.3643
 791  991.806
 792  1067.261
 793  944.9679
 794  756.0535
 795  698.3271
 796  699.8591
 797  654.3719
 798  571.6096
 799  602.6978
 800  720.5389
 801  719.8363
 802  677.0773
 803  624.4423
 804  677.1095
 805  761.0485
 806  889.9885
 807  889.5168
 808  789.9233
 809  630.9601
 810  590.5416
 811  647.4119
 812  579.735
 813  475.3432
 814  429.5141
 815  652.1002
 816  715.6256
 817  725.8232
 818  601.234
 819  558.7999
 820  587.5523
 821  611.0738
 822  561.798
 823  390.8246
 824  361.9922
 825  484.7377
 826  591.3451
 827  630.4927
 828  480.5772
 829  430.5876
 830  359.9757
 831  523.7977
 832  615.8025
 833  596.7241
 834  511.7383
 835  433.6494
 836  500.101
 837  550.5323
 838  642.2112
 839  587.0521
 840  586.5457
 841  580.7379
 842  632.4864
 843  542.4908
 844  575.1664
 845  669.7211
 846  731.9958
 847  707.6367
 848  733.1865
 849  671.5381
 850  557.883
 851  570.1021
 852  683.7043
 853  770.1772
 854  677.0937
 855  604.1486
 856  563.1125
 857  610.5389
 858  643.693
 859  688.4143
 860  741.4917
 861  797.726
 862  836.5666
 863  855.903
 864  755.0879
 865  649.4457
 866  556.331
 867  561.0267
 868  618.1816
 869  681.554
 870  675.3524
 871  625.7581
 872  635.1551
 873  677.3025
 874  693.635
 875  660.2019
 876  698.7978
 877  688.5348
 878  778.0295
 879  688.7018
 880  626.6804
 881  563.9591
 882  509.3175
 883  699.2922
 884  727.9601
 885  734.6702
 886  687.9543
 887  635.1238
 888  601.926
 889  552.2056
 890  607.2563
 891  717.3633
 892  740.2877
 893  672.7832
 894  544.294
 895  413.181
 896  446.8121
 897  480.9549
 898  497.5609
 899  562.5108
 900  536.4851
 901  531.2063
 902  388.3242
 903  482.4819
 904  598.0679
 905  643.4274
 906  591.7505
 907  589.0948
 908  607.9387
 909  655.0624
 910  698.2916
 911  693.2287
 912  645.335
 913  545.8281
 914  617.0967
 915  554.3262
 916  491.8809
 917  428.4553
 918  381.0537
 919  438.1536
 920  495.8718
 921  663.2621
 922  629.5014
 923  587.4544
 924  533.1622
 925  567.2476
 926  637.181
 927  596.3001
 928  560.4906
 929  569.4828
 930  676.3819
 931  681.8502
 932  679.451
 933  667.5582
 934  613.8335
 935  514.8668
 936  573.0453
 937  603.517
 938  632.3643
 939  628.4662
 940  693.9661
 941  781.3945
 942  747.9789
 943  698.6395
 944  661.4001
 945  641.7488
 946  632.5746
 947  621.1721
 948  616.6905
 949  560.4695
 950  603.5847
 951  655.4699
 952  674.9116
 953  543.7504
 954  507.4302
 955  514.5282
 956  548.0696
 957  571.1074
 958  642.3824
 959  690.933
 960  666.6926
 961  546.1155
 962  538.7219
 963  599.2983
 964  751.2016
 965  794.3787
 966  851.5881
 967  788.4655
 968  639.3186
 969  440.1792
 970  536.1749
 971  703.3909
 972  778.132
 973  659.5569
 974  617.979
 975  673.9039
 976  751.3363
 977  709.6591
 978  672.0939
 979  601.0034
 980  604.7344
 981  588.2987
 982  569.7529
 983  443.1264
 984  498.1742
 985  442.9328
 986  542.4412
 987  469.6301
 988  451.5503
 989  377.5714
 990  491.4434
 991  616.387
 992  712.881
 993  657.3302
 994  651.6638
 995  654.2412
 996  672.2662
 997  672.3714
 998  733.6104
 999  652.1232
1000  618.3496
1001  509.2487
1002  605.3897
1003  616.0502
1004  577.9181
1005  634.5167
1006  695.6143
1007  730.6188
1008  599.9505
1009  526.3546
1010  502.2399
1011  387.9289
1012  381.6535
1013  438.2189
1014  637.8376
1015  646.6531
1016  644.4615
1017  746.24
1018  693.655
1019  654.2052
1020  631.6357
1021  766.9907
1022  741.2853
1023  701.3394
