# Input file       =  1179403935.110874_cleaned.dat
# Candidate        =  PSR_0332+5434
# Telescope        =  AR
# Epoch_topo       =  57894.508728135115
# Epoch_bary       =  N/A
# T_sample         =  0.002
# Data Folded      =  7340032
# Data Avg         =  0.0764458860545087
# Data StdDev      =  3.14484348316738 
# Profile Bins     =  512
# Profile Avg      =  1096.00135724741 
# Profile StdDev   =  376.541659169315 
# Reduced chi-sqr  =  1.267
# Prob(Noise)      <  3.69e-05   (~4.0 sigma)
# P_topo (ms)      =  714.527260104245  +/- 0.000311
# P'_topo (s/s)    =  -0                +/- 1.64e-10
# P''_topo (s/s^2) =  0                 +/- 7.24e-14
# P_bary (ms)      =  N/A
# P'_bary (s/s)    =  N/A
# P''_bary (s/s^2) =  N/A
# P_orb (s)        =  N/A
# asin(i)/c (s)    =  N/A
# eccentricity     =  N/A
# w (rad)          =  N/A
# T_peri           =  N/A
######################################################
   0  1049.965
   1  631.4719
   2  835.5831
   3  954.46
   4  1132.847
   5  1088.661
   6  1128.119
   7  1042.083
   8  1549.358
   9  1484.647
  10  1268.246
  11  1325.43
  12  1196.677
  13  1098.403
  14  1296.168
  15  1133.383
  16  826.7053
  17  973.9415
  18  1204.049
  19  829.6309
  20  840.1802
  21  822.8254
  22  1075.659
  23  1227.57
  24  1096.109
  25  1108.437
  26  1146.592
  27  1383.163
  28  1227.292
  29  1167.93
  30  917.9985
  31  645.7487
  32  1045.505
  33  1152.524
  34  1086.08
  35  1057.317
  36  1106.29
  37  715.1289
  38  583.8606
  39  776.1553
  40  1206.823
  41  870.1132
  42  738.981
  43  1194.129
  44  1549.992
  45  1242.744
  46  1006.984
  47  1011.904
  48  938.6872
  49  654.0032
  50  942.8937
  51  1079.709
  52  940.9487
  53  1057.235
  54  1034.95
  55  1022.549
  56  1349.197
  57  1354.208
  58  1206.369
  59  1230.695
  60  1342.022
  61  1062.531
  62  978.527
  63  1225.014
  64  1081.526
  65  1128.42
  66  1276.894
  67  1059.856
  68  791.2658
  69  693.7357
  70  1035.019
  71  1030.306
  72  1389.161
  73  1093.984
  74  900.3039
  75  1311.954
  76  1316.337
  77  1359.032
  78  1325.429
  79  1279.398
  80  1231.337
  81  1176.058
  82  1102.306
  83  956.3353
  84  1093.938
  85  994.1061
  86  816.9092
  87  898.884
  88  1296.613
  89  1552.36
  90  1215.917
  91  1097.928
  92  1003.272
  93  1203.239
  94  1368.684
  95  1148.691
  96  1047.974
  97  1134
  98  1271.74
  99  1414.241
 100  1315.045
 101  1384.011
 102  1517.832
 103  1520.935
 104  1126.542
 105  1212.562
 106  747.8915
 107  645.0494
 108  998.3728
 109  1261.547
 110  1180.288
 111  1245.44
 112  1089.923
 113  744.6002
 114  707.3981
 115  673.7739
 116  910.598
 117  937.1756
 118  1234.716
 119  1049.102
 120  1414.81
 121  1131.174
 122  957.7224
 123  1123.223
 124  1214.229
 125  962.6312
 126  705.2596
 127  640.5964
 128  904.9755
 129  1302.865
 130  1518.247
 131  1019.851
 132  607.1803
 133  893.7617
 134  1172.306
 135  1155.198
 136  1276.02
 137  1480.474
 138  916.4255
 139  1321.101
 140  1011.04
 141  817.2073
 142  785.5833
 143  875.2313
 144  840.8904
 145  1260.347
 146  1239.455
 147  979.0047
 148  1001.127
 149  1061.853
 150  860.024
 151  766.9946
 152  1093.261
 153  722.6436
 154  994.8047
 155  976.0151
 156  958.5175
 157  877.2401
 158  972.0275
 159  825.4822
 160  819.055
 161  955.0293
 162  1047.401
 163  1047.844
 164  1077.208
 165  736.2045
 166  519.6318
 167  536.5018
 168  831.8084
 169  820.9439
 170  845.105
 171  1104.506
 172  818.0486
 173  742.236
 174  1216.12
 175  1123.674
 176  1221.176
 177  1227.363
 178  1190.64
 179  999.911
 180  1071.798
 181  654.6736
 182  667.3503
 183  826.063
 184  719.223
 185  422.0624
 186  509.9427
 187  709.6576
 188  589.4002
 189  826.2768
 190  794.6252
 191  842.3179
 192  731.9572
 193  817.0604
 194  969.9625
 195  1079.918
 196  1407.276
 197  938.6726
 198  703.3001
 199  1272.114
 200  1291.577
 201  1248.873
 202  1107.052
 203  1194.681
 204  1235.661
 205  619.9625
 206  467.3761
 207  1019.708
 208  607.4552
 209  693.6396
 210  1110.559
 211  934.371
 212  965.0106
 213  1171.92
 214  717.674
 215  913.9688
 216  1163.959
 217  1333.584
 218  1268.627
 219  803.3193
 220  1105.595
 221  1311.624
 222  1232.636
 223  1112.283
 224  883.5413
 225  993.2971
 226  1197.887
 227  1235.641
 228  1036.198
 229  1087.176
 230  1193.466
 231  1291.245
 232  1228.941
 233  1231.173
 234  1079.203
 235  1241.556
 236  1375.339
 237  1370.54
 238  1298.865
 239  1002.499
 240  759.7252
 241  1277.719
 242  1236.251
 243  912.3664
 244  1230.626
 245  1577.824
 246  1681.222
 247  1199.168
 248  1642.952
 249  1309.194
 250  1286.407
 251  1225.854
 252  902.4648
 253  436.031
 254  855.5975
 255  859.4426
 256  584.7285
 257  442.2785
 258  870.7599
 259  1023.705
 260  1338.127
 261  975.7082
 262  1167.73
 263  1117.501
 264  1017.046
 265  1389.627
 266  1159.172
 267  1208.042
 268  1141.795
 269  1050.576
 270  1261.595
 271  1301.828
 272  1306.289
 273  1422.918
 274  1614.952
 275  1634.818
 276  1367.427
 277  1475.155
 278  1374.458
 279  1054.386
 280  1124.374
 281  996.0326
 282  960.7885
 283  903.2027
 284  1106.578
 285  1255.116
 286  1075.549
 287  1124.441
 288  1458.766
 289  1214.236
 290  981.9717
 291  755.6583
 292  1323.917
 293  1338.334
 294  905.6118
 295  943.6573
 296  1023.88
 297  1139.815
 298  1662.375
 299  1479.725
 300  1070.33
 301  1096.615
 302  1154.26
 303  840.9145
 304  725.9085
 305  743.0631
 306  840.7416
 307  1146.391
 308  1287.865
 309  1091.859
 310  1331.257
 311  1488.764
 312  1394.446
 313  1563.616
 314  1528.424
 315  1606.421
 316  1537.58
 317  1366.358
 318  1332.615
 319  1167.53
 320  1150.352
 321  1112.823
 322  1466.333
 323  1581.168
 324  1457.318
 325  1140.013
 326  1922.885
 327  2442.267
 328  2708.268
 329  2762.151
 330  2894.469
 331  2205.339
 332  1499.579
 333  1557.06
 334  1707.404
 335  1477.074
 336  1253.136
 337  1103.937
 338  1184.91
 339  1713.624
 340  1474.563
 341  1503.531
 342  1593.528
 343  1699.379
 344  1335.544
 345  1438.829
 346  1170.555
 347  1328.033
 348  1629.319
 349  1528.219
 350  1419.04
 351  1523.296
 352  1480.965
 353  1212.625
 354  1318.602
 355  1550.602
 356  1243.753
 357  895.4321
 358  1045.75
 359  857.2462
 360  1159.22
 361  1356.035
 362  1400.862
 363  1606.348
 364  1306.342
 365  1424.778
 366  1425.04
 367  1277.149
 368  1244.952
 369  1158.063
 370  942.958
 371  926.097
 372  882.8629
 373  697.3278
 374  1027.691
 375  1106.17
 376  865.0734
 377  943.4539
 378  838.4937
 379  1314.263
 380  1627.331
 381  1315.299
 382  1269.828
 383  1322.224
 384  1173.76
 385  1322.172
 386  1341.686
 387  1480.836
 388  1390.339
 389  1326.651
 390  998.4339
 391  1031.467
 392  1071.458
 393  1175.21
 394  1152.467
 395  804.0699
 396  924.353
 397  1082.526
 398  1110.104
 399  982.6134
 400  884.7544
 401  1197.59
 402  1173.065
 403  1223.694
 404  1267.184
 405  1204.145
 406  1187.829
 407  1327.394
 408  1571.381
 409  1244.538
 410  905.5684
 411  901.2366
 412  1165.696
 413  1377.001
 414  1458.061
 415  1320.384
 416  1015.968
 417  1024.211
 418  1216.28
 419  952.5967
 420  1094.651
 421  1040.808
 422  911.0374
 423  849.9316
 424  941.3303
 425  971.4819
 426  1068.188
 427  993.1761
 428  1315.222
 429  1415.495
 430  952.619
 431  1075.253
 432  913.1414
 433  1112.092
 434  1219.714
 435  1059.924
 436  1047.364
 437  1056.453
 438  1057.607
 439  1141.169
 440  1140.225
 441  1388.525
 442  1103.028
 443  748.4555
 444  642.2574
 445  885.6647
 446  1022.488
 447  756.0461
 448  618.8969
 449  765.2266
 450  671.3437
 451  503.5966
 452  910.5965
 453  631.3244
 454  646.7926
 455  528.3331
 456  545.9128
 457  581.812
 458  530.7921
 459  541.8483
 460  625.3789
 461  912.6114
 462  317.9419
 463  294.8078
 464  296.7704
 465  643.3216
 466  1401.17
 467  1047.352
 468  612.7095
 469  416.7041
 470  1117.471
 471  1179.328
 472  766.8608
 473  717.2708
 474  686.9052
 475  793.3913
 476  741.0556
 477  973.8638
 478  1183.588
 479  1164.227
 480  760.407
 481  839.2198
 482  997.6551
 483  978.5438
 484  938.5848
 485  915.5651
 486  1089.945
 487  1245.729
 488  935.2266
 489  1277.04
 490  1082.226
 491  989.7399
 492  934.4357
 493  927.6995
 494  921.2822
 495  974.4587
 496  1357.501
 497  1203.438
 498  819.1638
 499  989.2228
 500  939.0895
 501  1077.022
 502  1069.043
 503  1052.785
 504  825.146
 505  622.3113
 506  1028.005
 507  1212.446
 508  994.6034
 509  810.4056
 510  1329.09
 511  1405.247
