# Input file       =  1179288241.096729_cleaned.dat
# Candidate        =  PSR_0332+5434
# Telescope        =  AR
# Epoch_topo       =  57893.169677045473
# Epoch_bary       =  N/A
# T_sample         =  0.002
# Data Folded      =  7208960
# Data Avg         =  0.292589468097272
# Data StdDev      =  6.49964980382684 
# Profile Bins     =  1024
# Profile Avg      =  2059.85189794704 
# Profile StdDev   =  545.351217940878 
# Reduced chi-sqr  =  1.263
# Prob(Noise)      <  1.74e-08   (~5.5 sigma)
# P_topo (ms)      =  714.528230608875  +/- 3e-05
# P'_topo (s/s)    =  -0                +/- 1.61e-11
# P''_topo (s/s^2) =  0                 +/- 7.25e-15
# P_bary (ms)      =  N/A
# P'_bary (s/s)    =  N/A
# P''_bary (s/s^2) =  N/A
# P_orb (s)        =  N/A
# asin(i)/c (s)    =  N/A
# eccentricity     =  N/A
# w (rad)          =  N/A
# T_peri           =  N/A
######################################################
   0  1699.05
   1  1561.534
   2  1744.775
   3  1955.589
   4  2031.373
   5  2070.467
   6  1916.694
   7  1685.46
   8  1403.388
   9  1271.256
  10  1374.014
  11  1635.308
  12  1799.046
  13  2047.102
  14  2032.479
  15  2053.999
  16  2133.159
  17  2155.456
  18  2339.231
  19  2394.822
  20  2540.544
  21  2502.167
  22  2469.357
  23  2318.647
  24  2306.024
  25  2147.781
  26  2100.747
  27  1976.579
  28  1934.567
  29  1792.643
  30  1891.707
  31  2040.892
  32  2050.781
  33  2075.022
  34  2178.376
  35  2333.88
  36  2510.468
  37  2535.48
  38  2318.312
  39  2271.502
  40  2112.458
  41  2099.726
  42  1893.351
  43  1942.537
  44  2077.323
  45  2075.843
  46  1940.783
  47  1930.91
  48  1919.893
  49  2325.803
  50  2440.22
  51  2679.33
  52  2700.363
  53  2535.962
  54  2680.922
  55  2577.104
  56  2548.74
  57  2368.093
  58  2005.4
  59  1782.573
  60  1760.129
  61  1785.613
  62  1965.15
  63  1942.522
  64  1954.476
  65  1655.55
  66  1487.921
  67  1760.966
  68  2069.336
  69  2412.396
  70  2454.388
  71  2372.216
  72  2259.199
  73  2099.207
  74  1915.648
  75  1705.325
  76  1588.574
  77  1594.287
  78  1767.163
  79  1914.546
  80  1815.854
  81  1777.826
  82  1917.208
  83  2185.918
  84  2529.086
  85  2717.868
  86  2860.569
  87  2883.842
  88  2706.791
  89  2490.238
  90  2307.144
  91  2331.391
  92  2117.766
  93  1959.757
  94  1739.663
  95  1767.74
  96  1837.142
  97  1871.189
  98  1893.085
  99  2050.724
 100  2113.185
 101  2132.979
 102  2291.287
 103  2392.365
 104  2433.541
 105  2303.393
 106  2135.957
 107  1958.638
 108  1796.849
 109  1992.576
 110  2011.865
 111  1925.727
 112  1855.955
 113  1732.729
 114  1855.164
 115  1933.193
 116  2053.5
 117  2425.249
 118  2489.473
 119  2626.368
 120  2509.398
 121  2386.526
 122  2406.08
 123  2246.767
 124  2085.458
 125  1903.489
 126  1758.466
 127  1899.699
 128  1995.037
 129  2059.721
 130  2109.683
 131  2050.687
 132  2230.061
 133  2135.159
 134  2010.796
 135  2113.096
 136  2119.134
 137  2094.895
 138  1975.802
 139  1827.817
 140  2018.802
 141  1972.377
 142  1870.082
 143  1861.118
 144  1900.409
 145  2037.968
 146  2063.8
 147  2142.897
 148  2311.186
 149  2261.524
 150  2505.135
 151  2702.948
 152  2830.881
 153  2694.458
 154  2600.597
 155  2531.174
 156  2326.787
 157  1972.291
 158  1980.603
 159  1991.84
 160  2006.277
 161  1980.555
 162  1874.33
 163  1800.713
 164  1967.744
 165  2003.926
 166  1981.988
 167  1941.35
 168  2072.758
 169  2149.66
 170  2164.733
 171  2070.32
 172  2095.412
 173  1949.537
 174  1868.586
 175  1791.96
 176  1874.721
 177  2115.979
 178  2090.956
 179  2218.572
 180  2223.576
 181  2114.987
 182  2345.431
 183  2586.109
 184  2834.18
 185  2850.853
 186  2681.154
 187  2582.585
 188  2401.068
 189  2205.233
 190  2029.944
 191  1776.554
 192  1788.489
 193  1849.444
 194  1905.708
 195  2091.366
 196  1966.294
 197  2206.468
 198  2115.629
 199  2127.034
 200  2282.608
 201  2600.075
 202  2903.851
 203  2824.694
 204  2467.634
 205  2060.971
 206  1744.262
 207  1726.439
 208  1664.641
 209  1785.729
 210  1913.318
 211  1980.737
 212  2121.031
 213  2287.746
 214  2369.253
 215  2481.845
 216  2738.164
 217  2966.778
 218  2979.414
 219  2855.191
 220  2659.976
 221  2454.103
 222  2249.203
 223  2109.021
 224  2076.366
 225  2048.413
 226  2134.814
 227  2129.877
 228  2005.669
 229  1947.5
 230  1851.14
 231  1772.992
 232  1954.339
 233  1945.063
 234  1996.053
 235  1936.353
 236  1833.001
 237  1904.197
 238  1665.15
 239  1555.267
 240  1590.234
 241  1618.912
 242  1866.508
 243  1642.573
 244  1737.996
 245  2023.638
 246  2029.026
 247  2071.338
 248  2108.982
 249  2316.036
 250  2515.881
 251  2483.107
 252  2692.642
 253  2658.993
 254  2474.935
 255  2196.525
 256  2135.729
 257  2058.25
 258  1984.965
 259  1721.779
 260  1796.128
 261  1837.334
 262  1971.813
 263  1994.473
 264  1922.417
 265  2012.887
 266  2134.837
 267  2245.522
 268  2427.69
 269  2515.505
 270  2439.09
 271  2111.456
 272  1745.602
 273  1592.065
 274  1371.042
 275  1468.356
 276  1440.937
 277  1635.915
 278  1767.499
 279  1643.681
 280  1590.687
 281  1840.272
 282  2071.98
 283  2388.35
 284  2596.125
 285  2692.552
 286  2401.347
 287  2055.122
 288  1929.185
 289  1844.813
 290  1766.311
 291  1644.964
 292  1668.691
 293  1694.245
 294  1687.756
 295  1648.121
 296  1747.374
 297  1954.663
 298  2039.689
 299  2032.763
 300  1900.42
 301  1898.505
 302  1970.82
 303  2064.38
 304  1939.098
 305  1781.621
 306  1584.917
 307  1702.868
 308  1732.521
 309  1855.909
 310  2007.914
 311  2026.29
 312  2004.635
 313  2006.881
 314  2077.04
 315  2194.394
 316  2169.388
 317  2332.365
 318  2519.498
 319  2443.08
 320  2473.433
 321  2369.264
 322  2225.295
 323  2017.453
 324  1861.04
 325  1902.366
 326  1846.257
 327  1758.959
 328  1912.433
 329  1932.831
 330  2078.435
 331  2042.403
 332  2055.272
 333  2093.73
 334  2064.069
 335  1961.872
 336  2112.397
 337  2048.844
 338  1858.179
 339  1494.067
 340  1437.916
 341  1500.495
 342  1510.157
 343  1738.905
 344  2081.308
 345  2281.702
 346  2434.202
 347  2558.068
 348  2612.851
 349  2833.667
 350  2868.409
 351  2725.136
 352  2485.416
 353  2193.048
 354  2065.86
 355  1959.946
 356  1857.252
 357  1732.779
 358  1671.322
 359  1723.496
 360  1869.572
 361  1796.242
 362  1897.704
 363  1858.606
 364  1961.659
 365  2030.265
 366  2111.044
 367  2224.045
 368  2013.957
 369  1872.355
 370  1631.217
 371  1516.46
 372  1456.262
 373  1569.039
 374  1653.833
 375  1899.625
 376  1884.529
 377  1931.012
 378  1875.622
 379  2063.178
 380  2315.265
 381  2417.025
 382  2492.333
 383  2597.002
 384  2465.419
 385  2525.82
 386  2354.712
 387  2281.661
 388  2213.713
 389  1904.423
 390  1913.665
 391  1870.995
 392  2056.752
 393  2043.484
 394  2002.584
 395  1904.663
 396  2001.821
 397  1964.702
 398  2206.621
 399  2161.022
 400  2131.882
 401  2042.502
 402  1926.821
 403  1848.901
 404  1793.029
 405  1654.066
 406  1564.51
 407  1506.906
 408  1639.256
 409  1713.315
 410  1758.966
 411  1911.919
 412  2000.249
 413  2105.861
 414  2565.944
 415  2750.669
 416  2807.042
 417  2792.879
 418  2636.408
 419  2397.949
 420  2158.891
 421  2072.954
 422  1998.832
 423  1819.496
 424  1654.667
 425  1579.654
 426  1502.232
 427  1643.156
 428  1639.673
 429  1685.85
 430  1765.553
 431  1926.106
 432  2183.327
 433  2374.563
 434  2453.391
 435  2461.57
 436  2331.146
 437  1989.064
 438  1771.116
 439  1649.51
 440  1793.921
 441  1899.433
 442  1783.33
 443  1819.071
 444  1741.022
 445  1865.746
 446  1991.776
 447  2267.346
 448  2713.553
 449  2739.171
 450  2815.821
 451  2629.479
 452  2271.449
 453  2004.229
 454  1879.952
 455  1874.819
 456  1818.811
 457  1705.378
 458  1699.705
 459  1747.629
 460  1792.335
 461  2017.903
 462  1976.381
 463  2134.683
 464  2063.584
 465  2026.022
 466  2070.198
 467  1929.371
 468  1850.243
 469  1782.71
 470  1791.222
 471  1800.804
 472  1628.382
 473  1782.286
 474  2067.666
 475  2180.331
 476  2156.063
 477  2019.061
 478  2035.306
 479  2214.521
 480  2343.671
 481  2348.08
 482  2311.115
 483  2178.855
 484  2384.772
 485  2382.528
 486  2219.297
 487  2157.559
 488  2163.535
 489  2284.357
 490  2142.233
 491  2202.134
 492  2385.163
 493  2097.854
 494  1936.639
 495  1914.095
 496  2004.2
 497  2083.932
 498  2163.781
 499  2483.679
 500  2557.011
 501  2284.688
 502  1892.33
 503  1680.897
 504  1613.982
 505  1495.758
 506  1718.589
 507  1860.797
 508  2009.651
 509  1778.524
 510  1849.272
 511  2004.528
 512  2212.883
 513  2417.381
 514  2414.347
 515  2587.799
 516  2663.169
 517  2462.905
 518  2495.691
 519  2281.477
 520  2025.275
 521  1763.173
 522  1628.305
 523  1735.655
 524  1727.067
 525  1912.047
 526  1969.841
 527  2031.357
 528  2082.943
 529  2047.651
 530  2051.04
 531  2021.201
 532  2068.675
 533  1988.296
 534  1894.214
 535  1575.259
 536  1465.437
 537  1504.229
 538  1423.9
 539  1448.81
 540  1574.676
 541  1858.868
 542  2088.096
 543  2053.654
 544  1995.798
 545  1858.735
 546  2166.953
 547  2390.634
 548  2504.249
 549  2475.597
 550  2393.492
 551  2281.401
 552  2128.223
 553  1779.155
 554  1585.636
 555  1474.05
 556  1612.21
 557  1891.451
 558  1894.292
 559  1828.414
 560  1680.089
 561  1812.135
 562  2044.362
 563  2115.928
 564  2204.799
 565  2339.425
 566  2318.155
 567  2055.564
 568  1941.179
 569  1878.526
 570  1843.659
 571  1670.755
 572  1500.939
 573  1523.631
 574  1492.681
 575  1640.433
 576  1984.928
 577  2122.926
 578  2456.458
 579  2593.004
 580  2952.258
 581  2995.958
 582  2880.686
 583  2958.777
 584  2793.402
 585  2439.154
 586  2366.208
 587  2156.884
 588  2047.069
 589  1787.854
 590  1763.507
 591  1748.957
 592  1927.917
 593  1978.995
 594  2013.176
 595  1720.08
 596  1864.645
 597  2188.559
 598  2375.873
 599  2390.668
 600  2111.662
 601  1973.471
 602  1814.33
 603  1553.91
 604  1592.192
 605  1509.461
 606  1624.958
 607  1612.554
 608  1647.96
 609  1631.486
 610  1729.252
 611  1886.659
 612  2094.505
 613  2202.573
 614  2369.943
 615  2464.675
 616  2424.737
 617  2438.744
 618  2126.975
 619  1982.241
 620  1720.687
 621  1717.016
 622  1628.745
 623  1487.91
 624  1433.115
 625  1633.139
 626  1770.736
 627  1659.988
 628  1478.486
 629  1512.528
 630  1719.385
 631  1804.204
 632  1837.722
 633  1733.639
 634  1503.212
 635  1515.711
 636  1506.532
 637  1610.491
 638  1691.149
 639  1829.171
 640  1921.04
 641  1900.512
 642  1855.852
 643  1826.093
 644  1833.193
 645  1979.525
 646  2268.415
 647  2295.942
 648  2349.214
 649  2311.287
 650  2349.122
 651  2458.865
 652  2280.525
 653  2099.126
 654  1835.608
 655  1722.531
 656  1657.519
 657  1684.315
 658  1882.833
 659  1912.313
 660  1765.893
 661  1712.855
 662  2011.992
 663  1889.172
 664  1867.815
 665  1836.823
 666  1919.17
 667  2051.21
 668  1841.36
 669  1967.539
 670  1897.875
 671  1941.379
 672  1883.014
 673  1955.242
 674  1959.102
 675  2083.376
 676  1965.234
 677  2036.241
 678  2068.503
 679  2233.129
 680  2450.089
 681  2496.445
 682  2476.577
 683  2409.124
 684  2296.374
 685  2443.052
 686  2148.388
 687  1847.692
 688  1619.8
 689  1901.226
 690  2022.882
 691  2083.475
 692  1829.752
 693  2056.543
 694  2091.857
 695  2264.07
 696  2462.983
 697  2446.57
 698  2520.422
 699  2179.042
 700  1995.133
 701  1654.642
 702  1353.337
 703  1461.572
 704  1734.895
 705  2011.141
 706  2221.702
 707  2363.054
 708  2440.25
 709  2392.84
 710  2497.858
 711  2674.912
 712  2854.097
 713  2937.532
 714  3048.468
 715  2847.629
 716  2678.069
 717  2496.575
 718  2437.527
 719  2169.6
 720  1882.434
 721  1828.925
 722  2002.954
 723  2121.11
 724  1985.926
 725  1773.56
 726  1741.058
 727  1979.717
 728  2026.32
 729  2320.817
 730  2398.784
 731  2433.627
 732  2444.4
 733  2311.108
 734  2370.937
 735  2093.036
 736  1969.096
 737  1955.635
 738  1766.82
 739  1838.931
 740  1866.794
 741  2057.566
 742  2132.716
 743  2145.498
 744  2367.272
 745  2657.493
 746  2765.791
 747  3082.497
 748  3120.245
 749  3295.065
 750  3093.525
 751  2777.829
 752  2609.246
 753  2614.823
 754  2865.086
 755  2973.468
 756  3069.517
 757  2867.914
 758  2935.02
 759  2885.441
 760  2928.189
 761  2757.697
 762  2703.006
 763  2770.753
 764  2517.535
 765  2318.951
 766  2068.842
 767  1881.345
 768  1796.228
 769  1753.585
 770  1634.926
 771  1663.982
 772  1714.413
 773  1856.187
 774  1939.529
 775  2068.798
 776  2191.788
 777  2324.616
 778  2439.114
 779  2469.528
 780  2497.208
 781  2506.377
 782  2478.597
 783  2292.195
 784  2117.663
 785  2011.784
 786  1924.904
 787  1865.861
 788  1723.171
 789  1671.284
 790  1597.423
 791  1636.565
 792  1719.894
 793  1640.53
 794  1709.467
 795  2016.316
 796  2056.427
 797  2067.72
 798  1753.758
 799  1910.706
 800  1965.97
 801  2049.99
 802  2133.36
 803  2100.213
 804  1994.846
 805  1986.793
 806  1831.041
 807  1718.004
 808  1535.662
 809  1629.357
 810  1992.359
 811  2177.466
 812  2333.305
 813  2506.475
 814  2669.435
 815  2652.397
 816  2387.249
 817  2145.164
 818  1965.736
 819  1708.557
 820  1802.558
 821  1794.925
 822  1745.37
 823  1870.411
 824  1828.271
 825  1848.408
 826  1620.449
 827  1619.057
 828  1927.172
 829  1936.663
 830  2098.729
 831  2143.706
 832  2017.019
 833  1893.309
 834  1716.327
 835  1621.448
 836  1573.806
 837  1768.327
 838  1994.749
 839  2025.033
 840  1868.996
 841  1979.971
 842  1948.986
 843  2038.965
 844  2160.524
 845  2268.418
 846  2196.242
 847  2304.289
 848  2368.114
 849  2325.383
 850  1979.007
 851  1765.84
 852  1985.906
 853  1814.812
 854  1711.456
 855  1733.81
 856  1913.727
 857  1851.261
 858  1567.893
 859  1732.795
 860  1977.681
 861  2048.12
 862  2165.068
 863  2233.296
 864  2137.133
 865  1998.49
 866  1797.154
 867  1760.645
 868  1525.466
 869  1475.168
 870  1547.891
 871  1568.707
 872  1633.591
 873  1654.485
 874  1831.349
 875  2004.227
 876  2255.542
 877  2500.465
 878  2609.154
 879  2593.707
 880  2565.238
 881  2420.865
 882  2335.932
 883  2193.103
 884  2008.822
 885  1707.789
 886  1553.509
 887  1556.273
 888  1849.07
 889  1892.744
 890  1878.029
 891  1756.734
 892  1857.151
 893  2063.012
 894  2023.486
 895  2032.875
 896  2158.079
 897  2088.877
 898  2088.116
 899  1839.028
 900  1727.72
 901  1668.426
 902  1749.994
 903  2002.08
 904  2035.013
 905  2117.094
 906  2134.199
 907  2142.008
 908  2300.744
 909  2479.706
 910  2633.753
 911  2634.004
 912  2783.121
 913  2750.379
 914  2698.028
 915  2358.17
 916  2171.837
 917  2073.551
 918  2007.608
 919  1910.231
 920  1976.488
 921  1908.155
 922  1852.018
 923  1682.533
 924  1684.952
 925  1934.636
 926  1926.265
 927  2083.386
 928  2125.534
 929  2137.486
 930  2328.92
 931  2171.186
 932  2168.796
 933  1965.983
 934  1785.21
 935  1794.828
 936  1763.882
 937  1772.404
 938  1851.778
 939  1765.138
 940  1970.466
 941  2127.309
 942  2273.264
 943  2439.188
 944  2560.422
 945  2799.418
 946  2836.943
 947  2705.961
 948  2558.297
 949  2285.094
 950  2161.194
 951  1960.656
 952  1780.621
 953  1923.975
 954  1802.964
 955  1787.285
 956  1639.606
 957  1671.657
 958  1726.558
 959  1570.446
 960  1575.481
 961  1775.109
 962  2026.877
 963  2253.162
 964  2197.415
 965  2056.081
 966  1866.7
 967  1624.293
 968  1694.397
 969  1771.823
 970  1785.497
 971  1743.664
 972  1659.605
 973  1692.925
 974  1746.429
 975  1905.859
 976  2179.988
 977  2268.688
 978  2333.347
 979  2323.882
 980  2444.885
 981  2334.453
 982  2300.129
 983  2164.725
 984  2093.449
 985  1993.475
 986  1900.683
 987  1745.113
 988  1531.552
 989  1552.265
 990  1731.885
 991  1766.21
 992  1785.393
 993  1873.604
 994  1969.623
 995  2121.729
 996  2058.924
 997  2044.528
 998  1903.471
 999  1772.479
1000  1959.519
1001  1943.827
1002  1885.976
1003  1917.875
1004  1861.341
1005  1941.914
1006  2044.865
1007  2248.607
1008  2430.824
1009  2435.614
1010  2506.665
1011  2431.699
1012  2407.81
1013  2440.879
1014  2418.327
1015  2194.382
1016  1885.288
1017  1609.373
1018  1734.366
1019  1951.195
1020  1840.713
1021  1846.277
1022  1990.689
1023  1849.418
