# Input file       =  1179475185.131431_cleaned.dat
# Candidate        =  PSR_0332+5434
# Telescope        =  AR
# Epoch_topo       =  57895.333381150820
# Epoch_bary       =  N/A
# T_sample         =  0.002
# Data Folded      =  7340032
# Data Avg         =  0.0691128957977134
# Data StdDev      =  2.80145563677931 
# Profile Bins     =  512
# Profile Avg      =  990.862902704821 
# Profile StdDev   =  335.426789666393 
# Reduced chi-sqr  =  0.866
# Prob(Noise)      <  0.987   (~0.0 sigma)
# P_topo (ms)      =  714.526114318829  +/- 0.000255
# P'_topo (s/s)    =  -0                +/- 1.34e-10
# P''_topo (s/s^2) =  0                 +/- 5.93e-14
# P_bary (ms)      =  N/A
# P'_bary (s/s)    =  N/A
# P''_bary (s/s^2) =  N/A
# P_orb (s)        =  N/A
# asin(i)/c (s)    =  N/A
# eccentricity     =  N/A
# w (rad)          =  N/A
# T_peri           =  N/A
######################################################
   0  972.4427
   1  625.5646
   2  935.4149
   3  1239.926
   4  1334.467
   5  1487.644
   6  1478.384
   7  1319.307
   8  1020.322
   9  954.28
  10  954.5109
  11  775.3147
  12  803.6931
  13  1084.799
  14  879.3727
  15  939.3008
  16  900.3941
  17  1147.29
  18  1112.957
  19  646.1816
  20  730.2792
  21  937.728
  22  937.5688
  23  832.4072
  24  630.3044
  25  810.2015
  26  700.5939
  27  461.1837
  28  556.8254
  29  481.634
  30  683.9568
  31  998.7209
  32  773.9254
  33  729.591
  34  844.787
  35  1118.07
  36  893.7316
  37  797.4988
  38  1004.59
  39  1051.935
  40  848.3079
  41  704.6154
  42  1122.837
  43  1180.539
  44  1049.404
  45  804.6053
  46  886.2883
  47  1166.607
  48  1258.911
  49  1100.008
  50  859.0034
  51  997.0087
  52  939.3568
  53  1205.062
  54  1102.104
  55  917.4843
  56  1039.375
  57  993.0726
  58  994.8775
  59  825.5789
  60  835.6417
  61  1123.406
  62  989.6473
  63  871.4436
  64  1139.706
  65  886.0987
  66  889.7321
  67  1207.841
  68  1180.242
  69  816.1006
  70  653.5618
  71  837.4548
  72  870.1454
  73  993.6573
  74  592.9142
  75  626.0917
  76  847.174
  77  1166.128
  78  925.5962
  79  807.56
  80  1054.568
  81  916.3105
  82  905.8168
  83  1064.682
  84  754.9866
  85  663.2635
  86  443.2812
  87  852.3259
  88  798.3428
  89  724.2903
  90  1285.03
  91  1318.352
  92  1156.648
  93  1092.138
  94  1139.097
  95  1169.192
  96  1199.946
  97  1139.458
  98  1172.445
  99  1038.073
 100  1016.418
 101  1044.934
 102  966.6546
 103  635.229
 104  585.8143
 105  932.1154
 106  1060.748
 107  931.4332
 108  624.3697
 109  607.2975
 110  573.4434
 111  856.6456
 112  907.126
 113  1014.377
 114  1030.693
 115  1001.822
 116  889.2264
 117  1082.012
 118  1156.25
 119  895.9091
 120  1003.408
 121  1076.005
 122  1095.112
 123  1307.371
 124  1303.277
 125  1005.728
 126  951.1712
 127  1005.449
 128  1145.937
 129  1215.288
 130  885.9726
 131  671.5928
 132  632.879
 133  824.1283
 134  1063.489
 135  888.4479
 136  601.1918
 137  273.8288
 138  617.7911
 139  823.7701
 140  1060.557
 141  974.0683
 142  966.641
 143  880.4406
 144  1046.259
 145  1223.796
 146  1091.719
 147  1139.161
 148  1001.679
 149  959.9979
 150  850.1519
 151  861.5626
 152  899.3932
 153  614.0311
 154  634.1536
 155  885.0109
 156  798.8598
 157  898.647
 158  1119.677
 159  902.5678
 160  882.7762
 161  988.1243
 162  930.183
 163  933.3745
 164  1028.32
 165  1036.222
 166  757.2584
 167  784.0244
 168  779.8421
 169  720.1763
 170  914.777
 171  1172.55
 172  909.5752
 173  943.8317
 174  1234.355
 175  1264.801
 176  1128.498
 177  1021.919
 178  1007.095
 179  1374.292
 180  1234.705
 181  873.7097
 182  796.4324
 183  693.0318
 184  830.1537
 185  969.0357
 186  826.8538
 187  815.004
 188  757.8441
 189  815.9937
 190  871.2192
 191  1169.908
 192  1168.181
 193  938.4904
 194  994.1289
 195  1022.29
 196  570.3738
 197  580.1492
 198  456.4811
 199  612.9667
 200  968.9235
 201  944.6492
 202  1082.172
 203  1192.71
 204  1112.619
 205  1001.632
 206  705.3856
 207  749.2308
 208  711.2462
 209  965.5107
 210  1153.417
 211  935.0651
 212  954.228
 213  985.7227
 214  957.1356
 215  1004.184
 216  937.5059
 217  940.5222
 218  870.2799
 219  869.4855
 220  773.2854
 221  702.5216
 222  887.6412
 223  1279.883
 224  1095.808
 225  789.6138
 226  549.39
 227  973.9513
 228  1092.311
 229  1066.496
 230  757.3403
 231  711.088
 232  1025.715
 233  1187.308
 234  877.6406
 235  856.6367
 236  852.671
 237  783.0174
 238  789.1375
 239  845.2465
 240  815.7117
 241  1282.509
 242  1285.529
 243  1218.259
 244  978.3521
 245  1132.591
 246  1269.028
 247  1295.04
 248  1310.314
 249  1303.526
 250  1146.568
 251  1141.654
 252  1167.1
 253  901.9298
 254  895.2017
 255  861.0234
 256  1047.908
 257  1247.321
 258  1235.849
 259  1099.095
 260  1555.224
 261  1178.559
 262  931.7363
 263  1329.35
 264  1313.878
 265  1115.353
 266  773.8867
 267  778.0127
 268  1103.512
 269  1008.182
 270  1033.088
 271  1183.362
 272  1149.656
 273  1131.287
 274  1084.625
 275  1155.127
 276  860.1293
 277  774.9484
 278  1066.729
 279  1191.202
 280  797.6144
 281  1028.108
 282  889.3256
 283  875.7537
 284  763.3756
 285  983.5816
 286  1192.681
 287  1131.084
 288  920.9119
 289  785.487
 290  968.5675
 291  929.3194
 292  982.8381
 293  924.559
 294  1339.493
 295  1128.603
 296  748.7985
 297  626.1817
 298  811.5731
 299  1316.401
 300  1403.503
 301  1160.212
 302  824.2083
 303  766.8935
 304  922.7101
 305  1300.992
 306  1303.097
 307  859.3102
 308  593.4072
 309  747.2397
 310  909.385
 311  717.49
 312  479.3261
 313  788.989
 314  1197.471
 315  1148.273
 316  966.5168
 317  1055.24
 318  882.7609
 319  1052.096
 320  1004.273
 321  987.0713
 322  818.8913
 323  929.7693
 324  1036.194
 325  1339.774
 326  1792.083
 327  1789.086
 328  2038.093
 329  2142.185
 330  1953.733
 331  1588.235
 332  1093.983
 333  1199.208
 334  1091.157
 335  1180.656
 336  1131.836
 337  1178.34
 338  1030.589
 339  1279.382
 340  1198.509
 341  1258.907
 342  1289.484
 343  1324.269
 344  1206.134
 345  1078.286
 346  893.7048
 347  1051.749
 348  1096.837
 349  1346.496
 350  1423.564
 351  1166.389
 352  1155.528
 353  1147.496
 354  1022.689
 355  771.9561
 356  785.2567
 357  901.6986
 358  920.7179
 359  768.6949
 360  903.8752
 361  1034.552
 362  1295.715
 363  1223.266
 364  905.6036
 365  445.8268
 366  669.3346
 367  668.5763
 368  854.7291
 369  1165.785
 370  1041.741
 371  924.9741
 372  831.0074
 373  849.6331
 374  790.1274
 375  951.893
 376  1177.145
 377  1215.85
 378  996.9327
 379  773.506
 380  739.3414
 381  376.9786
 382  663.8308
 383  731.2269
 384  703.7819
 385  784.2516
 386  885.5416
 387  1062.141
 388  898.7357
 389  994.5334
 390  1002.432
 391  998.4628
 392  872.3773
 393  762.7287
 394  767.1867
 395  824.0423
 396  1127.471
 397  1200.827
 398  1166.865
 399  999.8504
 400  1021.579
 401  1014.318
 402  1145.067
 403  967.6606
 404  1075.392
 405  1140.731
 406  1423.156
 407  1261.805
 408  1259.134
 409  1234.187
 410  1070.578
 411  1005.596
 412  1083.913
 413  1140.163
 414  1181.431
 415  1370.873
 416  1365.327
 417  1173.569
 418  834.6365
 419  1111.841
 420  947.4622
 421  841.7609
 422  1142.109
 423  1188.507
 424  815.0409
 425  851.363
 426  1068.289
 427  1311.718
 428  712.6421
 429  970.9202
 430  1162.765
 431  941.129
 432  1068.094
 433  809.7191
 434  788.0029
 435  992.411
 436  1159.063
 437  1073.809
 438  836.3946
 439  957.6038
 440  1010.687
 441  935.1863
 442  920.7779
 443  987.3674
 444  1145.072
 445  1238.599
 446  1269.844
 447  1140.388
 448  1401.34
 449  1124.544
 450  922.6603
 451  641.0818
 452  800.1559
 453  924.0019
 454  648.343
 455  647.5787
 456  992.551
 457  1072.734
 458  1051.388
 459  945.6707
 460  1263.911
 461  1246.06
 462  950.4305
 463  1006.714
 464  988.9044
 465  988.0762
 466  1001.647
 467  1158.34
 468  1118.65
 469  1009.182
 470  1382.945
 471  1397.823
 472  896.0615
 473  972.46
 474  873.0234
 475  876.2885
 476  940.3167
 477  1064.257
 478  1079.908
 479  1138.562
 480  870.3325
 481  892.3501
 482  809.0137
 483  627.5605
 484  739.4526
 485  1084.806
 486  1332.144
 487  1123.812
 488  799.108
 489  717.1915
 490  769.8862
 491  903.7577
 492  1107.671
 493  1259.471
 494  765.9023
 495  986.7806
 496  1108.164
 497  1141.155
 498  1059.27
 499  1176.245
 500  925.7825
 501  872.1254
 502  1270.663
 503  1082.87
 504  1085.998
 505  1059.428
 506  1145.389
 507  1306.055
 508  1265.38
 509  1296.441
 510  1109.026
 511  1173.427
