# Input file       =  1179115899.100237_cleaned.dat
# Candidate        =  PSR_0332+5434
# Telescope        =  AR
# Epoch_topo       =  57891.174978012001
# Epoch_bary       =  N/A
# T_sample         =  0.002
# Data Folded      =  7208960
# Data Avg         =  0.0403065524261753
# Data StdDev      =  1.00003524269306 
# Profile Bins     =  512
# Profile Avg      =  567.506146854324 
# Profile StdDev   =  118.663357662442 
# Reduced chi-sqr  =  1.648
# Prob(Noise)      <  1.29e-18   (~8.7 sigma)
# P_topo (ms)      =  714.530180521743  +/- 4.13e-05
# P'_topo (s/s)    =  -0                +/- 2.22e-11
# P''_topo (s/s^2) =  0                 +/- 9.96e-15
# P_bary (ms)      =  N/A
# P'_bary (s/s)    =  N/A
# P''_bary (s/s^2) =  N/A
# P_orb (s)        =  N/A
# asin(i)/c (s)    =  N/A
# eccentricity     =  N/A
# w (rad)          =  N/A
# T_peri           =  N/A
######################################################
   0  1222.345
   1  1074.482
   2  893.2763
   3  778.0723
   4  609.7748
   5  619.3138
   6  549.4189
   7  613.0974
   8  636.2739
   9  626.6658
  10  623.4608
  11  610.9126
  12  595.0598
  13  503.9886
  14  476.1004
  15  661.6409
  16  693.962
  17  699.7958
  18  652.4614
  19  617.2975
  20  530.2756
  21  579.093
  22  561.3701
  23  672.6232
  24  643.7859
  25  560.5715
  26  630.8336
  27  679.6581
  28  681.7563
  29  621.6456
  30  529.5971
  31  640.1096
  32  606.2111
  33  690.6931
  34  615.2393
  35  485.9767
  36  489.4741
  37  552.3236
  38  623.9004
  39  678.0812
  40  585.9494
  41  643.5228
  42  639.4782
  43  573.1831
  44  507.1594
  45  559.1526
  46  595.442
  47  736.1995
  48  696.4816
  49  679.9026
  50  662.461
  51  508.2518
  52  421.9825
  53  490.9044
  54  560.0011
  55  556.1843
  56  612.6963
  57  558.1412
  58  632.9311
  59  561.1141
  60  609.8167
  61  512.3777
  62  544.9225
  63  542.0236
  64  466.0473
  65  604.5723
  66  538.5905
  67  448.3562
  68  349.1405
  69  462.6053
  70  380.1462
  71  239.3721
  72  248.259
  73  381.5493
  74  453.318
  75  554.1606
  76  542.4808
  77  476.3646
  78  426.9487
  79  461.6516
  80  491.7012
  81  646.0944
  82  615.7262
  83  527.8087
  84  524.11
  85  460.0804
  86  399.8314
  87  385.2359
  88  522.3216
  89  591.5244
  90  590.1569
  91  573.8766
  92  393.7685
  93  417.9738
  94  450.0647
  95  452.5522
  96  372.4071
  97  504.6107
  98  748.1188
  99  652.114
 100  665.1509
 101  601.3544
 102  571.5397
 103  529.8251
 104  531.5067
 105  624.0529
 106  668.1962
 107  749.4534
 108  831.2302
 109  685.5184
 110  618.2266
 111  548.1245
 112  565.5277
 113  512.5706
 114  574.3174
 115  709.9053
 116  708.3631
 117  517.9528
 118  499.0631
 119  626.0828
 120  608.6207
 121  513.8348
 122  693.284
 123  726.4363
 124  670.4633
 125  711.0801
 126  640.4155
 127  439.7532
 128  562.0401
 129  635.4957
 130  525.0845
 131  578.3811
 132  697.7241
 133  750.784
 134  659.5889
 135  648.0392
 136  516.3272
 137  441.312
 138  572.1263
 139  662.1276
 140  644.9744
 141  606.5505
 142  552.4207
 143  613.5357
 144  509.5145
 145  590.0878
 146  509.2535
 147  597.8505
 148  635.6832
 149  548.3209
 150  451.9193
 151  494.5159
 152  490.6799
 153  416.4346
 154  446.7908
 155  555.3178
 156  684.081
 157  695.5764
 158  558.8172
 159  539.2177
 160  616.7084
 161  598.0734
 162  655.2119
 163  776.197
 164  732.6416
 165  605.2628
 166  580.5183
 167  486.4483
 168  474.544
 169  513.1779
 170  506.5397
 171  480.6447
 172  630.7821
 173  754.5706
 174  663.955
 175  519.2479
 176  528.704
 177  610.1355
 178  509.21
 179  550.6743
 180  633.0629
 181  668.6193
 182  686.9161
 183  671.7474
 184  625.9481
 185  566.3113
 186  681.8331
 187  636.796
 188  626.61
 189  617.6462
 190  656.876
 191  757.4149
 192  641.1339
 193  561.1479
 194  527.2563
 195  553.6012
 196  555.2189
 197  623.9497
 198  644.7578
 199  584.2396
 200  579.3329
 201  518.5578
 202  496.1998
 203  505.0144
 204  529.1928
 205  591.0393
 206  713.4039
 207  740.3049
 208  651.4265
 209  664.6121
 210  619.3671
 211  647.8536
 212  693.7075
 213  694.8745
 214  665.6399
 215  687.7231
 216  748.5237
 217  658.8557
 218  548.1149
 219  527.7372
 220  449.2221
 221  504.8814
 222  659.9944
 223  530.0601
 224  574.2585
 225  608.2777
 226  544.9053
 227  412.5536
 228  382.8643
 229  464.4255
 230  585.3263
 231  542.9762
 232  441.7686
 233  502.0501
 234  501.2476
 235  556.7561
 236  534.3394
 237  502.8654
 238  618.7413
 239  608.2488
 240  546.7365
 241  492.6379
 242  473.2388
 243  566.3672
 244  598.4739
 245  523.8967
 246  519.5255
 247  588.7494
 248  708.7571
 249  612.7557
 250  493.5699
 251  441.8904
 252  507.0295
 253  542.0766
 254  552.2286
 255  544.4969
 256  573.1833
 257  635.9663
 258  611.8614
 259  580.6885
 260  564.9006
 261  515.9758
 262  580.6226
 263  600.0302
 264  669.3247
 265  523.8742
 266  468.988
 267  447.2876
 268  470.4968
 269  433.114
 270  407.1412
 271  617.9494
 272  696.9967
 273  528.9268
 274  427.6123
 275  475.3217
 276  493.9175
 277  455.2277
 278  459.4395
 279  475.8092
 280  541.9481
 281  573.4012
 282  528.5002
 283  330.2766
 284  293.8926
 285  239.5432
 286  266.5358
 287  327.7248
 288  414.6036
 289  592.3869
 290  563.2319
 291  487.2393
 292  459.944
 293  354.388
 294  290.7776
 295  501.9453
 296  583.3864
 297  473.5427
 298  533.278
 299  447.5606
 300  361.6744
 301  360.4849
 302  468.595
 303  431.3111
 304  494.8045
 305  612.0848
 306  626.8165
 307  539.3281
 308  489.3271
 309  471.0084
 310  390.1644
 311  459.4855
 312  502.7871
 313  554.047
 314  634.5184
 315  494.7042
 316  402.0046
 317  476.8136
 318  534.0418
 319  449.2585
 320  410.5764
 321  457.2988
 322  465.3468
 323  482.8752
 324  515.4089
 325  540.0126
 326  593.5621
 327  558.2311
 328  420.5219
 329  411.9916
 330  444.8191
 331  567.4441
 332  501.8139
 333  446.0247
 334  335.3266
 335  347.8955
 336  418.1721
 337  465.8256
 338  456.9579
 339  507.0652
 340  543.3698
 341  547.8723
 342  476.8164
 343  417.9091
 344  408.2131
 345  516.834
 346  554.3777
 347  663.0391
 348  578.2596
 349  462.3459
 350  358.8735
 351  433.7205
 352  497.7677
 353  434.9709
 354  513.7753
 355  450.4482
 356  514.7328
 357  488.8548
 358  516.6567
 359  497.4989
 360  550.5617
 361  601.5275
 362  552.471
 363  699.5361
 364  600.8842
 365  535.5516
 366  459.1791
 367  417.7285
 368  401.7127
 369  413.1399
 370  623.0599
 371  604.1396
 372  605.1102
 373  536.3961
 374  517.5883
 375  535.6547
 376  527.5065
 377  574.6685
 378  549.6695
 379  597.4776
 380  635.2183
 381  505.2342
 382  440.412
 383  434.627
 384  431.7521
 385  544.8169
 386  570.5116
 387  569.7303
 388  545.3151
 389  628.8677
 390  559.2006
 391  550.8061
 392  606.9
 393  570.4529
 394  577.1981
 395  529.2041
 396  569.885
 397  547.241
 398  501.7375
 399  577.5613
 400  570.2963
 401  624.2233
 402  587.9688
 403  571.4362
 404  591.8631
 405  611.352
 406  584.556
 407  626.0474
 408  609.4457
 409  628.1593
 410  691.933
 411  630.9497
 412  717.9655
 413  737.2068
 414  690.4449
 415  617.1033
 416  666.6981
 417  706.8785
 418  689.4758
 419  723.3982
 420  691.1652
 421  670.1891
 422  686.2189
 423  693.218
 424  712.6049
 425  669.127
 426  661.553
 427  609.7357
 428  703.5258
 429  698.1108
 430  662.9901
 431  640.2774
 432  630.2826
 433  625.4305
 434  521.2122
 435  538.2764
 436  517.3044
 437  552.6961
 438  763.0402
 439  621.6044
 440  529.4149
 441  572.5728
 442  481.157
 443  418.156
 444  520.571
 445  607.5916
 446  658.4172
 447  637.5439
 448  610.5857
 449  569.5588
 450  500.6467
 451  568.0667
 452  541.5154
 453  689.4107
 454  764.6805
 455  771.6349
 456  741.9532
 457  622.056
 458  575.6467
 459  453.3171
 460  464.8096
 461  608.4462
 462  693.3762
 463  716.1686
 464  613.0579
 465  401.9413
 466  355.5098
 467  359.0459
 468  494.3335
 469  546.887
 470  576.6566
 471  657.066
 472  559.3954
 473  582.5298
 474  564.8909
 475  474.9591
 476  484.1078
 477  634.8025
 478  631.0311
 479  570.0112
 480  530.2999
 481  525.3732
 482  486.5624
 483  461.6707
 484  480.3596
 485  610.782
 486  696.9825
 487  774.5375
 488  686.6872
 489  611.3939
 490  659.3812
 491  576.4748
 492  581.0718
 493  605.3683
 494  629.249
 495  628.7708
 496  638.4932
 497  755.3051
 498  509.4757
 499  419.173
 500  527.3919
 501  638.716
 502  729.4649
 503  695.5265
 504  753.7959
 505  759.5329
 506  605.8208
 507  653.5768
 508  714.1703
 509  794.53
 510  945.8859
 511  1071.101
