# Input file       =  1179921519.105297_cleaned.dat
# Candidate        =  PSR_0332+5434
# Telescope        =  AR
# Epoch_topo       =  57900.499283626123
# Epoch_bary       =  N/A
# T_sample         =  0.002
# Data Folded      =  7340032
# Data Avg         =  0.11997098228416 
# Data StdDev      =  3.45091600922329 
# Profile Bins     =  512
# Profile Avg      =  1720.09984878109 
# Profile StdDev   =  413.188652065497 
# Reduced chi-sqr  =  0.956
# Prob(Noise)      <  0.757   (~0.0 sigma)
# P_topo (ms)      =  714.521357884047  +/- 0.000227
# P'_topo (s/s)    =  -0                +/- 1.2e-10
# P''_topo (s/s^2) =  0                 +/- 5.29e-14
# P_bary (ms)      =  N/A
# P'_bary (s/s)    =  N/A
# P''_bary (s/s^2) =  N/A
# P_orb (s)        =  N/A
# asin(i)/c (s)    =  N/A
# eccentricity     =  N/A
# w (rad)          =  N/A
# T_peri           =  N/A
######################################################
   0  1864.424
   1  1647.083
   2  1681.601
   3  1650.969
   4  1864.887
   5  2086.192
   6  2285.018
   7  2227.232
   8  2031.894
   9  1909.059
  10  1894.151
  11  2134.356
  12  2142.631
  13  2146.579
  14  2226.821
  15  2086.362
  16  2011.496
  17  1768.085
  18  1373.623
  19  1603.719
  20  1725.341
  21  1564.305
  22  1532.095
  23  1393.629
  24  1624.518
  25  1848.629
  26  1818.17
  27  1808.888
  28  1810.488
  29  1340.735
  30  1153.081
  31  1196.582
  32  1628.056
  33  1606.884
  34  1308.403
  35  1453.898
  36  1392.49
  37  1445.453
  38  1452.986
  39  1520.447
  40  1651.681
  41  1553.428
  42  1358.447
  43  1274.967
  44  1446.665
  45  1547.22
  46  1593.112
  47  1541.784
  48  1786.373
  49  1659.558
  50  1418.446
  51  1630.112
  52  1874.866
  53  1873.396
  54  1909.234
  55  1562.987
  56  1420.883
  57  1568.245
  58  1545.575
  59  1450.927
  60  1912.928
  61  1921.738
  62  1747.75
  63  2141.731
  64  2162.883
  65  2172.816
  66  1795.721
  67  1676.153
  68  1578.375
  69  1783.184
  70  1514.227
  71  1532.419
  72  1512.891
  73  1563.221
  74  1880.589
  75  2031.596
  76  1749.378
  77  1994.568
  78  1960.313
  79  1760.887
  80  1808.677
  81  1773.383
  82  1958.857
  83  1701.354
  84  1524.415
  85  1502.235
  86  1315.543
  87  1569.33
  88  1569.426
  89  1518.554
  90  1477.054
  91  1474.106
  92  1644.856
  93  1500.81
  94  1580.719
  95  1378.532
  96  1532.74
  97  1862.146
  98  1993.689
  99  2028.908
 100  1772.942
 101  1707.032
 102  1860.434
 103  1346.985
 104  1391.122
 105  1638.506
 106  1644.25
 107  1278.148
 108  1173.051
 109  1268.644
 110  1332.16
 111  1313.996
 112  1143.199
 113  1152.713
 114  1054.168
 115  1168.434
 116  1080.181
 117  1319.453
 118  1492.046
 119  1212.112
 120  1436.128
 121  1489.068
 122  1775.553
 123  1729.914
 124  1820.052
 125  1983.099
 126  1527.716
 127  1647.807
 128  1722.261
 129  2114.628
 130  1903.7
 131  1751.533
 132  1963.635
 133  1768.753
 134  2041.263
 135  1743.485
 136  1773.17
 137  2125.721
 138  1986.017
 139  1860.522
 140  1893.192
 141  1739.181
 142  1752.803
 143  1797.993
 144  1578.75
 145  1446.484
 146  1543.113
 147  1818.805
 148  1519.844
 149  1743.722
 150  1870.528
 151  1537.995
 152  1396.603
 153  1153.436
 154  1533.515
 155  1444.159
 156  1453.73
 157  1342.451
 158  1059.353
 159  1498.811
 160  1640.268
 161  1388.07
 162  1429.934
 163  1495.167
 164  1823.905
 165  1780.498
 166  1591.556
 167  1741.822
 168  1873.882
 169  1823.621
 170  1865.963
 171  1562.466
 172  1517.325
 173  1269.47
 174  1943.886
 175  2206.384
 176  2088.649
 177  1790.647
 178  2043.914
 179  2080.405
 180  1720.121
 181  1962.169
 182  1871.021
 183  2074.58
 184  2268.776
 185  2094.023
 186  2002.38
 187  1815.912
 188  1849.98
 189  1718.384
 190  1695.859
 191  1939.304
 192  2016.463
 193  1752.976
 194  1606.893
 195  1723.109
 196  2003.612
 197  1777.527
 198  1784.231
 199  1562.694
 200  2023.57
 201  1659.561
 202  1634.762
 203  1777.61
 204  1601.594
 205  1298.001
 206  1379.925
 207  1453.172
 208  2004.71
 209  1858.786
 210  1792.426
 211  1734.172
 212  1884.932
 213  1866.101
 214  1843.929
 215  1637.297
 216  1583.191
 217  1847.264
 218  1908.294
 219  2212.484
 220  2312.56
 221  2131.757
 222  1588.704
 223  1857.959
 224  1974.038
 225  2121.29
 226  2216.385
 227  2262.529
 228  1880.956
 229  1901.688
 230  2134.447
 231  1990.867
 232  2013.88
 233  1926.649
 234  1614.865
 235  1879.222
 236  2160.477
 237  1936.255
 238  1875.707
 239  2105.949
 240  1992.986
 241  1808.064
 242  1906.403
 243  1747.943
 244  2027.05
 245  1485.995
 246  1719.189
 247  1660.018
 248  1677.855
 249  1703.843
 250  1766.229
 251  1780.216
 252  1405.126
 253  1346.72
 254  1720.935
 255  1844.136
 256  1773.455
 257  1679.269
 258  1568.299
 259  1440.499
 260  1364.013
 261  1698.736
 262  2041.755
 263  1998.164
 264  2004.617
 265  1801.617
 266  1812.6
 267  2175.744
 268  2523.96
 269  2391.844
 270  2345.773
 271  2242.249
 272  1942.265
 273  1966.077
 274  2047.437
 275  2132.259
 276  2020.255
 277  1959.299
 278  1867.883
 279  2003.205
 280  2204.454
 281  2176.134
 282  2035.876
 283  2214.049
 284  1922.072
 285  2259.647
 286  2035.281
 287  1776.732
 288  1950.509
 289  2128.537
 290  2150.769
 291  1789.543
 292  1452.127
 293  1280.502
 294  1276.69
 295  1480.155
 296  1656.399
 297  1437.119
 298  1437.545
 299  1486.336
 300  1554.655
 301  1741.919
 302  1372.96
 303  1483.783
 304  1379.41
 305  1541.237
 306  1732.773
 307  1587.87
 308  1734.542
 309  1763.624
 310  1577.759
 311  1793.652
 312  1842.558
 313  1985.236
 314  1826.487
 315  1779.085
 316  1865.092
 317  1523.083
 318  1231.494
 319  1409.172
 320  1602.698
 321  1472.55
 322  1425.369
 323  1617.537
 324  1582.619
 325  1785.199
 326  2077.245
 327  2287.78
 328  2844.334
 329  2608.842
 330  2508.914
 331  2149.72
 332  2043.622
 333  1859.335
 334  1626.606
 335  1700.646
 336  1563.136
 337  1337.752
 338  1447.431
 339  1877.698
 340  1885.91
 341  1869.942
 342  1867.079
 343  1543.036
 344  1670.562
 345  2104.478
 346  2006.547
 347  2166.861
 348  2186.947
 349  1868.858
 350  1810.455
 351  1931.656
 352  1724.156
 353  1873.773
 354  1937.941
 355  1896.451
 356  1541.444
 357  2263.594
 358  2282.948
 359  2167.343
 360  2128.179
 361  1672.627
 362  1593.635
 363  1497.537
 364  1993.645
 365  1972.626
 366  2090.441
 367  1579.785
 368  1658.115
 369  2026.852
 370  1839.87
 371  1637.559
 372  1629.026
 373  1581.796
 374  1828.769
 375  1932.243
 376  1964.317
 377  2239.422
 378  2383.444
 379  2264.982
 380  1928.007
 381  2006.028
 382  2298.889
 383  1772.915
 384  1623.62
 385  1841.119
 386  1896.88
 387  1866.134
 388  1929.158
 389  1794.272
 390  1795.845
 391  1458.494
 392  1665.487
 393  1651.79
 394  1800.235
 395  1689.12
 396  1815.071
 397  1747.026
 398  1897.891
 399  1909.054
 400  1817.015
 401  1690.843
 402  1576.619
 403  1274.271
 404  1477.221
 405  1676.243
 406  1811.135
 407  1560.202
 408  1362.21
 409  1293.917
 410  1177.43
 411  1329.448
 412  1226.21
 413  1258.392
 414  1340.344
 415  1450.133
 416  1035.69
 417  993.0485
 418  1254.372
 419  1566.57
 420  1555.838
 421  1139.783
 422  932.4006
 423  1146.382
 424  1078.855
 425  1242.804
 426  1298.136
 427  1203.176
 428  1157.78
 429  1379.899
 430  1413.391
 431  1177.346
 432  1473.607
 433  1293.647
 434  1501.121
 435  1679.551
 436  1766.256
 437  1610.676
 438  1524.099
 439  1928.815
 440  1743.309
 441  1971.978
 442  2162.63
 443  2005.113
 444  1842.906
 445  1342.644
 446  1620.088
 447  1398.742
 448  1682.178
 449  1636.054
 450  1318.581
 451  1578.973
 452  1616.917
 453  1504.518
 454  1505.363
 455  1601.059
 456  1285.164
 457  1471.428
 458  1010.985
 459  1326.692
 460  1272.087
 461  1378.248
 462  1322.21
 463  1253.494
 464  1531.834
 465  1769.107
 466  1517.019
 467  1255.803
 468  1544.542
 469  1595.767
 470  1639.802
 471  1988.884
 472  1820.911
 473  1691.528
 474  1681.802
 475  1621.146
 476  2119.732
 477  1750.003
 478  1758.864
 479  1908.023
 480  1595.46
 481  1609.422
 482  1662.91
 483  1701.787
 484  1971.153
 485  1984.39
 486  2154.792
 487  1974.37
 488  1687.092
 489  1425.014
 490  1426.932
 491  1910.255
 492  2146.293
 493  1605.881
 494  1609.083
 495  1660.561
 496  1755.367
 497  1624.01
 498  1667.739
 499  1441.228
 500  1356.372
 501  1787.216
 502  1957.676
 503  1704.521
 504  1784.6
 505  1755.975
 506  2007.155
 507  1660.179
 508  1773.936
 509  2098.678
 510  1820.1
 511  1696.453
