# Input file       =  1179302869.09633_cleaned.dat
# Candidate        =  PSR_0332+5434
# Telescope        =  AR
# Epoch_topo       =  57893.338982596411
# Epoch_bary       =  N/A
# T_sample         =  0.002
# Data Folded      =  7340032
# Data Avg         =  0.0392746864173594
# Data StdDev      =  2.37321578072438 
# Profile Bins     =  512
# Profile Avg      =  563.044447573198 
# Profile StdDev   =  284.152331403387 
# Reduced chi-sqr  =  1.222
# Prob(Noise)      <  0.00042   (~3.3 sigma)
# P_topo (ms)      =  714.528075852843  +/- 0.000187
# P'_topo (s/s)    =  -0                +/- 9.89e-11
# P''_topo (s/s^2) =  0                 +/- 4.37e-14
# P_bary (ms)      =  N/A
# P'_bary (s/s)    =  N/A
# P''_bary (s/s^2) =  N/A
# P_orb (s)        =  N/A
# asin(i)/c (s)    =  N/A
# eccentricity     =  N/A
# w (rad)          =  N/A
# T_peri           =  N/A
######################################################
   0  570.3324
   1  535.2812
   2  339.1376
   3  233.772
   4  279.9315
   5  182.5723
   6  367.3809
   7  350.7388
   8  435.5534
   9  569.6135
  10  467.4092
  11  573.046
  12  441.5028
  13  354.5296
  14  646.2542
  15  622.3917
  16  762.3454
  17  519.9055
  18  534.0836
  19  535.8049
  20  554.9078
  21  465.3387
  22  702.5582
  23  544.5638
  24  253.7126
  25  283.1153
  26  534.4798
  27  702.4119
  28  458.8472
  29  575.7152
  30  624.1738
  31  394.5699
  32  597.3162
  33  736.0313
  34  628.4514
  35  702.2936
  36  425.4525
  37  47.30568
  38  304.3848
  39  438.4879
  40  285.2112
  41  417.5324
  42  594.8932
  43  403.9996
  44  305.0047
  45  550.5545
  46  747.6105
  47  565.8932
  48  867.5394
  49  863.7466
  50  766.7523
  51  596.7432
  52  367.6679
  53  789.4541
  54  818.3418
  55  527.154
  56  440.8323
  57  669.8219
  58  789.648
  59  729.5193
  60  477.8824
  61  316.3053
  62  557.1103
  63  409.0793
  64  581.6061
  65  645.6818
  66  807.3833
  67  536.1431
  68  647.3075
  69  636.1155
  70  590.1658
  71  508.0787
  72  565.5209
  73  296.8426
  74  441.7803
  75  675.1455
  76  628.0793
  77  631.8888
  78  639.0336
  79  772.9542
  80  769.3679
  81  616.0684
  82  863.7109
  83  831.7912
  84  422.9799
  85  298.1243
  86  472.4525
  87  647.2316
  88  624.9901
  89  573.9152
  90  521.3859
  91  733.0191
  92  841.1071
  93  296.5558
  94  290.5435
  95  568.1033
  96  652.9966
  97  599.2108
  98  207.5355
  99  429.1713
 100  402.3648
 101  76.26927
 102  364.2771
 103  355.7715
 104  429.2699
 105  842.7687
 106  548.9365
 107  360.6106
 108  387.302
 109  236.4805
 110  501.3806
 111  581.3923
 112  345.3723
 113  602.1246
 114  638.2133
 115  877.7681
 116  531.2253
 117  269.3595
 118  593.7239
 119  629.2657
 120  392.6033
 121  554.0023
 122  453.2025
 123  569.1384
 124  554.9541
 125  614.5832
 126  396.4349
 127  447.8711
 128  647.8894
 129  807.352
 130  811.2281
 131  529.1209
 132  465.6838
 133  584.1754
 134  593.5027
 135  484.6037
 136  563.1544
 137  829.605
 138  321.1689
 139  567.527
 140  737.1335
 141  635.3087
 142  259.1096
 143  139.5339
 144  63.37978
 145  282.9117
 146  437.9568
 147  562.9093
 148  636.9647
 149  561.8135
 150  598.8685
 151  381.5433
 152  737.3423
 153  374.1716
 154  550.7957
 155  623.7333
 156  515.7311
 157  470.7807
 158  740.0704
 159  841.8728
 160  418.8533
 161  293.8765
 162  547.1828
 163  513.0022
 164  594.1428
 165  897.1822
 166  777.7695
 167  783.9132
 168  1065.979
 169  956.3723
 170  441.2053
 171  452.5331
 172  617.8812
 173  395.2063
 174  450.9453
 175  703.9032
 176  698.974
 177  406.4216
 178  706.7285
 179  405.2053
 180  358.2201
 181  542.7141
 182  603.924
 183  706.1367
 184  747.6072
 185  705.9246
 186  379.3622
 187  514.7808
 188  857.9533
 189  740.8684
 190  577.5581
 191  786.6609
 192  1013.938
 193  643.2638
 194  329.7451
 195  506.5265
 196  655.164
 197  615.645
 198  663.4607
 199  1018.212
 200  717.0205
 201  537.4576
 202  502.0502
 203  676.9495
 204  634.7758
 205  629.1774
 206  537.1132
 207  430.2692
 208  442.4455
 209  287.2796
 210  417.5952
 211  317.9352
 212  697.944
 213  424.7409
 214  401.819
 215  382.5678
 216  690.6645
 217  705.8439
 218  731.4354
 219  485.0748
 220  422.9546
 221  455.8773
 222  353.7717
 223  546.2712
 224  978.0095
 225  779.1905
 226  534.2232
 227  578.0285
 228  390.4146
 229  501.0854
 230  692.6698
 231  754.4325
 232  587.3906
 233  621.8795
 234  666.5562
 235  422.0455
 236  565.5219
 237  684.297
 238  580.329
 239  582.3476
 240  486.2469
 241  152.1902
 242  360.6957
 243  496.3955
 244  129.8814
 245  484.5641
 246  474.7077
 247  309.0817
 248  195.2429
 249  185.8889
 250  452.254
 251  236.0089
 252  167.7282
 253  368.5022
 254  389.3479
 255  405.9413
 256  458.8427
 257  333.0083
 258  525.0786
 259  493.3902
 260  456.8159
 261  181.8795
 262  580.1767
 263  558.9867
 264  299.8925
 265  174.1908
 266  237.8959
 267  508.0171
 268  431.4385
 269  301.534
 270  114.5495
 271  292.8431
 272  430.5045
 273  502.3062
 274  337.2456
 275  547.4088
 276  439.2963
 277  535.5052
 278  633.2623
 279  677.1799
 280  528.7238
 281  708.8304
 282  715.9418
 283  816.8888
 284  848.2039
 285  460.6085
 286  676.9937
 287  952.0005
 288  449.2444
 289  472.8957
 290  620.9163
 291  428.3907
 292  161.3937
 293  451.0706
 294  558.9138
 295  605.6676
 296  741.4719
 297  931.179
 298  761.6008
 299  596.0572
 300  596.9512
 301  444.0915
 302  541.1774
 303  620.2407
 304  762.199
 305  575.3549
 306  432.7913
 307  196.9999
 308  525.6072
 309  586.5189
 310  410.7069
 311  496.9794
 312  600.3771
 313  783.1468
 314  838.5303
 315  901.5309
 316  755.4397
 317  538.5613
 318  539.3712
 319  925.6771
 320  733.7594
 321  799.4421
 322  1045.104
 323  876.3388
 324  803.1675
 325  1195.595
 326  1074.693
 327  1182.94
 328  1932.409
 329  2088.344
 330  1744.661
 331  1749.449
 332  1119.079
 333  687.502
 334  387.3958
 335  421.4942
 336  676.9702
 337  750.713
 338  749.3333
 339  399.9846
 340  285.9441
 341  585.5063
 342  706.3162
 343  746.1412
 344  771.3293
 345  805.6778
 346  202.2895
 347  410.1376
 348  398.8064
 349  297.2241
 350  217.8923
 351  281.0997
 352  411.0408
 353  486.9252
 354  655.9949
 355  236.0834
 356  288.7352
 357  719.223
 358  566.0935
 359  449.3984
 360  468.1388
 361  454.5284
 362  413.0746
 363  620.6214
 364  747.2409
 365  722.1117
 366  775.7536
 367  642.9044
 368  670.4462
 369  600.5428
 370  413.5161
 371  286.0167
 372  506.2322
 373  452.5284
 374  475.598
 375  366.4145
 376  481.9451
 377  309.0238
 378  81.69588
 379  195.4547
 380  334.4615
 381  315.3958
 382  695.6651
 383  695.6211
 384  884.9461
 385  807.529
 386  471.1554
 387  397.8003
 388  116.7731
 389  545.7791
 390  585.5701
 391  444.8549
 392  540.4503
 393  611.4194
 394  894.6065
 395  592.6279
 396  554.35
 397  261.5793
 398  570.3691
 399  722.9549
 400  368.6143
 401  466.1911
 402  568.2771
 403  571.8512
 404  497.9832
 405  858.1274
 406  909.0925
 407  806.4313
 408  488.8204
 409  290.6265
 410  677.3058
 411  991.7557
 412  942.3846
 413  750.6447
 414  843.7682
 415  868.3306
 416  552.3612
 417  657.0502
 418  704.0277
 419  629.3412
 420  859.4459
 421  528.4849
 422  287.9883
 423  334.1562
 424  362.4775
 425  480.7529
 426  617.9396
 427  418.3219
 428  432.1235
 429  520.0775
 430  610.7623
 431  913.2536
 432  641.2698
 433  669.2633
 434  472.8586
 435  578.0448
 436  453.8627
 437  388.1348
 438  402.8712
 439  580.8665
 440  604.2827
 441  864.7535
 442  646.7348
 443  604.5939
 444  486.3963
 445  301.0759
 446  613.9583
 447  711.5959
 448  534.8862
 449  283.2964
 450  398.1588
 451  262.2909
 452  329.2756
 453  400.0217
 454  652.8384
 455  925.3268
 456  965.3839
 457  627.8605
 458  310.132
 459  508.6025
 460  918.0817
 461  959.0921
 462  897.8268
 463  765.977
 464  667.1
 465  565.1732
 466  278.5553
 467  256.4854
 468  531.071
 469  492.7367
 470  750.9875
 471  789.6488
 472  883.3461
 473  574.0049
 474  479.4952
 475  771.8287
 476  822.904
 477  696.5096
 478  401.5717
 479  469.6912
 480  703.3196
 481  644.4703
 482  662.9352
 483  467.7044
 484  408.8481
 485  704.6137
 486  672.2778
 487  412.6478
 488  438.0018
 489  628.4728
 490  816.4576
 491  582.2249
 492  560.1362
 493  600.7515
 494  612.3066
 495  525.6167
 496  465.8751
 497  673.0955
 498  569.9423
 499  475.825
 500  506.9136
 501  543.0701
 502  609.7617
 503  614.3704
 504  778.9526
 505  427.7185
 506  353.4204
 507  524.0892
 508  346.6516
 509  217.1569
 510  333.5364
 511  450.9991
