# Input file       =  1179835321.101259_cleaned.dat
# Candidate        =  PSR_0332+5434
# Telescope        =  AR
# Epoch_topo       =  57899.501621542353
# Epoch_bary       =  N/A
# T_sample         =  0.002
# Data Folded      =  7340032
# Data Avg         =  0.0928464406720846
# Data StdDev      =  3.2381869433335  
# Profile Bins     =  512
# Profile Avg      =  1331.22866044932 
# Profile StdDev   =  387.717955080919 
# Reduced chi-sqr  =  1.037
# Prob(Noise)      <  0.275   (~0.6 sigma)
# P_topo (ms)      =  714.522343425294  +/- 0.000324
# P'_topo (s/s)    =  -0                +/- 1.71e-10
# P''_topo (s/s^2) =  0                 +/- 7.55e-14
# P_bary (ms)      =  N/A
# P'_bary (s/s)    =  N/A
# P''_bary (s/s^2) =  N/A
# P_orb (s)        =  N/A
# asin(i)/c (s)    =  N/A
# eccentricity     =  N/A
# w (rad)          =  N/A
# T_peri           =  N/A
######################################################
   0  1485.169
   1  1335.003
   2  1539.734
   3  1280.742
   4  1345.959
   5  1077.736
   6  1258.857
   7  1520.696
   8  1395.997
   9  1416.163
  10  1156.725
  11  833.8621
  12  1037.474
  13  1072.817
  14  911.0229
  15  1082.77
  16  1198.954
  17  865.8234
  18  1408.073
  19  1455.238
  20  1260.374
  21  1206.348
  22  1167.333
  23  1387.556
  24  1505.069
  25  1412.814
  26  1495.942
  27  1790.609
  28  1299.331
  29  1416.238
  30  1659.961
  31  1824.692
  32  1805.252
  33  1607.591
  34  1842.89
  35  1578.131
  36  1763.706
  37  1745.889
  38  1496.765
  39  1356.464
  40  1528.819
  41  1242.483
  42  992.2097
  43  1356.391
  44  1347.352
  45  1175.283
  46  985.5129
  47  876.5847
  48  1159.907
  49  1547.63
  50  1535.182
  51  1625.361
  52  1462.517
  53  1073.423
  54  1179.637
  55  1158.965
  56  1573.905
  57  1397.346
  58  1210.357
  59  1573.061
  60  1213.486
  61  1442.135
  62  1102.607
  63  1130.823
  64  1244.981
  65  1218.606
  66  1235.899
  67  1319.376
  68  1379.832
  69  1561.9
  70  1541.372
  71  1350.592
  72  1477.983
  73  1813.155
  74  1403.017
  75  1417.264
  76  1343.724
  77  1416.372
  78  1336.505
  79  1181.142
  80  1328.401
  81  1685.817
  82  1307.674
  83  1256.176
  84  1358.911
  85  1495.821
  86  1380.38
  87  1380.416
  88  1111.226
  89  897.3077
  90  1078.556
  91  1115.158
  92  1249.736
  93  1362.254
  94  812.2196
  95  889.0851
  96  1250.661
  97  1386.774
  98  1201.818
  99  1235.164
 100  1700.901
 101  1549.828
 102  1308.173
 103  1618.232
 104  1563.803
 105  1230.024
 106  1254.882
 107  1303.55
 108  1270.291
 109  1213.365
 110  1055.21
 111  1056.326
 112  1405.522
 113  1170.491
 114  1172.322
 115  835.077
 116  1338.391
 117  1150.216
 118  1444.524
 119  1587.61
 120  1390.23
 121  1260.76
 122  1274.896
 123  1321.601
 124  1367.538
 125  1785.752
 126  1650.219
 127  1438.439
 128  1367.607
 129  1085.563
 130  1286.736
 131  1368.593
 132  1425.872
 133  1278.447
 134  1250.402
 135  1305.634
 136  1398.459
 137  1590.858
 138  1234.328
 139  1190.105
 140  1452.092
 141  2018.627
 142  1975.406
 143  1482.478
 144  1542.363
 145  1870.137
 146  1626.995
 147  1561.466
 148  1520.876
 149  1613.011
 150  1635.744
 151  1899.985
 152  1730.39
 153  1693.455
 154  1568.529
 155  1559.801
 156  1949.493
 157  1462.529
 158  1563.729
 159  1920.902
 160  2042.434
 161  2129.685
 162  1976.635
 163  1685.55
 164  1226.536
 165  1661.317
 166  1524.017
 167  1618.986
 168  1511.453
 169  1838.217
 170  1735.964
 171  1574.969
 172  1761.932
 173  1494.69
 174  1458.465
 175  1334.66
 176  1385.488
 177  1777.512
 178  1276.347
 179  799.7946
 180  1069.413
 181  1571.255
 182  1300.123
 183  1397.034
 184  1106.371
 185  1370.475
 186  1349.18
 187  1271.83
 188  1541.029
 189  1408.458
 190  1256.837
 191  1116.812
 192  1628.452
 193  1472.105
 194  1247.087
 195  939.3346
 196  1198.96
 197  1175.274
 198  1505.866
 199  1399.214
 200  1591.025
 201  1560.293
 202  1459.747
 203  1617.433
 204  1261.054
 205  1533.156
 206  2048.512
 207  1945.799
 208  2215.083
 209  2135.041
 210  1600.66
 211  1738.053
 212  1868.593
 213  1555.904
 214  1227.252
 215  1605.521
 216  1682.417
 217  1704.418
 218  1739.547
 219  1153.777
 220  1051.808
 221  820.9622
 222  1282.504
 223  1545.807
 224  1577.647
 225  1562.938
 226  924.1368
 227  1109.578
 228  1102.33
 229  1202.556
 230  1552.78
 231  1409.958
 232  1317.856
 233  1331.188
 234  1213.686
 235  1287.322
 236  1302.492
 237  1303.427
 238  1448.284
 239  1451.553
 240  1455.083
 241  1617.268
 242  1631.966
 243  1534.207
 244  1168.585
 245  1426.213
 246  1739.854
 247  1661.937
 248  1790.15
 249  1538.313
 250  1215.433
 251  1343.687
 252  1351.131
 253  1290.012
 254  1589.357
 255  1318.651
 256  859.9799
 257  1216.266
 258  1170.092
 259  1172.077
 260  1177.118
 261  1086.031
 262  839.1771
 263  812.2411
 264  710.632
 265  759.2783
 266  1075.815
 267  1050.222
 268  1097.408
 269  774.9066
 270  660.0891
 271  575.6282
 272  640.1261
 273  1177.384
 274  1274.442
 275  1214.107
 276  1161.666
 277  1310.877
 278  1185.764
 279  1227.654
 280  1123.843
 281  1046.307
 282  1087.427
 283  1137.594
 284  1494.596
 285  1551.952
 286  1477.362
 287  1701.762
 288  1165.486
 289  1082.3
 290  1335.034
 291  1342.395
 292  1205.266
 293  1478.446
 294  1403.252
 295  956.9851
 296  627.7845
 297  1384.661
 298  1477.007
 299  1481.581
 300  1306.554
 301  1162.528
 302  963.9907
 303  991.2731
 304  1231.25
 305  1208.984
 306  1048.358
 307  1179.716
 308  1251.164
 309  1317.254
 310  1301.932
 311  1226.536
 312  1001.563
 313  818.1194
 314  1196.894
 315  930.5163
 316  958.1861
 317  1089.763
 318  1091.311
 319  1242.994
 320  1273.174
 321  1301.08
 322  1099.277
 323  1241.968
 324  1255.433
 325  1113.503
 326  1573.89
 327  1212.936
 328  652.3785
 329  943.373
 330  1122.664
 331  1258.209
 332  1328.374
 333  1477.239
 334  1473.395
 335  1539.816
 336  1469.446
 337  1404.79
 338  1236.425
 339  1076.506
 340  1231.741
 341  1383.054
 342  1532.03
 343  1338.305
 344  974.9424
 345  1121.384
 346  1174.326
 347  1582.326
 348  1269.19
 349  1290.78
 350  1180.532
 351  749.379
 352  1068.82
 353  1491.439
 354  1067.659
 355  1441.488
 356  1297.291
 357  1085.941
 358  1445.871
 359  1372.61
 360  1437.308
 361  1673.872
 362  1825.936
 363  1529.142
 364  1415.387
 365  1298.549
 366  1287.432
 367  1202.848
 368  1100.269
 369  1282.812
 370  1789.88
 371  1724.777
 372  1432.517
 373  1255.277
 374  1305.212
 375  1405.163
 376  1454.229
 377  1538.833
 378  1473.562
 379  1153.34
 380  1538.221
 381  1442.176
 382  1404.201
 383  1641.16
 384  1582.289
 385  1594.233
 386  1167.296
 387  1263.939
 388  1028.387
 389  925.9185
 390  988.1117
 391  958.6996
 392  1198.809
 393  1187.663
 394  955.6589
 395  1349.944
 396  1216.623
 397  1397.878
 398  1698.623
 399  1415.497
 400  1342.077
 401  1607.378
 402  2197.918
 403  2078.888
 404  2201.588
 405  2268.977
 406  1929.901
 407  1514.598
 408  1293.529
 409  1405.869
 410  1227.985
 411  989.5134
 412  1115.356
 413  880.8625
 414  1192.882
 415  1268.86
 416  1308.219
 417  1298.027
 418  1349.411
 419  1505.372
 420  1551.256
 421  1388.421
 422  1486.901
 423  1623.696
 424  1480.142
 425  1116.076
 426  975.6454
 427  762.0103
 428  912.5659
 429  1153.138
 430  948.9064
 431  561.1417
 432  1000.984
 433  1153.171
 434  1666.551
 435  1358.053
 436  1047.857
 437  983.1965
 438  1337.219
 439  1479.583
 440  901.9431
 441  780.1347
 442  741.3983
 443  1085.195
 444  1288.701
 445  1136.297
 446  865.7975
 447  1065.477
 448  1557.465
 449  1159.228
 450  1182.777
 451  1513.402
 452  1768.29
 453  1595.842
 454  1531.05
 455  1439.833
 456  1419.466
 457  1469.76
 458  1640.672
 459  1895.163
 460  1543.592
 461  1651.778
 462  1714.287
 463  1437.313
 464  1711.188
 465  1534.926
 466  1104.735
 467  1438.706
 468  1146.759
 469  1011.589
 470  1144.446
 471  963.2581
 472  838.1836
 473  756.3246
 474  1216.161
 475  1128.467
 476  713.292
 477  968.9843
 478  1294.315
 479  1216.701
 480  877.643
 481  914.9882
 482  804.8353
 483  799.451
 484  681.9059
 485  751.5085
 486  1126.628
 487  1092.477
 488  1072.809
 489  1336.484
 490  1153.324
 491  1112.155
 492  1187.88
 493  1058.919
 494  1391.152
 495  1431.87
 496  1137.47
 497  1440.638
 498  1374.487
 499  1357.347
 500  1447.297
 501  1396.644
 502  1677.859
 503  1550.016
 504  1709.283
 505  1595.323
 506  1151.21
 507  1232.475
 508  1193.071
 509  1063.808
 510  1425.398
 511  1282.028
