# Input file       =  1179044386.113434_cleaned.dat
# Candidate        =  PSR_0332+5434
# Telescope        =  AR
# Epoch_topo       =  57890.347281405484
# Epoch_bary       =  N/A
# T_sample         =  0.002
# Data Folded      =  7340032
# Data Avg         =  0.0908496632203295
# Data StdDev      =  2.85574439652562 
# Profile Bins     =  512
# Profile Avg      =  1302.41177123264 
# Profile StdDev   =  341.926947711948 
# Reduced chi-sqr  =  0.974
# Prob(Noise)      <  0.655   (~0.0 sigma)
# P_topo (ms)      =  714.530998426632  +/- 0.000528
# P'_topo (s/s)    =  -0                +/- 2.79e-10
# P''_topo (s/s^2) =  0                 +/- 1.23e-13
# P_bary (ms)      =  N/A
# P'_bary (s/s)    =  N/A
# P''_bary (s/s^2) =  N/A
# P_orb (s)        =  N/A
# asin(i)/c (s)    =  N/A
# eccentricity     =  N/A
# w (rad)          =  N/A
# T_peri           =  N/A
######################################################
   0  1172.763
   1  1018.614
   2  1326.724
   3  1494.932
   4  1400.512
   5  1181.097
   6  1073.586
   7  1100.918
   8  1506.22
   9  1291.474
  10  951.6102
  11  1311.174
  12  1382.307
  13  1624.134
  14  1439.769
  15  1494.051
  16  1473.878
  17  1301.559
  18  1168.095
  19  1044.021
  20  970.6548
  21  1066.98
  22  1413.292
  23  1706.981
  24  1520.212
  25  1387.982
  26  1369.42
  27  1346.678
  28  1459.305
  29  1198.813
  30  1275.491
  31  1255.651
  32  1678.729
  33  1529.708
  34  1197.092
  35  1245.23
  36  1466.845
  37  1454.676
  38  1384.327
  39  1206.867
  40  1217.192
  41  1108.635
  42  1460.971
  43  1446.154
  44  1299.537
  45  1490.829
  46  1515.181
  47  1369.359
  48  1456.362
  49  1463.926
  50  1289.33
  51  1120.626
  52  1105.875
  53  983.0294
  54  1143.216
  55  1114.926
  56  1085.426
  57  1183.13
  58  996.3362
  59  767.918
  60  1067.975
  61  983.9387
  62  1140.034
  63  898.6793
  64  771.2626
  65  988.126
  66  1351.137
  67  1547.447
  68  1484.521
  69  1213.049
  70  1132.496
  71  1127.771
  72  1353.887
  73  1516.01
  74  1524.366
  75  1290.948
  76  1227.84
  77  1474.44
  78  1221.916
  79  1082.091
  80  1259.22
  81  1222.407
  82  1368.726
  83  1200.195
  84  1023.62
  85  948.4575
  86  1235.601
  87  1493.829
  88  1451.283
  89  1269.069
  90  1353.698
  91  1365.6
  92  1303.94
  93  1336.871
  94  1366.942
  95  1437.645
  96  1317.477
  97  1061.806
  98  1054.877
  99  1318.739
 100  1600.761
 101  1692.619
 102  1356.67
 103  1439.683
 104  1338.62
 105  1169.841
 106  903.9436
 107  930.6081
 108  950.3808
 109  1130.599
 110  1043.602
 111  1124.424
 112  1447.514
 113  1414.221
 114  1597.397
 115  1699.572
 116  1405.346
 117  912.586
 118  1199.299
 119  1429.015
 120  1360.564
 121  1167.992
 122  1351.492
 123  1192.305
 124  1142.675
 125  1024.504
 126  960.9565
 127  1412.893
 128  1174.218
 129  867.461
 130  1189.651
 131  1107.274
 132  895.109
 133  955.4192
 134  1156.62
 135  1256.613
 136  1173.205
 137  1030.503
 138  1194.17
 139  1356.025
 140  1197.874
 141  1434.452
 142  1325.653
 143  1553.671
 144  1478.526
 145  1083.167
 146  1265.078
 147  1450.879
 148  1391.04
 149  1588.703
 150  1496.724
 151  1202.162
 152  927.9423
 153  962.0037
 154  1450.744
 155  1327.112
 156  1339.512
 157  966.2043
 158  1056.369
 159  1335.054
 160  1512.235
 161  1438.806
 162  1481.361
 163  1895.849
 164  1630.431
 165  1584.329
 166  1592.643
 167  1473.267
 168  1463.438
 169  1429.196
 170  1569.094
 171  1540.746
 172  1568.813
 173  1612.18
 174  1612.979
 175  1467.081
 176  1308.358
 177  1627.884
 178  1832.696
 179  2116.132
 180  1679.79
 181  1412.004
 182  1215.909
 183  1359.943
 184  1474.54
 185  1448.999
 186  1365.125
 187  1162.651
 188  1183.657
 189  1365.602
 190  1130.941
 191  1289.129
 192  1090.517
 193  1003.105
 194  1259.131
 195  1260.97
 196  1107.465
 197  1056.959
 198  1247.81
 199  1491.983
 200  1287.782
 201  1329.253
 202  1481.798
 203  1435.449
 204  1725.715
 205  1497.218
 206  1136.16
 207  1082.228
 208  1192.773
 209  1466.974
 210  1329.256
 211  1276.62
 212  1450.38
 213  1659.411
 214  1528.165
 215  1712.697
 216  1564.547
 217  1059.595
 218  1211.781
 219  1374.277
 220  1628.492
 221  1216.812
 222  1140.107
 223  1444.267
 224  1097.236
 225  1026.979
 226  1068.713
 227  912.8346
 228  992.6703
 229  1407.302
 230  1652.021
 231  1669.033
 232  1290.623
 233  1224.567
 234  1558.66
 235  1282.736
 236  1281.043
 237  1513.156
 238  1500.213
 239  1535.167
 240  1221.36
 241  890.4799
 242  647.7637
 243  1100.45
 244  1301.635
 245  1281.72
 246  1404.655
 247  1330.012
 248  1172.029
 249  1116.874
 250  1370.385
 251  1264.702
 252  1133.886
 253  1366.359
 254  1021.576
 255  1033.386
 256  1164.506
 257  1053.298
 258  1009.94
 259  1377.435
 260  1595.732
 261  1669.158
 262  1608.982
 263  1607.069
 264  1471.234
 265  1352.318
 266  1392.454
 267  1687.941
 268  1635.826
 269  1355.528
 270  1666.331
 271  1685.471
 272  1655.206
 273  1470.53
 274  1569.308
 275  1544.818
 276  1420.475
 277  1458.815
 278  1690.993
 279  1627.315
 280  1486.312
 281  1298.135
 282  1353.131
 283  1224.968
 284  1142.399
 285  1145.518
 286  1306.728
 287  1464.985
 288  1200.276
 289  1405.188
 290  911.7011
 291  1039.613
 292  1213.385
 293  1044.048
 294  981.1758
 295  1014.663
 296  1072.31
 297  1002.085
 298  1104.326
 299  1558.948
 300  1473.445
 301  1340.699
 302  1276.008
 303  1310.304
 304  1300.206
 305  1434.274
 306  1306.068
 307  1049.187
 308  1109.198
 309  1138.357
 310  1424.981
 311  1792.864
 312  1837.194
 313  1373.343
 314  1008.223
 315  766.8008
 316  1167.555
 317  1205.341
 318  1598.365
 319  1609.5
 320  1354.553
 321  1475.916
 322  1388.383
 323  1272.497
 324  1285.645
 325  1294.204
 326  1594.55
 327  2068.072
 328  2284.788
 329  2476.181
 330  2473.215
 331  2248.654
 332  2274.678
 333  2114.344
 334  1627.571
 335  1350.795
 336  1167.213
 337  1439.335
 338  1482.168
 339  1322.769
 340  1310.404
 341  1455.172
 342  1683.811
 343  1552.665
 344  1476.291
 345  1545.895
 346  2041.914
 347  1750.692
 348  1396.87
 349  1250.623
 350  1297.202
 351  1407.095
 352  1288.711
 353  1623.931
 354  1705.944
 355  1239.042
 356  1228.794
 357  917.3232
 358  1336.681
 359  1344.933
 360  1144.728
 361  1187.281
 362  770.3799
 363  1039.694
 364  1132.413
 365  803.3085
 366  1109.199
 367  1125.95
 368  930.1367
 369  1175.809
 370  1186.025
 371  1210.873
 372  1109.394
 373  1387.639
 374  1438.522
 375  1259.104
 376  1217.89
 377  1468.707
 378  1174.694
 379  1242.732
 380  1418.153
 381  1627.54
 382  1625.723
 383  1223.715
 384  1163.714
 385  1356.748
 386  1267.887
 387  1365.026
 388  1347.292
 389  1465.661
 390  1340.291
 391  1075.715
 392  1405.327
 393  1432.24
 394  1242.202
 395  1151.306
 396  1450.232
 397  1253.223
 398  851.528
 399  972.4324
 400  1094.865
 401  951.5475
 402  1046.675
 403  1237.73
 404  1188.724
 405  1343.427
 406  1363.807
 407  1155.264
 408  1061.279
 409  821.8687
 410  909.0486
 411  1280.393
 412  1134.55
 413  1191.631
 414  1164.268
 415  1230.039
 416  1360.759
 417  1301.102
 418  1080.831
 419  1242.108
 420  1299.139
 421  1528.608
 422  1369.939
 423  1271.593
 424  1255.21
 425  1160.152
 426  1325.948
 427  1074.374
 428  1047.33
 429  1196.697
 430  1373.91
 431  1090.663
 432  1314.635
 433  1634.705
 434  1470.326
 435  974.8221
 436  1461.375
 437  1283.163
 438  1416.402
 439  1401.116
 440  1204.517
 441  1170.696
 442  944.1841
 443  987.1273
 444  931.1711
 445  848.9398
 446  1315.815
 447  1312.553
 448  1318.167
 449  1401.826
 450  1288.53
 451  1106.315
 452  1202.354
 453  1318.291
 454  1355.317
 455  1043.93
 456  774.7879
 457  1030.753
 458  1282.485
 459  1447.394
 460  1279.45
 461  1509.173
 462  1337.99
 463  1029.862
 464  1336.151
 465  1410.956
 466  1462.303
 467  1349.049
 468  1252.603
 469  1370.771
 470  1531.346
 471  1131.345
 472  1085.087
 473  1064.026
 474  1416.194
 475  1281.901
 476  1101.118
 477  1180.855
 478  1295.334
 479  1305.809
 480  1351.332
 481  1322.732
 482  1161.109
 483  1297.498
 484  1224.75
 485  1035.526
 486  1169.243
 487  1639.646
 488  1494.304
 489  1087.842
 490  1068.701
 491  1137.756
 492  1154.185
 493  1200.208
 494  1026.956
 495  1281.666
 496  1296.239
 497  1324.637
 498  1132.363
 499  1117.144
 500  928.6286
 501  1039.86
 502  1121.043
 503  1393.887
 504  1197.581
 505  992.0065
 506  1253.424
 507  1357.804
 508  1297.626
 509  1153.016
 510  1141.167
 511  892.775
