# Input file       =  1179835321.101259_cleaned.dat
# Candidate        =  PSR_0332+5434
# Telescope        =  AR
# Epoch_topo       =  57899.501621542353
# Epoch_bary       =  N/A
# T_sample         =  0.002
# Data Folded      =  7340032
# Data Avg         =  0.0928464406720846
# Data StdDev      =  3.2381869433335  
# Profile Bins     =  1024
# Profile Avg      =  665.614330361378 
# Profile StdDev   =  274.157995225499 
# Reduced chi-sqr  =  0.961
# Prob(Noise)      <  0.808   (~0.0 sigma)
# P_topo (ms)      =  714.522343216623  +/- 0.000324
# P'_topo (s/s)    =  -0                +/- 1.71e-10
# P''_topo (s/s^2) =  0                 +/- 7.55e-14
# P_bary (ms)      =  N/A
# P'_bary (s/s)    =  N/A
# P''_bary (s/s^2) =  N/A
# P_orb (s)        =  N/A
# asin(i)/c (s)    =  N/A
# eccentricity     =  N/A
# w (rad)          =  N/A
# T_peri           =  N/A
######################################################
   0  749.7898
   1  661.2415
   2  697.5858
   3  806.2462
   4  929.2286
   5  856.33
   6  657.0193
   7  637.8548
   8  658.6525
   9  763.4357
  10  795.7978
  11  865.2971
  12  838.1399
  13  989.6553
  14  977.8943
  15  823.4809
  16  811.2109
  17  798.8096
  18  956.0786
  19  886.3088
  20  832.1235
  21  740.28
  22  808.3331
  23  962.3265
  24  923.9389
  25  817.3521
  26  766.0876
  27  727.4813
  28  681.6882
  29  675.7311
  30  770.1555
  31  759.9217
  32  690.8917
  33  545.1251
  34  481.122
  35  512.2863
  36  614.2734
  37  746.899
  38  719.6403
  39  625.0603
  40  624.8809
  41  547.7446
  42  528.5917
  43  455.9663
  44  448.5832
  45  426.6473
  46  521.7632
  47  644.5464
  48  728.4786
  49  822.9572
  50  783.8367
  51  749.2773
  52  755.5745
  53  873.3505
  54  840.3726
  55  612.5751
  56  545.8616
  57  529.6158
  58  605.5023
  59  574.3472
  60  563.8176
  61  596.9727
  62  731.952
  63  845.8056
  64  802.6995
  65  587.2767
  66  541.0113
  67  676.6599
  68  837.8369
  69  729.4586
  70  599.7211
  71  615.5056
  72  715.7418
  73  725.7244
  74  568.1628
  75  531.8267
  76  507.8276
  77  624.5125
  78  641.1001
  79  603.4858
  80  604.361
  81  614.2817
  82  579.2449
  83  658.8702
  84  607.2599
  85  711.9192
  86  687.1467
  87  693.9313
  88  768.9897
  89  796.6693
  90  774.9737
  91  763.5903
  92  679.6158
  93  667.4476
  94  653.7923
  95  830.6274
  96  955.8936
  97  855.113
  98  688.1711
  99  714.9547
 100  708.7097
 101  706.6827
 102  670.9697
 103  672.0498
 104  719.611
 105  696.3
 106  646.2591
 107  690.3285
 108  612.1739
 109  565.4818
 110  640.8452
 111  694.3362
 112  869.9414
 113  816.3062
 114  712.3568
 115  587.4895
 116  605.5785
 117  654.0665
 118  655.658
 119  706.8105
 120  746.9799
 121  749.0172
 122  682.9916
 123  694.9929
 124  721.1243
 125  658.0394
 126  616.5231
 127  489.3071
 128  433.4618
 129  464.0096
 130  465.89
 131  616.3691
 132  544.7926
 133  569.6103
 134  545.1685
 135  711.2205
 136  744.2548
 137  608.9149
 138  418.4562
 139  390.0441
 140  439.6536
 141  454.2144
 142  612.3146
 143  645.2285
 144  702.4915
 145  681.9546
 146  651.7186
 147  544.8651
 148  537.1077
 149  705.5645
 150  866.2656
 151  835.571
 152  814.7001
 153  732.6063
 154  655.2363
 155  652.9801
 156  763.5452
 157  859.6224
 158  860.8521
 159  696.5693
 160  628.2997
 161  601.5106
 162  633.5941
 163  619.6064
 164  646.778
 165  660.1805
 166  686.7793
 167  579.3058
 168  579.8363
 169  635.9178
 170  563.052
 171  486.264
 172  462.1844
 173  601.1124
 174  731.8221
 175  672.8554
 176  591.5814
 177  576.488
 178  616.1575
 179  553.5674
 180  432.0515
 181  404.6918
 182  588.8839
 183  754.7421
 184  602.4651
 185  543.3317
 186  649.7877
 187  801.1611
 188  836.2653
 189  750.4472
 190  719.3049
 191  667.8547
 192  592.3193
 193  670.0054
 194  631.9566
 195  641.0321
 196  677.7336
 197  643.8992
 198  660.598
 199  712.1694
 200  833.9592
 201  953.4351
 202  857.1752
 203  789.1436
 204  731.5952
 205  705.7067
 206  704.0563
 207  661.1628
 208  568.3434
 209  514.9473
 210  600.534
 211  690.4114
 212  700.5426
 213  667.0547
 214  684.9615
 215  742.5214
 216  641.5891
 217  635.4038
 218  605.5656
 219  642.6907
 220  646.7012
 221  660.8917
 222  672.458
 223  729.9213
 224  762.6067
 225  827.2365
 226  650.3024
 227  580.9733
 228  579.9186
 229  611.2294
 230  677.3262
 231  780.4811
 232  965.6879
 233  1057.526
 234  1057.235
 235  912.1005
 236  798.6958
 237  681.0486
 238  728.6937
 239  817.4889
 240  927.7736
 241  942.9161
 242  853.3943
 243  769.1799
 244  790.5163
 245  771.644
 246  759.2739
 247  761.943
 248  830.2604
 249  780.85
 250  799.4583
 251  840.9138
 252  948.4905
 253  953.648
 254  910.2827
 255  818.985
 256  804.3008
 257  889.1205
 258  852.3032
 259  710.4139
 260  720.6868
 261  846.7787
 262  997.582
 263  949.7443
 264  790.0462
 265  667.5663
 266  757.8303
 267  810.4346
 268  890.2972
 269  1034.974
 270  1000.445
 271  1041.012
 272  1042.483
 273  1088.975
 274  1051.169
 275  921.3113
 276  898.8476
 277  781.1921
 278  631.6013
 279  593.3274
 280  788.6761
 281  875.9222
 282  774.6623
 283  746.423
 284  782.5908
 285  838.5284
 286  704.0501
 287  808.059
 288  883.7133
 289  958.5657
 290  934.2065
 291  796.4374
 292  775.217
 293  804.004
 294  878.8469
 295  881.2537
 296  732.0388
 297  759.5709
 298  740.6778
 299  718.0058
 300  706.1815
 301  626.3443
 302  659.7475
 303  729.284
 304  909.9069
 305  867.9292
 306  747.6913
 307  519.8298
 308  421.6456
 309  376.2226
 310  461.8114
 311  615.4318
 312  802.1696
 313  768.1697
 314  633.9517
 315  666.0256
 316  697.524
 317  699.7563
 318  550.9948
 319  554.4316
 320  667.4761
 321  706.4482
 322  740.9891
 323  605.3006
 324  595.0894
 325  680.5788
 326  749.192
 327  791.0915
 328  703.2128
 329  703.181
 330  663.142
 331  592.6746
 332  525.5294
 333  592.3384
 334  800.0602
 335  831.3759
 336  795.0847
 337  675.6316
 338  686.5814
 339  555.44
 340  491.6543
 341  446.688
 342  603.1913
 343  597.5494
 344  617.8286
 345  559.2673
 346  724.1958
 347  785.8666
 348  706.3166
 349  689.4805
 350  758.0067
 351  838.8387
 352  839.1299
 353  716.681
 354  690.3475
 355  772.8546
 356  823.8168
 357  790.1019
 358  647.0177
 359  611.6694
 360  707.8693
 361  834.5155
 362  1041.163
 363  1010.294
 364  1015.015
 365  929.0639
 366  1065.798
 367  1153.184
 368  1172.301
 369  953.9888
 370  778.2845
 371  823.0922
 372  822.873
 373  915.591
 374  878.3455
 375  991.3618
 376  860.9553
 377  685.5573
 378  588.6881
 379  643.1558
 380  763.7374
 381  845.1329
 382  866.2211
 383  811.329
 384  799.6982
 385  911.1552
 386  935.3658
 387  797.6778
 388  590.7014
 389  559.6069
 390  529.3006
 391  520.4886
 392  430.4378
 393  390.2803
 394  510.8753
 395  779.0684
 396  759.5783
 397  784.7841
 398  717.7337
 399  864.5566
 400  835.3644
 401  721.2173
 402  489.0833
 403  429.8582
 404  491.8885
 405  622.978
 406  586.8108
 407  512.2491
 408  537.4631
 409  672.3204
 410  792.431
 411  760.6073
 412  744.7378
 413  660.9138
 414  684.3043
 415  635.252
 416  679.1484
 417  651.6625
 418  612.4031
 419  600.509
 420  600.435
 421  687.2205
 422  684.4332
 423  618.1915
 424  641.8267
 425  663.631
 426  742.8447
 427  704.9215
 428  702.995
 429  750.6034
 430  753.6937
 431  699.7186
 432  761.5567
 433  860.3384
 434  829.2829
 435  799.3054
 436  760.434
 437  772.2369
 438  620.3417
 439  544.8553
 440  637.8177
 441  796.748
 442  902.4573
 443  833.0542
 444  823.5702
 445  840.5356
 446  912.8702
 447  878.117
 448  805.9578
 449  727.7466
 450  614.5367
 451  599.6794
 452  614.0187
 453  731.4021
 454  690.2872
 455  658.7094
 456  576.0037
 457  718.9627
 458  742.0829
 459  846.5999
 460  693.0988
 461  616.7986
 462  449.9662
 463  409.6559
 464  540.0953
 465  682.3163
 466  629.2791
 467  536.0973
 468  502.791
 469  673.4842
 470  624.3333
 471  550.137
 472  537.8434
 473  546.7722
 474  431.653
 475  404.7595
 476  400.5197
 477  412.0511
 478  383.8327
 479  325.2183
 480  319.7807
 481  442.7874
 482  500.6955
 483  577.4558
 484  520.8424
 485  529.9238
 486  560.8953
 487  535.9327
 488  430.5082
 489  337.585
 490  289.5625
 491  370.455
 492  295.8213
 493  278.547
 494  299.06
 495  348.1354
 496  544.8815
 497  637.5155
 498  631.0452
 499  641.9537
 500  635.9545
 501  575.6547
 502  557.3742
 503  607.1498
 504  653.6055
 505  655.973
 506  578.5767
 507  607.1558
 508  619.1656
 509  607.1236
 510  601.3915
 511  521.7377
 512  543.5943
 513  503.2688
 514  536.5209
 515  551.1246
 516  560.3218
 517  578.9724
 518  717.1309
 519  782.7531
 520  804.3832
 521  743.4843
 522  694.5082
 523  786.1099
 524  845.5295
 525  856.1716
 526  655.5901
 527  503.1549
 528  447.0143
 529  636.592
 530  652.752
 531  684.3558
 532  685.6381
 533  657.2581
 534  598.7661
 535  606.5018
 536  696.7488
 537  782.7967
 538  688.5399
 539  712.5117
 540  576.2617
 541  370.0439
 542  244.1523
 543  390.2822
 544  618.2422
 545  771.8206
 546  709.4829
 547  768.1835
 548  750.7647
 549  730.0556
 550  663.7212
 551  642.3859
 552  614.4279
 553  544.2448
 554  511.8485
 555  448.6591
 556  477.067
 557  517.9629
 558  582.1192
 559  652.8951
 560  644.7
 561  560.0154
 562  504.9737
 563  544.8657
 564  607.2523
 565  573.0707
 566  601.4293
 567  650.8604
 568  638.929
 569  677.3837
 570  637.7675
 571  664.5951
 572  629.8437
 573  596.2722
 574  538.6282
 575  458.1569
 576  374.317
 577  446.1462
 578  564.3636
 579  634.4435
 580  484.575
 581  442.7231
 582  437.5713
 583  522.2492
 584  529.5637
 585  559.0135
 586  555.4119
 587  538.0847
 588  605.8537
 589  639.1432
 590  614.1944
 591  659.4079
 592  648.0355
 593  650.5458
 594  545.3591
 595  554.3494
 596  618.3009
 597  626.624
 598  647.0331
 599  604.896
 600  546.2448
 601  569.5898
 602  734.4649
 603  844.1243
 604  679.3871
 605  521.5191
 606  310.1858
 607  338.9877
 608  390.4043
 609  560.8447
 610  555.4196
 611  568.1279
 612  599.4149
 613  662.5199
 614  639.6852
 615  686.9437
 616  756.6108
 617  721.9808
 618  737.1354
 619  737.9459
 620  768.8641
 621  770.7307
 622  732.3099
 623  734.6971
 624  679.2069
 625  725.8797
 626  668.3639
 627  563.3474
 628  513.1153
 629  566.2945
 630  623.3679
 631  609.0709
 632  682.9842
 633  703.6671
 634  787.6459
 635  743.1059
 636  732.7211
 637  601.3126
 638  514.813
 639  456.3218
 640  524.6229
 641  600.8608
 642  588.2352
 643  589.265
 644  758.4927
 645  826.4152
 646  689.1743
 647  574.8334
 648  625.9103
 649  668.3254
 650  692.6244
 651  481.0416
 652  445.4702
 653  301.3089
 654  489.2
 655  585.98
 656  764.0389
 657  729.073
 658  556.1302
 659  507.5504
 660  648.8341
 661  799.6568
 662  714.9086
 663  575.1218
 664  537.6223
 665  551.7607
 666  710.8661
 667  738.9724
 668  740.1107
 669  629.0957
 670  665.0953
 671  776.184
 672  832.8983
 673  842.5089
 674  899.3522
 675  928.5133
 676  789.8454
 677  734.2766
 678  677.4279
 679  735.0419
 680  629.8061
 681  669.3333
 682  649.9013
 683  635.9955
 684  581.7029
 685  622.6991
 686  573.3309
 687  522.0519
 688  563.9173
 689  726.564
 690  904.0632
 691  888.7479
 692  901.4719
 693  821.4873
 694  761.6133
 695  667.3009
 696  657.5569
 697  596.4139
 698  622.6669
 699  684.5466
 700  659.3378
 701  744.645
 702  703.5958
 703  750.5726
 704  741.9519
 705  800.5807
 706  756.4204
 707  713.0823
 708  529.7346
 709  624.7994
 710  725.6826
 711  817.4811
 712  799.2867
 713  636.8559
 714  661.8053
 715  746.0726
 716  855.056
 717  786.7552
 718  783.7744
 719  798.1525
 720  860.264
 721  730.3887
 722  602.172
 723  564.6116
 724  638.739
 725  622.7212
 726  554.1268
 727  472.226
 728  481.7558
 729  443.8698
 730  454.4451
 731  534.858
 732  444.3241
 733  516.2836
 734  570.4549
 735  631.1289
 736  628.8897
 737  554.8115
 738  453.994
 739  501.8015
 740  601.121
 741  753.702
 742  633.8771
 743  579.8911
 744  618.4573
 745  787.8054
 746  900.9476
 747  794.2164
 748  732.7891
 749  680.1466
 750  694.855
 751  646.9084
 752  702.2681
 753  912.2731
 754  1052.57
 755  1148.62
 756  1039.272
 757  1038.478
 758  1098.569
 759  1106.429
 760  1146.556
 761  1120.914
 762  985.3098
 763  938.9904
 764  767.0422
 765  739.6358
 766  599.8759
 767  696.4503
 768  710.107
 769  693.7601
 770  627.5961
 771  598.5256
 772  482.0923
 773  508.7514
 774  590.1264
 775  520.4612
 776  437.3801
 777  444.1198
 778  568.7273
 779  628.4876
 780  650.9271
 781  620.0306
 782  681.364
 783  624.6745
 784  685.1687
 785  614.8184
 786  647.4408
 787  702.5398
 788  776.9119
 789  729.3684
 790  789.0246
 791  764.8559
 792  752.095
 793  632.5281
 794  670.4604
 795  819.979
 796  828.6921
 797  793.8987
 798  796.9261
 799  679.2518
 800  583.2805
 801  528.7203
 802  500.8925
 803  472.3416
 804  408.1315
 805  352.758
 806  448.0697
 807  471.6138
 808  587.2363
 809  565.2942
 810  554.8369
 811  386.2946
 812  266.0464
 813  296.9888
 814  487.1303
 815  516.3566
 816  491.6703
 817  668.2706
 818  807.47
 819  860.9614
 820  702.5815
 821  651.1075
 822  582.962
 823  460.6457
 824  448.7289
 825  537.5961
 826  625.6115
 827  713.9835
 828  776.9017
 829  699.0487
 830  518.6587
 831  380.0172
 832  396.3807
 833  383.1797
 834  356.583
 835  386.9595
 836  515.8077
 837  572.1894
 838  643.8636
 839  646.5009
 840  624.1748
 841  506.9016
 842  440.7761
 843  424.348
 844  504.5172
 845  569.1815
 846  789.0443
 847  769.2041
 848  653.3547
 849  497.8008
 850  522.3609
 851  664.5891
 852  738.1727
 853  779.9573
 854  860.2288
 855  911.0176
 856  850.1682
 857  741.6245
 858  738.2923
 859  793.6404
 860  785.0896
 861  651.7059
 862  719.5918
 863  702.6181
 864  747.8237
 865  721.4044
 866  795.4399
 867  848.3304
 868  955.9955
 869  939.3692
 870  788.4481
 871  750.8437
 872  761.1145
 873  893.9274
 874  899.2726
 875  811.9665
 876  744.7437
 877  694.1849
 878  835.613
 879  878.6852
 880  832.3114
 881  695.3752
 882  557.9883
 883  547.916
 884  729.8471
 885  708.8747
 886  618.961
 887  522.681
 888  472.1174
 889  541.2858
 890  565.9847
 891  578.3274
 892  499.5034
 893  460.9969
 894  418.4076
 895  417.7192
 896  344.3391
 897  415.4703
 898  544.413
 899  675.6964
 900  625.8632
 901  497.6596
 902  326.2437
 903  384.5276
 904  414.3896
 905  560.5584
 906  593.3027
 907  704.1584
 908  652.9094
 909  557.9167
 910  423.9221
 911  451.8448
 912  442.976
 913  473.0838
 914  400.6408
 915  402.4115
 916  442.8934
 917  354.597
 918  351.5286
 919  332.9218
 920  382.4286
 921  369.2746
 922  523.8625
 923  607.9009
 924  620.2177
 925  468.5165
 926  468.6279
 927  609.4353
 928  689.4365
 929  644.1418
 930  574.9307
 931  575.9977
 932  572.4419
 933  542.3901
 934  600.9012
 935  585.4127
 936  533.2843
 937  525.9547
 938  679.7375
 939  718.3457
 940  823.0043
 941  604.1715
 942  605.6019
 943  531.9819
 944  746.6059
 945  697.5649
 946  735.513
 947  635.011
 948  679.6717
 949  679.3558
 950  743.8434
 951  702.203
 952  686.9854
 953  712.8173
 954  862.8481
 955  815.738
 956  801.6655
 957  749.9303
 958  840.7997
 959  869.0812
 960  856.712
 961  734.9133
 962  638.7494
 963  506.3439
 964  524.4848
 965  714.1816
 966  616.9965
 967  569.0313
 968  491.7432
 969  578.0804
 970  726.6
 971  700.798
 972  679.0781
 973  599.7429
 974  728.5455
 975  757.4354
 976  654.0656
 977  681.2505
 978  762.7103
 979  779.496
 980  660.684
 981  616.0441
 982  636.8046
 983  709.7363
 984  591.1021
 985  481.6522
 986  568.8546
 987  698.0024
 988  781.195
 989  740.4156
 990  669.037
 991  724.6296
 992  713.9249
 993  700.9894
 994  654.5477
 995  497.9584
 996  448.3725
 997  383.0005
 998  487.4529
 999  555.1994
1000  563.6106
1001  506.6161
1002  481.1747
1003  428.6406
1004  509.4515
1005  577.9881
1006  624.2081
1007  569.0262
1008  428.5989
1009  439.9179
1010  649.7728
1011  767.4415
1012  783.9318
1013  666.0331
1014  650.3378
1015  607.7891
1016  607.5906
1017  599.2434
1018  590.6363
1019  577.2579
1020  652.1268
1021  739.2089
1022  775.8217
1023  728.5951
