# Input file       =  1179906622.097327_cleaned.dat
# Candidate        =  PSR_0332+5434
# Telescope        =  AR
# Epoch_topo       =  57900.326864552393
# Epoch_bary       =  N/A
# T_sample         =  0.002
# Data Folded      =  7340032
# Data Avg         =  0.0849552640897206
# Data StdDev      =  2.79111187574633 
# Profile Bins     =  512
# Profile Avg      =  1217.9728617777  
# Profile StdDev   =  334.188299750359 
# Reduced chi-sqr  =  1.170
# Prob(Noise)      <  0.00464   (~2.6 sigma)
# P_topo (ms)      =  714.52118777238   +/- 0.000374
# P'_topo (s/s)    =  -0                +/- 1.98e-10
# P''_topo (s/s^2) =  0                 +/- 8.72e-14
# P_bary (ms)      =  N/A
# P'_bary (s/s)    =  N/A
# P''_bary (s/s^2) =  N/A
# P_orb (s)        =  N/A
# asin(i)/c (s)    =  N/A
# eccentricity     =  N/A
# w (rad)          =  N/A
# T_peri           =  N/A
######################################################
   0  811.6917
   1  1546.928
   2  1517.179
   3  1192.603
   4  1116.187
   5  1175.697
   6  1154.416
   7  1265.044
   8  1412.743
   9  1029.907
  10  1203.258
  11  1270.993
  12  1262.204
  13  1250.129
  14  1532.827
  15  1627.409
  16  1652.362
  17  1342.047
  18  1196.215
  19  1308.747
  20  1479.094
  21  1638.302
  22  1667.099
  23  1581.354
  24  1711.927
  25  1594.225
  26  1412.66
  27  1687.857
  28  1591.51
  29  1502.987
  30  1389.365
  31  1313.907
  32  1321.384
  33  1328.323
  34  1329.557
  35  1094.073
  36  1040.353
  37  1009.499
  38  744.5236
  39  809.947
  40  1090.821
  41  1151.482
  42  1154.064
  43  1176.549
  44  1398.631
  45  1413.833
  46  975.4066
  47  1187.235
  48  1005.436
  49  1165.171
  50  1437.914
  51  1545.236
  52  1505.704
  53  1207.828
  54  1217.638
  55  1325.711
  56  1559.503
  57  1417.675
  58  1501.663
  59  1693.527
  60  1570.147
  61  1349.932
  62  1627.246
  63  1570.222
  64  1372.148
  65  1344.808
  66  1244.048
  67  1050.157
  68  1327.757
  69  1396.456
  70  1379.865
  71  1286.562
  72  1458.067
  73  1153.016
  74  1266.06
  75  1468.436
  76  1162.194
  77  989.6942
  78  1140.343
  79  1166.746
  80  1194.915
  81  1092.988
  82  1390.5
  83  1222.165
  84  1474.042
  85  1418.505
  86  1319.6
  87  1172.792
  88  1249.602
  89  1410.859
  90  1600.364
  91  1388.188
  92  1660.743
  93  1428.723
  94  1679.434
  95  1813.937
  96  1640.62
  97  1614.627
  98  1678.884
  99  1636.187
 100  1314.106
 101  1603.651
 102  1844.32
 103  1456.546
 104  1103.563
 105  1212.127
 106  1442.942
 107  1597.813
 108  1773.38
 109  1577.85
 110  1185.26
 111  1519.47
 112  1658.445
 113  1644.819
 114  1500.422
 115  1641.206
 116  1587.34
 117  1395.172
 118  1562.937
 119  1719.254
 120  1508.886
 121  1214.897
 122  1434.779
 123  1544.923
 124  1405.843
 125  1402.813
 126  1188.962
 127  1101.931
 128  996.4862
 129  904.509
 130  1191.307
 131  1280.086
 132  1020.447
 133  971.5792
 134  977.2582
 135  926.7006
 136  1385.387
 137  1362.681
 138  1161.417
 139  1188.139
 140  1384.989
 141  1433.878
 142  1147.729
 143  1170.536
 144  1102.474
 145  996.5921
 146  1057.81
 147  1232.348
 148  1212.679
 149  1180.114
 150  966.7119
 151  1211.98
 152  1427.872
 153  1441.478
 154  1609.805
 155  1685.436
 156  1406.042
 157  1274.502
 158  954.1484
 159  1028.841
 160  1248.341
 161  1284.624
 162  1104.862
 163  926.3815
 164  1352.915
 165  1273.266
 166  1045.751
 167  952.4963
 168  895.5314
 169  1140.378
 170  1230.865
 171  708.7686
 172  804.4728
 173  1189.36
 174  1432.017
 175  947.3655
 176  864.1506
 177  1090.277
 178  1079.382
 179  930.5591
 180  889.2166
 181  910.9457
 182  1149.586
 183  1135.767
 184  1099.96
 185  1200.66
 186  873.8926
 187  826.6347
 188  1461.593
 189  1371.735
 190  1365.809
 191  1373.341
 192  1139.759
 193  1750.809
 194  1099.903
 195  990.9898
 196  1410.882
 197  1655.219
 198  2068.424
 199  2269.142
 200  2642
 201  2367.428
 202  2064.283
 203  2128.121
 204  1851.028
 205  1423.243
 206  1256.38
 207  948.8739
 208  1038.317
 209  934.0315
 210  1024.885
 211  923.3619
 212  981.9913
 213  1008.596
 214  1160.102
 215  1278.101
 216  1307.599
 217  1360.04
 218  1002.871
 219  837.7523
 220  958.7629
 221  1139.402
 222  1367.062
 223  1001.196
 224  979.7519
 225  1201.255
 226  1143.689
 227  1051.074
 228  1090.866
 229  1184.673
 230  1242.918
 231  1161.07
 232  1168.247
 233  1271.805
 234  1148.001
 235  1212.077
 236  1638.181
 237  1541.766
 238  1061.402
 239  1275.525
 240  1340.676
 241  1375.816
 242  1508.413
 243  1256.227
 244  1208.871
 245  991.2106
 246  1242.443
 247  1277.982
 248  1388.787
 249  1354.241
 250  1213.396
 251  1115.285
 252  1058.793
 253  1021.896
 254  1083.901
 255  1009.806
 256  944.7374
 257  674.024
 258  710.4498
 259  929.5034
 260  1133.59
 261  1172.396
 262  1059.308
 263  842.9267
 264  1064.1
 265  887.2965
 266  808.8666
 267  1195.331
 268  1064.692
 269  904.2521
 270  1009.521
 271  1012.233
 272  998.3606
 273  937.1129
 274  1029.255
 275  1232.243
 276  1114.236
 277  1090.109
 278  1136.485
 279  1078.533
 280  1025.876
 281  1122.036
 282  1131.411
 283  1224.133
 284  1288.824
 285  1135.7
 286  1032.02
 287  921.853
 288  1328.443
 289  1277.113
 290  1228.11
 291  1426.269
 292  1272.504
 293  911.059
 294  1015.251
 295  1210.406
 296  1341.583
 297  1317.418
 298  1247.581
 299  1414.962
 300  1086.479
 301  828.8321
 302  1055.878
 303  925.506
 304  1113.222
 305  1233.673
 306  1245.541
 307  1090.411
 308  1142.79
 309  1089.221
 310  1058.122
 311  1113.693
 312  1191.343
 313  1264.658
 314  1281.359
 315  1207.227
 316  941.9854
 317  1169.427
 318  1121.09
 319  1287.485
 320  1374.951
 321  1259.521
 322  1132.472
 323  1092.271
 324  1412.359
 325  1199.362
 326  1085.293
 327  732.2018
 328  972.2968
 329  955.1556
 330  992.5841
 331  1086.579
 332  1060.418
 333  1119.363
 334  1050.102
 335  1031.871
 336  987.6433
 337  949.632
 338  1403.979
 339  1212.903
 340  1015.716
 341  1170.979
 342  1064.101
 343  1151.789
 344  1259.356
 345  966.6417
 346  722.0961
 347  912.6408
 348  697.2978
 349  786.8124
 350  995.127
 351  1033.889
 352  1035.479
 353  901.5969
 354  967.492
 355  1099.164
 356  1195.333
 357  904.4072
 358  955.6622
 359  1211.387
 360  999.2314
 361  1039.423
 362  785.0473
 363  953.5677
 364  1142.684
 365  1075.635
 366  1000.817
 367  965.1051
 368  1009.348
 369  933.9058
 370  1032.521
 371  956.0171
 372  811.5915
 373  806.7208
 374  664.3445
 375  822.0566
 376  974.5724
 377  888.2181
 378  958.0007
 379  993.4339
 380  1257.632
 381  1339.076
 382  1204.299
 383  1471.574
 384  1390.14
 385  1188.838
 386  1183.854
 387  1224.566
 388  1443.436
 389  1318.03
 390  983.1484
 391  932.2683
 392  1189.419
 393  1350.223
 394  1199.836
 395  1245.157
 396  1047.992
 397  871.7487
 398  1169.882
 399  1261.09
 400  1293.418
 401  1374.907
 402  1269.834
 403  1075.906
 404  1110.11
 405  1445.367
 406  1174.207
 407  1014.222
 408  1399.988
 409  1288.576
 410  1212.35
 411  1561.365
 412  1585.932
 413  1342.574
 414  1158.932
 415  1392.936
 416  1115.797
 417  1251.866
 418  1374.557
 419  1102.008
 420  786.3692
 421  724.8195
 422  852.8674
 423  811.6122
 424  996.2376
 425  1196.554
 426  1145.74
 427  1145.903
 428  1136.075
 429  1228.735
 430  1005.736
 431  997.403
 432  1153.501
 433  1152.665
 434  918.9178
 435  921.9254
 436  960.8942
 437  1090.059
 438  1186.936
 439  1116.57
 440  1216.719
 441  1103.849
 442  1092.059
 443  1183.226
 444  1342.658
 445  1269.187
 446  1394.029
 447  1245.368
 448  1128.179
 449  1192.223
 450  1164.405
 451  1284.703
 452  940.6959
 453  770.4362
 454  972.0557
 455  1126.12
 456  1293.701
 457  1332.871
 458  869.9711
 459  1107.749
 460  931.7457
 461  1041.259
 462  935.5206
 463  1125.612
 464  897.2273
 465  865.2516
 466  1132.349
 467  1044.073
 468  877.7153
 469  714.9211
 470  769.4161
 471  1078.879
 472  950.4389
 473  1014.647
 474  1033.6
 475  1045.629
 476  1429.746
 477  1124.223
 478  836.4288
 479  1349.724
 480  1615.438
 481  1489.09
 482  1547.987
 483  1661.32
 484  1565.588
 485  1380.548
 486  1578.422
 487  1726.47
 488  1540.493
 489  1695.051
 490  1837.682
 491  1699.995
 492  1447.458
 493  1451.883
 494  1669.49
 495  1678.826
 496  1337.807
 497  1183.08
 498  1548.993
 499  1340.276
 500  1346.098
 501  1508.055
 502  1464.057
 503  1392.35
 504  1104.338
 505  1139.4
 506  1417.88
 507  1138.839
 508  1134.706
 509  1120.125
 510  1226.236
 511  1252.436
