# Input file       =  1180423018.099737_cleaned.dat
# Candidate        =  PSR_0332+5434
# Telescope        =  AR
# Epoch_topo       =  57906.303670135843
# Epoch_bary       =  N/A
# T_sample         =  0.002
# Data Folded      =  7340032
# Data Avg         =  0.0877210041424924
# Data StdDev      =  2.88714058346564 
# Profile Bins     =  512
# Profile Avg      =  1257.77254975827 
# Profile StdDev   =  345.68610850493  
# Reduced chi-sqr  =  0.858
# Prob(Noise)      <  0.991   (~0.0 sigma)
# P_topo (ms)      =  714.515311685191  +/- 0.000684
# P'_topo (s/s)    =  -0                +/- 3.61e-10
# P''_topo (s/s^2) =  0                 +/- 1.59e-13
# P_bary (ms)      =  N/A
# P'_bary (s/s)    =  N/A
# P''_bary (s/s^2) =  N/A
# P_orb (s)        =  N/A
# asin(i)/c (s)    =  N/A
# eccentricity     =  N/A
# w (rad)          =  N/A
# T_peri           =  N/A
######################################################
   0  1287.416
   1  1209.2
   2  1368.603
   3  1226.339
   4  1288.576
   5  1354.437
   6  1416.57
   7  1390.694
   8  1335.544
   9  1233.389
  10  1202.363
  11  1333.954
  12  1224.348
  13  977.7983
  14  838.5472
  15  1035.768
  16  1197.76
  17  1156.821
  18  855.4614
  19  1142.464
  20  1451.481
  21  1060.075
  22  1000
  23  1281.044
  24  1132.404
  25  918.8399
  26  1065.212
  27  1260.117
  28  1201.256
  29  1099.923
  30  1154.417
  31  1057.9
  32  1075.191
  33  1130.276
  34  1319.844
  35  1516.997
  36  1286.515
  37  1338.725
  38  1202.54
  39  1288.523
  40  1283.888
  41  1332.549
  42  1040.562
  43  1018.643
  44  985.7488
  45  1021.846
  46  1251.052
  47  1240.875
  48  1202.506
  49  1025.551
  50  1050.6
  51  1155.95
  52  1312.172
  53  1287.977
  54  1227.473
  55  1428.19
  56  1543.316
  57  1482.291
  58  1494.223
  59  1177.986
  60  1318.078
  61  1474.266
  62  1561.788
  63  1306.946
  64  1362.185
  65  1375.036
  66  1275.678
  67  903.9288
  68  1169.743
  69  1254.054
  70  1277.967
  71  924.5974
  72  976.6437
  73  1158.159
  74  1191.719
  75  1344.087
  76  1033.655
  77  1077.508
  78  1207.183
  79  1016.422
  80  815.6944
  81  963.9578
  82  943.1152
  83  1240.531
  84  997.6558
  85  804.6047
  86  990.5605
  87  1170.614
  88  1188.144
  89  1281.258
  90  1210.458
  91  1136.286
  92  1247.694
  93  1306.185
  94  1075.462
  95  1248.726
  96  735.4526
  97  1035.933
  98  1440.507
  99  1150.676
 100  875.5909
 101  855.3673
 102  1234.715
 103  1536.266
 104  1441.298
 105  1630.683
 106  1328.753
 107  1529.757
 108  1586.978
 109  1492.687
 110  1534.972
 111  1512.968
 112  1448.313
 113  1044.41
 114  1387.827
 115  1525.266
 116  1322.276
 117  1418.488
 118  1101.666
 119  1151.479
 120  1181.655
 121  1361.731
 122  1332.067
 123  1138.37
 124  1236.894
 125  1136.031
 126  1050.304
 127  1360.795
 128  1418.371
 129  1216.549
 130  1414.907
 131  1492.753
 132  1392.554
 133  1279.512
 134  1502.417
 135  1139.706
 136  1438.163
 137  1343.595
 138  1132.261
 139  1187.488
 140  1465.484
 141  1480.989
 142  1325.098
 143  1333.581
 144  1205.388
 145  1013.215
 146  1189.887
 147  1335.046
 148  1055.958
 149  1095.438
 150  1066.339
 151  1144.91
 152  1348.033
 153  1335.414
 154  1134.314
 155  1074.901
 156  1260.472
 157  1132.571
 158  803.9691
 159  705.6682
 160  991.4185
 161  1247.212
 162  1143.48
 163  919.6277
 164  979.9966
 165  1067.501
 166  805.1757
 167  1018.611
 168  793.8114
 169  968.1188
 170  1106.326
 171  1144.067
 172  921.2639
 173  673.7863
 174  783.4344
 175  764.0733
 176  1161.161
 177  1209.234
 178  1013.03
 179  1340.388
 180  1350.48
 181  1486.533
 182  1617.569
 183  1255.953
 184  1294.289
 185  1246.923
 186  1205.816
 187  1122.442
 188  1035.068
 189  1177.143
 190  1199.982
 191  1591.473
 192  1643.62
 193  1465.573
 194  1199.471
 195  1110.988
 196  1467.586
 197  1457.629
 198  1083.003
 199  769.4816
 200  872.1328
 201  1229.533
 202  1253.646
 203  1307.946
 204  1428.459
 205  1209.181
 206  1192.654
 207  1185.226
 208  1373.917
 209  1389.062
 210  1256.616
 211  1257.854
 212  1466.81
 213  1364.689
 214  1050.836
 215  873.427
 216  1012.793
 217  1102.173
 218  925.9335
 219  1054.131
 220  968.9802
 221  1024.266
 222  1207.125
 223  1079.982
 224  957.6569
 225  961.764
 226  1125.771
 227  1291.901
 228  1431.672
 229  1313.129
 230  1407.105
 231  1434.545
 232  1498.937
 233  1401.212
 234  1136.437
 235  1375.946
 236  1335.823
 237  1127.214
 238  1105.409
 239  1345.737
 240  1237.622
 241  1197.805
 242  1117.555
 243  1096.592
 244  949.2956
 245  890.9169
 246  1088.166
 247  997.9286
 248  1130.425
 249  1201.896
 250  987.3439
 251  1019.253
 252  1044.336
 253  1037.418
 254  1200.55
 255  1002.434
 256  618.3792
 257  564.8749
 258  436.434
 259  692.5374
 260  1058.417
 261  1218.154
 262  1210.112
 263  942.051
 264  1357.547
 265  1216.688
 266  1056.733
 267  1212.256
 268  1037.32
 269  1035.499
 270  1138.076
 271  1070.541
 272  949.6933
 273  1164.436
 274  1286.581
 275  1232.718
 276  1355.075
 277  1417.152
 278  1365.436
 279  1468.442
 280  1248.004
 281  1262.193
 282  1348.589
 283  1608.535
 284  1576.554
 285  1803.964
 286  1715.373
 287  1804.966
 288  2234.326
 289  2480.759
 290  2581.224
 291  2127.355
 292  1768.7
 293  1471.14
 294  1477.854
 295  1581.829
 296  1347.445
 297  1086.115
 298  1278.849
 299  1272.285
 300  1466.16
 301  1469.104
 302  1329.915
 303  1544.649
 304  1719.528
 305  1944.129
 306  1830.983
 307  1569.304
 308  1718.873
 309  1354.719
 310  1332.327
 311  1611.6
 312  1666.684
 313  1626.378
 314  1507.029
 315  1251.469
 316  1340.306
 317  1724.368
 318  1577.002
 319  1770.321
 320  1753.485
 321  1560.284
 322  1311.199
 323  1161.744
 324  1223.118
 325  1575.323
 326  1682.098
 327  1321.513
 328  1264.279
 329  1163.679
 330  1252.737
 331  1300.88
 332  1185.447
 333  1202.893
 334  1033.751
 335  1204.151
 336  1282.734
 337  1441.295
 338  1329.015
 339  1389.876
 340  1395.321
 341  1284.249
 342  1132.681
 343  1067.688
 344  1368.784
 345  1124.846
 346  1294.962
 347  1626.023
 348  1521.939
 349  1248.427
 350  1399.287
 351  1298.406
 352  1308.54
 353  1445.541
 354  1466.17
 355  1158.492
 356  1044.729
 357  1210.198
 358  1429.309
 359  1278.402
 360  1602.337
 361  1632.592
 362  1198.691
 363  1321.851
 364  1286.646
 365  1261.821
 366  1477.175
 367  1238.792
 368  1167.363
 369  1034.099
 370  1113.682
 371  1391.682
 372  1284.547
 373  1519.871
 374  1506.943
 375  1291.082
 376  1265.202
 377  1268.322
 378  1371.553
 379  1264.904
 380  1310.38
 381  1350.403
 382  1366.486
 383  1606.057
 384  1480.54
 385  1218.668
 386  1153.482
 387  1216.751
 388  1361.716
 389  1398.813
 390  1103.398
 391  1189.518
 392  1251.599
 393  1275.715
 394  1188.408
 395  1298.603
 396  1244.494
 397  1005.865
 398  1306.131
 399  1355.548
 400  1377.64
 401  1466.296
 402  1141.798
 403  965.9052
 404  1106.724
 405  1324.569
 406  1139.337
 407  1111.125
 408  985.5991
 409  1019.935
 410  1055.063
 411  1049.361
 412  1070.933
 413  1142.704
 414  1468.587
 415  1329.736
 416  1188.931
 417  1093.605
 418  1414.332
 419  1252.388
 420  1064.281
 421  1026.223
 422  1008.501
 423  978.6414
 424  1262.321
 425  1190.681
 426  1130.932
 427  1364.081
 428  1341.669
 429  1285.995
 430  1044.144
 431  909.486
 432  889.8664
 433  1230.615
 434  1346.56
 435  1340.655
 436  1155.641
 437  1161.236
 438  1153.111
 439  1298.903
 440  1360.81
 441  1339.027
 442  1151.925
 443  1108.163
 444  1408.217
 445  1177.495
 446  1215.17
 447  968.8571
 448  1204.986
 449  1396.97
 450  1271.193
 451  1230.025
 452  1037.024
 453  1568.086
 454  1316.003
 455  1091.375
 456  1178.066
 457  1375.832
 458  1378.301
 459  1165.599
 460  1089.526
 461  1087.818
 462  1289.556
 463  1198.602
 464  1142.223
 465  1450.588
 466  1431.929
 467  1315.732
 468  1259.539
 469  1251.72
 470  1189.167
 471  1490.717
 472  1405.323
 473  1398.238
 474  1426.077
 475  1306.166
 476  1405.99
 477  1122.666
 478  1227.562
 479  1338.484
 480  1333.935
 481  1291.562
 482  1183.445
 483  1236.248
 484  1139.619
 485  1454.014
 486  1729.007
 487  1368.014
 488  1491.156
 489  1543.228
 490  1703.278
 491  1452.013
 492  1602.994
 493  1482.515
 494  1363.109
 495  1251.128
 496  1216.403
 497  1262.358
 498  1075.014
 499  1471.964
 500  1389.42
 501  1509.511
 502  1512.684
 503  1324.081
 504  1421.192
 505  1510.939
 506  1598.816
 507  1512.37
 508  1265.86
 509  1308.173
 510  1400.693
 511  1188.302
