# Input file       =  1180681523.102148_cleaned.dat
# Candidate        =  PSR_0332+5434
# Telescope        =  AR
# Epoch_topo       =  57909.295626182269
# Epoch_bary       =  N/A
# T_sample         =  0.002
# Data Folded      =  7340032
# Data Avg         =  0.0327436329725281
# Data StdDev      =  1.000107628895   
# Profile Bins     =  512
# Profile Avg      =  469.498812070452 
# Profile StdDev   =  119.745923111167 
# Reduced chi-sqr  =  1.211
# Prob(Noise)      <  0.000736   (~3.2 sigma)
# P_topo (ms)      =  714.512414128313  +/- 0.00033
# P'_topo (s/s)    =  -0                +/- 1.74e-10
# P''_topo (s/s^2) =  0                 +/- 7.68e-14
# P_bary (ms)      =  N/A
# P'_bary (s/s)    =  N/A
# P''_bary (s/s^2) =  N/A
# P_orb (s)        =  N/A
# asin(i)/c (s)    =  N/A
# eccentricity     =  N/A
# w (rad)          =  N/A
# T_peri           =  N/A
######################################################
   0  1044.465
   1  970.5695
   2  876.3471
   3  625.0876
   4  454.6419
   5  465.5281
   6  534.7927
   7  592.8074
   8  563.691
   9  683.7856
  10  674.4292
  11  423.1294
  12  539.1439
  13  648.3827
  14  599.363
  15  702.3134
  16  660.0356
  17  608.7501
  18  570.9929
  19  574.13
  20  549.1604
  21  389.1991
  22  437.2757
  23  424.821
  24  396.2849
  25  435.5412
  26  495.7666
  27  524.3851
  28  479.4745
  29  487.6842
  30  390.7242
  31  394.4919
  32  420.9832
  33  321.3467
  34  396.402
  35  396.3574
  36  427.7629
  37  486.4381
  38  418.1028
  39  366.1248
  40  299.4911
  41  401.1911
  42  477.736
  43  473.7848
  44  563.5134
  45  466.7428
  46  554.0698
  47  517.4268
  48  560.1468
  49  555.436
  50  560.9444
  51  547.5213
  52  562.3331
  53  590.8293
  54  499.7265
  55  539.7662
  56  576.0331
  57  519.5605
  58  504.3568
  59  648.5873
  60  524.2793
  61  548.2145
  62  581.7991
  63  533.7994
  64  464.9718
  65  474.2992
  66  439.0669
  67  420.2021
  68  500.446
  69  444.8997
  70  379.2695
  71  537.5773
  72  474.1874
  73  411.7758
  74  530.8931
  75  488.3302
  76  431.0236
  77  403.6398
  78  508.8861
  79  516.7003
  80  381.2392
  81  372.6888
  82  511.5213
  83  530.2595
  84  513.3782
  85  487.2074
  86  492.0771
  87  437.2082
  88  475.4633
  89  417.4955
  90  343.1231
  91  445.1647
  92  454.8679
  93  443.2738
  94  386.3484
  95  508.7752
  96  451.5062
  97  483.9371
  98  533.2021
  99  532.8924
 100  571.9233
 101  487.2142
 102  456.022
 103  460.7803
 104  442.6223
 105  420.4328
 106  637.8488
 107  673.5508
 108  617.756
 109  619.547
 110  552.1468
 111  516.8661
 112  485.6854
 113  503.9411
 114  470.4071
 115  476.5122
 116  460.2424
 117  514.2339
 118  601.6232
 119  583.5256
 120  445.7629
 121  439.4186
 122  509.3003
 123  455.9476
 124  418.9327
 125  499.6573
 126  543.0152
 127  390.1004
 128  424.2044
 129  512.39
 130  478.9987
 131  514.9592
 132  472.8622
 133  464.7529
 134  508.0959
 135  553.8794
 136  529.4042
 137  475.3219
 138  454.0771
 139  509.9058
 140  539.5238
 141  489.1763
 142  499.8813
 143  492.5659
 144  497.7882
 145  532.3141
 146  476.9869
 147  476.2711
 148  554.6829
 149  440.722
 150  413.0563
 151  461.6932
 152  447.5669
 153  439.2779
 154  379.4816
 155  357.4943
 156  436.3173
 157  456.3702
 158  516.2532
 159  695.582
 160  617.626
 161  522.5926
 162  460.9546
 163  390.4427
 164  371.0478
 165  500.1384
 166  479.9087
 167  524.4839
 168  503.3787
 169  458.2053
 170  432.4815
 171  438.3387
 172  485.9227
 173  367.8609
 174  439.3067
 175  445.0506
 176  353.1397
 177  411.4387
 178  381.5341
 179  355.3246
 180  483.6848
 181  445.0939
 182  467.5834
 183  652.4391
 184  583.3824
 185  498.9053
 186  510.5347
 187  531.8852
 188  530.6689
 189  478.6897
 190  512.4868
 191  471.5975
 192  547.9283
 193  585.6392
 194  567.0211
 195  660.1264
 196  629.4839
 197  522.3556
 198  526.162
 199  526.477
 200  501.4966
 201  522.1464
 202  513.4304
 203  455.787
 204  408.1499
 205  439.0258
 206  409.8443
 207  390.3821
 208  403.3201
 209  476.2737
 210  372.3996
 211  512.6148
 212  536.0496
 213  393.0228
 214  339.5754
 215  389.1056
 216  416.4295
 217  463.3496
 218  519.7733
 219  524.2241
 220  508.0503
 221  484.0714
 222  531.5162
 223  518.8956
 224  553.3991
 225  463.9833
 226  440.2053
 227  481.2206
 228  499.3259
 229  426.4127
 230  463.2502
 231  508.2805
 232  512.1857
 233  512.142
 234  531.3259
 235  563.5779
 236  606.5549
 237  527.2407
 238  565.1446
 239  606.3391
 240  507.8089
 241  386.3112
 242  522.2391
 243  490.0555
 244  425.2303
 245  435.1856
 246  378.776
 247  451.8756
 248  529.0665
 249  560.2723
 250  534.6686
 251  550.0599
 252  486.1797
 253  531.5201
 254  558.7546
 255  511.7657
 256  419.491
 257  467.06
 258  442.645
 259  464.6109
 260  632.8433
 261  623.6318
 262  461.9629
 263  503.9718
 264  570.2946
 265  511.462
 266  456.2056
 267  557.8672
 268  462.219
 269  547.0345
 270  495.6432
 271  471.7589
 272  484.8623
 273  461.9728
 274  495.6185
 275  539.5993
 276  555.1091
 277  470.9999
 278  424.3855
 279  363.6774
 280  426.284
 281  468.1878
 282  380.5771
 283  459.7692
 284  446.2763
 285  524.6448
 286  568.3364
 287  501.7383
 288  367.6539
 289  255.2607
 290  420.5506
 291  437.8305
 292  553.3423
 293  425.6149
 294  414.5701
 295  534.1838
 296  395.5104
 297  360.6404
 298  378.6852
 299  464.0168
 300  362.2086
 301  350.4691
 302  467.7963
 303  561.1066
 304  487.7581
 305  501.7821
 306  480.2151
 307  517.9963
 308  422.5144
 309  557.3966
 310  583.7244
 311  484.7147
 312  398.3771
 313  396.3052
 314  444.1849
 315  621.8491
 316  556.6971
 317  415.2455
 318  441.1233
 319  520.4331
 320  551.4968
 321  429.6081
 322  370.7076
 323  372.8886
 324  453.2565
 325  472.9486
 326  384.8508
 327  485.2776
 328  420.7382
 329  484.3435
 330  415.387
 331  335.5296
 332  310.9003
 333  305.5459
 334  300.8099
 335  281.9075
 336  356.5941
 337  442.4105
 338  355.0503
 339  485.2171
 340  532.5403
 341  394.1012
 342  436.133
 343  508.2955
 344  438.7519
 345  437.2731
 346  464.8712
 347  359.9318
 348  351.0609
 349  335.0224
 350  373.4171
 351  431.2977
 352  486.1606
 353  506.1852
 354  438.33
 355  411.0894
 356  472.0692
 357  449.9225
 358  542.0855
 359  564.5368
 360  451.0285
 361  504.898
 362  494.6081
 363  396.6977
 364  446.5545
 365  529.5637
 366  542.5744
 367  523.4584
 368  422.1933
 369  264.1155
 370  438.713
 371  427.9928
 372  500.6627
 373  446.3744
 374  428.6272
 375  372.6786
 376  349.1645
 377  353.9252
 378  384.4484
 379  397.7471
 380  346.1187
 381  394.1459
 382  349.3128
 383  334.9849
 384  275.4996
 385  201.7841
 386  250.4546
 387  212.1813
 388  264.7528
 389  351.6324
 390  347.4834
 391  439.348
 392  437.5099
 393  484.3853
 394  405.8186
 395  205.265
 396  314.1886
 397  332.9825
 398  297.7826
 399  387.2389
 400  384.5348
 401  450.5069
 402  492.3264
 403  369.4731
 404  342.6677
 405  451.595
 406  511.8882
 407  440.1742
 408  325.529
 409  226.4232
 410  280.8402
 411  371.0141
 412  326.9664
 413  362.0383
 414  505.9229
 415  455.9983
 416  383.4098
 417  464.57
 418  485.5357
 419  387.6533
 420  442.4846
 421  552.2374
 422  585.2676
 423  497.6899
 424  411.1043
 425  377.1696
 426  474.3139
 427  415.4945
 428  392.1428
 429  416.8451
 430  432.4238
 431  396.2492
 432  308.0755
 433  353.2992
 434  438.3549
 435  448.8815
 436  599.4484
 437  595.1147
 438  535.666
 439  464.4399
 440  491.6133
 441  525.4509
 442  528.277
 443  384.6614
 444  465.678
 445  454.4717
 446  393.511
 447  451.7105
 448  607.776
 449  553.5769
 450  471.5761
 451  425.554
 452  501.7028
 453  455.0406
 454  429.0097
 455  497.5453
 456  527.3795
 457  520.8694
 458  434.8526
 459  389.8677
 460  326.6078
 461  455.4644
 462  478.6086
 463  431.7845
 464  425.2607
 465  451.2809
 466  502.777
 467  570.5671
 468  468.7404
 469  436.8984
 470  378.7662
 471  453.3624
 472  513.2797
 473  376.2564
 474  359.4018
 475  451.3637
 476  419.7545
 477  353.8647
 478  364.1845
 479  287.9225
 480  426.7205
 481  533.679
 482  486.7188
 483  442.1002
 484  360.3505
 485  440.9933
 486  296.4165
 487  302.2757
 488  270.6421
 489  372.028
 490  410.2601
 491  425.0171
 492  391.0607
 493  467.7117
 494  414.609
 495  434.8318
 496  524.394
 497  531.9915
 498  501.0175
 499  394.735
 500  398.8049
 501  473.4532
 502  484.1953
 503  464.3037
 504  437.6998
 505  468.1976
 506  585.3114
 507  517.8748
 508  614.8553
 509  734.0103
 510  890.4283
 511  953.4371
