# Input file       =  1180696444.113249_cleaned.dat
# Candidate        =  PSR_0332+5434
# Telescope        =  AR
# Epoch_topo       =  57909.468323070010
# Epoch_bary       =  N/A
# T_sample         =  0.002
# Data Folded      =  7340032
# Data Avg         =  0.112148069431507
# Data StdDev      =  3.23834949236117 
# Profile Bins     =  512
# Profile Avg      =  1607.87584457223 
# Profile StdDev   =  387.737417569562 
# Reduced chi-sqr  =  1.076
# Prob(Noise)      <  0.113   (~1.2 sigma)
# P_topo (ms)      =  714.512582822015  +/- 0.000342
# P'_topo (s/s)    =  -0                +/- 1.81e-10
# P''_topo (s/s^2) =  0                 +/- 7.97e-14
# P_bary (ms)      =  N/A
# P'_bary (s/s)    =  N/A
# P''_bary (s/s^2) =  N/A
# P_orb (s)        =  N/A
# asin(i)/c (s)    =  N/A
# eccentricity     =  N/A
# w (rad)          =  N/A
# T_peri           =  N/A
######################################################
   0  1320.991
   1  1412.117
   2  1770.379
   3  1940.465
   4  1789.227
   5  1493.475
   6  1334.876
   7  1255.471
   8  1375.785
   9  1422.861
  10  1614.131
  11  1448.299
  12  1349.622
  13  1426.92
  14  1492.962
  15  1620.429
  16  1567.499
  17  1428.383
  18  1868.372
  19  1852.827
  20  1821.32
  21  1879.319
  22  1877.371
  23  1642.838
  24  1772.04
  25  1923.134
  26  2147.291
  27  2136.51
  28  1694.471
  29  1455.896
  30  1444.497
  31  1526.445
  32  1424.428
  33  1524.395
  34  1756.598
  35  1496.941
  36  1325.215
  37  1364.066
  38  1497.156
  39  1644.857
  40  1477.001
  41  1587.258
  42  1458.916
  43  1383.966
  44  1461.779
  45  1597.743
  46  1656.984
  47  1566.005
  48  1449.504
  49  1691.408
  50  1599.396
  51  1661.781
  52  1792.297
  53  1730.579
  54  1635.845
  55  2013.925
  56  2047.12
  57  1756.668
  58  2002.212
  59  2182.617
  60  2024.972
  61  2221.452
  62  2209.053
  63  1943.928
  64  2198.909
  65  2547.306
  66  2339.834
  67  2201.281
  68  1853.036
  69  1916.616
  70  2013.179
  71  2322.221
  72  2238.883
  73  1872.349
  74  2079.917
  75  2127.364
  76  1790.666
  77  1543.525
  78  1685.211
  79  1739.192
  80  1679.371
  81  1827.827
  82  2100.412
  83  1762.59
  84  1548.199
  85  1505.891
  86  1971.912
  87  1967.94
  88  2171.208
  89  1831.183
  90  1732.121
  91  1471.112
  92  1319.238
  93  1408.819
  94  1494.912
  95  1593.173
  96  1469.896
  97  1296.497
  98  1388.867
  99  1662.777
 100  1396.344
 101  1481.329
 102  1684.474
 103  1619.923
 104  1728.158
 105  1577.482
 106  1710.498
 107  1677.465
 108  1866.879
 109  1983.31
 110  1780.926
 111  1978.814
 112  1971.319
 113  1997.883
 114  1882.503
 115  1941.441
 116  1748.181
 117  1631.225
 118  1707.239
 119  1550.794
 120  1408.19
 121  1324.946
 122  1538.735
 123  1587.189
 124  1737.558
 125  2007.341
 126  1903.357
 127  1501.862
 128  1522.772
 129  1601.103
 130  1805.81
 131  1875.502
 132  2065.062
 133  2013.117
 134  1716.534
 135  1794.349
 136  1705.54
 137  1958.838
 138  1736.31
 139  1851.151
 140  2276.614
 141  2021.311
 142  1815.435
 143  1901.511
 144  1882.512
 145  1825.742
 146  1981.5
 147  1948.528
 148  1646.399
 149  1558.271
 150  1565.834
 151  1688.755
 152  1749.303
 153  1746.561
 154  1688.07
 155  1746.255
 156  1870.965
 157  1961.464
 158  1793.829
 159  1415.504
 160  1167.091
 161  1393.948
 162  1571.591
 163  1152.084
 164  1075.75
 165  1468.103
 166  1398.952
 167  1300.594
 168  1280.585
 169  972.4252
 170  1161.432
 171  1100.402
 172  905.8127
 173  866.1725
 174  953.2976
 175  1514.593
 176  1496.81
 177  1256.238
 178  1333.922
 179  1189.476
 180  1221.733
 181  1356.998
 182  1304.546
 183  1453.205
 184  1540.607
 185  1374.345
 186  1338.193
 187  1184.115
 188  1158.731
 189  1448.613
 190  1197.204
 191  1302.197
 192  1694.359
 193  1239.956
 194  1032.131
 195  1376.689
 196  1559.167
 197  1478.587
 198  1626.595
 199  1570.868
 200  1354.566
 201  1006.469
 202  818.8482
 203  830.6193
 204  915.1081
 205  1192.995
 206  1247.769
 207  1059.186
 208  1265.03
 209  1513.004
 210  1688.226
 211  1394.974
 212  1311.631
 213  1338.663
 214  1224.604
 215  1480.14
 216  1606.222
 217  1685.085
 218  1386.611
 219  1345.661
 220  1445.079
 221  1577.286
 222  1279.203
 223  1256.454
 224  1613.021
 225  1702.916
 226  1409.187
 227  1491.045
 228  1681.286
 229  1310.358
 230  1629.486
 231  1891.653
 232  1877.227
 233  2018.664
 234  2011.815
 235  1904.091
 236  2110.135
 237  1948.99
 238  1637.894
 239  1434.631
 240  1518.337
 241  1945.618
 242  2028.763
 243  1993.462
 244  1902.857
 245  1515.282
 246  1797.781
 247  1952.366
 248  2234.475
 249  2590.524
 250  2480.965
 251  2405.356
 252  2191.203
 253  1751.078
 254  1445.833
 255  1561.613
 256  1734.882
 257  1804.266
 258  1620.282
 259  1297.165
 260  1028.83
 261  1076.271
 262  1299.732
 263  1497.239
 264  1674.871
 265  1743.329
 266  1675.272
 267  1446.391
 268  1290.823
 269  1548.955
 270  1732.789
 271  1533.049
 272  1380.891
 273  1306.931
 274  1084.523
 275  1201.888
 276  1243.202
 277  1538.052
 278  1483.125
 279  1701.62
 280  1994.536
 281  1837.806
 282  1835.85
 283  1743.336
 284  1544.366
 285  1945.514
 286  1877.813
 287  1733.517
 288  1769.755
 289  1481.482
 290  1767.557
 291  1787.669
 292  1912.564
 293  1638.209
 294  1273.021
 295  1693.537
 296  1602.73
 297  1512.94
 298  1408.999
 299  1637.6
 300  1618.804
 301  1251.979
 302  1218.785
 303  1285.981
 304  1812.141
 305  1561.431
 306  1369.699
 307  1233.587
 308  1373.698
 309  1502.357
 310  1459.057
 311  1486.89
 312  1403.467
 313  1136.446
 314  1244.735
 315  1463.814
 316  1105.598
 317  1195.61
 318  1380.713
 319  1528.591
 320  1643.727
 321  1587.928
 322  1800.644
 323  1577.696
 324  1612.357
 325  1754.043
 326  1453.928
 327  1665.561
 328  1759.761
 329  1407.937
 330  1560.074
 331  1815.828
 332  1706.51
 333  1412.93
 334  1617.843
 335  1578.185
 336  1062.81
 337  1288.569
 338  1405.124
 339  1199.189
 340  1364.738
 341  1358.838
 342  1071.855
 343  1023.868
 344  1045.036
 345  1366.755
 346  1480.445
 347  1326.473
 348  1327.42
 349  1461.945
 350  1104.654
 351  1450.422
 352  1339.892
 353  1353.53
 354  1324.069
 355  1363.039
 356  1619.681
 357  1330.503
 358  1589.644
 359  2238.817
 360  1811.616
 361  1617.105
 362  1879.702
 363  1744.333
 364  1615.077
 365  1591.928
 366  1601.554
 367  1838.291
 368  1678.933
 369  1997.197
 370  1810.144
 371  1681.443
 372  1488.323
 373  1466.7
 374  1556.357
 375  1668.589
 376  1675.53
 377  1525.341
 378  1633.724
 379  1455.172
 380  1667.25
 381  1405.515
 382  1233.632
 383  1476.634
 384  1343.118
 385  1151.455
 386  1611.969
 387  1407.896
 388  1290.532
 389  1512.256
 390  1059.119
 391  754.8804
 392  1164.377
 393  1394.716
 394  1701.032
 395  1477.002
 396  1177.828
 397  1452.234
 398  1321.785
 399  1460.523
 400  1441.89
 401  1385.097
 402  1512.765
 403  1784.198
 404  1839.876
 405  1700.926
 406  1698.324
 407  2058.754
 408  2110.53
 409  1829.813
 410  1894.735
 411  1995.347
 412  1754.754
 413  1699.595
 414  1876.9
 415  1681.68
 416  1368.515
 417  1583.345
 418  1439.413
 419  1710.945
 420  1440.477
 421  1438.038
 422  1533.772
 423  1589.777
 424  1707.844
 425  2001.975
 426  1669.731
 427  1468.103
 428  1480.656
 429  1759.941
 430  1644.654
 431  1493.767
 432  1487.612
 433  1618.417
 434  1723.599
 435  1717.544
 436  1833.448
 437  1635.002
 438  1537.328
 439  1559.891
 440  1571.708
 441  1746.816
 442  1817.822
 443  1815.383
 444  1637.729
 445  1536.867
 446  1983.612
 447  2001.892
 448  1800.435
 449  1698.825
 450  1736.127
 451  1762.547
 452  1702.988
 453  1811.195
 454  2011.128
 455  1766.799
 456  1700.321
 457  1584.956
 458  1532.47
 459  1594.864
 460  1843.267
 461  1671.351
 462  1858.401
 463  1545.982
 464  1508.362
 465  1680.865
 466  1598.659
 467  1452.606
 468  1518.14
 469  1626.022
 470  1061.102
 471  998.1504
 472  1297.11
 473  1380.125
 474  1575.955
 475  1574.519
 476  1519.348
 477  1561.114
 478  1393.734
 479  1424.165
 480  1511.235
 481  1752.044
 482  1780.133
 483  1314.898
 484  1366.34
 485  1430.312
 486  1729.719
 487  2166.916
 488  2266.946
 489  2004.152
 490  1716.635
 491  1683.309
 492  1541.596
 493  1555.728
 494  1720.951
 495  1687.238
 496  1614.234
 497  2203.087
 498  2453.187
 499  2243.737
 500  1918.988
 501  1462.103
 502  1695.38
 503  1591.214
 504  1347.084
 505  1597.094
 506  1713.233
 507  1985.332
 508  1810.296
 509  2088.633
 510  1811.287
 511  1576.292
