# Input file       =  1180925359.100276_cleaned.dat
# Candidate        =  PSR_0332+5434
# Telescope        =  AR
# Epoch_topo       =  57912.117802086526
# Epoch_bary       =  N/A
# T_sample         =  0.002
# Data Folded      =  7208960
# Data Avg         =  0.102983110095374
# Data StdDev      =  4.20508773289299 
# Profile Bins     =  512
# Profile Avg      =  1449.73799036753 
# Profile StdDev   =  498.972244524568 
# Reduced chi-sqr  =  0.717
# Prob(Noise)      <  1   (~0.0 sigma)
# P_topo (ms)      =  714.509698986121  +/- 5.71e-05
# P'_topo (s/s)    =  -0                +/- 3.07e-11
# P''_topo (s/s^2) =  0                 +/- 1.38e-14
# P_bary (ms)      =  N/A
# P'_bary (s/s)    =  N/A
# P''_bary (s/s^2) =  N/A
# P_orb (s)        =  N/A
# asin(i)/c (s)    =  N/A
# eccentricity     =  N/A
# w (rad)          =  N/A
# T_peri           =  N/A
######################################################
   0  1454.074
   1  1250.086
   2  1125.592
   3  1282.499
   4  1244.024
   5  937.8532
   6  901.7846
   7  1240.39
   8  1470.481
   9  1064.048
  10  1309.787
  11  1206.48
  12  1114.629
  13  1224.919
  14  906.1429
  15  1005.746
  16  1053.391
  17  1225.083
  18  1425.532
  19  1781.792
  20  1587.669
  21  1406.131
  22  1250.865
  23  1551.389
  24  1926.216
  25  1959.245
  26  1797.644
  27  1757.477
  28  1684.812
  29  1498.062
  30  1311.115
  31  1167.205
  32  1221.801
  33  1256.965
  34  890.1895
  35  1362.341
  36  1321.182
  37  924.8602
  38  1113.738
  39  991.12
  40  1545.314
  41  1685.715
  42  1669.278
  43  1713.693
  44  1318.692
  45  1290.105
  46  1003.91
  47  1276.737
  48  1585.06
  49  996.7864
  50  1061.465
  51  1296.835
  52  1420.655
  53  1154.135
  54  1622.692
  55  1572.334
  56  1284.869
  57  1313.79
  58  1673.857
  59  1885.193
  60  1632.189
  61  1357.51
  62  1555.313
  63  1177.296
  64  1319.358
  65  1403.172
  66  1570.781
  67  1614.693
  68  1463.713
  69  1636.648
  70  1345.435
  71  1222.449
  72  1729.424
  73  1818.757
  74  1759.378
  75  1805.058
  76  1975.98
  77  1754.21
  78  1583.233
  79  1149.017
  80  849.3214
  81  1111.43
  82  1574.386
  83  1636.157
  84  1695.371
  85  1782.243
  86  1770.362
  87  1326.22
  88  1067.183
  89  1214.815
  90  938.4735
  91  1961.269
  92  2060.618
  93  1910.124
  94  1530.447
  95  1238.627
  96  1526.872
  97  1428.548
  98  1383.695
  99  1852.681
 100  1590.362
 101  1398.922
 102  1227.097
 103  1155.007
 104  1246.081
 105  1101.245
 106  1542.768
 107  1918.578
 108  1732.753
 109  1584.493
 110  1691.544
 111  1977.445
 112  1866.128
 113  1062.349
 114  831.6495
 115  1182.63
 116  1441.661
 117  1580.686
 118  1771.924
 119  1577.297
 120  818.8206
 121  1249.025
 122  1176.987
 123  1348.954
 124  1762.394
 125  1917.557
 126  1802.386
 127  1519.219
 128  1448.729
 129  1349.492
 130  1583.388
 131  1373.647
 132  1202.613
 133  1463.546
 134  1579.568
 135  1273.244
 136  1133.964
 137  1131.871
 138  1240.929
 139  1499.749
 140  1797.891
 141  1815.433
 142  1453.156
 143  1530.197
 144  1698.967
 145  1389.918
 146  1001.648
 147  1175.678
 148  1226.81
 149  1158.471
 150  1504.992
 151  1668.844
 152  1218.195
 153  973.7182
 154  1359.395
 155  1413.634
 156  1805.684
 157  1783.302
 158  1903.104
 159  1898.161
 160  1585.255
 161  1018.715
 162  934.9052
 163  1580.012
 164  1649.51
 165  1813.032
 166  1724.042
 167  1603.834
 168  1684.062
 169  1426.887
 170  1317.109
 171  1269.347
 172  1437.167
 173  1449.658
 174  1699.646
 175  1728.58
 176  1610.839
 177  1301.998
 178  1434.682
 179  1397.146
 180  1368.268
 181  1140.61
 182  1364.803
 183  1474.7
 184  1634.222
 185  1281.897
 186  1011.965
 187  1004.369
 188  1458.94
 189  1550.415
 190  1944.471
 191  2091.694
 192  1857.763
 193  1754.362
 194  1691.494
 195  1503.107
 196  1250.123
 197  1299.737
 198  1709.273
 199  1748.434
 200  1552.715
 201  1406.628
 202  1421.921
 203  1241.53
 204  940.7714
 205  1356.087
 206  1367.883
 207  1806.21
 208  1772.465
 209  1499.048
 210  1193.012
 211  1062.434
 212  1292.944
 213  857.6826
 214  1153.035
 215  1514.151
 216  1874.422
 217  2015.247
 218  1204.736
 219  1338.703
 220  1237.061
 221  1396.414
 222  1582.545
 223  1719.986
 224  1610.561
 225  1828.767
 226  1649.163
 227  1565.013
 228  1398.552
 229  1382.192
 230  1490.191
 231  1319.828
 232  1502.521
 233  1443.901
 234  1550.799
 235  1035.638
 236  1221.273
 237  1136.599
 238  1397.504
 239  2042.442
 240  2028.707
 241  1943.76
 242  1653.831
 243  1231.012
 244  1122.559
 245  1071.578
 246  1490.294
 247  1539.374
 248  1472.295
 249  1842.49
 250  1430.014
 251  1491.756
 252  1272.692
 253  1549.358
 254  1417.099
 255  1238.113
 256  1474.966
 257  2027.427
 258  1782.364
 259  1405.835
 260  1290.998
 261  1293.76
 262  1085.962
 263  673.5239
 264  1041.345
 265  1603.745
 266  1557.95
 267  1927.298
 268  1553.359
 269  1270.621
 270  549.9716
 271  945.8694
 272  1597.935
 273  1785.213
 274  1956.796
 275  1595.56
 276  1267.955
 277  1283.855
 278  1408.711
 279  1619.89
 280  1411.03
 281  1469.422
 282  1066.537
 283  1292.773
 284  1090.094
 285  1063.657
 286  1249.466
 287  1363.619
 288  1393.192
 289  1363.245
 290  1795.911
 291  1776.437
 292  1698.146
 293  1694.057
 294  1482.734
 295  925.9462
 296  980.7266
 297  1249.662
 298  1749.402
 299  1997.392
 300  1511.028
 301  1297.298
 302  1312.782
 303  1266.748
 304  1222.058
 305  1738.453
 306  2143.276
 307  1839.34
 308  1632.933
 309  1075.47
 310  1398.39
 311  1627.331
 312  1741.081
 313  1959.293
 314  1858.094
 315  1529.899
 316  1533.62
 317  1603.788
 318  1451.735
 319  1658.108
 320  2083.265
 321  1879.056
 322  1670.166
 323  1994.998
 324  1916.64
 325  2039.357
 326  2537.514
 327  2774.239
 328  2555.786
 329  2338.803
 330  2301.909
 331  1955.871
 332  1710.467
 333  1285.157
 334  1119.213
 335  1201.515
 336  1177.771
 337  1079.978
 338  1886.893
 339  1847.063
 340  1823.787
 341  1147.064
 342  1064.056
 343  1022.827
 344  1113.124
 345  1105.87
 346  961.9775
 347  1211.618
 348  1352.415
 349  1245.589
 350  1477.956
 351  1269.659
 352  1470.175
 353  1825.031
 354  1679.978
 355  1575.118
 356  1572.165
 357  1612.982
 358  1378.907
 359  1312.919
 360  1217.42
 361  1138.238
 362  1396.543
 363  1556.282
 364  1751.155
 365  2140.193
 366  1579.088
 367  1218.262
 368  1425.203
 369  1235.942
 370  1676.973
 371  1755.558
 372  1834.132
 373  1872.435
 374  1620.908
 375  1904.281
 376  1440.062
 377  1118.626
 378  1125.059
 379  1464.109
 380  1307.807
 381  1437.564
 382  1865.267
 383  1652.914
 384  958.0432
 385  1358.056
 386  1762.427
 387  1258.554
 388  1659.384
 389  2043.314
 390  1815.075
 391  1409.42
 392  1806.028
 393  1441.106
 394  1236.115
 395  1315.66
 396  1000.399
 397  1441.599
 398  1449.59
 399  1224.924
 400  1108.703
 401  1281.658
 402  1612.138
 403  1327.37
 404  1387.915
 405  1948.324
 406  1308.596
 407  1388.293
 408  1405.357
 409  1140.859
 410  1162.057
 411  1357.696
 412  1717.747
 413  1260.561
 414  1413.481
 415  1312.16
 416  1141.046
 417  1368.005
 418  1321.985
 419  1491.12
 420  1517.775
 421  2107.164
 422  1931.431
 423  1696.806
 424  1553.177
 425  1227.703
 426  803.5795
 427  1173.444
 428  1180.933
 429  1223.415
 430  1443.848
 431  1413.147
 432  1504.099
 433  1495.537
 434  1710.485
 435  1322.884
 436  1167.314
 437  1375.594
 438  1697.7
 439  1810.2
 440  1673.343
 441  1515.343
 442  1578.652
 443  1384.002
 444  1136.588
 445  1144.603
 446  1513.159
 447  1204.573
 448  1130.439
 449  1626.24
 450  1384.091
 451  1070.239
 452  1146.819
 453  1219.819
 454  1263.29
 455  1587.77
 456  1808.429
 457  1807.26
 458  1545.614
 459  1664.222
 460  1310.361
 461  1344.223
 462  1229.04
 463  1389.089
 464  1295.547
 465  1007.324
 466  1304.413
 467  1397.565
 468  1509.207
 469  1521.34
 470  1642.405
 471  1771.906
 472  1629.709
 473  1387.47
 474  1390.254
 475  1437.47
 476  1156.166
 477  1288.072
 478  1369.74
 479  1212.993
 480  1163.774
 481  1427.994
 482  1278.824
 483  1175.426
 484  873.3365
 485  1016.874
 486  1627.762
 487  1299.867
 488  1702.976
 489  1656.374
 490  1484.276
 491  1038.456
 492  1129.278
 493  1624.84
 494  1561.824
 495  1560.398
 496  1458.336
 497  1276.105
 498  1387.47
 499  1239.823
 500  918.8078
 501  1406.911
 502  967.191
 503  1455.771
 504  1931.142
 505  1878.571
 506  1548.446
 507  1243.427
 508  895.6003
 509  670.9725
 510  907.1683
 511  1213.65
