# Input file       =  1180580777.110533_cleaned.dat
# Candidate        =  PSR_0332+5434
# Telescope        =  AR
# Epoch_topo       =  57908.129584612652
# Epoch_bary       =  N/A
# T_sample         =  0.002
# Data Folded      =  7143424
# Data Avg         =  0.133648568323232
# Data StdDev      =  4.68215762705501 
# Profile Bins     =  1024
# Profile Avg      =  932.318003521754 
# Profile StdDev   =  391.065285995901 
# Reduced chi-sqr  =  0.515
# Prob(Noise)      <  1   (~0.0 sigma)
# P_topo (ms)      =  714.513527562147  +/- 8.64e-05
# P'_topo (s/s)    =  -0                +/- 4.68e-11
# P''_topo (s/s^2) =  0                 +/- 2.12e-14
# P_bary (ms)      =  N/A
# P'_bary (s/s)    =  N/A
# P''_bary (s/s^2) =  N/A
# P_orb (s)        =  N/A
# asin(i)/c (s)    =  N/A
# eccentricity     =  N/A
# w (rad)          =  N/A
# T_peri           =  N/A
######################################################
   0  841.788
   1  859.0853
   2  742.8564
   3  678.0601
   4  737.5931
   5  957.5334
   6  1071.404
   7  1097.769
   8  1107.29
   9  1004.472
  10  855.3975
  11  844.2598
  12  845.1556
  13  723.6116
  14  829.7966
  15  950.2239
  16  1114.432
  17  1028.724
  18  1106.338
  19  1131.26
  20  979.5291
  21  770.2
  22  707.0683
  23  850.8997
  24  912.3645
  25  864.1907
  26  822.0425
  27  726.2307
  28  770.4215
  29  640.5662
  30  639.1444
  31  521.1916
  32  656.3986
  33  653.7056
  34  715.7486
  35  855.7943
  36  925.9684
  37  830.4876
  38  657.9763
  39  656.9619
  40  675.8903
  41  552.7441
  42  410.4569
  43  555.4736
  44  646.6237
  45  707.7224
  46  762.7476
  47  701.3907
  48  608.131
  49  519.279
  50  715.6353
  51  836.3713
  52  909.437
  53  945.5132
  54  1105.271
  55  1129.242
  56  1010.168
  57  921.8226
  58  793.2364
  59  766.4245
  60  826.8499
  61  876.3996
  62  934.8082
  63  831.2771
  64  784.3645
  65  806.3757
  66  718.1949
  67  727.7876
  68  734.7485
  69  747.7625
  70  646.7136
  71  598.7313
  72  739.8072
  73  837.6818
  74  867.0469
  75  903.9456
  76  935.5856
  77  961.4565
  78  924.383
  79  923.9952
  80  939.053
  81  913.7186
  82  885.1884
  83  994.1993
  84  1003.611
  85  1047.184
  86  925.0695
  87  1034.284
  88  932.538
  89  1063.564
  90  1020.211
  91  1106.847
  92  997.1947
  93  962.5475
  94  935.3493
  95  837.6625
  96  778.8255
  97  772.7281
  98  881.4111
  99  989.0783
 100  948.2341
 101  1089.004
 102  1218.779
 103  1220.316
 104  1144.199
 105  1056.407
 106  1059.561
 107  1032.87
 108  1015.166
 109  1056.677
 110  1083.148
 111  1069.611
 112  1152.829
 113  1100.188
 114  1130.998
 115  1112.855
 116  1201.753
 117  1266.625
 118  1229.794
 119  1202.398
 120  1136.101
 121  1123.956
 122  1046.028
 123  1096.084
 124  1142.373
 125  1165.264
 126  1159.804
 127  1080.133
 128  1098.245
 129  931.4133
 130  934.5527
 131  906.8868
 132  886.4581
 133  904.3629
 134  988.6964
 135  1001.729
 136  822.8704
 137  759.2693
 138  876.1194
 139  1031.889
 140  1052.908
 141  977.0887
 142  1021.574
 143  1079.473
 144  1111.639
 145  1126.805
 146  947.1177
 147  760.9437
 148  749.9888
 149  976.5605
 150  972.4482
 151  996.703
 152  1104.465
 153  1306.805
 154  1081.137
 155  820.7989
 156  744.2909
 157  931.0262
 158  971.2499
 159  1122.325
 160  1078.866
 161  1093.365
 162  895.2846
 163  908.2093
 164  961.1161
 165  1063.603
 166  1124.005
 167  1213.115
 168  1014.289
 169  847.3715
 170  754.4739
 171  905.0019
 172  898.8275
 173  817.2537
 174  814.364
 175  766.005
 176  814.656
 177  777.4474
 178  933.2504
 179  914.906
 180  1023.056
 181  1138.137
 182  1084.191
 183  962.935
 184  973.0053
 185  1010.098
 186  1088.064
 187  948.8282
 188  1029.058
 189  936.206
 190  1023.341
 191  871.8626
 192  850.177
 193  663.699
 194  728.9495
 195  790.8055
 196  855.6647
 197  844.2401
 198  867.2981
 199  909.7073
 200  872.1223
 201  932.4418
 202  1088.342
 203  1113.329
 204  1007.033
 205  957.1078
 206  955.054
 207  972.5883
 208  1004.776
 209  1052.969
 210  969.3343
 211  786.5373
 212  786.9871
 213  875.9455
 214  917.8119
 215  850.6076
 216  941.4332
 217  966.6583
 218  965.0688
 219  825.9666
 220  799.9495
 221  806.8024
 222  892.9752
 223  876.3538
 224  950.5901
 225  932.3258
 226  1063.451
 227  1121.167
 228  1016.469
 229  875.5856
 230  733.5068
 231  834.2306
 232  752.8144
 233  732.1957
 234  748.2408
 235  860.8398
 236  887.9513
 237  852.4012
 238  758.0411
 239  750.7538
 240  768.5041
 241  838.1406
 242  812.3687
 243  800.8188
 244  686.3669
 245  701.7056
 246  822.4578
 247  1006.262
 248  1009.195
 249  958.2305
 250  1093.995
 251  1163.977
 252  1051.363
 253  855.9877
 254  892.7049
 255  959.6346
 256  957.3494
 257  807.7714
 258  819.668
 259  744.817
 260  711.0635
 261  708.1578
 262  921.1767
 263  1031.646
 264  988.7965
 265  860.3029
 266  828.1687
 267  888.9869
 268  893.0781
 269  903.7186
 270  849.5555
 271  775.4835
 272  752.1277
 273  931.9698
 274  1046.252
 275  1083.24
 276  1002.819
 277  1070.473
 278  1134.099
 279  1085.774
 280  1008.373
 281  947.0692
 282  1035.357
 283  1072.851
 284  1040.876
 285  964.5393
 286  1083.605
 287  1283.923
 288  1335.655
 289  1061.479
 290  986.4567
 291  1067.797
 292  1193.155
 293  1050.228
 294  972.7744
 295  1012.252
 296  972.4724
 297  847.5897
 298  713.7937
 299  725.7115
 300  910.3163
 301  1031.525
 302  1055.123
 303  872.3488
 304  797.9225
 305  936.5571
 306  1025.009
 307  1052.733
 308  928.6632
 309  955.57
 310  963.1296
 311  862.7354
 312  926.8474
 313  993.0656
 314  1158.346
 315  1133.971
 316  1037.735
 317  918.9529
 318  704.1449
 319  741.8641
 320  707.4865
 321  726.5981
 322  722.5554
 323  840.0704
 324  872.5144
 325  858.7426
 326  853.8602
 327  867.5653
 328  865.7982
 329  764.8483
 330  757.7526
 331  817.8977
 332  804.4971
 333  716.1451
 334  755.1945
 335  791.7953
 336  826.8267
 337  983.238
 338  1234.901
 339  1265.549
 340  1067.103
 341  905.4062
 342  892.1584
 343  1016.474
 344  972.8121
 345  887.3489
 346  871.0452
 347  906.056
 348  902.5973
 349  937.3671
 350  1037.505
 351  1023.708
 352  979.194
 353  835.7483
 354  866.6981
 355  956.1479
 356  1008.709
 357  991.9495
 358  898.6368
 359  821.0719
 360  806.8937
 361  797.0024
 362  764.2956
 363  706.356
 364  758.7819
 365  855.8779
 366  808.8148
 367  759.8066
 368  757.1112
 369  930.4927
 370  965.2017
 371  1048.989
 372  985.824
 373  989.2908
 374  940.2751
 375  998.6856
 376  929.9764
 377  925.8137
 378  820.9665
 379  859.4682
 380  935.5676
 381  964.322
 382  980.1022
 383  886.9357
 384  897.9875
 385  866.0036
 386  881.1164
 387  773.7051
 388  891.7415
 389  844.2715
 390  808.5261
 391  748.2786
 392  846.1036
 393  877.6155
 394  804.2626
 395  775.2151
 396  849.5164
 397  839.772
 398  968.204
 399  1059.143
 400  1030.941
 401  910.0566
 402  844.5593
 403  850.0115
 404  878.175
 405  885.2611
 406  1004.181
 407  1019.41
 408  850.9913
 409  836.9766
 410  928.2361
 411  1045.207
 412  850.5128
 413  704.1448
 414  661.55
 415  681.0337
 416  811.702
 417  956.1882
 418  1117.001
 419  1041.944
 420  963.9741
 421  910.9066
 422  852.1804
 423  738.2701
 424  654.6167
 425  821.2601
 426  843.3634
 427  864.9213
 428  715.8578
 429  711.2197
 430  749.596
 431  841.2703
 432  878.2059
 433  914.6133
 434  860.8289
 435  835.3887
 436  759.1556
 437  721.7836
 438  723.2187
 439  736.2654
 440  868.664
 441  857.4031
 442  908.7245
 443  908.4106
 444  950.1967
 445  969.1068
 446  1096.717
 447  1161.66
 448  1191.018
 449  1055.246
 450  1047.21
 451  976.9491
 452  883.6279
 453  841.1669
 454  844.2029
 455  832.6573
 456  869.1572
 457  972.1602
 458  930.5302
 459  749.1552
 460  656.4009
 461  685.4573
 462  742.5482
 463  780.5143
 464  850.5512
 465  1040.977
 466  1095.155
 467  1107.52
 468  1011.628
 469  969.1091
 470  884.2452
 471  848.7123
 472  760.2301
 473  800.9416
 474  780.5425
 475  866.3312
 476  791.418
 477  822.1204
 478  829.9934
 479  1045.104
 480  1149.005
 481  1076.55
 482  880.0332
 483  836.542
 484  948.6839
 485  936.6415
 486  942.1551
 487  886.6794
 488  867.6779
 489  770.5896
 490  784.8092
 491  819.87
 492  889.5997
 493  913.6672
 494  935.3405
 495  931.5808
 496  805.4717
 497  734.7989
 498  842.5894
 499  938.7944
 500  882.5842
 501  883.1168
 502  855.7869
 503  1026.728
 504  1067.873
 505  1236.985
 506  1125.434
 507  909.4296
 508  798.6501
 509  774.8209
 510  731.5334
 511  690.5207
 512  649.7735
 513  829.2112
 514  876.2701
 515  1008.127
 516  1123.114
 517  1096.636
 518  884.4092
 519  691.8483
 520  580.1279
 521  772.1779
 522  908.7944
 523  956.523
 524  946.4572
 525  984.9514
 526  1054.241
 527  893.9079
 528  865.8959
 529  759.1119
 530  828.6735
 531  908.6021
 532  1034.333
 533  1072.097
 534  897.1757
 535  860.7081
 536  905.5559
 537  1073.064
 538  1061.262
 539  1021.883
 540  1054.166
 541  1058.869
 542  1158.395
 543  1075.449
 544  1034.466
 545  995.1146
 546  1028.623
 547  1119.019
 548  1001.322
 549  1002.687
 550  901.3251
 551  926.4905
 552  856.3932
 553  883.0026
 554  952.1149
 555  881.545
 556  816.6086
 557  751.561
 558  914.7421
 559  948.1476
 560  961.675
 561  771.6144
 562  822.5166
 563  749.9673
 564  777.7091
 565  666.8256
 566  770.7339
 567  793.9172
 568  772.9008
 569  761.588
 570  821.4832
 571  838.4753
 572  908.328
 573  1028.567
 574  992.6479
 575  803.2488
 576  676.3937
 577  705.1171
 578  700.6848
 579  760.8704
 580  861.8942
 581  1002.707
 582  917.5535
 583  882.3547
 584  810.6186
 585  807.0601
 586  882.3227
 587  1082.476
 588  1067.344
 589  844.1205
 590  752.505
 591  850.2574
 592  892.6195
 593  764.8962
 594  663.7881
 595  650.1382
 596  671.8031
 597  658.1444
 598  707.1357
 599  809.2997
 600  882.8081
 601  819.4343
 602  773.4575
 603  759.9885
 604  826.6484
 605  786.011
 606  740.1027
 607  768.932
 608  778.7332
 609  875.1493
 610  846.7081
 611  922.1068
 612  948.7609
 613  1051.735
 614  1051.326
 615  947.17
 616  878.5013
 617  804.9244
 618  843.3706
 619  849.179
 620  903.2569
 621  870.2443
 622  916.969
 623  825.9628
 624  723.9431
 625  620.9636
 626  681.7628
 627  800.2439
 628  1006.011
 629  1033.12
 630  1009.249
 631  926.2576
 632  891.9265
 633  729.2078
 634  607.2136
 635  576.408
 636  735.314
 637  834.403
 638  973.4308
 639  1041.146
 640  1190.969
 641  1045.976
 642  979.3714
 643  939.3816
 644  971.6652
 645  928.3417
 646  1041.302
 647  1105.173
 648  1080.822
 649  902.8832
 650  813.6707
 651  922.3501
 652  865.9161
 653  860.6776
 654  863.0928
 655  940.1469
 656  993.609
 657  846.7177
 658  812.8948
 659  790.0532
 660  895.3065
 661  926.3666
 662  788.9244
 663  769.3802
 664  783.9344
 665  841.0087
 666  693.8199
 667  719.1472
 668  826.9293
 669  892.9985
 670  862.1017
 671  745.6378
 672  710.3177
 673  718.2413
 674  746.3469
 675  792.4745
 676  705.0933
 677  838.9542
 678  1021.282
 679  1204.483
 680  1137.478
 681  1054.577
 682  998.2714
 683  951.4153
 684  822.9226
 685  823.5948
 686  733.4257
 687  661.4908
 688  788.515
 689  927.8586
 690  969.5499
 691  864.6624
 692  825.1696
 693  831.3813
 694  867.4797
 695  976.7915
 696  984.3408
 697  883.0293
 698  788.0459
 699  903.3465
 700  877.0754
 701  818.595
 702  715.8061
 703  882.3664
 704  961.7204
 705  970.353
 706  853.1138
 707  880.3522
 708  831.2833
 709  862.2593
 710  908.0937
 711  960.4568
 712  971.9338
 713  959.701
 714  955.138
 715  933.416
 716  1011.157
 717  949.2558
 718  876.6628
 719  750.2932
 720  894.0052
 721  1038.932
 722  956.1147
 723  855.8523
 724  854.4434
 725  996.3564
 726  1003.58
 727  908.0152
 728  936.8255
 729  909.1281
 730  811.4903
 731  797.9597
 732  850.8807
 733  1101.211
 734  1127.71
 735  1142.819
 736  1034.693
 737  903.4904
 738  817.8047
 739  981.4832
 740  1093.588
 741  932.3295
 742  860.2498
 743  918.3036
 744  1015.034
 745  975.0835
 746  1005.388
 747  1068.403
 748  1273.633
 749  1239.323
 750  1221.376
 751  1067.418
 752  1325.276
 753  1542.231
 754  1671.271
 755  1664.561
 756  1507.196
 757  1371.388
 758  1252.485
 759  1281.2
 760  1214.98
 761  1184.119
 762  1150.243
 763  1160.713
 764  1125.152
 765  1028.428
 766  1046.748
 767  1049.301
 768  1052.605
 769  972.5421
 770  826.5178
 771  776.3349
 772  786.2972
 773  879.5928
 774  813.3337
 775  774.465
 776  706.1537
 777  760.368
 778  839.8318
 779  1083.01
 780  1203.306
 781  1220.849
 782  1024.814
 783  811.1494
 784  780.7843
 785  775.6846
 786  870.2548
 787  872.9424
 788  990.2167
 789  1028.303
 790  931.1576
 791  948.1155
 792  1129.827
 793  1185.216
 794  998.5709
 795  985.2756
 796  1119.406
 797  1054.959
 798  892.7053
 799  802.4713
 800  803.179
 801  801.2573
 802  981.666
 803  1014.152
 804  987.9294
 805  840.4652
 806  897.2987
 807  893.8723
 808  878.2755
 809  813.5679
 810  854.9611
 811  877.8165
 812  925.4089
 813  1033.057
 814  979.7709
 815  903.5577
 816  874.4238
 817  830.0811
 818  792.6794
 819  689.7548
 820  912.3183
 821  971.2554
 822  1139.105
 823  1100.928
 824  1023.449
 825  1005.403
 826  1050.78
 827  1121.648
 828  1224.872
 829  1205.595
 830  1124.42
 831  1090.544
 832  1033.892
 833  1089.154
 834  1139.875
 835  1307.942
 836  1290.175
 837  1272.605
 838  969.269
 839  898.4286
 840  811.5399
 841  912.3065
 842  934.1127
 843  991.5928
 844  1160.442
 845  1191.546
 846  1136.202
 847  1195.908
 848  1083.323
 849  1206.289
 850  1127.77
 851  1165.568
 852  973.8315
 853  853.343
 854  731.2957
 855  647.8402
 856  607.2271
 857  801.8389
 858  990.0416
 859  1120.662
 860  1079.131
 861  1062.086
 862  973.4232
 863  913.3945
 864  811.6221
 865  845.6252
 866  881.1777
 867  1123.062
 868  1259.699
 869  1356.825
 870  1168.824
 871  946.9926
 872  981.9368
 873  1106.609
 874  1233.768
 875  1226.555
 876  1297.831
 877  1291.094
 878  1283.217
 879  1117.553
 880  1085.521
 881  997.5978
 882  997.7953
 883  1062.792
 884  985.177
 885  1047.06
 886  990.7298
 887  1056.431
 888  1037.342
 889  1028.149
 890  1070.715
 891  1016.743
 892  1043.319
 893  988.4342
 894  1013.41
 895  1000.396
 896  1089.492
 897  1079.748
 898  1038.126
 899  923.7548
 900  921.07
 901  886.2936
 902  794.3093
 903  694.8092
 904  753.9871
 905  873.1979
 906  821.2045
 907  926.8121
 908  1008.094
 909  1112.227
 910  1073.565
 911  1120.586
 912  1105.811
 913  904.3943
 914  839.4642
 915  829.1319
 916  921.1635
 917  854.3124
 918  859.9323
 919  886.8705
 920  802.6757
 921  685.4414
 922  635.6514
 923  703.6523
 924  670.229
 925  783.4648
 926  886.6557
 927  927.0889
 928  927.7534
 929  885.3763
 930  953.2636
 931  975.9952
 932  1052.96
 933  1226.7
 934  1278.371
 935  1070.604
 936  914.4023
 937  873.7935
 938  868.1074
 939  802.0193
 940  846.1137
 941  1020.769
 942  1042.329
 943  1035.013
 944  1044.113
 945  1042.849
 946  979.2759
 947  916.2997
 948  909.0546
 949  855.8276
 950  869.748
 951  1059.348
 952  1034.837
 953  1113.097
 954  1060.481
 955  1235.835
 956  1146.123
 957  1068.759
 958  952.6113
 959  832.1807
 960  794.6631
 961  879.6099
 962  1010.462
 963  1130.026
 964  1245.378
 965  1279.118
 966  1281.92
 967  1155.165
 968  1059.655
 969  1015.371
 970  1167.446
 971  1183.598
 972  1103.187
 973  1096.007
 974  1183.076
 975  1220.296
 976  1239.75
 977  1299.151
 978  1306
 979  1229.245
 980  1131.242
 981  1143.166
 982  1130.326
 983  1056.887
 984  1023.383
 985  1026.033
 986  963.7582
 987  789.8073
 988  734.2155
 989  761.1928
 990  943.2817
 991  1019.877
 992  1225.141
 993  1182.482
 994  1220.936
 995  1212.597
 996  1055.214
 997  880.9597
 998  757.0269
 999  899.5559
1000  995.1137
1001  989.8897
1002  1030.687
1003  987.6201
1004  844.2264
1005  881.3295
1006  845.7792
1007  917.0161
1008  762.6694
1009  760.5269
1010  852.4771
1011  925.3569
1012  885.1252
1013  924.795
1014  1095.36
1015  1217.895
1016  1282.325
1017  1070.169
1018  1063.154
1019  1102.249
1020  1198.045
1021  1146.083
1022  959.7212
1023  934.4684
