# Input file       =  1180063718.097963_cleaned.dat
# Candidate        =  PSR_0332+5434
# Telescope        =  AR
# Epoch_topo       =  57902.145105300500
# Epoch_bary       =  N/A
# T_sample         =  0.002
# Data Folded      =  7208960
# Data Avg         =  0.137491057732735
# Data StdDev      =  4.15073317661177 
# Profile Bins     =  512
# Profile Avg      =  1935.93006219667 
# Profile StdDev   =  492.522577675616 
# Reduced chi-sqr  =  0.823
# Prob(Noise)      <  0.999   (~0.0 sigma)
# P_topo (ms)      =  714.519373445561  +/- 5.16e-05
# P'_topo (s/s)    =  -0                +/- 2.77e-11
# P''_topo (s/s^2) =  0                 +/- 1.25e-14
# P_bary (ms)      =  N/A
# P'_bary (s/s)    =  N/A
# P''_bary (s/s^2) =  N/A
# P_orb (s)        =  N/A
# asin(i)/c (s)    =  N/A
# eccentricity     =  N/A
# w (rad)          =  N/A
# T_peri           =  N/A
######################################################
   0  1329.957
   1  1354.857
   2  1343.949
   3  1791.733
   4  1760.192
   5  2160.864
   6  1950.495
   7  1884.105
   8  2067.415
   9  1755.356
  10  1847.909
  11  1951.621
  12  2098.885
  13  2183.426
  14  2173.43
  15  1658.215
  16  1617.221
  17  1562.453
  18  1432.381
  19  1865.184
  20  1767.072
  21  1948.937
  22  1984.704
  23  2242.226
  24  1624.956
  25  1527.07
  26  2148.411
  27  1811.885
  28  1961.725
  29  1984.213
  30  2272.767
  31  2022.556
  32  1774.722
  33  1650.614
  34  1315.948
  35  1704.858
  36  1714.325
  37  2043.42
  38  2048.35
  39  1792.369
  40  2050.015
  41  1986.788
  42  1889.508
  43  1683.042
  44  1991.483
  45  2104.865
  46  2098.441
  47  1977.271
  48  2010.816
  49  1906.06
  50  1383.267
  51  1181.851
  52  1250.076
  53  1366.625
  54  2146.29
  55  2319.708
  56  2204.91
  57  1685.478
  58  1796.216
  59  1869.52
  60  1792.901
  61  2178.618
  62  2153.747
  63  2272.065
  64  2165.961
  65  2414.55
  66  2183.995
  67  1622.626
  68  1340.484
  69  1824.903
  70  1919.781
  71  2138.129
  72  2111.76
  73  2009.147
  74  2082.159
  75  1718.843
  76  2224.45
  77  2396.047
  78  2057.561
  79  2026.335
  80  1863.446
  81  1713.501
  82  1351.569
  83  1576.994
  84  1576.52
  85  1564.467
  86  2054.021
  87  1490.386
  88  2164.232
  89  1895.612
  90  1983.436
  91  2241.924
  92  2369.233
  93  2219.588
  94  2077.138
  95  2385.838
  96  2285.898
  97  2232.4
  98  2058.777
  99  2243.771
 100  1992.249
 101  1635.145
 102  1940.368
 103  1979.877
 104  2060.492
 105  1873.12
 106  1953.268
 107  1898.196
 108  1499.142
 109  1480.293
 110  2019.767
 111  2751.683
 112  2429.118
 113  2427.445
 114  2427.694
 115  1742.448
 116  1548.726
 117  1365.308
 118  1824.527
 119  2328.132
 120  2453.622
 121  2513.743
 122  2308.155
 123  2001.038
 124  1725.663
 125  1661.444
 126  1572.418
 127  1715.141
 128  2200.113
 129  2384.017
 130  2464.417
 131  1905.02
 132  1874.836
 133  1543.207
 134  1546.411
 135  1272.131
 136  1501.032
 137  1853.861
 138  1762.92
 139  2028.847
 140  1893.777
 141  2026.786
 142  1878.929
 143  1974.139
 144  1903.502
 145  1984.777
 146  2384.948
 147  2213.473
 148  1926.172
 149  1520.333
 150  1668.017
 151  2118.087
 152  1771.032
 153  1735.087
 154  1711.713
 155  2142.816
 156  1826.791
 157  1624.289
 158  1987.797
 159  1906.736
 160  1856.38
 161  1822.418
 162  2334.206
 163  2129.624
 164  2115.379
 165  2055.945
 166  1806.374
 167  1807.526
 168  1738.323
 169  1404.149
 170  1753.201
 171  2015.616
 172  2269.41
 173  2647.509
 174  2309.331
 175  2155.237
 176  2231.616
 177  2247.549
 178  2301.96
 179  2180.542
 180  1939.413
 181  1567.274
 182  1359.716
 183  1796.637
 184  1716.146
 185  1977.304
 186  2051.613
 187  2417.292
 188  2318.328
 189  2242.063
 190  2143.795
 191  1928.831
 192  1989.323
 193  2317.178
 194  2389.757
 195  2327.834
 196  2074.162
 197  2168.304
 198  1596.733
 199  1502.068
 200  1554.802
 201  1842.896
 202  1693.223
 203  2080.085
 204  2276.982
 205  2090.234
 206  2309.357
 207  1867.004
 208  1681.977
 209  1743.501
 210  2294.514
 211  2344.146
 212  2500.026
 213  2679.843
 214  2370.23
 215  2108.869
 216  1726.84
 217  1806.49
 218  1923.946
 219  2152.944
 220  2452.788
 221  2748.996
 222  2640.562
 223  2108.144
 224  2403.401
 225  2399.383
 226  2198.3
 227  2357.208
 228  2151.724
 229  1986.48
 230  1711.442
 231  1878.42
 232  1216.209
 233  1278.506
 234  1731.572
 235  1711.249
 236  1849.013
 237  1891.611
 238  2231.425
 239  1785.519
 240  1943.951
 241  1959.198
 242  1951.058
 243  1755.002
 244  1713.172
 245  2166.197
 246  1757.789
 247  1755.966
 248  1705.425
 249  1662.365
 250  2054.879
 251  1634.236
 252  1738.172
 253  1443.856
 254  1823.007
 255  2376.877
 256  2319.584
 257  1812.889
 258  2035.305
 259  2382.365
 260  2188.794
 261  2310.555
 262  2109.617
 263  2091.238
 264  2041.032
 265  1810.421
 266  1908.924
 267  2000.721
 268  1984.397
 269  2103.005
 270  2448.706
 271  2183.01
 272  2139.38
 273  2253.785
 274  1933.867
 275  2071.904
 276  2439.442
 277  2433.851
 278  2119.029
 279  2170.867
 280  1956.248
 281  1933.102
 282  1722.299
 283  1628.656
 284  1871.382
 285  1478.435
 286  1813.449
 287  1750.092
 288  1616.687
 289  1779.836
 290  1751.706
 291  1937.515
 292  1643.097
 293  1967.783
 294  2062.174
 295  2095.252
 296  1967.652
 297  1637.618
 298  1901.563
 299  1560.534
 300  1599.929
 301  1707.655
 302  1877.195
 303  2211.835
 304  2011.165
 305  2020.145
 306  1983.525
 307  1924.423
 308  1915.441
 309  2440.673
 310  2539.598
 311  2419.103
 312  2239.46
 313  1673.587
 314  1732.565
 315  1467.399
 316  1543.449
 317  1962.448
 318  2070.174
 319  1936.984
 320  2045.151
 321  2480.57
 322  2281.6
 323  2142.799
 324  2376.897
 325  2192.105
 326  2432.076
 327  2713.898
 328  3056.262
 329  2869.161
 330  2622.802
 331  2532.784
 332  2081.548
 333  1777.119
 334  1837.938
 335  1768.596
 336  1703.886
 337  1928.909
 338  2187.159
 339  2152.827
 340  2134.389
 341  2077.139
 342  2198.528
 343  2420.399
 344  2355.822
 345  2135.711
 346  1955.683
 347  1777.946
 348  1549.709
 349  1935.353
 350  2036.527
 351  2101.19
 352  2216.887
 353  2356.99
 354  2462.218
 355  2104.208
 356  2156.294
 357  2187.922
 358  2383.921
 359  2520.557
 360  2343.772
 361  2204.22
 362  1973.547
 363  1677.25
 364  1358.713
 365  1854.788
 366  1768.177
 367  1978.299
 368  2066.676
 369  2212.934
 370  1794.481
 371  1565.329
 372  1697.942
 373  1533.317
 374  1821.126
 375  1959.426
 376  2173.461
 377  2529.532
 378  2059.878
 379  1865.911
 380  1576.378
 381  1412.318
 382  1479.544
 383  1526.419
 384  1958.957
 385  2133.279
 386  2310.097
 387  1976.652
 388  1943.264
 389  1935.438
 390  2092.149
 391  2040.007
 392  2459.802
 393  2252.757
 394  2001.078
 395  1695.992
 396  1280.384
 397  1722.387
 398  1580.71
 399  1683.124
 400  1851.953
 401  1873.821
 402  1983.077
 403  1561.395
 404  1819.269
 405  1874.358
 406  1899.271
 407  1849.555
 408  1726.662
 409  2122.897
 410  2089.774
 411  1918.641
 412  1848.994
 413  1763.138
 414  1405.072
 415  1300.628
 416  1844.891
 417  1803.474
 418  2126.887
 419  1808.811
 420  2111.308
 421  2049.288
 422  1885.9
 423  1623.726
 424  1674.364
 425  1987.633
 426  1857.143
 427  2364.429
 428  1868.7
 429  1800.278
 430  1610.905
 431  1455.63
 432  1843.211
 433  1856.803
 434  2132.954
 435  1755.593
 436  2107.998
 437  1774.082
 438  1573.745
 439  1743.291
 440  1844.647
 441  2750.705
 442  2581.123
 443  2400.961
 444  2191.81
 445  1544.478
 446  845.1646
 447  957.9139
 448  1701.249
 449  1894.273
 450  2267.562
 451  2494.008
 452  2176.916
 453  2012.663
 454  1912.388
 455  1979.418
 456  1774.073
 457  1920.113
 458  2201.536
 459  2191.759
 460  2345.776
 461  1885.353
 462  1693.421
 463  1540.921
 464  1515.781
 465  1249.082
 466  1675.686
 467  1722.681
 468  1889.343
 469  2114.387
 470  1500.673
 471  1736.12
 472  1725.235
 473  1852.09
 474  1805.062
 475  2070.567
 476  2168.541
 477  1963.288
 478  1745.149
 479  1157.469
 480  765.5447
 481  1108.79
 482  1562.182
 483  1995.954
 484  1839.496
 485  1998.648
 486  1710.715
 487  1355.796
 488  1356.086
 489  1522.218
 490  1992.921
 491  1984.711
 492  2268.178
 493  2139.701
 494  2044.043
 495  1967.949
 496  1738.411
 497  1206.164
 498  1344.402
 499  1771.521
 500  1716.195
 501  1633.952
 502  1385.232
 503  1832.293
 504  1697.361
 505  1544.938
 506  1563.277
 507  1768.652
 508  2354.136
 509  1945.58
 510  1838.279
 511  1391.283
