# Input file       =  1180595367.128308_cleaned.dat
# Candidate        =  PSR_0332+5434
# Telescope        =  AR
# Epoch_topo       =  57908.298450559123
# Epoch_bary       =  N/A
# T_sample         =  0.002
# Data Folded      =  7340032
# Data Avg         =  0.0989550501128961
# Data StdDev      =  3.12483669672369 
# Profile Bins     =  512
# Profile Avg      =  1417.49617483633 
# Profile StdDev   =  374.146185880271 
# Reduced chi-sqr  =  0.810
# Prob(Noise)      <  0.999   (~0.0 sigma)
# P_topo (ms)      =  714.513377207894  +/- 0.000431
# P'_topo (s/s)    =  -0                +/- 2.28e-10
# P''_topo (s/s^2) =  0                 +/- 1.01e-13
# P_bary (ms)      =  N/A
# P'_bary (s/s)    =  N/A
# P''_bary (s/s^2) =  N/A
# P_orb (s)        =  N/A
# asin(i)/c (s)    =  N/A
# eccentricity     =  N/A
# w (rad)          =  N/A
# T_peri           =  N/A
######################################################
   0  1157.044
   1  1121.652
   2  1342.728
   3  1476.679
   4  1530.457
   5  1254.21
   6  1445.512
   7  1196.122
   8  1195.672
   9  1259.317
  10  1322.403
  11  1392.291
  12  1407.649
  13  1371.92
  14  1439.548
  15  1288.906
  16  1738.544
  17  1687.219
  18  1360.112
  19  1266.803
  20  1242.845
  21  1178.599
  22  1381.845
  23  1715.292
  24  1660.362
  25  1460.512
  26  1573.852
  27  1588.641
  28  1632.297
  29  1593.614
  30  1548.24
  31  1334.497
  32  1352.461
  33  1369.91
  34  1445.002
  35  1289.088
  36  1505.414
  37  1565.742
  38  1643.399
  39  1593.509
  40  1394.33
  41  1406.965
  42  1345.752
  43  1408.89
  44  1129.804
  45  1472.406
  46  1305.099
  47  1349.008
  48  1036.669
  49  1013.445
  50  993.969
  51  949.3303
  52  1073.817
  53  1279.497
  54  1276.618
  55  1438.09
  56  1555.681
  57  1508.328
  58  1595.813
  59  1617.201
  60  1533.394
  61  1729.03
  62  1615.449
  63  1706.157
  64  1551.774
  65  1524.993
  66  1363.178
  67  1548.738
  68  1680.095
  69  1856.062
  70  1639.727
  71  1588.658
  72  1447.504
  73  1105.152
  74  919.3314
  75  1122.115
  76  1277.861
  77  1200.861
  78  1180.593
  79  1280.342
  80  985.7806
  81  1088.949
  82  1191.827
  83  1136.237
  84  1256.769
  85  913.0354
  86  932.4201
  87  1267.071
  88  1154.914
  89  1176.416
  90  1301.666
  91  1168.75
  92  1199.968
  93  1157.74
  94  1262.269
  95  1437.037
  96  1394.964
  97  1634.87
  98  1539.316
  99  1386.628
 100  1399.624
 101  1633.652
 102  1577.535
 103  1745.828
 104  1644.791
 105  1677.112
 106  1777.874
 107  1402.238
 108  1636.599
 109  1430.65
 110  1432.205
 111  1347.814
 112  1638.562
 113  1787.662
 114  1938.227
 115  1957.974
 116  1897.873
 117  1834.131
 118  2106.393
 119  2529.415
 120  2820.535
 121  2541.731
 122  2317.483
 123  2076.101
 124  1760.292
 125  1275.241
 126  1095.983
 127  1179.255
 128  1279.476
 129  1471.853
 130  1452.759
 131  1683.423
 132  1444.561
 133  1701.953
 134  1327.705
 135  1421.853
 136  1753.24
 137  1868.013
 138  1385.94
 139  1360.426
 140  1446.221
 141  1715.663
 142  1522.178
 143  1397.655
 144  1423.984
 145  1397.835
 146  1632.86
 147  1545.679
 148  1484.269
 149  1789.081
 150  1718.995
 151  1763.669
 152  1956.327
 153  1779.649
 154  1572.658
 155  1324.457
 156  1461.802
 157  1641.282
 158  1542.725
 159  1462.129
 160  1557.612
 161  1362.411
 162  1279.642
 163  1028.362
 164  1354.048
 165  1479.001
 166  1410.631
 167  1258.174
 168  937.8284
 169  832.5185
 170  1060.5
 171  1435.39
 172  1760.573
 173  1369.478
 174  1290.905
 175  1350.554
 176  1667.631
 177  1656.575
 178  1395.194
 179  1100.911
 180  1090.335
 181  1143.983
 182  1236.034
 183  1354.832
 184  1467.829
 185  1468.737
 186  1142.489
 187  1136.81
 188  1367.586
 189  1530.973
 190  1679.286
 191  1340.644
 192  1116.447
 193  1424.908
 194  1581.256
 195  1647.703
 196  1666.939
 197  1470.823
 198  1417.63
 199  1351.999
 200  1054.528
 201  1244.775
 202  1775.682
 203  1636.447
 204  1366.587
 205  1548.781
 206  1529.984
 207  1493.866
 208  1454.848
 209  1616.483
 210  1319.949
 211  1428.924
 212  1410.44
 213  1356.233
 214  1099.79
 215  1355.688
 216  1371.633
 217  1367.107
 218  1445.001
 219  1580.957
 220  1667.503
 221  1389.811
 222  1547.083
 223  1576.293
 224  1555.747
 225  1255.943
 226  1353.342
 227  1300.46
 228  1579.298
 229  1555.333
 230  1671.096
 231  1700.054
 232  1606.489
 233  1424.318
 234  1358.835
 235  1314.761
 236  1411.643
 237  1405.092
 238  1345.365
 239  1254.171
 240  1539.522
 241  1201.405
 242  1341.632
 243  1463.97
 244  1522.073
 245  1745.168
 246  1316.351
 247  1388.942
 248  1138.833
 249  955.3036
 250  1241.799
 251  1173.545
 252  1320.263
 253  1500.437
 254  1559.715
 255  1354.874
 256  1357.832
 257  1074.12
 258  910.6451
 259  1289.084
 260  1475.899
 261  1530.036
 262  1247.406
 263  1504.12
 264  1243.052
 265  1114.291
 266  1148.415
 267  907.7807
 268  1136.086
 269  1276.034
 270  1499.021
 271  1502.125
 272  1146.244
 273  1119.8
 274  1398.311
 275  1448.191
 276  1447.832
 277  1589.759
 278  1475.115
 279  1365.59
 280  1683.534
 281  1495.439
 282  1518.595
 283  1806.11
 284  1408.012
 285  1413.27
 286  1322.321
 287  1221.641
 288  1177.67
 289  1150.238
 290  1192.488
 291  1120.721
 292  1104.656
 293  1275.464
 294  1834.004
 295  1759.708
 296  1634.662
 297  1370.348
 298  1323.432
 299  1303.501
 300  1336.369
 301  1575.038
 302  1737.892
 303  1671.805
 304  1461.806
 305  1452.725
 306  1343.547
 307  1400.296
 308  1601.939
 309  1701.38
 310  1469.602
 311  1238.721
 312  1375.617
 313  1260.109
 314  1327.751
 315  1298.783
 316  1278.904
 317  1701.164
 318  1934.298
 319  1505.412
 320  1290.447
 321  847.189
 322  994.6561
 323  1251.592
 324  1511.223
 325  1607.934
 326  1391.125
 327  1154.629
 328  1114.735
 329  1599.68
 330  1645.695
 331  1296.744
 332  1182.861
 333  1310.519
 334  1333.936
 335  1314.535
 336  1351.074
 337  1159.078
 338  1355.223
 339  1265.076
 340  1111.72
 341  961.0369
 342  1120.704
 343  1149.188
 344  1174.559
 345  1722.374
 346  1771.061
 347  1136.112
 348  1386.57
 349  1344.948
 350  1301.859
 351  1323.312
 352  1520.303
 353  1566.594
 354  1436.868
 355  1185.955
 356  1061.579
 357  1172.881
 358  1285.971
 359  1407.526
 360  1630.438
 361  1865.381
 362  1521.904
 363  1392.741
 364  1339.544
 365  1200.562
 366  1377.789
 367  1498.652
 368  1773.976
 369  1666.239
 370  1347.361
 371  1356.596
 372  1515.368
 373  1398.887
 374  1099.282
 375  1311.97
 376  1503.827
 377  1687.349
 378  1496.718
 379  1268.933
 380  1265.76
 381  1611.043
 382  1345.097
 383  1423.116
 384  1371.792
 385  1383.456
 386  1225.337
 387  1282.739
 388  1278.548
 389  1257.3
 390  1398.727
 391  1512.794
 392  1609.954
 393  1342.281
 394  1411.486
 395  1687.763
 396  1394.568
 397  1451.197
 398  1945.382
 399  2056.598
 400  1819.807
 401  1562.74
 402  1624.975
 403  1651.019
 404  1476.978
 405  1534.871
 406  1455.308
 407  1675.765
 408  1797.021
 409  1474.984
 410  1893.714
 411  1702.524
 412  1508.434
 413  1762.419
 414  1775.844
 415  1498.8
 416  1621.891
 417  1822.069
 418  1547.427
 419  1611.027
 420  1438.281
 421  1349.872
 422  1436.148
 423  1004.24
 424  1155.078
 425  1067.28
 426  1063.825
 427  1124.316
 428  1013.032
 429  835.4683
 430  985.8128
 431  1033.91
 432  1209.467
 433  1193.942
 434  1430.206
 435  1797.908
 436  1574.562
 437  1618.508
 438  1130.62
 439  1082.488
 440  1360.689
 441  1565.772
 442  1587.773
 443  1352.718
 444  1362.487
 445  1478.718
 446  1732.322
 447  1581.409
 448  1370.728
 449  1523.064
 450  1526.265
 451  1131.013
 452  1458.353
 453  1584.325
 454  1692.06
 455  1541.255
 456  1385.169
 457  1173.858
 458  1145.161
 459  1151.253
 460  1095.051
 461  1437.335
 462  1513.984
 463  1488.316
 464  1101.435
 465  1151.34
 466  1514.972
 467  1523.844
 468  1192.652
 469  1005.336
 470  1115.973
 471  1274.239
 472  1429.806
 473  1531.752
 474  1637.581
 475  1443.814
 476  1446.306
 477  1315.817
 478  1257.879
 479  1491.501
 480  1509.134
 481  1645.324
 482  1735.636
 483  1321.231
 484  1349.87
 485  1486.545
 486  1461.096
 487  1386.443
 488  1236.649
 489  1322.782
 490  1546.157
 491  1441.121
 492  1208.648
 493  1385.358
 494  1412.602
 495  1380.359
 496  1417.3
 497  1448.529
 498  1452.941
 499  993.8939
 500  971.2687
 501  1160.554
 502  1575.596
 503  1441.168
 504  1091.037
 505  1443.418
 506  1464.951
 507  1016.793
 508  1272.28
 509  1644.173
 510  1262.043
 511  1163.235
