# Input file       =  1180078345.096534_cleaned.dat
# Candidate        =  PSR_0332+5434
# Telescope        =  AR
# Epoch_topo       =  57902.314399265437
# Epoch_bary       =  N/A
# T_sample         =  0.002
# Data Folded      =  7340032
# Data Avg         =  0.0861688873067448
# Data StdDev      =  2.69102269268333 
# Profile Bins     =  512
# Profile Avg      =  1235.36989522437 
# Profile StdDev   =  322.204317953756 
# Reduced chi-sqr  =  1.122
# Prob(Noise)      <  0.0291   (~1.9 sigma)
# P_topo (ms)      =  714.519217910981  +/- 0.000195
# P'_topo (s/s)    =  -0                +/- 1.03e-10
# P''_topo (s/s^2) =  0                 +/- 4.54e-14
# P_bary (ms)      =  N/A
# P'_bary (s/s)    =  N/A
# P''_bary (s/s^2) =  N/A
# P_orb (s)        =  N/A
# asin(i)/c (s)    =  N/A
# eccentricity     =  N/A
# w (rad)          =  N/A
# T_peri           =  N/A
######################################################
   0  948.0129
   1  1028.971
   2  1156.842
   3  1095.84
   4  912.6422
   5  1045.034
   6  1190.911
   7  1208.797
   8  958.9136
   9  697.4991
  10  1059.719
  11  710.9962
  12  595.976
  13  859.6647
  14  963.1423
  15  846.317
  16  951.7071
  17  1143.107
  18  701.809
  19  807.5408
  20  1198.206
  21  1204.921
  22  1234.058
  23  1072.812
  24  1032.71
  25  1358.914
  26  1105.217
  27  1011.831
  28  1295.254
  29  1318.121
  30  1382.406
  31  1261.579
  32  1248.417
  33  1150.058
  34  1284.709
  35  1031.966
  36  1165.204
  37  1353.96
  38  1274.308
  39  1014.6
  40  1450.208
  41  1246.361
  42  1097.499
  43  1362.426
  44  1142.477
  45  1276.127
  46  991.8895
  47  1114.777
  48  1095.651
  49  1078.79
  50  1295.323
  51  1031.601
  52  1005.679
  53  1341.2
  54  937.6622
  55  1000.684
  56  1405.574
  57  1310.995
  58  1545.271
  59  1268.345
  60  1144.886
  61  1071.914
  62  1179.039
  63  914.5088
  64  1342.889
  65  1411.702
  66  1137.065
  67  962.5469
  68  1055.63
  69  1120.46
  70  1161.92
  71  1533.959
  72  1442.415
  73  1251.135
  74  1202.073
  75  1179.631
  76  1359.395
  77  1245.947
  78  1140.917
  79  1108.983
  80  1221.121
  81  1015.105
  82  924.0117
  83  883.1949
  84  1149.412
  85  1151.175
  86  1061.282
  87  834.9795
  88  1074.163
  89  1575.524
  90  1248.74
  91  1015.513
  92  1160.279
  93  1259.778
  94  1238.491
  95  984.1062
  96  1031.057
  97  1270.794
  98  1261.804
  99  1404.35
 100  1013.844
 101  1061.718
 102  911.309
 103  1090.246
 104  1204.631
 105  1249.972
 106  1369.614
 107  1180.429
 108  887.6813
 109  788.5403
 110  1071.25
 111  1118.562
 112  993.7629
 113  1182.865
 114  1386.372
 115  885.2209
 116  950.0563
 117  1239.263
 118  989.5901
 119  1066.986
 120  1331.708
 121  990.3845
 122  1527.528
 123  1478.778
 124  1643.374
 125  1622.43
 126  1224.848
 127  1752.456
 128  1945.515
 129  1455.506
 130  1536.598
 131  1497.871
 132  1441.397
 133  1323.545
 134  1147.906
 135  1213.703
 136  1153.224
 137  1190.916
 138  1330.386
 139  1537.16
 140  1434.944
 141  1127.5
 142  1164.023
 143  1293.764
 144  1332.884
 145  1240.077
 146  1309.077
 147  1436.231
 148  1559.897
 149  1220.951
 150  809.0762
 151  838.0256
 152  1048.982
 153  1136.385
 154  1257.919
 155  1110.498
 156  1036.007
 157  964.3354
 158  1280.003
 159  1395.942
 160  1229.874
 161  1188.195
 162  1208.792
 163  1429.352
 164  1794.838
 165  1513.311
 166  1247.522
 167  1108.13
 168  1183.952
 169  969.5276
 170  945.8547
 171  997.6269
 172  1173.613
 173  1033.597
 174  1099.777
 175  1009.242
 176  1218.998
 177  1193.461
 178  1108.184
 179  1248.888
 180  1301.98
 181  1273.386
 182  960.1343
 183  1280.63
 184  1116.307
 185  1021.076
 186  1295.866
 187  1316.539
 188  1286.673
 189  1128.894
 190  1248.122
 191  1198.157
 192  1444.289
 193  1453.776
 194  1310.629
 195  1472.406
 196  1298.932
 197  1292.5
 198  1217.041
 199  1598.7
 200  1206.016
 201  1196.173
 202  1259.897
 203  1170.454
 204  1268.042
 205  1237.334
 206  1453.604
 207  1543.474
 208  1444.142
 209  1366.356
 210  1038.469
 211  1253.531
 212  1223.392
 213  1223.732
 214  1357.702
 215  1339.228
 216  1385.124
 217  1257.086
 218  1225.209
 219  1243.534
 220  1432.201
 221  1355.032
 222  1523.326
 223  1311.53
 224  1095.4
 225  908.4531
 226  1469.788
 227  1733.161
 228  1322.574
 229  1191.58
 230  1437.131
 231  1388.001
 232  1512.383
 233  1770.444
 234  1638.007
 235  1586.045
 236  1443.349
 237  1255.709
 238  776.1104
 239  844.4362
 240  1386.066
 241  1531.306
 242  974.6215
 243  977.1718
 244  1494.704
 245  1357.706
 246  1066.611
 247  1342.395
 248  1652.134
 249  1291.281
 250  1096.153
 251  1106.098
 252  1395.77
 253  1237.684
 254  1349.4
 255  1528.354
 256  1412.065
 257  1290.662
 258  1086.871
 259  1373.556
 260  1396.677
 261  1473.668
 262  1384.588
 263  1342.773
 264  1380.748
 265  1291.856
 266  1229.552
 267  1056.464
 268  1078.496
 269  1128.83
 270  1216.727
 271  1376.007
 272  1302.075
 273  1171.203
 274  1016.817
 275  1017.308
 276  1169.016
 277  1100.202
 278  1276.372
 279  1670.369
 280  1457.4
 281  1353.475
 282  1470.837
 283  1283.985
 284  1158.763
 285  1198.582
 286  1515.837
 287  1738.541
 288  1531.256
 289  1176.786
 290  1221.095
 291  1322.059
 292  1314.276
 293  1415.939
 294  1517.768
 295  1442.535
 296  1582.074
 297  1321.458
 298  1275.362
 299  1462.271
 300  1506.092
 301  1263.635
 302  1353.321
 303  1171.812
 304  939.2578
 305  1241.656
 306  1572.543
 307  1582.881
 308  1534.479
 309  1358.538
 310  1657.931
 311  1599.49
 312  1367.425
 313  1049.941
 314  1170.968
 315  987.1365
 316  989.223
 317  1177.013
 318  1058.622
 319  1008.375
 320  1012.817
 321  1270.872
 322  1277.622
 323  1393.343
 324  1484.948
 325  1438.498
 326  1735.376
 327  2392.168
 328  2596.788
 329  2800.673
 330  2766.899
 331  2376.375
 332  1543.224
 333  1241.856
 334  1421.75
 335  1563.097
 336  1511.34
 337  1044.682
 338  1388.801
 339  1231.912
 340  1118.242
 341  876.7217
 342  1038.206
 343  1375.832
 344  1440.826
 345  1537.615
 346  1388.057
 347  1461.489
 348  1607.832
 349  1126.593
 350  1057.453
 351  813.5096
 352  779.223
 353  1249.72
 354  1389.065
 355  1208.091
 356  1436.75
 357  1103.94
 358  773.5604
 359  1177.613
 360  1210.682
 361  1144.484
 362  1125.269
 363  1400.437
 364  1299.964
 365  1116.072
 366  1430.433
 367  1314.867
 368  1202.682
 369  1335.466
 370  1275.961
 371  1018.192
 372  876.7762
 373  1036.687
 374  1133.727
 375  1053.255
 376  867.3273
 377  1003.515
 378  926.1085
 379  992.3993
 380  1086.348
 381  1004.515
 382  775.777
 383  919.734
 384  956.2867
 385  948.7454
 386  1007.735
 387  1149.699
 388  1207.237
 389  1106.291
 390  1112.688
 391  1018.122
 392  1128.901
 393  916.0867
 394  974.3511
 395  992.3956
 396  1028.994
 397  1250.768
 398  1242.147
 399  1079.371
 400  1587.163
 401  1691.511
 402  1373.123
 403  1522.817
 404  1381.253
 405  1391.943
 406  1366.18
 407  1095.013
 408  1483.549
 409  1384.893
 410  1136.665
 411  891.8253
 412  1169.4
 413  1314.546
 414  941.5417
 415  1023.128
 416  1347.108
 417  1108.593
 418  949.1772
 419  1121.102
 420  1596.419
 421  1312.574
 422  1233.711
 423  1391.011
 424  1142.054
 425  1373.549
 426  1407.302
 427  1511.983
 428  1316.697
 429  1228.743
 430  1341.291
 431  1274.134
 432  1308.221
 433  1459.931
 434  1434.912
 435  1460.483
 436  1361.332
 437  1323.442
 438  1493.499
 439  1437.329
 440  1507.828
 441  1093.191
 442  1110.988
 443  1283.35
 444  1291.95
 445  1134.235
 446  1335.517
 447  1184.722
 448  1185.822
 449  1064.831
 450  1288.173
 451  1135.104
 452  1295.949
 453  1350.208
 454  1060.774
 455  957.0137
 456  1221.438
 457  1307.516
 458  1273.505
 459  1083.895
 460  1153.389
 461  1143.908
 462  1103.715
 463  925.8812
 464  1250.875
 465  1235.102
 466  933.9081
 467  1150.111
 468  1100.13
 469  1313.853
 470  1377.511
 471  1373.172
 472  1349.077
 473  1180.759
 474  1238.965
 475  1184.575
 476  1173.797
 477  1206.689
 478  1003.571
 479  1076.192
 480  1220.317
 481  1023.894
 482  921.611
 483  761.2678
 484  915.0694
 485  1078.809
 486  1063.503
 487  709.5159
 488  831.4815
 489  1179.624
 490  1115.422
 491  1299.571
 492  1426.128
 493  1220.523
 494  1021.051
 495  879.9404
 496  1272.292
 497  1552.064
 498  1231.733
 499  1050.939
 500  943.2388
 501  1042.401
 502  1195.234
 503  1283.68
 504  1542.838
 505  1204.547
 506  1349.748
 507  1245.991
 508  1190.287
 509  1326.984
 510  1274.17
 511  1597.58
