# Input file       =  1180509204.106537_cleaned.dat
# Candidate        =  PSR_0332+5434
# Telescope        =  AR
# Epoch_topo       =  57907.301193362699
# Epoch_bary       =  N/A
# T_sample         =  0.002
# Data Folded      =  7340032
# Data Avg         =  0.100694056288505
# Data StdDev      =  3.20226991465608 
# Profile Bins     =  512
# Profile Avg      =  1443.32512476398 
# Profile StdDev   =  383.417500179741 
# Reduced chi-sqr  =  0.912
# Prob(Noise)      <  0.922   (~0.0 sigma)
# P_topo (ms)      =  714.514342854242  +/- 0.00049
# P'_topo (s/s)    =  -0                +/- 2.59e-10
# P''_topo (s/s^2) =  0                 +/- 1.14e-13
# P_bary (ms)      =  N/A
# P'_bary (s/s)    =  N/A
# P''_bary (s/s^2) =  N/A
# P_orb (s)        =  N/A
# asin(i)/c (s)    =  N/A
# eccentricity     =  N/A
# w (rad)          =  N/A
# T_peri           =  N/A
######################################################
   0  1203.332
   1  1135.34
   2  1135.464
   3  1118.33
   4  1163.662
   5  1093.966
   6  1320.512
   7  1540.359
   8  1254.761
   9  1018.402
  10  1074.956
  11  1563.565
  12  1675.786
  13  1383.683
  14  1366.815
  15  1283.433
  16  1449.192
  17  1348.334
  18  981.0709
  19  1138.662
  20  1546.817
  21  1587.178
  22  1457.885
  23  1498.236
  24  1485.147
  25  1321.092
  26  1416.596
  27  1446.244
  28  1381.806
  29  1473.826
  30  1289.337
  31  1643.8
  32  1567.778
  33  1808.859
  34  1719.32
  35  1737.119
  36  1490.299
  37  1530.549
  38  1690.531
  39  1486.431
  40  1455.855
  41  1715.353
  42  1451.409
  43  1404.907
  44  1032.568
  45  1251.286
  46  1326.907
  47  1340.348
  48  1181.896
  49  1128.508
  50  1221.474
  51  1213.041
  52  1194.674
  53  1283.903
  54  1497.673
  55  1442.214
  56  1302.474
  57  1070.109
  58  1067.887
  59  1529.865
  60  1590.576
  61  1347.145
  62  1233.475
  63  1480.586
  64  1498.966
  65  1541.283
  66  1783.26
  67  1605.717
  68  1180.15
  69  1406.63
  70  1601.905
  71  1469.667
  72  1614.089
  73  1578.233
  74  1596.706
  75  1507.12
  76  1238.274
  77  1078.857
  78  1716.144
  79  1680.741
  80  1705.973
  81  1749.724
  82  1453.307
  83  1100.168
  84  1148.701
  85  1279.061
  86  1658.062
  87  1530.179
  88  1437.929
  89  1153.48
  90  1306.32
  91  1398.954
  92  1308.891
  93  1160.235
  94  1145.397
  95  1461.04
  96  1563.614
  97  1331.002
  98  1272.742
  99  1359.552
 100  1661.778
 101  1577.807
 102  1507.208
 103  1750.562
 104  1576.606
 105  1130.737
 106  1266.144
 107  1651.074
 108  1543.545
 109  1586.698
 110  1546.266
 111  1457.054
 112  1387.837
 113  1390.063
 114  1442.854
 115  1723.048
 116  1685.235
 117  1632.555
 118  1630.13
 119  1384.181
 120  1948.21
 121  1930.56
 122  1555.351
 123  1229.607
 124  1328.977
 125  1337.841
 126  1575.808
 127  1850.322
 128  1552.222
 129  1410.793
 130  1456.777
 131  1481.867
 132  1339.571
 133  1328.835
 134  1531.621
 135  1677.464
 136  1573.405
 137  1333.153
 138  1245.141
 139  1460.386
 140  1450.812
 141  1250.623
 142  1419.213
 143  1482.708
 144  1404.342
 145  1530.093
 146  1374.356
 147  1163.831
 148  1232.912
 149  1203.091
 150  1043.953
 151  1151.724
 152  1391.678
 153  1333.096
 154  1694.35
 155  1696.121
 156  1579.387
 157  1532.944
 158  1448.196
 159  1434.524
 160  1773.468
 161  1636.303
 162  1891.583
 163  1630.47
 164  1819.105
 165  2125.451
 166  1950.291
 167  1761.343
 168  1737.802
 169  1654.843
 170  1857.686
 171  1751.255
 172  1712.474
 173  1482.08
 174  1519.814
 175  1297.662
 176  1348.354
 177  1618.105
 178  1227.417
 179  1439.276
 180  1512.843
 181  1359.039
 182  1353.267
 183  1408.135
 184  1513.343
 185  1549.937
 186  1473.512
 187  1515.647
 188  1293.841
 189  1200.92
 190  1517.051
 191  1805.365
 192  1719.127
 193  1582.396
 194  1532.815
 195  1646.958
 196  1803.894
 197  1564.298
 198  1154.164
 199  1318.751
 200  1324.869
 201  1305.207
 202  1325.126
 203  1843.274
 204  1502.609
 205  1528.278
 206  1683.119
 207  2015.26
 208  1820.254
 209  1562.349
 210  1470.874
 211  1760.107
 212  1472.331
 213  1460.175
 214  1427.794
 215  1105.312
 216  1460.79
 217  1535.953
 218  1596.097
 219  1604.088
 220  1616.449
 221  1358.703
 222  1195.317
 223  1310.774
 224  1544.903
 225  1502.735
 226  1385.225
 227  1343.483
 228  1106.714
 229  1212.249
 230  1397.164
 231  1757.453
 232  1763.983
 233  1559.935
 234  1846.313
 235  1286.689
 236  1012.617
 237  1401.985
 238  1289.462
 239  1421.779
 240  1208.127
 241  1342.603
 242  1765.895
 243  1545.943
 244  1110.927
 245  1336.978
 246  1872.27
 247  2033.728
 248  1891.883
 249  1906.695
 250  1563.869
 251  1169.505
 252  1386.082
 253  1435.977
 254  1824.486
 255  1665.853
 256  1819.335
 257  1623.546
 258  1352.09
 259  1528.436
 260  1955.358
 261  1737.565
 262  1482.918
 263  1455.747
 264  1484.421
 265  1417.545
 266  1688.597
 267  1508.14
 268  1527.337
 269  1584.13
 270  1700.177
 271  1754.346
 272  1247.447
 273  1315.12
 274  1385.912
 275  1624.596
 276  1691.068
 277  1827.194
 278  1811.991
 279  1689.128
 280  1490.143
 281  1810.896
 282  1848.697
 283  1493
 284  1296.124
 285  1563.515
 286  1504.312
 287  1750.427
 288  1884.772
 289  1639.895
 290  1416.977
 291  1541.309
 292  1543.569
 293  1136.967
 294  957.8641
 295  1482.529
 296  1545.622
 297  1505.429
 298  1743.882
 299  1896.694
 300  1674.508
 301  1528.901
 302  1033.468
 303  1229.895
 304  1448.142
 305  1225.998
 306  1655.433
 307  1509.219
 308  1413.608
 309  1417.926
 310  1329.579
 311  1515.418
 312  1546.385
 313  1412.859
 314  1373.635
 315  1541.637
 316  1502.763
 317  1287.802
 318  1375.97
 319  1361.812
 320  1351.721
 321  1505.115
 322  1460.871
 323  1369.019
 324  1320.997
 325  1759.394
 326  2060.303
 327  2368.012
 328  2850.56
 329  2716.124
 330  2611.637
 331  2324.355
 332  1757.97
 333  1703.144
 334  1837.43
 335  2053.765
 336  2099.963
 337  2032.455
 338  1746.288
 339  1907.344
 340  2346.34
 341  1946.222
 342  1890.02
 343  1835.271
 344  1659.421
 345  1821.281
 346  1917.89
 347  1756.408
 348  1576.152
 349  1827.016
 350  1676.844
 351  1353.262
 352  1443.551
 353  1216.218
 354  1226.828
 355  1484.952
 356  1750.142
 357  1749.747
 358  1258.998
 359  1307.158
 360  1381.771
 361  1146.226
 362  1180.137
 363  1440.671
 364  1596.889
 365  1315.256
 366  1109.07
 367  928.2591
 368  1147.247
 369  1611.531
 370  1230.939
 371  1583.474
 372  1591.634
 373  1557.019
 374  1405.559
 375  1655.734
 376  1599.609
 377  1626.525
 378  1588.868
 379  1451.668
 380  1280.738
 381  1078.015
 382  1322.981
 383  1542.335
 384  1381.173
 385  1439.755
 386  1187.504
 387  1195.064
 388  1264.694
 389  1538.086
 390  1294.694
 391  1324.066
 392  1296.42
 393  1504.831
 394  1378.551
 395  1269.686
 396  1315.912
 397  1406.173
 398  1298.082
 399  1433.788
 400  1345.492
 401  1354.323
 402  1257.548
 403  1382.956
 404  1408.763
 405  1190.109
 406  1244.629
 407  1593.906
 408  1271.375
 409  1118.364
 410  1091.177
 411  1203.993
 412  1232.045
 413  1181.542
 414  1265.621
 415  1310.82
 416  1304.328
 417  1533.545
 418  1839.625
 419  1581.321
 420  1504.366
 421  1419.499
 422  1581.321
 423  1722.841
 424  1251.432
 425  1207.481
 426  1231.018
 427  1189.186
 428  1356.35
 429  1299.782
 430  1215.228
 431  994.7132
 432  979.5491
 433  1075.446
 434  1106.965
 435  1346.689
 436  1381.794
 437  1190.346
 438  1094.59
 439  1159.043
 440  1244.647
 441  1139.301
 442  1042.914
 443  1080.17
 444  1070.886
 445  893.3267
 446  1280.996
 447  1184.564
 448  1012.47
 449  1086.245
 450  993.3671
 451  1091.174
 452  964.0366
 453  1058.573
 454  1095.299
 455  1183.711
 456  1241.221
 457  1393.52
 458  1132.188
 459  1142.532
 460  1147.17
 461  1145.467
 462  1414.473
 463  1296.469
 464  1352.735
 465  1387.845
 466  1310.603
 467  1221.364
 468  1294.331
 469  1328.209
 470  1304.324
 471  1713.759
 472  1370.777
 473  1053.832
 474  1176.939
 475  1142.219
 476  1231.076
 477  1104.01
 478  1287.657
 479  1307.921
 480  884.4214
 481  1199.275
 482  1418.578
 483  1432.587
 484  1314.114
 485  910.5602
 486  1085.602
 487  1145.177
 488  1126.847
 489  1314.675
 490  1148.289
 491  1301.231
 492  1262.791
 493  1228.866
 494  1153.147
 495  1112.73
 496  969.6933
 497  1204.209
 498  1102.295
 499  1093.086
 500  1335.466
 501  1315.105
 502  1146.867
 503  1311.361
 504  1350.714
 505  1239.552
 506  1719.155
 507  1728.715
 508  1402.574
 509  1274.955
 510  1247.47
 511  1179.726
