# Input file       =  1180322240.108938_cleaned.dat
# Candidate        =  PSR_0332+5434
# Telescope        =  AR
# Epoch_topo       =  57905.137258205301
# Epoch_bary       =  N/A
# T_sample         =  0.002
# Data Folded      =  7143424
# Data Avg         =  0.147488026042391
# Data StdDev      =  4.51878490415685 
# Profile Bins     =  1024
# Profile Avg      =  1028.79666682956 
# Profile StdDev   =  377.419995577884 
# Reduced chi-sqr  =  0.712
# Prob(Noise)      <  1   (~0.0 sigma)
# P_topo (ms)      =  714.516437105823  +/- 4.95e-05
# P'_topo (s/s)    =  -0                +/- 2.68e-11
# P''_topo (s/s^2) =  0                 +/- 1.22e-14
# P_bary (ms)      =  N/A
# P'_bary (s/s)    =  N/A
# P''_bary (s/s^2) =  N/A
# P_orb (s)        =  N/A
# asin(i)/c (s)    =  N/A
# eccentricity     =  N/A
# w (rad)          =  N/A
# T_peri           =  N/A
######################################################
   0  1129.362
   1  1196.806
   2  1118.031
   3  1010.12
   4  924.8566
   5  951.7286
   6  997.0728
   7  926.1679
   8  954.8516
   9  975.9851
  10  996.666
  11  934.6564
  12  1034.727
  13  1001.161
  14  1007.528
  15  1012.493
  16  1065.514
  17  1113.392
  18  999.6246
  19  969.6967
  20  955.9178
  21  872.7135
  22  862.621
  23  776.2679
  24  772.9579
  25  742.6414
  26  794.0394
  27  830.5941
  28  810.4493
  29  855.4218
  30  1023.126
  31  1066.21
  32  1113.936
  33  1044.919
  34  900.8806
  35  788.2251
  36  806.8588
  37  970.4746
  38  944.6203
  39  997.8102
  40  913.8474
  41  1034.696
  42  1128.027
  43  1308.085
  44  1380.694
  45  1374.277
  46  1243.257
  47  1218.252
  48  1155.499
  49  1225.761
  50  1147.756
  51  1213.879
  52  1182.487
  53  1156.765
  54  1130.861
  55  1065.804
  56  988.5633
  57  1129.05
  58  1137.4
  59  1057.921
  60  834.9413
  61  1007.262
  62  1301.969
  63  1459.737
  64  1403.228
  65  1224.565
  66  1304.426
  67  1232.551
  68  1109.645
  69  957.9514
  70  873.5854
  71  887.4713
  72  914.0812
  73  1041.109
  74  1024.945
  75  955.0316
  76  870.1667
  77  1048.87
  78  1096.313
  79  1203.302
  80  1237.949
  81  1389.718
  82  1445.33
  83  1285.748
  84  1277.641
  85  1312.676
  86  1355.415
  87  1222.393
  88  1079.942
  89  912.9591
  90  869.1058
  91  729.6755
  92  920.6118
  93  1067.179
  94  1083.721
  95  1161.645
  96  1137.397
  97  1197.429
  98  1206.646
  99  1356.578
 100  1421.94
 101  1315.809
 102  1086.684
 103  1030.295
 104  969.9633
 105  795.2354
 106  838.5585
 107  916.5249
 108  1218.773
 109  1097.014
 110  1085.644
 111  1259.457
 112  1356.418
 113  1381.624
 114  1285.253
 115  1343.788
 116  1310.018
 117  1240.339
 118  1101.977
 119  1011.58
 120  884.4005
 121  1021.833
 122  1205.443
 123  1118.789
 124  968.6593
 125  933.7357
 126  1044.943
 127  1173.001
 128  1316.43
 129  1378.755
 130  1407.729
 131  1442.303
 132  1501.997
 133  1556.414
 134  1482.194
 135  1436.623
 136  1307.905
 137  1265.943
 138  1169.135
 139  1330.968
 140  1291.747
 141  1203.556
 142  1065.612
 143  1114.411
 144  1253.334
 145  1226.332
 146  1435.194
 147  1400.764
 148  1437.635
 149  1360.628
 150  1310.008
 151  1114.337
 152  933.285
 153  858.6273
 154  896.3884
 155  871.4353
 156  852.8358
 157  822.4793
 158  1030.41
 159  1148.757
 160  1278.66
 161  1159.709
 162  1083.779
 163  1082.196
 164  1116.282
 165  1209.996
 166  1207.659
 167  1133.484
 168  1147.312
 169  1030.997
 170  940.774
 171  905.7827
 172  894.4476
 173  907.8545
 174  855.9499
 175  901.288
 176  1115.151
 177  1030.935
 178  1085.2
 179  1051.878
 180  1186.36
 181  1140.861
 182  1077.907
 183  1183.581
 184  1294.604
 185  1214.044
 186  1153.938
 187  1152.876
 188  1029.53
 189  1046.769
 190  1080.219
 191  1144.023
 192  1091.467
 193  939.7572
 194  1108.058
 195  1180.53
 196  1297.078
 197  1315.004
 198  1315.458
 199  1331.446
 200  1304.448
 201  1206.905
 202  1213.613
 203  1179.391
 204  1107.914
 205  1065.286
 206  924.5427
 207  964.1053
 208  938.7233
 209  1147.578
 210  1188.363
 211  1094.204
 212  948.5606
 213  1001.156
 214  1252.601
 215  1409.56
 216  1398.611
 217  1329.512
 218  1270.896
 219  1240.376
 220  976.7838
 221  774.1006
 222  754.7422
 223  788.1948
 224  809.5953
 225  771.2838
 226  804.5937
 227  904.15
 228  996.8742
 229  1159.167
 230  1259.563
 231  1246.949
 232  1164.547
 233  996.676
 234  750.5221
 235  584.8375
 236  764.4509
 237  924.7501
 238  932.1672
 239  743.1901
 240  979.369
 241  1049.281
 242  991.5341
 243  773.2007
 244  997.0796
 245  1146.459
 246  1186.271
 247  1056.569
 248  1124.129
 249  1045.901
 250  905.8895
 251  944.9098
 252  944.1768
 253  870.7343
 254  883.5571
 255  985.616
 256  1067.097
 257  993.6074
 258  946.9578
 259  1119.858
 260  1096.184
 261  1032.557
 262  1061.175
 263  1046.418
 264  1078.842
 265  1118.511
 266  1232.685
 267  1163.565
 268  1026.808
 269  1050.655
 270  1140.037
 271  1033.157
 272  1010.26
 273  1093.931
 274  1230.026
 275  1143.534
 276  892.8788
 277  919.3087
 278  1008.023
 279  1100.952
 280  1195.402
 281  1343.974
 282  1307.692
 283  1217.909
 284  966.8954
 285  902.9009
 286  877.2308
 287  1042.638
 288  1160.76
 289  1213.206
 290  1145.272
 291  1070.323
 292  1027.099
 293  1029.622
 294  964.6416
 295  799.1644
 296  845.7862
 297  1037.521
 298  1099.407
 299  967.8359
 300  867.9052
 301  960.2504
 302  953.1307
 303  858.8879
 304  873.4827
 305  976.0945
 306  1003.902
 307  884.429
 308  830.7604
 309  834.2097
 310  928.1989
 311  1064.463
 312  1159.005
 313  1183.829
 314  1017.134
 315  946.0881
 316  987.0953
 317  994.6628
 318  932.954
 319  967.5148
 320  921.524
 321  747.113
 322  651.0154
 323  781.7943
 324  1026.504
 325  999.3005
 326  911.6693
 327  1028.246
 328  985.726
 329  1022.655
 330  1045.298
 331  1087.908
 332  1093.421
 333  923.4734
 334  934.681
 335  812.8308
 336  739.6204
 337  880.9973
 338  1030.942
 339  1002.836
 340  855.6287
 341  684.7306
 342  880.9043
 343  1030.023
 344  1075.384
 345  1053.168
 346  870.7645
 347  909.4691
 348  1004.383
 349  1109.95
 350  1136.197
 351  1104.273
 352  1073.206
 353  1027.566
 354  926.2578
 355  840.0544
 356  926.0018
 357  1026.859
 358  1060.558
 359  1059.254
 360  1005.241
 361  1208.572
 362  1188.948
 363  1076.318
 364  936.533
 365  872.8723
 366  1071.171
 367  936.6895
 368  821.8427
 369  785.2402
 370  865.4678
 371  832.915
 372  887.5523
 373  922.639
 374  1033.559
 375  994.5613
 376  1035.391
 377  1068.219
 378  1032.913
 379  1168.544
 380  1221.254
 381  1198.18
 382  1053.287
 383  1006.659
 384  1049.55
 385  914.5262
 386  808.4785
 387  998.687
 388  1162.335
 389  1193.995
 390  1056.171
 391  1009.829
 392  1047.477
 393  1149.895
 394  1157.215
 395  1201.35
 396  1230.987
 397  1337.02
 398  1199.112
 399  1070.178
 400  962.4893
 401  953.2787
 402  1036.361
 403  1038.168
 404  992.267
 405  839.9623
 406  868.0563
 407  976.4172
 408  1113.276
 409  953.2573
 410  1054.797
 411  1062.861
 412  1127.578
 413  900.7942
 414  897.4161
 415  996.9787
 416  1196.271
 417  1187.466
 418  1077.693
 419  835.7529
 420  806.2847
 421  843.5759
 422  998.0487
 423  845.0851
 424  879.9067
 425  869.2415
 426  1201.301
 427  1071.346
 428  1030.068
 429  1023.823
 430  1135.73
 431  1228.586
 432  1065.893
 433  897.2722
 434  881.3094
 435  919.0044
 436  977.5555
 437  1012.609
 438  1049.611
 439  1123.77
 440  1169.968
 441  1148.469
 442  1218.687
 443  1045.164
 444  1145.043
 445  1301.898
 446  1313.876
 447  1163.603
 448  980.6117
 449  1104.638
 450  1093.517
 451  1004.755
 452  1018.13
 453  1084.788
 454  974.7581
 455  782.934
 456  713.8929
 457  733.2233
 458  809.5793
 459  961.3926
 460  1193.767
 461  1269.454
 462  1242.308
 463  1312.2
 464  1203.308
 465  1058.203
 466  1008.432
 467  1174.155
 468  1203.235
 469  1125.725
 470  957.222
 471  1076.665
 472  1178.379
 473  1282.994
 474  1290.611
 475  1370.275
 476  1389.775
 477  1290.231
 478  1193.151
 479  1136.114
 480  1233.685
 481  1337.653
 482  1312.09
 483  1219.99
 484  1010.802
 485  965.6317
 486  885.8654
 487  932.5284
 488  832.257
 489  856.2335
 490  1155.079
 491  1426.754
 492  1414.293
 493  1174.426
 494  1153.212
 495  1154.855
 496  1234.504
 497  1082.144
 498  1121.108
 499  1167.625
 500  1155.513
 501  1122.028
 502  1090.016
 503  1050.992
 504  996.8483
 505  1008.747
 506  1015.439
 507  996.9481
 508  926.3785
 509  1073.432
 510  1052.342
 511  1030.523
 512  996.8433
 513  1011.691
 514  973.2413
 515  1005.041
 516  868.4975
 517  930.3892
 518  832.3132
 519  923.5043
 520  791.1528
 521  869.4952
 522  859.8005
 523  925.077
 524  783.1422
 525  787.2952
 526  730.3416
 527  864.5795
 528  1030.468
 529  1108.259
 530  1060.245
 531  1089.812
 532  1076.719
 533  989.9866
 534  898.9772
 535  954.7869
 536  1076.526
 537  1039.691
 538  1024.942
 539  1171.858
 540  1212.917
 541  1244.269
 542  1125.352
 543  1148.606
 544  1095.221
 545  1184.476
 546  1159.244
 547  1099.814
 548  1049.125
 549  1102.075
 550  1122.06
 551  1154.349
 552  1103.217
 553  908.9521
 554  936.2253
 555  1093.661
 556  1194.67
 557  998.9938
 558  1045.545
 559  1144.148
 560  1292.43
 561  1223.229
 562  1171.789
 563  1154.724
 564  1150.498
 565  1089.471
 566  1082.652
 567  1053.298
 568  1117.597
 569  1102.281
 570  1046.949
 571  825.903
 572  797.74
 573  839.9739
 574  1067.308
 575  1102.628
 576  1063.939
 577  1119.631
 578  1063.048
 579  1138.037
 580  1197.386
 581  1131.995
 582  975.9199
 583  753.7948
 584  709.8837
 585  671.4948
 586  595.3093
 587  729.7643
 588  826.7146
 589  757.7529
 590  726.921
 591  840.7161
 592  1087.362
 593  1111.606
 594  1068.349
 595  1006.451
 596  1050.831
 597  927.9932
 598  852.905
 599  656.7801
 600  694.0991
 601  800.686
 602  797.9816
 603  845.6068
 604  953.7535
 605  1016.223
 606  993.5627
 607  923.9285
 608  1115.097
 609  1290.892
 610  1343.251
 611  1380.114
 612  1274.75
 613  1055.373
 614  796.1958
 615  821.3292
 616  952.9542
 617  836.753
 618  624.2719
 619  763.2944
 620  807.5768
 621  712.9529
 622  651.2817
 623  894.7832
 624  1204.235
 625  1176.405
 626  1007.115
 627  996.7027
 628  1086.393
 629  1099.868
 630  993.5697
 631  795.4875
 632  687.1803
 633  714.6541
 634  782.4849
 635  817.875
 636  752.8134
 637  889.0433
 638  964.3364
 639  1032.94
 640  947.5065
 641  864.2455
 642  892.2674
 643  987.1374
 644  1081.188
 645  1127.911
 646  1041.396
 647  959.3158
 648  827.0253
 649  801.6652
 650  912.8464
 651  927.1525
 652  882.6809
 653  759.3927
 654  804.2425
 655  862.5883
 656  891.9867
 657  997.8035
 658  1043.842
 659  1121.743
 660  1004.955
 661  1025.465
 662  937.2933
 663  992.5964
 664  817.136
 665  866.9474
 666  878.028
 667  958.3065
 668  978.8602
 669  950.8672
 670  915.8895
 671  760.9436
 672  750.0113
 673  832.9719
 674  999.4342
 675  985.3448
 676  1094.023
 677  960.6876
 678  865.9226
 679  803.8466
 680  897.2792
 681  926.0572
 682  867.7284
 683  888.2707
 684  1093.219
 685  950.9189
 686  826.8947
 687  796.5812
 688  981.1028
 689  1010.404
 690  880.8607
 691  855.894
 692  1007.151
 693  998.786
 694  1048.836
 695  1087.322
 696  1051.015
 697  980.7148
 698  882.7447
 699  801.5687
 700  788.8372
 701  693.6269
 702  901.4405
 703  926.6916
 704  1008.966
 705  1111.815
 706  1131.32
 707  1235.527
 708  1199.53
 709  1198.26
 710  1172.186
 711  1161.035
 712  1145.902
 713  1149.839
 714  1064.851
 715  968.1763
 716  941.1891
 717  1103.214
 718  1176.555
 719  992.642
 720  801.8701
 721  795.5061
 722  832.8945
 723  909.7869
 724  947.973
 725  1102.615
 726  1086.647
 727  1066.064
 728  1035.874
 729  1018.033
 730  1060.43
 731  1171.584
 732  1178.052
 733  1061.292
 734  935.4824
 735  929.7788
 736  947.3476
 737  1056.743
 738  1099.971
 739  1155.538
 740  1225.558
 741  1306.584
 742  1386.222
 743  1233.557
 744  1204.251
 745  1259.136
 746  1292.54
 747  1318.947
 748  1270.754
 749  1365.797
 750  1258.84
 751  1307.768
 752  1492.318
 753  1671.398
 754  1698.992
 755  1687.047
 756  1869.032
 757  1907.058
 758  1817.092
 759  1597.913
 760  1579.512
 761  1431.851
 762  1316.348
 763  1175.049
 764  1138.842
 765  1052.028
 766  1024.239
 767  1110.819
 768  1093.792
 769  950.1115
 770  937.9422
 771  1061.16
 772  1159.574
 773  1135.38
 774  1144.715
 775  1285.161
 776  1184.094
 777  1091.27
 778  1037.318
 779  999.8135
 780  1031.686
 781  1072.537
 782  1082.377
 783  1050.931
 784  1020.499
 785  1104.376
 786  1172.166
 787  1171.324
 788  1164.56
 789  1268.196
 790  1293.261
 791  1322.513
 792  1043.078
 793  1014.328
 794  932.8984
 795  891.4656
 796  794.5579
 797  785.4066
 798  877.0532
 799  999.9602
 800  976.3257
 801  931.2644
 802  926.4562
 803  965.0699
 804  891.8054
 805  872.6606
 806  942.5349
 807  1021.278
 808  1041.089
 809  1161.969
 810  1179.559
 811  1079.688
 812  956.0825
 813  969.0607
 814  951.7897
 815  918.2092
 816  833.382
 817  822.7495
 818  765.4433
 819  839.2043
 820  1004.933
 821  1188.441
 822  1098.915
 823  1048.536
 824  1063.189
 825  1118.745
 826  1212.386
 827  1209.727
 828  1122.724
 829  764.2109
 830  696.0443
 831  788.4799
 832  902.8063
 833  880.8218
 834  797.4542
 835  878.9642
 836  969.7017
 837  1037.292
 838  1050.279
 839  1114.062
 840  1227.649
 841  1225.48
 842  1128.026
 843  971.0543
 844  799.9217
 845  793.6347
 846  803.6555
 847  863.4245
 848  819.7396
 849  738.1498
 850  768.4107
 851  813.5773
 852  822.8589
 853  748.1121
 854  745.636
 855  779.2255
 856  960.276
 857  853.8858
 858  962.5836
 859  961.7488
 860  978.1066
 861  982.4218
 862  1002.184
 863  991.4331
 864  987.3
 865  886.062
 866  952.1312
 867  875.3694
 868  781.1199
 869  798.4399
 870  874.3396
 871  899.2954
 872  957.7036
 873  1044.297
 874  1227.905
 875  1202.6
 876  1137.96
 877  1080.034
 878  1073.451
 879  1017.18
 880  1033.719
 881  948.634
 882  952.759
 883  853.1384
 884  831.4099
 885  945.7058
 886  924.389
 887  866.1384
 888  773.4249
 889  905.1812
 890  1008.422
 891  1138.666
 892  1185.252
 893  1170.711
 894  1023.627
 895  971.2604
 896  1024.054
 897  1090.351
 898  1073.527
 899  1007.101
 900  1043.054
 901  928.0276
 902  870.0827
 903  913.2805
 904  1108.06
 905  1200.988
 906  1143.005
 907  1116.379
 908  1132.504
 909  1144.32
 910  1063.522
 911  1029.243
 912  945.3346
 913  973.2345
 914  849.5498
 915  797.3444
 916  887.0486
 917  884.9874
 918  1008.754
 919  1035.232
 920  1050.704
 921  932.2631
 922  814.5848
 923  1029.778
 924  1187.647
 925  1133.104
 926  981.9697
 927  732.8533
 928  796.1625
 929  811.6867
 930  814.7015
 931  909.6906
 932  840.9233
 933  920.5092
 934  1000.302
 935  888.4235
 936  762.0794
 937  694.1117
 938  932.7099
 939  1052.566
 940  1055.536
 941  1022.545
 942  1172.277
 943  1163.061
 944  1115.555
 945  998.258
 946  952.2925
 947  939.7166
 948  795.2939
 949  782.2875
 950  718.5057
 951  801.4851
 952  863.912
 953  1119.783
 954  1022.498
 955  1086.26
 956  913.139
 957  1011.083
 958  1085.411
 959  1090.565
 960  1018.386
 961  938.8337
 962  840.371
 963  787.7065
 964  746.7188
 965  813.1225
 966  727.7321
 967  672.1094
 968  737.9564
 969  717.702
 970  709.6456
 971  793.5637
 972  1070.32
 973  1070.27
 974  1030.197
 975  1025.685
 976  1244.87
 977  1060.319
 978  774.8526
 979  604.1373
 980  678.6384
 981  826.2735
 982  933.2327
 983  1034.771
 984  978.6825
 985  823.9308
 986  803.0296
 987  895.3754
 988  934.1871
 989  988.3745
 990  1015.398
 991  1044.071
 992  987.8228
 993  972.7821
 994  803.986
 995  588.0172
 996  636.5829
 997  759.9493
 998  914.4465
 999  811.3749
1000  820.9009
1001  899.8807
1002  939.2474
1003  1040.637
1004  1040.239
1005  1068.453
1006  1037.939
1007  1107.188
1008  1084.309
1009  1023.159
1010  1028.714
1011  976.6477
1012  1088.372
1013  996.8868
1014  1006.887
1015  879.663
1016  880.196
1017  953.7609
1018  1024.53
1019  980.0405
1020  976.2905
1021  936.5853
1022  1062.207
1023  1105
