# Input file       =  1180509204.106537_cleaned.dat
# Candidate        =  PSR_0332+5434
# Telescope        =  AR
# Epoch_topo       =  57907.301193362699
# Epoch_bary       =  N/A
# T_sample         =  0.002
# Data Folded      =  7340032
# Data Avg         =  0.100694056288505
# Data StdDev      =  3.20226991465608 
# Profile Bins     =  1024
# Profile Avg      =  721.662562381988 
# Profile StdDev   =  271.117114402689 
# Reduced chi-sqr  =  0.847
# Prob(Noise)      <  1   (~0.0 sigma)
# P_topo (ms)      =  714.514342854242  +/- 0.00049
# P'_topo (s/s)    =  -0                +/- 2.59e-10
# P''_topo (s/s^2) =  0                 +/- 1.14e-13
# P_bary (ms)      =  N/A
# P'_bary (s/s)    =  N/A
# P''_bary (s/s^2) =  N/A
# P_orb (s)        =  N/A
# asin(i)/c (s)    =  N/A
# eccentricity     =  N/A
# w (rad)          =  N/A
# T_peri           =  N/A
######################################################
   0  743.2809
   1  659.8456
   2  622.0479
   3  673.2751
   4  689.9427
   5  691.3752
   6  702.6508
   7  665.9839
   8  617.0685
   9  586.4879
  10  640.1264
  11  650.7498
  12  662.6852
  13  658.2306
  14  658.8684
  15  634.619
  16  676.6065
  17  853.7806
  18  877.7879
  19  768.7597
  20  570.6486
  21  512.0632
  22  538.2951
  23  598.439
  24  580.8023
  25  600.3275
  26  532.1838
  27  622.9792
  28  621.8705
  29  524.9387
  30  578.7631
  31  588.2634
  32  713.7357
  33  729.067
  34  553.309
  35  468.7289
  36  412.5408
  37  550.4076
  38  681.0449
  39  691.1489
  40  718.8331
  41  722.0679
  42  715.3656
  43  733.78
  44  549.6755
  45  452.4266
  46  465.5223
  47  516.3643
  48  566.9357
  49  586.6227
  50  564.4476
  51  574.4549
  52  553.8512
  53  609.6329
  54  713.5215
  55  595.3515
  56  538.0958
  57  624.1332
  58  710.5575
  59  679.7629
  60  557.5478
  61  554.4612
  62  681.4978
  63  561.6576
  64  580.6144
  65  587.3031
  66  523.0025
  67  483.4472
  68  485.3788
  69  578.4528
  70  630.0628
  71  561.0199
  72  530.9815
  73  556.5377
  74  553.6803
  75  679.5086
  76  674.1785
  77  675.5881
  78  608.4477
  79  560.0251
  80  604.3738
  81  669.6488
  82  655.5261
  83  700.2224
  84  639.5645
  85  560.8947
  86  680.6047
  87  798.9433
  88  949.8311
  89  880.3297
  90  838.1545
  91  708.2739
  92  676.6281
  93  630.7303
  94  631.1979
  95  640.6775
  96  597.1793
  97  620.5262
  98  572.0327
  99  607.6812
 100  589.0382
 101  553.7125
 102  578.1844
 103  559.6538
 104  569.272
 105  559.6352
 106  571.4285
 107  566.9572
 108  594.2699
 109  531.6735
 110  557.2121
 111  628.1295
 112  722.7419
 113  788.0185
 114  747.8039
 115  643.448
 116  581.6339
 117  483.9326
 118  532.6981
 119  509.9908
 120  584.6008
 121  740.8192
 122  852.3742
 123  857.133
 124  809.3123
 125  707.0912
 126  648.6173
 127  693.8046
 128  695.3951
 129  653.1086
 130  607.9221
 131  660.6151
 132  825.7935
 133  715.1415
 134  588.8998
 135  473.5823
 136  511.3785
 137  535.9304
 138  614.2885
 139  705.2432
 140  881.9611
 141  815.6796
 142  742.1766
 143  745.6885
 144  716.0391
 145  746.2556
 146  759.8253
 147  732.5724
 148  734.921
 149  645.4856
 150  671.0472
 151  696.8299
 152  732.6307
 153  745.3049
 154  690.961
 155  646.2924
 156  745.5211
 157  768.0745
 158  693.1855
 159  644.9172
 160  653.5533
 161  862.6276
 162  798.4808
 163  766.8218
 164  798.6818
 165  909.9111
 166  908.6046
 167  888.3942
 168  841.7685
 169  940.8723
 170  777.8205
 171  767.1592
 172  694.6258
 173  729.6588
 174  812.0563
 175  813.0778
 176  891.8541
 177  740.8927
 178  724.89
 179  673.4457
 180  805.898
 181  888.0742
 182  817.0948
 183  769.4427
 184  686.9507
 185  727.6753
 186  655.4465
 187  529.7298
 188  485.0973
 189  587.7785
 190  679.4213
 191  668.6453
 192  669.6805
 193  647.064
 194  680.9869
 195  610.4423
 196  557.5701
 197  597.3506
 198  526.5127
 199  631.1581
 200  603.6816
 201  632.8942
 202  573.8304
 203  574.8796
 204  626.929
 205  647.1789
 206  648.0373
 207  762.2571
 208  746.7271
 209  716.8698
 210  718.9534
 211  673.3973
 212  600.8367
 213  591.6028
 214  464.9864
 215  511.1147
 216  592.6251
 217  735.2569
 218  819.879
 219  784.7664
 220  791.0663
 221  720.2586
 222  602.148
 223  608.267
 224  644.3989
 225  709.5422
 226  777.2789
 227  715.0193
 228  782.4456
 229  756.043
 230  796.4675
 231  889.616
 232  903.8378
 233  862.3503
 234  699.9628
 235  605.496
 236  576.0678
 237  682.0234
 238  752.683
 239  798.3775
 240  805.7998
 241  689.0621
 242  770.6785
 243  775.0649
 244  849.7377
 245  781.8746
 246  799.6272
 247  830.5418
 248  760.7348
 249  732.9105
 250  762.4518
 251  683.5066
 252  525.1438
 253  493.2598
 254  616.0528
 255  830.6481
 256  915.1592
 257  851.4268
 258  798.6689
 259  796.2258
 260  935.324
 261  898.8363
 262  840.8273
 263  733.381
 264  690.6443
 265  558.8271
 266  520.0892
 267  582.7518
 268  583.1034
 269  643.1563
 270  669.0366
 271  780.8039
 272  877.3374
 273  789.4562
 274  714.3733
 275  733.8696
 276  697.1638
 277  615.4819
 278  538.6757
 279  592.3661
 280  729.8502
 281  701.9344
 282  694.3069
 283  701.4627
 284  589.2744
 285  610.4942
 286  553.0103
 287  569.5284
 288  581.0095
 289  667.4758
 290  827.5071
 291  811.7021
 292  725.265
 293  687.7415
 294  646.1672
 295  622.655
 296  656.7659
 297  638.4222
 298  727.5012
 299  830.6702
 300  846.5527
 301  841.7386
 302  711.1661
 303  726.5784
 304  805.799
 305  862.863
 306  881.852
 307  869.8144
 308  682.9703
 309  616.4882
 310  492.2253
 311  566.5066
 312  730.0067
 313  797.226
 314  863.3046
 315  815.5809
 316  722.6995
 317  807.9951
 318  781.5771
 319  755.0165
 320  782.1797
 321  734.655
 322  717.2637
 323  708.3613
 324  684.9932
 325  735.9506
 326  655.9639
 327  680.2952
 328  765.9114
 329  860.5568
 330  875.047
 331  879.7509
 332  804.2498
 333  818.7861
 334  819.0362
 335  806.2131
 336  787.3316
 337  639.0777
 338  771.2974
 339  900.1194
 340  1078.064
 341  985.9766
 342  926.069
 343  803.1398
 344  715.2817
 345  624.5945
 346  604.2514
 347  679.1171
 348  654.3212
 349  654.5202
 350  693.131
 351  736.4024
 352  859.1501
 353  907.1196
 354  947.6159
 355  834.3969
 356  703.2778
 357  697.2583
 358  704.2141
 359  727.6327
 360  723.2479
 361  757.1121
 362  721.4297
 363  704.3804
 364  635.288
 365  628.2657
 366  697.5838
 367  719.4965
 368  835.1839
 369  846.6653
 370  829.6057
 371  803.5814
 372  766.3905
 373  677.4293
 374  641.9976
 375  580.9745
 376  653.0063
 377  706.8163
 378  782.0982
 379  769.5307
 380  663.3252
 381  590.5158
 382  674.9012
 383  701.9828
 384  705.4219
 385  788.7598
 386  693.9379
 387  738.0668
 388  667.5994
 389  734.8529
 390  814.0003
 391  687.3129
 392  655.2823
 393  599.3777
 394  564.8636
 395  665.4398
 396  562.5209
 397  614.3875
 398  580.0128
 399  537.7918
 400  502.5367
 401  547.6999
 402  632.1467
 403  731.3675
 404  664.8024
 405  632.4169
 406  712.7973
 407  829.737
 408  871.466
 409  900.6049
 410  783.653
 411  822.7319
 412  763.2972
 413  722.1511
 414  793.6788
 415  718.9742
 416  730.9604
 417  697.7359
 418  750.4223
 419  931.5477
 420  853.8123
 421  822.6518
 422  793.7607
 423  951.014
 424  959.4583
 425  820.8279
 426  807.3861
 427  852.7145
 428  1000.075
 429  993.8152
 430  1123.28
 431  979.502
 432  945.3691
 433  902.6044
 434  859.6077
 435  896.5123
 436  843.1343
 437  790.0653
 438  870.6483
 439  917.7179
 440  929.0193
 441  883.3222
 442  877.3067
 443  857.8264
 444  846.1099
 445  761.4842
 446  691.8237
 447  775.3014
 448  753.9213
 449  728.1284
 450  552.1476
 451  639.9561
 452  735.2548
 453  845.0628
 454  760.1103
 455  669.4782
 456  543.3896
 457  704.8014
 458  761.8268
 459  775.4821
 460  726.5167
 461  679.6969
 462  669.1997
 463  727.4501
 464  625.8682
 465  686.0226
 466  730.4771
 467  699.7305
 468  832.5385
 469  759.8332
 470  768.0352
 471  744.9774
 472  742.8872
 473  805.5191
 474  697.2101
 475  657.2868
 476  626.9675
 477  607.5211
 478  594.9624
 479  711.0652
 480  847.2872
 481  922.1565
 482  874.6417
 483  833.9513
 484  877.2452
 485  795.9679
 486  783.4645
 487  800.2836
 488  732.9924
 489  807.5223
 490  859.7386
 491  881.1644
 492  906.4734
 493  782.0363
 494  766.4978
 495  583.8908
 496  555.2915
 497  656.0269
 498  691.8026
 499  606.5694
 500  690.1459
 501  641.0854
 502  666.6199
 503  606.1667
 504  759.501
 505  943.4797
 506  895.3849
 507  756.2154
 508  719.77
 509  756.632
 510  777.9389
 511  779.5311
 512  943.2807
 513  1035.05
 514  975.2734
 515  906.6269
 516  904.5957
 517  813.0635
 518  709.4894
 519  691.3094
 520  811.3796
 521  889.3619
 522  872.3882
 523  773.4199
 524  672.8658
 525  691.2794
 526  783.3274
 527  770.5852
 528  636.8124
 529  504.8858
 530  601.5048
 531  723.337
 532  753.6114
 533  797.3685
 534  733.6388
 535  816.1808
 536  785.831
 537  776.3693
 538  833.9806
 539  822.3907
 540  778.0587
 541  746.8447
 542  588.1287
 543  649.8207
 544  553.5082
 545  641.7308
 546  688.0798
 547  758.7479
 548  784.1818
 549  820.209
 550  674.0255
 551  703.3336
 552  689.0724
 553  647.2314
 554  690.0183
 555  532.2657
 556  544.7236
 557  593.5994
 558  658.3652
 559  709.6601
 560  690.7602
 561  797.1078
 562  1002.72
 563  920.2339
 564  799.2287
 565  771.8929
 566  810.3459
 567  983.7104
 568  851.5902
 569  698.6921
 570  535.7053
 571  473.6204
 572  561.5931
 573  698.8494
 574  714.5684
 575  661.5118
 576  619.2721
 577  650.6324
 578  775.1387
 579  619.5109
 580  573.1796
 581  619.0891
 582  762.4106
 583  914.9636
 584  861.8506
 585  802.0056
 586  693.9944
 587  570.3174
 588  532.535
 589  608.3879
 590  769.4127
 591  922.8223
 592  993.4074
 593  1013.563
 594  996.4875
 595  931.9808
 596  969.4318
 597  961.6528
 598  929.2184
 599  842.5305
 600  693.2213
 601  571.6897
 602  590.5073
 603  725.836
 604  658.107
 605  703.8889
 606  766.1613
 607  925.6365
 608  901.2802
 609  860.0897
 610  792.8248
 611  906.2579
 612  925.2598
 613  894.4496
 614  721.4585
 615  682.9708
 616  656.1074
 617  714.3975
 618  835.6944
 619  1005.654
 620  949.6943
 621  895.8393
 622  841.6599
 623  755.1894
 624  700.5186
 625  706.7529
 626  766.301
 627  804.5941
 628  658.3224
 629  701.8882
 630  741.3138
 631  831.7044
 632  863.7008
 633  792.6506
 634  682.8525
 635  759.1575
 636  793.5618
 637  852.6072
 638  718.1744
 639  776.5867
 640  962.8098
 641  951.2292
 642  741.8844
 643  692.0406
 644  562.6946
 645  666.0228
 646  661.1955
 647  640.5314
 648  754.7182
 649  780.2114
 650  855.0652
 651  869.879
 652  831.8248
 653  944.8148
 654  878.8838
 655  901.6706
 656  911.966
 657  848.5123
 658  826.8398
 659  758.5698
 660  727.2081
 661  874.9114
 662  968.1536
 663  945.4402
 664  871.2402
 665  753.4232
 666  730.1653
 667  661.3862
 668  639.9473
 669  827.0708
 670  751.3463
 671  749.5981
 672  733.389
 673  853.8594
 674  928.0466
 675  976.7045
 676  906.8135
 677  880.8643
 678  742.7672
 679  688.7888
 680  706.3152
 681  725.1074
 682  844.6281
 683  799.3765
 684  721.4294
 685  607.0602
 686  499.5614
 687  457.7372
 688  508.9156
 689  676.4361
 690  841.7384
 691  816.1495
 692  715.7102
 693  708.3027
 694  812.2053
 695  855.8727
 696  900.2412
 697  924.0393
 698  971.1274
 699  851.2591
 700  819.2825
 701  774.4778
 702  730.7365
 703  547.2045
 704  456.9503
 705  564.9824
 706  692.4638
 707  758.8257
 708  679.7424
 709  579.0074
 710  665.6501
 711  794.1234
 712  875.7416
 713  812.4964
 714  668.4041
 715  703.232
 716  723.5044
 717  714.9793
 718  695.7983
 719  619.8824
 720  708.2742
 721  759.8113
 722  767.6832
 723  798.701
 724  750.7143
 725  724.9183
 726  680.5728
 727  670.6547
 728  702.0875
 729  785.6821
 730  777.7083
 731  803.7261
 732  666.6933
 733  599.9139
 734  706.4275
 735  688.7542
 736  667.4857
 737  700.3195
 738  669.1665
 739  726.8294
 740  624.7883
 741  752.2751
 742  756.0229
 743  712.5521
 744  742.1132
 745  703.7911
 746  656.3558
 747  638.0991
 748  716.094
 749  809.6058
 750  970.8582
 751  1033.082
 752  1047.913
 753  1130.722
 754  1268.283
 755  1437.07
 756  1429.095
 757  1323.819
 758  1365.203
 759  1303.724
 760  1307.405
 761  1185.409
 762  1107.119
 763  904.8677
 764  823.5696
 765  799.4224
 766  909.8804
 767  888.793
 768  956.4221
 769  999.1726
 770  1071.845
 771  1062.377
 772  1032.116
 773  1024.535
 774  1000.095
 775  902.9828
 776  818.8489
 777  901.6642
 778  1055.562
 779  1159.42
 780  1187.274
 781  995.0554
 782  914.6818
 783  918.9236
 784  979.8252
 785  981.1926
 786  846.9096
 787  788.3698
 788  870.4999
 789  893.8761
 790  921.2042
 791  947.9669
 792  981.6534
 793  927.0449
 794  801.6008
 795  731.5997
 796  862.694
 797  902.438
 798  923.3925
 799  887.9218
 800  768.382
 801  713.9229
 802  632.846
 803  708.9214
 804  744.2449
 805  631.5313
 806  551.5488
 807  610.1468
 808  640.4922
 809  735.2399
 810  772.7094
 811  838.9594
 812  924.7092
 813  883.1326
 814  837.6357
 815  699.5914
 816  534.5601
 817  637.6552
 818  698.6567
 819  679.1466
 820  690.5276
 821  576.6509
 822  547.2275
 823  605.2532
 824  601.6942
 825  735.6351
 826  713.5134
 827  789.3659
 828  802.1351
 829  665.7243
 830  631.0243
 831  599.1941
 832  493.0473
 833  481.1282
 834  453.9216
 835  489.2193
 836  690.0221
 837  794.1409
 838  815.055
 839  634.3139
 840  583.7755
 841  797.475
 842  816.7639
 843  780.514
 844  791.7107
 845  783.7878
 846  766.1774
 847  701.5651
 848  721.4806
 849  824.6947
 850  847.7905
 851  805.0674
 852  771.9467
 853  788.7727
 854  846.0514
 855  815.8616
 856  765.3315
 857  740.2418
 858  702.7322
 859  660.2673
 860  596.5303
 861  551.4041
 862  520.4125
 863  626.6611
 864  746.8517
 865  746.3788
 866  786.5134
 867  675.321
 868  697.2957
 869  739.8126
 870  689.2536
 871  680.3403
 872  501.6481
 873  585.0867
 874  623.4468
 875  606.1105
 876  660.0386
 877  791.8394
 878  747.5093
 879  698.1349
 880  588.6753
 881  679.8779
 882  643.6223
 883  622.4782
 884  679.9764
 885  789.4117
 886  715.6079
 887  722.1097
 888  657.248
 889  622.0075
 890  649.7891
 891  659.5013
 892  643.3314
 893  719.9861
 894  698.0581
 895  688.1675
 896  602.6599
 897  685.0947
 898  769.0294
 899  684.6297
 900  637.0914
 901  735.5421
 902  617.68
 903  656.7754
 904  604.7625
 905  683.8347
 906  715.7187
 907  691.5002
 908  699.8689
 909  623.5616
 910  561.5912
 911  594.4591
 912  675.012
 913  771.7606
 914  817.4042
 915  648.1574
 916  596.0414
 917  559.5181
 918  554.7922
 919  576.8255
 920  518.5414
 921  589.3693
 922  626.5773
 923  659.0087
 924  562.4769
 925  571.7834
 926  618.5056
 927  635.6949
 928  636.5875
 929  625.6931
 930  672.7673
 931  638.5566
 932  688.9565
 933  747.0792
 934  812.9655
 935  934.2177
 936  902.1283
 937  791.8539
 938  768.5917
 939  736.3493
 940  757.8549
 941  727.4387
 942  696.3619
 943  735.6702
 944  874.4354
 945  872.9272
 946  820.9628
 947  635.3364
 948  591.7788
 949  613.7606
 950  606.0049
 951  627.786
 952  598.4208
 953  590.5054
 954  597.49
 955  641.1675
 956  732.5322
 957  650.5528
 958  646.1124
 959  589.175
 960  606.1565
 961  492.2689
 962  492.2335
 963  513.3818
 964  462.7054
 965  533.1443
 966  560.8572
 967  558.9894
 968  549.9902
 969  665.3935
 970  694.2259
 971  752.0322
 972  624.0562
 973  658.2895
 974  522.157
 975  543.5761
 976  554.2369
 977  593.789
 978  558.8073
 979  633.237
 980  625.5399
 981  623.2045
 982  492.3513
 983  465.4905
 984  599.5677
 985  518.4247
 986  531.3973
 987  577.9276
 988  498.4822
 989  513.3591
 990  387.796
 991  631.1417
 992  667.413
 993  626.5291
 994  532.0682
 995  488.7862
 996  542.1511
 997  545.293
 998  532.1044
 999  466.1758
1000  529.7589
1001  552.5394
1002  535.9666
1003  496.0068
1004  462.8147
1005  564.2973
1006  496.0012
1007  521.6776
1008  572.2465
1009  595.3423
1010  594.6691
1011  602.3854
1012  663.2356
1013  714.5162
1014  677.674
1015  545.7138
1016  551.2549
1017  538.9233
1018  614.933
1019  587.8253
1020  558.9275
1021  576.7669
1022  581.6103
1023  682.229
