# Input file       =  1180149854.141643_cleaned.dat
# Candidate        =  PSR_0332+5434
# Telescope        =  AR
# Epoch_topo       =  57903.142050250499
# Epoch_bary       =  N/A
# T_sample         =  0.002
# Data Folded      =  7208960
# Data Avg         =  0.281342534085905
# Data StdDev      =  6.37050020603382 
# Profile Bins     =  256
# Profile Avg      =  7922.43630566519 
# Profile StdDev   =  1069.02991733729 
# Reduced chi-sqr  =  0.513
# Prob(Noise)      <  1   (~0.0 sigma)
# P_topo (ms)      =  714.518392966868  +/- 9.86e-05
# P'_topo (s/s)    =  -0                +/- 5.3e-11
# P''_topo (s/s^2) =  0                 +/- 2.38e-14
# P_bary (ms)      =  N/A
# P'_bary (s/s)    =  N/A
# P''_bary (s/s^2) =  N/A
# P_orb (s)        =  N/A
# asin(i)/c (s)    =  N/A
# eccentricity     =  N/A
# w (rad)          =  N/A
# T_peri           =  N/A
######################################################
   0  8866.494
   1  8361.29
   2  7925.721
   3  8132.388
   4  7038.474
   5  8023.836
   6  7788.14
   7  7940.393
   8  8220.716
   9  7984.755
  10  8574.241
  11  7645.858
  12  8332.512
  13  7893.053
  14  8438.742
  15  8053.595
  16  8526.248
  17  8710.09
  18  10100.23
  19  9118.085
  20  7762.728
  21  8727.79
  22  7832.076
  23  7246.535
  24  6729.539
  25  8228.01
  26  9088.829
  27  8384.471
  28  6763.421
  29  7343.001
  30  7658.741
  31  6867.134
  32  6942.857
  33  7223.537
  34  8532.259
  35  7409.214
  36  7044.79
  37  6865.708
  38  7683.556
  39  8609.965
  40  8349.34
  41  8172.541
  42  6661.944
  43  8345.768
  44  7242.997
  45  6649.92
  46  8269.852
  47  7737.839
  48  7262.571
  49  8324.863
  50  8320.243
  51  7791.253
  52  7267.792
  53  8073.683
  54  7630.89
  55  8243.826
  56  8390.331
  57  8092.982
  58  8167.578
  59  9941.137
  60  8671.492
  61  8184.273
  62  7814.432
  63  8817.95
  64  7782.12
  65  7653.396
  66  7935.865
  67  9344.53
  68  7354.188
  69  7135.035
  70  7284.171
  71  8309.119
  72  7998.158
  73  7414.917
  74  7684.39
  75  8891.232
  76  9361.062
  77  8142.571
  78  7956.525
  79  7753.891
  80  9321.438
  81  8526.82
  82  8295.526
  83  8975.396
  84  9450.679
  85  8546.763
  86  8035.065
  87  8399.554
  88  9327.898
  89  8901.59
  90  8668.644
  91  8654.403
  92  8967.284
  93  8439.233
  94  7375.283
  95  7041.09
  96  9014.476
  97  8156.28
  98  9058.616
  99  8468.147
 100  8337.057
 101  7407.911
 102  7537.43
 103  8173.66
 104  8283.019
 105  7693.242
 106  6803.567
 107  7994.23
 108  7926.589
 109  8497.131
 110  7571.378
 111  8057.493
 112  7904.514
 113  7852.103
 114  7485.105
 115  8081.601
 116  8408.056
 117  8306.916
 118  7917.357
 119  7453.588
 120  7263.299
 121  7982.018
 122  7429.422
 123  6998.072
 124  7679.765
 125  8564.079
 126  7621.257
 127  6855.221
 128  6245.546
 129  8099.461
 130  8927.528
 131  7554.833
 132  7471.773
 133  7768.643
 134  8727.776
 135  7425.259
 136  6954.056
 137  7565.964
 138  6550.421
 139  7779.18
 140  8121.152
 141  8418.864
 142  7853.5
 143  7428.225
 144  7724.508
 145  8759.857
 146  7879.243
 147  7162.794
 148  8868.396
 149  8479.674
 150  8066.05
 151  7202.078
 152  6781.326
 153  7056.255
 154  7773.174
 155  7828.425
 156  8273.409
 157  7900.688
 158  7666.592
 159  8702.187
 160  7994.01
 161  7815.498
 162  9029.468
 163  9249.516
 164  9080.836
 165  9128.23
 166  8324.225
 167  8416.02
 168  7168.355
 169  6728.32
 170  7790.677
 171  8198.311
 172  7310.743
 173  8544.581
 174  8156.462
 175  8024.633
 176  7446.173
 177  7566.345
 178  7744.084
 179  8176.457
 180  7834.843
 181  7831.501
 182  8812.138
 183  8573.532
 184  7998.852
 185  6988.48
 186  7385.336
 187  7274.861
 188  6876.642
 189  8679.799
 190  7976.706
 191  8397.258
 192  7381.421
 193  7474.543
 194  7002.086
 195  7604.762
 196  7735.875
 197  7192.078
 198  8112.854
 199  8068.419
 200  7739.439
 201  6762.158
 202  7144.309
 203  7275.171
 204  7346.595
 205  7080.101
 206  7806.26
 207  8259.045
 208  8454.312
 209  8491.999
 210  7627.119
 211  8415.023
 212  8556.783
 213  7805.116
 214  8100.344
 215  7723.844
 216  8021.545
 217  7742.458
 218  6986.989
 219  7266.869
 220  7470.09
 221  7264.623
 222  7428.796
 223  7935.259
 224  8653.349
 225  8179.727
 226  7614.534
 227  7944.807
 228  7768.278
 229  7254.393
 230  7677.374
 231  8293.535
 232  8732.72
 233  8006.076
 234  7444.542
 235  7800.991
 236  8383.911
 237  7610.875
 238  8008.942
 239  7485.03
 240  8337.2
 241  8759.895
 242  7299.982
 243  7017.636
 244  7019.422
 245  7895.29
 246  7035.732
 247  6862.228
 248  8161.059
 249  8677.196
 250  7619.328
 251  6077.153
 252  7642.567
 253  7978.091
 254  7728.67
 255  7602.201
