# Input file       =  1180696444.113249_cleaned.dat
# Candidate        =  PSR_0332+5434
# Telescope        =  AR
# Epoch_topo       =  57909.468323070010
# Epoch_bary       =  N/A
# T_sample         =  0.002
# Data Folded      =  7340032
# Data Avg         =  0.112148069431507
# Data StdDev      =  3.23834949236117 
# Profile Bins     =  512
# Profile Avg      =  1607.87584450201 
# Profile StdDev   =  387.737417569562 
# Reduced chi-sqr  =  1.081
# Prob(Noise)      <  0.101   (~1.3 sigma)
# P_topo (ms)      =  714.512582892704  +/- 0.000341
# P'_topo (s/s)    =  -0                +/- 1.8e-10
# P''_topo (s/s^2) =  0                 +/- 7.95e-14
# P_bary (ms)      =  N/A
# P'_bary (s/s)    =  N/A
# P''_bary (s/s^2) =  N/A
# P_orb (s)        =  N/A
# asin(i)/c (s)    =  N/A
# eccentricity     =  N/A
# w (rad)          =  N/A
# T_peri           =  N/A
######################################################
   0  1658.617
   1  1720.262
   2  1805.563
   3  1769.05
   4  1556.199
   5  1549.753
   6  1561.937
   7  1649.133
   8  1777.09
   9  1836.074
  10  1786.235
  11  1525.619
  12  1696.16
  13  2056.064
  14  1894.744
  15  1769.332
  16  1674.359
  17  1772.767
  18  1733.916
  19  1730.37
  20  1918.966
  21  1935.365
  22  1713.339
  23  1653.677
  24  1575.481
  25  1485.978
  26  1777.694
  27  1760.236
  28  1791.94
  29  1729.872
  30  1445.711
  31  1590.681
  32  1683.745
  33  1518.52
  34  1461.752
  35  1585.273
  36  1440.322
  37  917.6463
  38  1137.308
  39  1353.585
  40  1479.433
  41  1554.471
  42  1576.628
  43  1464.814
  44  1584.323
  45  1311.164
  46  1572.662
  47  1511.675
  48  1899.631
  49  1558.357
  50  1251.553
  51  1416.024
  52  1493.973
  53  1935.055
  54  2285.312
  55  2152.904
  56  1859.459
  57  1667.172
  58  1705.098
  59  1456.53
  60  1712.148
  61  1687.304
  62  1626.327
  63  1798.654
  64  2428.568
  65  2345.387
  66  2166.69
  67  1654.048
  68  1495.313
  69  1762.421
  70  1398.281
  71  1493.865
  72  1578.594
  73  1921.679
  74  1838.286
  75  1977.231
  76  1989.056
  77  1686.747
  78  1477.08
  79  1284.692
  80  1560.781
  81  1902.961
  82  1902.507
  83  1698.647
  84  1417.43
  85  1260.815
  86  1308.025
  87  1388.531
  88  1493.429
  89  1599.917
  90  1329.186
  91  1371.749
  92  1464.089
  93  1572.149
  94  1636.171
  95  1452.087
  96  1589.843
  97  1908.201
  98  1848.681
  99  1813.165
 100  1951.153
 101  1748.664
 102  1635.878
 103  1867.532
 104  1974.054
 105  2244.5
 106  1956.083
 107  1543.553
 108  1431.391
 109  1501.742
 110  1470.058
 111  1483.723
 112  1613.281
 113  1706.208
 114  1359.439
 115  1334.769
 116  1421.799
 117  1545.354
 118  1634.744
 119  1491.975
 120  1562.897
 121  1395.507
 122  1365.545
 123  1579.309
 124  1586.654
 125  1669.224
 126  1447.739
 127  1582.532
 128  1651.238
 129  1630.001
 130  1717.901
 131  1838.313
 132  1587.498
 133  1794.206
 134  2089.852
 135  1889.512
 136  1786.606
 137  2204.286
 138  2104.986
 139  2093.737
 140  2274.538
 141  2009.828
 142  2032.649
 143  2398.066
 144  2506.877
 145  2270.422
 146  2021.222
 147  1853.485
 148  1929.822
 149  2148.78
 150  2319.881
 151  2100.428
 152  1885.882
 153  2208.196
 154  1980.088
 155  1637.405
 156  1586.765
 157  1722.32
 158  1734.34
 159  1687.875
 160  2012.438
 161  1990.913
 162  1646.162
 163  1491.897
 164  1696.333
 165  1996.936
 166  2050.794
 167  2076.855
 168  1725.751
 169  1654.629
 170  1356.803
 171  1401.984
 172  1436.391
 173  1516.923
 174  1579.218
 175  1346.206
 176  1285.108
 177  1568.974
 178  1576.556
 179  1371.053
 180  1606.926
 181  1652.354
 182  1666.438
 183  1665.461
 184  1633.268
 185  1693.256
 186  1729.817
 187  1973.944
 188  1880.943
 189  1841.536
 190  1934.922
 191  2048.395
 192  1891.352
 193  1997.328
 194  1860.657
 195  1671.272
 196  1611
 197  1691.881
 198  1473.812
 199  1380.24
 200  1379.007
 201  1592.177
 202  1611.715
 203  1835.632
 204  2063.439
 205  1680.637
 206  1512.106
 207  1525.96
 208  1695.497
 209  1852.373
 210  1943.039
 211  2122.09
 212  1859.158
 213  1724.154
 214  1774.799
 215  1754.617
 216  1939.463
 217  1661.31
 218  2110.385
 219  2229.644
 220  1874.18
 221  1880.995
 222  1876.802
 223  1895.262
 224  1790.934
 225  2097.753
 226  1750.361
 227  1658.688
 228  1418.136
 229  1709.762
 230  1639.06
 231  1848.71
 232  1682.797
 233  1717.873
 234  1764.997
 235  1941.421
 236  1889.127
 237  1689.325
 238  1227.593
 239  1259.262
 240  1516.014
 241  1474.242
 242  965.3413
 243  1261.894
 244  1478.568
 245  1332.764
 246  1362.362
 247  1122.983
 248  1000.288
 249  1200.007
 250  988.5637
 251  872.561
 252  890.2933
 253  1124.163
 254  1672.788
 255  1280.748
 256  1335.585
 257  1300.295
 258  1135.784
 259  1346.094
 260  1302.952
 261  1356.06
 262  1525.829
 263  1470.103
 264  1324.437
 265  1324.738
 266  1070.186
 267  1363.758
 268  1342.919
 269  1165.984
 270  1512.604
 271  1612.274
 272  1022.137
 273  1186.584
 274  1476.917
 275  1535.129
 276  1521.262
 277  1632.186
 278  1506.684
 279  1157.251
 280  946.853
 281  794.5278
 282  816.2568
 283  1096.884
 284  1189.088
 285  1220.473
 286  1064.302
 287  1413.541
 288  1627.841
 289  1556.963
 290  1342.335
 291  1343.485
 292  1293.056
 293  1294.735
 294  1543.987
 295  1644.146
 296  1598.948
 297  1312.411
 298  1397.027
 299  1489.635
 300  1514.516
 301  1189.658
 302  1429.787
 303  1714.177
 304  1557.01
 305  1375.001
 306  1637.781
 307  1531.781
 308  1359.322
 309  1809.538
 310  1873.61
 311  1899.319
 312  2079.854
 313  1859.008
 314  2052.027
 315  2067.499
 316  1836.929
 317  1497.755
 318  1465.531
 319  1684.704
 320  2055.269
 321  1945.932
 322  2036.869
 323  1668.741
 324  1614.265
 325  1891.564
 326  2031.314
 327  2452.973
 328  2557.969
 329  2470.009
 330  2280.499
 331  2102.563
 332  1495.783
 333  1520.346
 334  1597.271
 335  1815.154
 336  1784.287
 337  1440.386
 338  1159.708
 339  1003.565
 340  1202.813
 341  1405.228
 342  1539.189
 343  1711.849
 344  1733.434
 345  1547.214
 346  1396.859
 347  1316.495
 348  1740.84
 349  1609.152
 350  1495.853
 351  1299.91
 352  1284.066
 353  1071.657
 354  1251.403
 355  1303.4
 356  1567.155
 357  1506.805
 358  1907.694
 359  1953.84
 360  1790.297
 361  1853.931
 362  1639.623
 363  1622.656
 364  2051.421
 365  1727.968
 366  1801.057
 367  1628.049
 368  1565.946
 369  1846.228
 370  1808.079
 371  1887.442
 372  1383.878
 373  1427.28
 374  1736.01
 375  1492.985
 376  1518.119
 377  1425.148
 378  1728.315
 379  1413.482
 380  1266.323
 381  1160.716
 382  1557.211
 383  1759.729
 384  1430.13
 385  1301.952
 386  1296.293
 387  1446.257
 388  1527.991
 389  1391.297
 390  1527.919
 391  1247.859
 392  1141.466
 393  1353.84
 394  1364.137
 395  1012.779
 396  1383.324
 397  1377.527
 398  1644.145
 399  1600.455
 400  1666.868
 401  1777.196
 402  1490.779
 403  1762.259
 404  1613.412
 405  1459.567
 406  1801.728
 407  1612.234
 408  1384.633
 409  1720.758
 410  1790.653
 411  1570.505
 412  1409.108
 413  1722.817
 414  1310.094
 415  1085.521
 416  1446.487
 417  1279.349
 418  1238.954
 419  1428.149
 420  1202.249
 421  1081.429
 422  979.2312
 423  1194.131
 424  1428.522
 425  1475.936
 426  1225.809
 427  1480.438
 428  1248.23
 429  1224.882
 430  1459.304
 431  1315.134
 432  1340.925
 433  1315.161
 434  1496.501
 435  1545.416
 436  1308.431
 437  1923.907
 438  2159.242
 439  1633.298
 440  1753.96
 441  1892.783
 442  1617.546
 443  1616.578
 444  1521.579
 445  1757.258
 446  1765.474
 447  1778.367
 448  1998.668
 449  1709.642
 450  1638.615
 451  1414.674
 452  1547.91
 453  1567.395
 454  1748.757
 455  1547.706
 456  1598.117
 457  1518.92
 458  1546.987
 459  1631.348
 460  1233.81
 461  1369.232
 462  1473.048
 463  1206.996
 464  1313.197
 465  1646.927
 466  1274.969
 467  1398.376
 468  1406.779
 469  787.9417
 470  934.7128
 471  1261.842
 472  1549.473
 473  1721.227
 474  1271.242
 475  1289.45
 476  1390.639
 477  1336.206
 478  1530.256
 479  1368.876
 480  1462.87
 481  1572.562
 482  1873.738
 483  1759.288
 484  1698.242
 485  1811.13
 486  2204.724
 487  1893.487
 488  1878.494
 489  1923.082
 490  1984.988
 491  1637.311
 492  1817.453
 493  1793.137
 494  1512.113
 495  1442.087
 496  1556.999
 497  1538.445
 498  1663.148
 499  1410.788
 500  1452.092
 501  1561.657
 502  1575.54
 503  1910.912
 504  1950.071
 505  1493.794
 506  1442.781
 507  1578.741
 508  1819.6
 509  1558.524
 510  1446.071
 511  1514.025
