# Input file       =  1180063718.097963_cleaned.dat
# Candidate        =  PSR_0332+5434
# Telescope        =  AR
# Epoch_topo       =  57902.145105300500
# Epoch_bary       =  N/A
# T_sample         =  0.002
# Data Folded      =  7208960
# Data Avg         =  0.137491057732735
# Data StdDev      =  4.15073317661177 
# Profile Bins     =  1024
# Profile Avg      =  967.965031098337 
# Profile StdDev   =  348.266054561906 
# Reduced chi-sqr  =  0.766
# Prob(Noise)      <  1   (~0.0 sigma)
# P_topo (ms)      =  714.519373445561  +/- 4.8e-05
# P'_topo (s/s)    =  -0                +/- 2.58e-11
# P''_topo (s/s^2) =  0                 +/- 1.16e-14
# P_bary (ms)      =  N/A
# P'_bary (s/s)    =  N/A
# P''_bary (s/s^2) =  N/A
# P_orb (s)        =  N/A
# asin(i)/c (s)    =  N/A
# eccentricity     =  N/A
# w (rad)          =  N/A
# T_peri           =  N/A
######################################################
   0  766.2833
   1  743.7134
   2  805.7776
   3  803.6751
   4  686.2145
   5  539.4473
   6  725.4466
   7  841.8828
   8  834.8332
   9  923.3051
  10  813.0872
  11  919.4752
  12  989.5045
  13  1108.816
  14  970.3716
  15  759.4167
  16  743.1604
  17  857.2682
  18  907.5451
  19  846.5486
  20  871.7809
  21  912.8365
  22  942.5007
  23  916.9536
  24  888.0472
  25  1002.228
  26  1081.011
  27  1123.939
  28  1047.183
  29  998.0386
  30  953.3308
  31  915.7099
  32  801.5204
  33  637.7784
  34  461.4556
  35  329.7898
  36  460.9041
  37  541.4757
  38  569.2
  39  687.0161
  40  940.462
  41  1074.384
  42  902.4824
  43  910.6044
  44  950.3926
  45  1052.033
  46  931.8736
  47  891.5286
  48  808.1494
  49  692.0562
  50  633.4005
  51  639.8463
  52  728.7609
  53  715.2245
  54  826.9109
  55  979.5222
  56  1036.911
  57  952.2183
  58  1049.12
  59  1148.569
  60  1117.421
  61  1072.951
  62  1066.505
  63  1077.318
  64  935.6675
  65  951.1771
  66  1034.931
  67  990.939
  68  684.0559
  69  618.3344
  70  589.3928
  71  636.3448
  72  730.3532
  73  864.3793
  74  934.1262
  75  851.4788
  76  858.9462
  77  838.5938
  78  767.097
  79  672.2731
  80  723.8737
  81  897.8391
  82  950.7612
  83  878.6171
  84  801.0314
  85  785.7842
  86  757.864
  87  796.9206
  88  780.464
  89  786.1137
  90  1017.26
  91  1175.993
  92  1184.422
  93  980.1892
  94  946.0494
  95  958.1608
  96  863.7379
  97  700.6757
  98  658.9902
  99  646.2711
 100  693.6313
 101  693.4931
 102  641.8457
 103  611.7844
 104  760.2563
 105  850.8009
 106  956.2023
 107  818.1506
 108  960.2378
 109  1048.826
 110  1123.654
 111  1003.57
 112  927.3334
 113  922.0901
 114  957.122
 115  1023.075
 116  1053.84
 117  917.6066
 118  815.0342
 119  874.9575
 120  997.3154
 121  938.6137
 122  1013.183
 123  983.6068
 124  1126.825
 125  1031.226
 126  1161.238
 127  1098.411
 128  1051.685
 129  857.8658
 130  770.8224
 131  778.9506
 132  850.2841
 133  832.6387
 134  706.1901
 135  675.2936
 136  777.9948
 137  952.6669
 138  907.317
 139  892.7833
 140  888.4455
 141  952.1537
 142  1005.51
 143  949.2516
 144  1049.553
 145  1118.407
 146  1127.797
 147  957.5655
 148  598.2545
 149  696.8696
 150  892.7639
 151  1116.708
 152  1019.552
 153  897.6851
 154  909.4059
 155  967.4384
 156  1012.678
 157  980.7562
 158  995.0198
 159  1131.608
 160  1157.583
 161  1035.684
 162  957.8636
 163  876.7206
 164  886.7006
 165  876.6357
 166  764.7137
 167  678.9257
 168  625.5848
 169  841.0724
 170  882.0298
 171  871.5031
 172  851.4018
 173  984.6385
 174  1088.73
 175  1064.192
 176  941.9362
 177  866.4191
 178  947.8776
 179  1017.622
 180  1047.25
 181  948.6318
 182  1025.885
 183  965.1585
 184  917.5361
 185  861.441
 186  807.1724
 187  948.476
 188  1094.094
 189  1098.231
 190  977.0964
 191  1014.112
 192  1097.511
 193  1023.886
 194  925.6824
 195  983.8591
 196  1035.556
 197  1005.446
 198  871.1179
 199  720.2888
 200  642.7837
 201  549.4041
 202  640.1453
 203  622.765
 204  629.5209
 205  618.4052
 206  785.388
 207  1017.976
 208  1162.25
 209  1155.548
 210  1151.962
 211  1146.719
 212  1045.376
 213  861.7217
 214  792.8892
 215  889.0797
 216  930.8676
 217  939.7571
 218  923.5901
 219  861.1977
 220  951.5179
 221  1028.432
 222  1165.474
 223  1104.32
 224  1041.958
 225  1142.427
 226  1132.667
 227  1055.44
 228  1113.573
 229  1193.343
 230  1229.23
 231  1141.896
 232  1011.973
 233  887.3304
 234  691.9411
 235  633.3685
 236  740.3695
 237  858.8238
 238  973.6171
 239  909.6106
 240  1022.426
 241  1049.462
 242  1096.04
 243  1101.636
 244  1004.605
 245  963.1987
 246  1037.627
 247  1106.698
 248  949.2421
 249  822.8976
 250  916.2052
 251  1056.872
 252  1209.219
 253  1194.515
 254  1187.225
 255  1035.875
 256  1010.083
 257  1018.708
 258  1000.173
 259  949.9014
 260  890.8847
 261  932.8318
 262  756.8916
 263  715.1912
 264  641.419
 265  722.2181
 266  871.4808
 267  810.5118
 268  735.5452
 269  673.2561
 270  952.0327
 271  1073.779
 272  953.4459
 273  734.9044
 274  760.7925
 275  1056.571
 276  1141.647
 277  1021.182
 278  836.8458
 279  937.4141
 280  1079.525
 281  1101.99
 282  1139.741
 283  1198.452
 284  1183.825
 285  1150.562
 286  1038.073
 287  1026.441
 288  1064.326
 289  1154.251
 290  1249.27
 291  1115.647
 292  1166.23
 293  1091.469
 294  1126.018
 295  1057.447
 296  997.0822
 297  1103.06
 298  1153.766
 299  1069.735
 300  857.9342
 301  746.7402
 302  920.9346
 303  958.4882
 304  991.7644
 305  936.1043
 306  1048.797
 307  1028.106
 308  1036.887
 309  902.5295
 310  952.0784
 311  942.9954
 312  1025.54
 313  985.7919
 314  882.389
 315  768.8967
 316  717.9769
 317  696.2828
 318  797.1448
 319  928.0372
 320  1152.421
 321  1387.35
 322  1376.308
 323  1294.658
 324  1098.454
 325  1186.831
 326  1280.299
 327  1294.096
 328  1081.344
 329  915.3931
 330  793.0452
 331  796.5065
 332  751.2872
 333  707.5213
 334  656.8151
 335  834.1865
 336  1048.79
 337  1147.395
 338  1181.579
 339  1177.928
 340  1300.558
 341  1292.968
 342  1190.992
 343  1171.405
 344  1139.433
 345  1074.628
 346  879.9218
 347  859.14
 348  893.0519
 349  848.9279
 350  785.7022
 351  812.3409
 352  766.8215
 353  842.2905
 354  901.9875
 355  1101.637
 356  1106.847
 357  1120.775
 358  1295.238
 359  1302.465
 360  1109.414
 361  904.3785
 362  1009.857
 363  1001.598
 364  829.2089
 365  746.5302
 366  815.4803
 367  850.6479
 368  665.2747
 369  631.29
 370  645.6276
 371  736.5473
 372  802.6354
 373  976.2668
 374  860.2941
 375  854.7632
 376  934.6063
 377  1045.781
 378  965.8925
 379  918.655
 380  991.8127
 381  1023.97
 382  994.31
 383  923.2968
 384  960.6373
 385  1019.53
 386  956.1847
 387  965.1904
 388  928.1891
 389  940.6726
 390  1080.524
 391  1209.279
 392  1171.025
 393  1100.9
 394  1105.108
 395  1002.937
 396  885.3285
 397  774.1395
 398  723.7546
 399  797.1461
 400  920.2924
 401  1072.932
 402  1040.108
 403  899.3268
 404  856.4101
 405  859.9518
 406  876.5547
 407  789.2362
 408  940.1156
 409  1062.702
 410  1073.79
 411  962.666
 412  843.4168
 413  804.418
 414  830.8811
 415  970.6407
 416  1039.321
 417  957.4171
 418  934.813
 419  945.1691
 420  898.5674
 421  888.3826
 422  962.0891
 423  1168.093
 424  1175.765
 425  1088.132
 426  1030.599
 427  1037.628
 428  1081.456
 429  1024.973
 430  1024.815
 431  899.9261
 432  887.2847
 433  847.95
 434  967.3708
 435  945.0624
 436  752.5557
 437  686.1854
 438  731.6985
 439  866.789
 440  914.9863
 441  1001.255
 442  1027.146
 443  1094.515
 444  1194.852
 445  1333.628
 446  1320.803
 447  1178.139
 448  1115.943
 449  1050.933
 450  1101.064
 451  1081.853
 452  1153.063
 453  1099.053
 454  1156.588
 455  1121.028
 456  1169.812
 457  1079.819
 458  1095.474
 459  1005.283
 460  900.0018
 461  810.5432
 462  726.4686
 463  663.0695
 464  707.1958
 465  863.735
 466  974.1137
 467  842.2288
 468  866.6809
 469  983.711
 470  994.2599
 471  1043.33
 472  1026.463
 473  1225.032
 474  1202.505
 475  1176.976
 476  1130.006
 477  1121.353
 478  1124.838
 479  1120.323
 480  1004.568
 481  986.2874
 482  930.6199
 483  974.5588
 484  1052.338
 485  1179.203
 486  1127.889
 487  1117.462
 488  1300.889
 489  1243.72
 490  1034.505
 491  979.5102
 492  1130.409
 493  1172.967
 494  946.7853
 495  794.0563
 496  795.5355
 497  783.5045
 498  697.6781
 499  714.392
 500  878.5536
 501  981.0927
 502  847.0838
 503  882.0969
 504  826.2009
 505  953.1722
 506  1178.01
 507  1180
 508  1052.235
 509  959.7914
 510  1172.625
 511  1201.847
 512  1071.443
 513  907.5754
 514  946.7444
 515  906.3944
 516  745.7828
 517  827.5768
 518  974.8734
 519  1168.434
 520  1122.329
 521  1187.231
 522  1173.665
 523  1249.117
 524  1269.221
 525  1364.023
 526  1305.746
 527  1247.854
 528  1098.276
 529  1102.183
 530  996.1951
 531  884.6761
 532  811.7617
 533  849.8712
 534  978.2985
 535  944.8278
 536  991.3678
 537  1016.614
 538  1152.4
 539  1220.681
 540  1252.069
 541  1355.611
 542  1401.274
 543  1368.119
 544  1235.251
 545  1028.192
 546  1070.423
 547  1168.569
 548  1272.368
 549  1259.722
 550  1105.844
 551  1090.826
 552  1122.234
 553  1245.241
 554  1103.107
 555  1063.966
 556  1085.778
 557  1040.593
 558  921.8986
 559  846.613
 560  873.2126
 561  997.8633
 562  865.4675
 563  659.8057
 564  508.5765
 565  549.7529
 566  775.6013
 567  827.6083
 568  906.4142
 569  811.6546
 570  918.7905
 571  959.8073
 572  875.504
 573  900.3416
 574  1029.961
 575  1136.432
 576  1071.018
 577  921.6516
 578  850.3925
 579  983.9295
 580  980.0061
 581  1003.407
 582  951.9715
 583  944.9349
 584  1002.119
 585  893.8832
 586  848.3189
 587  777.5797
 588  955.3187
 589  1054.315
 590  1109.948
 591  924.7521
 592  803.3904
 593  855.6461
 594  912.6679
 595  908.3072
 596  766.9886
 597  783.8224
 598  920.723
 599  1076.178
 600  952.2932
 601  843.59
 602  791.339
 603  874.6087
 604  865.3051
 605  694.0513
 606  747.4476
 607  801.4296
 608  1069.236
 609  1148.011
 610  1246.57
 611  1182.379
 612  1104.222
 613  967.252
 614  809.5848
 615  965.1083
 616  1120.953
 617  1189.464
 618  1196.932
 619  1058.772
 620  1128.626
 621  1118.432
 622  1199.615
 623  1076.817
 624  1007.718
 625  1050.247
 626  1056.468
 627  1085.781
 628  929.2125
 629  908.5104
 630  899.9317
 631  981.5635
 632  920.3431
 633  988.9566
 634  1036.877
 635  1000.053
 636  968.291
 637  996.1198
 638  1136.395
 639  1212.236
 640  1252.879
 641  1133.726
 642  1013.931
 643  1015.146
 644  1158.132
 645  1167.956
 646  1041.816
 647  930.8661
 648  1006.814
 649  1032.713
 650  1052.659
 651  1148.847
 652  1321.162
 653  1223.132
 654  1186.408
 655  1023.812
 656  1080.168
 657  1075.102
 658  1106.996
 659  1031.849
 660  890.1364
 661  960.9821
 662  979.9028
 663  924.0966
 664  763.5929
 665  778.4246
 666  885.9973
 667  1001.045
 668  838.5804
 669  705.7916
 670  793.8315
 671  900.0031
 672  917.5582
 673  867.5766
 674  880.3229
 675  797.9569
 676  814.4841
 677  936.1314
 678  849.7007
 679  850.6191
 680  912.14
 681  968.4869
 682  953.4741
 683  805.9328
 684  835.6217
 685  956.229
 686  1052.929
 687  1033.018
 688  1021.683
 689  1042.087
 690  1045.988
 691  983.5474
 692  969.2989
 693  793.4648
 694  836.7491
 695  932.2806
 696  982.8042
 697  849.0198
 698  678.5212
 699  777.6926
 700  842.7197
 701  894.0378
 702  802.6292
 703  872.4058
 704  1048.549
 705  1100.297
 706  1104.229
 707  997.0853
 708  1012.682
 709  997.0899
 710  1020.997
 711  946.9233
 712  1039.059
 713  968.4787
 714  939.8492
 715  929.1935
 716  1002.51
 717  1197.376
 718  1284.14
 719  1306.056
 720  1197.637
 721  1191.744
 722  1249.2
 723  1194.885
 724  992.134
 725  837.5778
 726  823.498
 727  854.4433
 728  881.4357
 729  756.5905
 730  696.1273
 731  714.8588
 732  862.2117
 733  967.2105
 734  1005.332
 735  1083.301
 736  989.0067
 737  1019.774
 738  909.9301
 739  975.068
 740  1096.339
 741  1195.629
 742  1307.403
 743  1130.166
 744  1112.156
 745  1000.256
 746  1159.617
 747  1207.768
 748  1164.261
 749  1085.573
 750  1114.472
 751  1192.754
 752  1256.634
 753  1319.564
 754  1417.889
 755  1524.783
 756  1546.009
 757  1452.065
 758  1383.854
 759  1245.294
 760  1371.415
 761  1288.371
 762  1216.411
 763  1046.247
 764  1014.399
 765  940.161
 766  822.6807
 767  866.688
 768  995.8247
 769  910.6427
 770  819.3951
 771  836.8618
 772  887.927
 773  987.1457
 774  965.2514
 775  1084.793
 776  1097.112
 777  1062.815
 778  1089.463
 779  1076.139
 780  1061.915
 781  1053.819
 782  1026.452
 783  1113.744
 784  1095.999
 785  1217.878
 786  1213.705
 787  1194.969
 788  1149.186
 789  1081.117
 790  1031.954
 791  991.774
 792  955.5439
 793  951.1387
 794  801.2446
 795  737.5163
 796  841.4641
 797  929.3486
 798  1014.808
 799  958.7549
 800  1086.968
 801  1053.186
 802  1044.846
 803  1084.069
 804  1147.795
 805  1161.152
 806  1210.564
 807  1262.794
 808  1180.021
 809  1079.445
 810  1022.107
 811  1078.917
 812  1070.395
 813  1073.518
 814  1127.874
 815  1158.052
 816  1236.712
 817  1255.628
 818  1265.612
 819  1209.973
 820  1114.232
 821  1088.359
 822  1115.306
 823  1006.127
 824  933.6681
 825  859.8313
 826  793.0804
 827  720.1995
 828  635.1654
 829  916.2709
 830  979.7848
 831  905.662
 832  850.5242
 833  966.2466
 834  1028.829
 835  1029.264
 836  1050.651
 837  1154.032
 838  1054.207
 839  952.6307
 840  807.3568
 841  794.7892
 842  781.0281
 843  892.639
 844  794.4503
 845  818.3453
 846  713.8034
 847  875.501
 848  973.2954
 849  999.7657
 850  958.2963
 851  1027.094
 852  1194.353
 853  1348.389
 854  1162.02
 855  1080.094
 856  955.1512
 857  963.1841
 858  883.4036
 859  812.4216
 860  731.3694
 861  695.5225
 862  724.9656
 863  753.3414
 864  733.2533
 865  757.0789
 866  790.5573
 867  953.7849
 868  1020.594
 869  1014.24
 870  1153.06
 871  1183.872
 872  1090.534
 873  970.8727
 874  1015.397
 875  989.4917
 876  926.0482
 877  920.938
 878  1052.326
 879  1046.532
 880  1022.126
 881  968.6065
 882  1089.866
 883  1239.153
 884  1241.285
 885  1194.879
 886  1021.35
 887  978.2177
 888  1030.965
 889  897.9959
 890  746.8283
 891  599.1385
 892  695.6896
 893  851.5317
 894  888.0249
 895  845.9553
 896  722.43
 897  785.0571
 898  926.4326
 899  941.3824
 900  881.4763
 901  892.3966
 902  1019.606
 903  1077.967
 904  857.9055
 905  769.3654
 906  802.0868
 907  911.7309
 908  920.2397
 909  960.7448
 910  918.0109
 911  939.8365
 912  972.403
 913  947.9083
 914  881.8771
 915  823.2314
 916  916.6205
 917  1053.917
 918  1081.098
 919  1050.249
 920  1010.488
 921  954.3234
 922  968.3578
 923  894.2173
 924  958.5229
 925  874.4664
 926  871.5751
 927  711.2944
 928  665.438
 929  617.3579
 930  704.4344
 931  915.6729
 932  945.0283
 933  905.0215
 934  920.0281
 935  1096.882
 936  1031.452
 937  905.5194
 938  885.306
 939  1044.155
 940  1087.199
 941  1022.054
 942  1027.612
 943  968.6736
 944  890.2479
 945  823.3494
 946  793.7093
 947  814.1727
 948  877.4136
 949  1021.554
 950  960.1108
 951  879.2534
 952  1012.254
 953  1211.131
 954  1146.116
 955  984.8129
 956  861.8986
 957  920.0867
 958  879.1309
 959  823.0303
 960  770.9455
 961  704.1795
 962  768.0378
 963  912.0287
 964  934.4219
 965  894.0114
 966  979.0001
 967  1123.209
 968  988.2427
 969  863.8602
 970  916.2866
 971  1058.907
 972  1041.463
 973  928.6433
 974  801.3676
 975  779.129
 976  813.7664
 977  868.2292
 978  877.931
 979  826.6699
 980  1061.956
 981  1333.411
 982  1448.277
 983  1339.263
 984  1213.765
 985  1204.837
 986  1186.379
 987  1125.184
 988  1053.85
 989  841.049
 990  632.6816
 991  443.9574
 992  383.3379
 993  431.4558
 994  566.8722
 995  836.7882
 996  903.8507
 997  936.5207
 998  947.9649
 999  1069.861
1000  1247.44
1001  1277.119
1002  1201.927
1003  1123.723
1004  1036.433
1005  1042.278
1006  955.283
1007  952.3243
1008  971.5874
1009  1062.582
1010  899.202
1011  921.1391
1012  855.144
1013  964.6985
1014  975.0742
1015  1106.374
1016  1110.328
1017  1041.29
1018  1147.06
1019  1170.409
1020  1163.745
1021  979.8665
1022  890.2517
1023  903.2729
