# Input file       =  1180078345.096534_cleaned.dat
# Candidate        =  PSR_0332+5434
# Telescope        =  AR
# Epoch_topo       =  57902.314399265437
# Epoch_bary       =  N/A
# T_sample         =  0.002
# Data Folded      =  7340032
# Data Avg         =  0.0861688873067448
# Data StdDev      =  2.69102269268333 
# Profile Bins     =  512
# Profile Avg      =  1235.36989558761 
# Profile StdDev   =  322.204317953756 
# Reduced chi-sqr  =  1.117
# Prob(Noise)      <  0.0342   (~1.8 sigma)
# P_topo (ms)      =  714.519218006156  +/- 0.000226
# P'_topo (s/s)    =  -0                +/- 1.19e-10
# P''_topo (s/s^2) =  0                 +/- 5.27e-14
# P_bary (ms)      =  N/A
# P'_bary (s/s)    =  N/A
# P''_bary (s/s^2) =  N/A
# P_orb (s)        =  N/A
# asin(i)/c (s)    =  N/A
# eccentricity     =  N/A
# w (rad)          =  N/A
# T_peri           =  N/A
######################################################
   0  1386.996
   1  1470.348
   2  1634.664
   3  1776.208
   4  1558.866
   5  1508.687
   6  1407.413
   7  1013.234
   8  681.1141
   9  1151.3
  10  1508.523
  11  1308.06
  12  776.0453
  13  1374.546
  14  1454.77
  15  1192.446
  16  1099.15
  17  1630.556
  18  1451.943
  19  1180.844
  20  1027.287
  21  1307.653
  22  1336.721
  23  1246.751
  24  1510.86
  25  1446.424
  26  1374.462
  27  1102.914
  28  1279.262
  29  1388.849
  30  1456.546
  31  1436.559
  32  1299.128
  33  1412.201
  34  1285.918
  35  1322.903
  36  1078.917
  37  1069.807
  38  1105.2
  39  1170.851
  40  1335.875
  41  1325.461
  42  1247.054
  43  1075.988
  44  1018.177
  45  1079.112
  46  1156.697
  47  1087.75
  48  1630.502
  49  1500.916
  50  1432.401
  51  1389.549
  52  1430.785
  53  1174.213
  54  1156.707
  55  1337.358
  56  1688.081
  57  1667.263
  58  1280.7
  59  1180.516
  60  1328.1
  61  1301.122
  62  1387.058
  63  1439.396
  64  1528.302
  65  1449.465
  66  1548.084
  67  1182.5
  68  1403.238
  69  1511.075
  70  1339.107
  71  1294.536
  72  1310.566
  73  1039.315
  74  1019.156
  75  1543.405
  76  1506.85
  77  1670.207
  78  1315.912
  79  1578.321
  80  1638.516
  81  1481.078
  82  1189.881
  83  1047.989
  84  1155.273
  85  859.064
  86  1189.216
  87  1060.934
  88  1092.739
  89  954.6365
  90  1176.692
  91  1291.782
  92  1292.624
  93  1467.827
  94  1451.831
  95  1529.773
  96  2160.404
  97  2525.332
  98  2722.165
  99  2768.077
 100  2677.912
 101  1862.974
 102  1300.183
 103  1310.03
 104  1520.067
 105  1600.975
 106  1208.301
 107  1186.707
 108  1374.007
 109  1163.077
 110  965.7711
 111  912.4264
 112  1224.267
 113  1468.818
 114  1485.985
 115  1495.839
 116  1336.579
 117  1624.225
 118  1361.161
 119  1018.778
 120  1007.319
 121  686.9879
 122  1007.786
 123  1435.075
 124  1221.414
 125  1367.562
 126  1323.264
 127  833.0049
 128  958.0131
 129  1279.366
 130  1184.635
 131  1121.543
 132  1249.672
 133  1390.628
 134  1112.301
 135  1302.242
 136  1457.932
 137  1177.712
 138  1321.652
 139  1272.017
 140  1188.63
 141  871.063
 142  982.7437
 143  1104.297
 144  1092.635
 145  913.0509
 146  944.7369
 147  977.1049
 148  962.1362
 149  1012.216
 150  1107.553
 151  833.8196
 152  847.745
 153  962.6519
 154  944.7667
 155  976.9937
 156  1091.049
 157  1177.727
 158  1165.281
 159  1098.078
 160  1062.926
 161  1083.132
 162  1030.842
 163  914.4177
 164  1012.407
 165  998.278
 166  1136.357
 167  1294.711
 168  1110.172
 169  1277.763
 170  1795.846
 171  1450.459
 172  1444.085
 173  1457.61
 174  1343.729
 175  1479.956
 176  1133.183
 177  1301.505
 178  1482.613
 179  1264.586
 180  967.1755
 181  1005.285
 182  1307.967
 183  1095.716
 184  892.4628
 185  1274.962
 186  1236.387
 187  978.6984
 188  992.2452
 189  1487.797
 190  1507.26
 191  1135.342
 192  1378.603
 193  1227.827
 194  1287.041
 195  1402.421
 196  1477.421
 197  1429.799
 198  1214.493
 199  1306.125
 200  1293.716
 201  1297.823
 202  1369.017
 203  1496.133
 204  1413.602
 205  1396.944
 206  1356.288
 207  1417.503
 208  1489.827
 209  1448.623
 210  1337.63
 211  1001.505
 212  1249.665
 213  1299.64
 214  1184.314
 215  1264.44
 216  1271.594
 217  1190.979
 218  1069.532
 219  1190.268
 220  1221.085
 221  1210.995
 222  1371.154
 223  1223.376
 224  867.3037
 225  1134.164
 226  1267.188
 227  1324.076
 228  1172.095
 229  1080.973
 230  1178.973
 231  1108.434
 232  1003.599
 233  1064.542
 234  1336.423
 235  1023.578
 236  1035.539
 237  1193.802
 238  1169.317
 239  1345.757
 240  1358.777
 241  1385.756
 242  1262.217
 243  1229.377
 244  1196.781
 245  1171.773
 246  1190.116
 247  1131.082
 248  955.3243
 249  1216.761
 250  1102.511
 251  1014.437
 252  798.1646
 253  838.0675
 254  985.0213
 255  1111.861
 256  857.2518
 257  684.8668
 258  1094.712
 259  1141.394
 260  1201.815
 261  1389.722
 262  1366.724
 263  1089.865
 264  905.4238
 265  1024.633
 266  1517.875
 267  1390.475
 268  1115.952
 269  994.8249
 270  947.4794
 271  1138.241
 272  1200.151
 273  1495.686
 274  1369.607
 275  1246.512
 276  1342.203
 277  1133.342
 278  1315.945
 279  1243.544
 280  1541.943
 281  1272.522
 282  887.3294
 283  1163.135
 284  1118.312
 285  1021.328
 286  910.8932
 287  1173.931
 288  1190.855
 289  1152.496
 290  682.0125
 291  940.612
 292  929.7595
 293  550.2971
 294  770.0748
 295  907.7986
 296  944.2169
 297  809.7219
 298  1165.326
 299  880.4305
 300  683.8595
 301  1081.397
 302  1200.885
 303  1215.116
 304  1155.09
 305  992.6015
 306  1274.264
 307  1249.449
 308  1010.651
 309  1159.439
 310  1369.571
 311  1340.388
 312  1293.023
 313  1247.161
 314  1180.694
 315  1253.423
 316  1170.628
 317  1020.867
 318  1300.062
 319  1406.154
 320  1024.5
 321  1282.42
 322  1388.398
 323  1100.297
 324  1220.432
 325  1264.299
 326  1183.821
 327  1155.008
 328  1016.594
 329  1138.984
 330  1075.899
 331  1218.232
 332  1186.596
 333  945.0551
 334  1220.53
 335  1201.626
 336  804.1436
 337  1325.195
 338  1330.583
 339  1468.478
 340  1421.023
 341  1172.954
 342  1048.896
 343  1203.927
 344  991.09
 345  1100.818
 346  1485.465
 347  1196.082
 348  1075.275
 349  908.3778
 350  1206.147
 351  1041.808
 352  1440.005
 353  1490.883
 354  1358.309
 355  1183.728
 356  1191.854
 357  1262.545
 358  1341.106
 359  1180.83
 360  1087.781
 361  1204.402
 362  1071.054
 363  982.8353
 364  865.879
 365  1075.376
 366  1161.007
 367  1126.553
 368  921.3599
 369  904.9106
 370  1379.026
 371  1499.344
 372  1003.549
 373  1146.345
 374  1193.954
 375  1283.839
 376  1098.226
 377  899.898
 378  1267.736
 379  1180.564
 380  1432.364
 381  1161.932
 382  1019.909
 383  998.1102
 384  968.4678
 385  1197.124
 386  1218.409
 387  1289.07
 388  1340.982
 389  960.0679
 390  835.6904
 391  899.2602
 392  1149.176
 393  1067.62
 394  1003.175
 395  1401.265
 396  1082.14
 397  866.7095
 398  1141.666
 399  1212.881
 400  852.3674
 401  1357.348
 402  1029.137
 403  1265.287
 404  1572.798
 405  1521.059
 406  1769.988
 407  1298.002
 408  1453.428
 409  1996.664
 410  1662.273
 411  1468.379
 412  1520.038
 413  1472.425
 414  1370.664
 415  1239.057
 416  1156.849
 417  1201.185
 418  1134.937
 419  1251.651
 420  1444.262
 421  1541.386
 422  1261.757
 423  1087.165
 424  1259.843
 425  1314.194
 426  1308.331
 427  1252.197
 428  1374.698
 429  1537.263
 430  1403.804
 431  979.6619
 432  745.1561
 433  974.1417
 434  1080.442
 435  1262.247
 436  1153.482
 437  1105.748
 438  915.001
 439  1147.61
 440  1385.731
 441  1318.541
 442  1173.036
 443  1229.428
 444  1267.19
 445  1720.778
 446  1661.721
 447  1328.746
 448  1144.615
 449  1170.985
 450  1077.082
 451  926.3807
 452  946.7576
 453  1143.83
 454  1064.962
 455  1121.947
 456  998.652
 457  1132.93
 458  1221.66
 459  1120.412
 460  1223.521
 461  1246.414
 462  1356.612
 463  1033.53
 464  1131.945
 465  1259.946
 466  981.3867
 467  1158.369
 468  1324.86
 469  1352.774
 470  1153.519
 471  1207.927
 472  1186.374
 473  1344.324
 474  1493.853
 475  1351.595
 476  1390.737
 477  1411.776
 478  1295.668
 479  1198.081
 480  1460.101
 481  1435.928
 482  1115.335
 483  1258.321
 484  1191.54
 485  1222.61
 486  1246.302
 487  1351.94
 488  1552.555
 489  1494.474
 490  1406.162
 491  1187.212
 492  1131.393
 493  1275.203
 494  1154.682
 495  1356.371
 496  1332.236
 497  1377.501
 498  1311.554
 499  1237.333
 500  1199.361
 501  1365.183
 502  1354.62
 503  1507.845
 504  1409.556
 505  1214.178
 506  922.456
 507  1130.185
 508  1770.494
 509  1519.262
 510  1162.1
 511  1343.915
