# Input file       =  1180509204.106537_cleaned.dat
# Candidate        =  PSR_0332+5434
# Telescope        =  AR
# Epoch_topo       =  57907.301193362699
# Epoch_bary       =  N/A
# T_sample         =  0.002
# Data Folded      =  7340032
# Data Avg         =  0.100694056288505
# Data StdDev      =  3.20226991465608 
# Profile Bins     =  512
# Profile Avg      =  1443.3251247927  
# Profile StdDev   =  383.417500179741 
# Reduced chi-sqr  =  0.914
# Prob(Noise)      <  0.918   (~0.0 sigma)
# P_topo (ms)      =  714.514342799241  +/- 0.000491
# P'_topo (s/s)    =  -0                +/- 2.59e-10
# P''_topo (s/s^2) =  0                 +/- 1.14e-13
# P_bary (ms)      =  N/A
# P'_bary (s/s)    =  N/A
# P''_bary (s/s^2) =  N/A
# P_orb (s)        =  N/A
# asin(i)/c (s)    =  N/A
# eccentricity     =  N/A
# w (rad)          =  N/A
# T_peri           =  N/A
######################################################
   0  1072.125
   1  1360.626
   2  1536.625
   3  1374.728
   4  1431.395
   5  1182.794
   6  1207.726
   7  1262.931
   8  1540.348
   9  1288.363
  10  1322.931
  11  1301.043
  12  1504.608
  13  1380.205
  14  1271.015
  15  1305.816
  16  1414.997
  17  1293.555
  18  1448.926
  19  1326.549
  20  1354.563
  21  1260.399
  22  1395.621
  23  1396.786
  24  1186.23
  25  1261.938
  26  1591.324
  27  1250.866
  28  1115.469
  29  1092.521
  30  1213.472
  31  1225.428
  32  1186.892
  33  1271.133
  34  1302.411
  35  1320.624
  36  1552.206
  37  1838.849
  38  1565.488
  39  1496.55
  40  1422.988
  41  1603.307
  42  1701.688
  43  1231.642
  44  1215.964
  45  1227.974
  46  1188.617
  47  1370.37
  48  1298.09
  49  1199.58
  50  985.4178
  51  977.0932
  52  1089.327
  53  1108.469
  54  1356.694
  55  1377.653
  56  1183.216
  57  1096.993
  58  1153.824
  59  1255.572
  60  1122.044
  61  1060.02
  62  1056.429
  63  1076.005
  64  897.9808
  65  1294.489
  66  1165.439
  67  1026.907
  68  1079.553
  69  994.337
  70  1088.745
  71  960.0563
  72  1059.921
  73  1095.522
  74  1187.781
  75  1259.65
  76  1392.349
  77  1106.019
  78  1150.633
  79  1146.68
  80  1154.165
  81  1423.594
  82  1286.436
  83  1359.333
  84  1393.562
  85  1290.022
  86  1225.517
  87  1307.204
  88  1320.936
  89  1308.418
  90  1727.656
  91  1347.82
  92  1051.391
  93  1178.152
  94  1134.946
  95  1241.966
  96  1103.514
  97  1298.551
  98  1287.993
  99  881.4219
 100  1225.006
 101  1411.317
 102  1435.465
 103  1292.133
 104  916.7534
 105  1083.441
 106  1149.766
 107  1128.666
 108  1320.289
 109  1137.2
 110  1326.674
 111  1242.152
 112  1235.632
 113  1145.097
 114  1109.221
 115  970.0762
 116  1208.08
 117  1093.516
 118  1105.552
 119  1349.837
 120  1292.274
 121  1158.806
 122  1321.445
 123  1344.511
 124  1240.077
 125  1741.854
 126  1720.762
 127  1389.321
 128  1265.249
 129  1240.252
 130  1188.24
 131  1200.039
 132  1132.9
 133  1130.891
 134  1127.042
 135  1162.485
 136  1088.529
 137  1344.098
 138  1536.66
 139  1232.379
 140  1017.271
 141  1089.736
 142  1585.049
 143  1669.658
 144  1362.719
 145  1383.253
 146  1266.396
 147  1477.596
 148  1314.855
 149  983.8919
 150  1147.786
 151  1577.571
 152  1564.296
 153  1461.338
 154  1503.502
 155  1471.838
 156  1317.462
 157  1426.181
 158  1439.073
 159  1389.669
 160  1464.07
 161  1296.238
 162  1656.301
 163  1567.29
 164  1814.803
 165  1727.435
 166  1723.958
 167  1468.8
 168  1539.515
 169  1701.017
 170  1471.599
 171  1472.722
 172  1708.525
 173  1453.814
 174  1389.201
 175  1019.502
 176  1262.807
 177  1336.372
 178  1330.974
 179  1170.22
 180  1125.227
 181  1231.814
 182  1207.889
 183  1200.95
 184  1291.782
 185  1506.412
 186  1437.539
 187  1281.167
 188  1059.573
 189  1095.077
 190  1549.143
 191  1578.858
 192  1328.901
 193  1247.677
 194  1486.206
 195  1496.758
 196  1550.758
 197  1789.408
 198  1574.067
 199  1179.97
 200  1427.704
 201  1605.18
 202  1462.728
 203  1621.082
 204  1581.146
 205  1591.581
 206  1498.888
 207  1216.628
 208  1100.089
 209  1740.196
 210  1657.742
 211  1725.66
 212  1741.581
 213  1431.582
 214  1083.775
 215  1160.482
 216  1304.024
 217  1658.87
 218  1510.3
 219  1432.219
 220  1154.662
 221  1318.627
 222  1396.861
 223  1294.644
 224  1162.517
 225  1148.963
 226  1486.528
 227  1544.853
 228  1332.199
 229  1277.45
 230  1365.007
 231  1672.866
 232  1559.559
 233  1526.082
 234  1745.665
 235  1559.096
 236  1114.265
 237  1289.349
 238  1657.608
 239  1539.842
 240  1589.104
 241  1540.112
 242  1453.24
 243  1389.871
 244  1392.77
 245  1445.86
 246  1731.678
 247  1684.225
 248  1637.354
 249  1601.693
 250  1403.913
 251  1972.089
 252  1916.526
 253  1527.021
 254  1228.659
 255  1331.817
 256  1345.706
 257  1590.518
 258  1853.364
 259  1541.336
 260  1404.792
 261  1452.254
 262  1478.956
 263  1340.419
 264  1326.046
 265  1548.941
 266  1676.793
 267  1570.512
 268  1322.765
 269  1236.067
 270  1482.187
 271  1437.99
 272  1260.758
 273  1410.232
 274  1482.443
 275  1406.329
 276  1544.202
 277  1350.964
 278  1163.335
 279  1229.415
 280  1196.441
 281  1040.816
 282  1172.973
 283  1394.609
 284  1342.923
 285  1699.773
 286  1686.542
 287  1584.636
 288  1521.573
 289  1448.407
 290  1443.43
 291  1783.665
 292  1619.55
 293  1907.164
 294  1629.334
 295  1844.876
 296  2119.434
 297  1930.74
 298  1760.512
 299  1740.116
 300  1659.066
 301  1848.509
 302  1759.229
 303  1706.406
 304  1460.714
 305  1526.084
 306  1285.529
 307  1367.886
 308  1608.882
 309  1215.668
 310  1460.292
 311  1503.974
 312  1351.332
 313  1354.345
 314  1414.781
 315  1527.076
 316  1533.283
 317  1483.466
 318  1506.611
 319  1286.794
 320  1201.894
 321  1547.152
 322  1800.049
 323  1714.183
 324  1579.412
 325  1532.211
 326  1662.959
 327  1792.65
 328  1552.107
 329  1141.989
 330  1340.81
 331  1304.355
 332  1306.667
 333  1354.19
 334  1841.126
 335  1482.247
 336  1533.289
 337  1712.295
 338  2012.213
 339  1813.292
 340  1532.87
 341  1494.136
 342  1763.284
 343  1450.901
 344  1471.13
 345  1413.574
 346  1105.516
 347  1472.727
 348  1531.586
 349  1601.571
 350  1607.837
 351  1604.911
 352  1340.334
 353  1201.867
 354  1324.455
 355  1543.483
 356  1496.47
 357  1390.779
 358  1339.146
 359  1084.331
 360  1241.338
 361  1400.193
 362  1789.142
 363  1730.955
 364  1576.313
 365  1838.463
 366  1248.335
 367  1027.731
 368  1412.441
 369  1281.137
 370  1426.684
 371  1195.672
 372  1371.176
 373  1774.017
 374  1509.488
 375  1104.325
 376  1366.269
 377  1906.657
 378  2016.139
 379  1899.088
 380  1894.92
 381  1542.954
 382  1162.848
 383  1384.779
 384  1460.708
 385  1827.935
 386  1655.688
 387  1827.015
 388  1619.104
 389  1342.797
 390  1544.744
 391  1955.439
 392  1737.509
 393  1462.11
 394  1468.891
 395  1467.654
 396  1435.729
 397  1695.688
 398  1484.074
 399  1545.575
 400  1573.733
 401  1729.251
 402  1709.021
 403  1253.984
 404  1323.803
 405  1391.873
 406  1632.615
 407  1699.117
 408  1824.78
 409  1813.258
 410  1678.851
 411  1486.718
 412  1834.591
 413  1827.009
 414  1484.2
 415  1299.443
 416  1574.774
 417  1488.627
 418  1774.208
 419  1882.673
 420  1629.586
 421  1399.236
 422  1562.95
 423  1526.222
 424  1114.8
 425  965.3424
 426  1507.789
 427  1534.874
 428  1517.717
 429  1753.012
 430  1895.47
 431  1671.42
 432  1511.697
 433  1010.234
 434  1250.413
 435  1441.709
 436  1239.487
 437  1667.574
 438  1487.236
 439  1423.041
 440  1414.392
 441  1327.681
 442  1523.698
 443  1547.479
 444  1408.602
 445  1372.249
 446  1558.583
 447  1479.351
 448  1302.065
 449  1359.616
 450  1368.146
 451  1351.734
 452  1508.652
 453  1454.689
 454  1362.194
 455  1345.613
 456  1776.885
 457  2074.557
 458  2390.918
 459  2863.601
 460  2695.305
 461  2610.876
 462  2300.24
 463  1736.949
 464  1707.648
 465  1843.411
 466  2066.509
 467  2095.756
 468  2027.226
 469  1726.744
 470  1944.255
 471  2347.378
 472  1918.045
 473  1897.243
 474  1830.959
 475  1659.488
 476  1814.944
 477  1926.375
 478  1736.516
 479  1590.016
 480  1824.906
 481  1661.228
 482  1349.03
 483  1450.848
 484  1191.697
 485  1244.56
 486  1502.721
 487  1760.065
 488  1728.219
 489  1240.094
 490  1328.768
 491  1373.508
 492  1128.153
 493  1201.005
 494  1446.625
 495  1593.545
 496  1301.27
 497  1095.823
 498  933.8499
 499  1170.6
 500  1609.785
 501  1220.388
 502  1607.854
 503  1577.918
 504  1550.549
 505  1418.766
 506  1669.026
 507  1581.252
 508  1633.979
 509  1582.842
 510  1445.402
 511  1262.864
