# Input file       =  1180681523.102148_cleaned.dat
# Candidate        =  PSR_0332+5434
# Telescope        =  AR
# Epoch_topo       =  57909.295626182269
# Epoch_bary       =  N/A
# T_sample         =  0.002
# Data Folded      =  7340032
# Data Avg         =  0.0862844389349836
# Data StdDev      =  2.4740429280847  
# Profile Bins     =  1024
# Profile Avg      =  618.658853288091 
# Profile StdDev   =  209.462474259525 
# Reduced chi-sqr  =  1.048
# Prob(Noise)      <  0.14   (~1.1 sigma)
# P_topo (ms)      =  714.51241480822   +/- 0.000345
# P'_topo (s/s)    =  -0                +/- 1.82e-10
# P''_topo (s/s^2) =  0                 +/- 8.04e-14
# P_bary (ms)      =  N/A
# P'_bary (s/s)    =  N/A
# P''_bary (s/s^2) =  N/A
# P_orb (s)        =  N/A
# asin(i)/c (s)    =  N/A
# eccentricity     =  N/A
# w (rad)          =  N/A
# T_peri           =  N/A
######################################################
   0  649.6474
   1  720.4758
   2  731.4415
   3  675.0861
   4  663.3741
   5  726.0137
   6  668.9561
   7  603.209
   8  560.6392
   9  574.4486
  10  612.8145
  11  668.0725
  12  693.8276
  13  702.8737
  14  616.6006
  15  639.8847
  16  606.5005
  17  655.3937
  18  613.666
  19  652.564
  20  655.4808
  21  661.3854
  22  665.1618
  23  680.9753
  24  630.8022
  25  563.5814
  26  549.0563
  27  638.1998
  28  703.3538
  29  721.6009
  30  656.2156
  31  560.9018
  32  547.3702
  33  559.5579
  34  596.3022
  35  546.4138
  36  567.2919
  37  578.4637
  38  583.9665
  39  567.0384
  40  550.8823
  41  488.3507
  42  483.8004
  43  478.2181
  44  561.7711
  45  550.1501
  46  582.4638
  47  585.5762
  48  613.1787
  49  727.3159
  50  843.4588
  51  872.63
  52  840.2933
  53  752.9509
  54  734.0708
  55  603.1439
  56  603.9417
  57  556.3296
  58  540.3997
  59  463.6853
  60  467.0818
  61  515.6699
  62  601.8549
  63  675.3729
  64  638.9193
  65  604.4473
  66  670.8566
  67  697.6594
  68  718.2813
  69  616.7316
  70  580.6003
  71  627.0255
  72  627.0964
  73  512.5376
  74  513.5796
  75  605.9137
  76  676.98
  77  580.2551
  78  479.5334
  79  564.8307
  80  546.7099
  81  628.9446
  82  613.1465
  83  558.7825
  84  495.8705
  85  462.9578
  86  510.6733
  87  550.9475
  88  493.5725
  89  489.9377
  90  394.8687
  91  538.9484
  92  592.7675
  93  660.8181
  94  622.271
  95  522.1337
  96  533.7129
  97  642.4524
  98  770.3721
  99  841.8211
 100  766.2682
 101  727.6319
 102  666.9527
 103  656.4727
 104  647.9236
 105  687.9657
 106  687.4312
 107  676.7978
 108  694.6255
 109  752.4323
 110  703.9462
 111  651.2285
 112  676.287
 113  700.4507
 114  662.2523
 115  591.0177
 116  678.2767
 117  730.8173
 118  727.6821
 119  791.4008
 120  741.7307
 121  746.3798
 122  759.7164
 123  907.9666
 124  871.3781
 125  758.5464
 126  644.2991
 127  718.0939
 128  705.185
 129  695.3652
 130  652.8542
 131  715.5471
 132  697.2249
 133  624.7648
 134  655.8481
 135  679.6633
 136  700.6309
 137  662.1306
 138  613.5776
 139  597.6016
 140  553.1146
 141  505.1959
 142  579.4951
 143  535.7438
 144  549.6315
 145  475.8044
 146  474.6607
 147  500.7471
 148  506.7032
 149  571.264
 150  631.0918
 151  653.7209
 152  544.3932
 153  494.4614
 154  605.0054
 155  743.0723
 156  708.9045
 157  617.1478
 158  515.6001
 159  474.3651
 160  430.0389
 161  515.62
 162  531.9081
 163  558.1692
 164  544.3174
 165  597.7688
 166  611.7127
 167  634.9883
 168  637.899
 169  730.7039
 170  669.7889
 171  708.6582
 172  665.3047
 173  676.5824
 174  645.9531
 175  665.2102
 176  734.7505
 177  707.9302
 178  682.7527
 179  679.7539
 180  709.7382
 181  718.2838
 182  665.7823
 183  594.3661
 184  575.0613
 185  598.7938
 186  618.2169
 187  682.1774
 188  660.4583
 189  635.0927
 190  515.5825
 191  544.1627
 192  541.7844
 193  653.5875
 194  666.296
 195  670.4243
 196  649.7061
 197  671.4232
 198  653.4177
 199  678.3376
 200  683.6393
 201  739.3992
 202  736.6915
 203  812.9771
 204  845.7885
 205  836.1995
 206  707.1793
 207  747.1172
 208  696.5186
 209  774.1022
 210  777.3694
 211  828.0885
 212  789.4709
 213  617.9787
 214  541.2436
 215  605.1777
 216  719.7853
 217  741.2874
 218  679.0306
 219  650.9637
 220  589.3792
 221  619.7761
 222  618.8121
 223  587.8337
 224  526.1053
 225  561.3244
 226  588.7458
 227  642.2657
 228  664.9693
 229  716.5829
 230  784.4991
 231  696.1829
 232  716.0762
 233  686.2258
 234  719.4521
 235  719.1807
 236  659.9246
 237  660.4975
 238  693.6722
 239  792.4344
 240  795.1247
 241  731.184
 242  706.5068
 243  710.4505
 244  614.8612
 245  612.8388
 246  612.8656
 247  680.0278
 248  661.6791
 249  584.564
 250  596.5125
 251  650.3271
 252  777.2252
 253  837.5659
 254  825.8339
 255  794.8456
 256  658.3702
 257  644.1251
 258  636.9902
 259  715.9142
 260  758.7288
 261  756.5126
 262  726.7502
 263  634.429
 264  591.898
 265  611.3201
 266  730.7292
 267  728.0963
 268  640.9907
 269  609.1281
 270  722.79
 271  711.7914
 272  689.3612
 273  661.3295
 274  661.2486
 275  627.2058
 276  653.2914
 277  661.8095
 278  612.7563
 279  604.8625
 280  593.4192
 281  653.3967
 282  664.4832
 283  716.4009
 284  716.0206
 285  713.7781
 286  646.7289
 287  579.2803
 288  556.0189
 289  552.0336
 290  512.4619
 291  473.9769
 292  540.6674
 293  586.4722
 294  644.396
 295  600.4567
 296  544.0579
 297  528.8918
 298  594.6014
 299  613.577
 300  624.0511
 301  583.8946
 302  658.7533
 303  726.246
 304  745.8768
 305  708.0674
 306  673.8369
 307  650.3792
 308  602.2966
 309  423.0118
 310  355.5233
 311  414.8337
 312  569.3264
 313  642.3135
 314  598.2853
 315  606.1818
 316  683.3475
 317  746.7161
 318  664.503
 319  488.0505
 320  506.5662
 321  601.5651
 322  731.2195
 323  667.0388
 324  567.6171
 325  491.7325
 326  484.7154
 327  462.4669
 328  477.2624
 329  507.5102
 330  596.6608
 331  612.3998
 332  590.4238
 333  463.3509
 334  465.2346
 335  513.7242
 336  620.3298
 337  652.3252
 338  736.7776
 339  717.7653
 340  674.7902
 341  603.2697
 342  661.2755
 343  663.1657
 344  637.8862
 345  623.1129
 346  702.8071
 347  661.1902
 348  611.283
 349  545.0729
 350  673.7836
 351  773.4365
 352  788.4278
 353  752.7299
 354  668.605
 355  633.9873
 356  572.7025
 357  525.6335
 358  522.4266
 359  533.9268
 360  565.6519
 361  587.5112
 362  728.1217
 363  797.8818
 364  771.4819
 365  629.1672
 366  523.7184
 367  535.2001
 368  576.0016
 369  588.7285
 370  665.2678
 371  710.1064
 372  738.8497
 373  733.8074
 374  647.9547
 375  599.8263
 376  530.3882
 377  583.2803
 378  545.405
 379  554.7457
 380  541.4245
 381  680.5753
 382  658.277
 383  576.5988
 384  500.8193
 385  565.254
 386  681.2153
 387  673.2582
 388  635.5733
 389  555.354
 390  605.8267
 391  670.97
 392  585.2128
 393  520.2122
 394  428.5821
 395  524.0389
 396  439.6588
 397  463.7902
 398  397.7736
 399  454.9104
 400  424.3283
 401  430.1656
 402  428.6883
 403  388.3227
 404  436.367
 405  495.6411
 406  579.9815
 407  557.6135
 408  493.3739
 409  460.6058
 410  567.2251
 411  708.8381
 412  770.1227
 413  642.6403
 414  544.1359
 415  533.7723
 416  566.282
 417  608.4346
 418  637.4677
 419  682.5728
 420  627.3135
 421  552.4018
 422  549.8033
 423  582.7218
 424  630.0719
 425  568.1046
 426  523.8805
 427  474.3012
 428  520.962
 429  486.0083
 430  469.802
 431  450.1414
 432  458.557
 433  510.8388
 434  513.2675
 435  593.0036
 436  627.7391
 437  622.9412
 438  687.7521
 439  647.1711
 440  631.5145
 441  549.2455
 442  567.7817
 443  559.7711
 444  637.9858
 445  649.6909
 446  663.5528
 447  611.0933
 448  686.5365
 449  748.6024
 450  787.9935
 451  677.8124
 452  614.4178
 453  627.3659
 454  639.5968
 455  717.3691
 456  672.8997
 457  656.4639
 458  530.9219
 459  541.5484
 460  575.4133
 461  642.3489
 462  701.4462
 463  715.246
 464  741.1014
 465  724.3936
 466  730.1397
 467  648.3101
 468  638.7394
 469  505.7532
 470  375.7799
 471  398.3079
 472  536.9255
 473  603.1989
 474  594.9695
 475  581.6415
 476  668.5833
 477  658.3826
 478  634.7154
 479  574.7167
 480  601.1446
 481  574.8493
 482  534.2205
 483  484.5327
 484  479.0401
 485  496.4457
 486  511.3279
 487  528.1949
 488  511.0418
 489  527.2033
 490  512.3438
 491  529.5242
 492  456.8903
 493  446.9261
 494  482.2448
 495  498.0485
 496  469.8096
 497  451.2784
 498  452.5952
 499  446.5131
 500  402.9272
 501  374.0475
 502  280.7374
 503  300.9412
 504  317.9231
 505  356.0195
 506  331.1571
 507  341.7103
 508  328.8047
 509  388.5186
 510  433.1888
 511  427.4071
 512  426.1119
 513  480.3597
 514  571.1793
 515  553.7709
 516  581.1107
 517  576.7386
 518  625.8019
 519  639.3124
 520  569.9509
 521  505.9129
 522  311.0821
 523  311.2686
 524  356.6355
 525  527.4136
 526  485.507
 527  447.9814
 528  408.6065
 529  467.4846
 530  526.8569
 531  526.113
 532  543.1876
 533  499.4209
 534  599.3391
 535  567.4673
 536  632.2377
 537  618.0878
 538  562.2819
 539  482.1608
 540  430.5081
 541  517.9258
 542  566.65
 543  629.4022
 544  700.0964
 545  679.7416
 546  629.7408
 547  513.731
 548  479.6201
 549  392.0267
 550  355.5817
 551  338.9691
 552  374.5085
 553  418.4071
 554  492.499
 555  541.6142
 556  533.1179
 557  427.6964
 558  510.3206
 559  511.9889
 560  681.0257
 561  671.202
 562  693.1735
 563  548.4589
 564  481.9352
 565  549.2423
 566  604.3071
 567  603.6146
 568  650.4691
 569  655.106
 570  593.7737
 571  514.5312
 572  565.2562
 573  655.5797
 574  734.0264
 575  717.1589
 576  763.3423
 577  751.686
 578  729.8248
 579  644.0443
 580  561.5086
 581  539.6705
 582  492.2002
 583  481.0501
 584  570.8581
 585  635.2501
 586  608.9368
 587  540.3768
 588  494.4067
 589  531.2499
 590  544.7937
 591  519.1155
 592  552.0477
 593  568.1122
 594  608.0187
 595  504.514
 596  445.9116
 597  417.6721
 598  445.2935
 599  537.3769
 600  613.227
 601  614.6548
 602  554.9335
 603  614.443
 604  712.215
 605  838.9719
 606  819.1992
 607  758.3002
 608  735.6597
 609  660.6342
 610  650.1583
 611  589.2883
 612  632.8263
 613  654.7135
 614  666.4811
 615  668.2097
 616  694.0702
 617  652.6798
 618  586.3098
 619  486.7684
 620  576.2042
 621  657.6179
 622  621.3927
 623  565.2697
 624  528.7415
 625  518.3732
 626  527.9146
 627  654.4229
 628  759.4896
 629  762.8949
 630  718.0954
 631  679.5883
 632  649.1064
 633  598.0543
 634  587.3515
 635  575.5413
 636  635.0154
 637  639.0049
 638  605.9444
 639  535.5509
 640  531.463
 641  593.8889
 642  631.36
 643  691.9686
 644  672.0161
 645  742.2524
 646  715.849
 647  642.0626
 648  542.9038
 649  540.7729
 650  516.478
 651  449.5022
 652  385.4739
 653  482.3737
 654  543.2084
 655  595.4709
 656  589.8741
 657  586.4402
 658  557.2205
 659  523.471
 660  513.9164
 661  568.2858
 662  547.9911
 663  574.1203
 664  576.8126
 665  710.371
 666  743.402
 667  697.2369
 668  618.291
 669  539.751
 670  561.1443
 671  508.0709
 672  499.8735
 673  484.6321
 674  529.5478
 675  599.3204
 676  611.9069
 677  620.425
 678  496.128
 679  450.133
 680  374.3678
 681  458.3395
 682  498.5706
 683  588.6041
 684  536.5146
 685  505.8245
 686  461.0753
 687  427.8129
 688  452.7839
 689  491.6922
 690  432.3988
 691  374.8011
 692  466.402
 693  659.831
 694  721.7933
 695  668.5875
 696  598.0282
 697  645.5221
 698  616.916
 699  527.4836
 700  456.5462
 701  490.2818
 702  586.2532
 703  574.8717
 704  430.6283
 705  351.7632
 706  404.3206
 707  425.3405
 708  399.5685
 709  384.8544
 710  473.7451
 711  550.6298
 712  551.1375
 713  524.3604
 714  585.9081
 715  539.1703
 716  527.4264
 717  498.1541
 718  623.5175
 719  583.8536
 720  580.7474
 721  513.8809
 722  563.2377
 723  599.571
 724  653.4533
 725  723.537
 726  682.0103
 727  788.7253
 728  671.8786
 729  642.0598
 730  489.7132
 731  522.9742
 732  518.1288
 733  542.6266
 734  562.6728
 735  638.0084
 736  649.5984
 737  605.0672
 738  606.7087
 739  622.9791
 740  601.0095
 741  573.4229
 742  566.5019
 743  669.2222
 744  733.4349
 745  743.8497
 746  650.328
 747  667.9435
 748  737.5241
 749  822.6417
 750  879.9382
 751  930.9301
 752  1061.084
 753  1133.129
 754  1169.314
 755  1211.987
 756  1279.037
 757  1319.12
 758  1264.694
 759  1208.726
 760  1131.858
 761  1055.458
 762  917.1828
 763  716.3837
 764  624.7396
 765  602.4318
 766  626.7634
 767  592.0563
 768  623.3117
 769  715.9927
 770  765.751
 771  742.642
 772  683.9088
 773  759.3262
 774  843.7106
 775  946.9293
 776  938.5529
 777  776.7509
 778  597.2876
 779  514.1996
 780  633.8561
 781  738.5833
 782  833.3076
 783  782.488
 784  745.6974
 785  729.5594
 786  799.8416
 787  888.4694
 788  814.5742
 789  800.9487
 790  767.8215
 791  835.3076
 792  801.1506
 793  756.037
 794  735.1829
 795  733.1973
 796  756.9344
 797  670.973
 798  577.1667
 799  509.0253
 800  564.0545
 801  581.334
 802  538.1131
 803  533.4106
 804  522.0886
 805  543.3644
 806  535.3732
 807  618.4842
 808  669.1099
 809  685.4277
 810  704.9133
 811  698.0181
 812  635.277
 813  612.6057
 814  612.2695
 815  614.9176
 816  521.194
 817  485.5287
 818  496.926
 819  527.2357
 820  557.759
 821  521.6103
 822  446.2283
 823  410.9238
 824  509.7914
 825  558.2738
 826  535.2375
 827  507.7503
 828  526.304
 829  624.4048
 830  656.2988
 831  623.2997
 832  570.7543
 833  527.8253
 834  520.9509
 835  472.6798
 836  434.4938
 837  409.4344
 838  436.4739
 839  604.319
 840  622.7535
 841  610.6486
 842  550.0347
 843  698.5574
 844  749.8824
 845  706.7411
 846  593.5676
 847  595.7086
 848  668.0624
 849  700.2316
 850  693.3478
 851  649.8191
 852  685.4043
 853  740.5508
 854  710.5364
 855  706.9532
 856  707.1489
 857  753.0319
 858  736.2419
 859  725.038
 860  695.5373
 861  717.6389
 862  758.7512
 863  756.722
 864  691.6099
 865  597.5816
 866  626.3262
 867  683.6589
 868  706.9011
 869  711.6727
 870  675.9022
 871  638.4286
 872  585.4847
 873  742.5557
 874  880.5304
 875  852.5714
 876  700.7501
 877  700.3385
 878  721.9951
 879  734.523
 880  742.4446
 881  777.0654
 882  713.1704
 883  680.2437
 884  614.6283
 885  648.7324
 886  635.2289
 887  650.9077
 888  593.1393
 889  604.2809
 890  531.6357
 891  577.8661
 892  655.4507
 893  685.1512
 894  644.3719
 895  532.4797
 896  501.5995
 897  512.1168
 898  629.9813
 899  727.0423
 900  683.7448
 901  541.4459
 902  512.4268
 903  572.7802
 904  683.1401
 905  665.9289
 906  645.6267
 907  635.4174
 908  619.2877
 909  537.9318
 910  543.7747
 911  544.5963
 912  626.951
 913  667.04
 914  672.0217
 915  617.4305
 916  489.7433
 917  493.3861
 918  452.5415
 919  540.8131
 920  645.9352
 921  660.877
 922  662.5671
 923  658.3151
 924  721.7452
 925  647.0038
 926  626.9092
 927  683.9666
 928  698.9092
 929  629.9788
 930  535.9226
 931  586.9545
 932  641.7084
 933  619.0767
 934  593.2233
 935  523.8535
 936  457.4221
 937  474.1631
 938  557.9377
 939  633.5148
 940  601.3278
 941  600.6664
 942  606.3758
 943  597.5108
 944  517.5043
 945  540.2671
 946  637.2824
 947  692.3917
 948  605.9583
 949  564.6889
 950  600.6753
 951  630.4076
 952  647.2493
 953  745.8336
 954  716.7848
 955  678.4374
 956  702.6797
 957  769.6792
 958  712.7438
 959  578.1444
 960  608.8862
 961  650.7214
 962  645.9837
 963  615.8524
 964  621.2239
 965  584.2278
 966  520.8548
 967  596.0075
 968  742.1627
 969  864.7166
 970  878.1574
 971  822.1656
 972  863.0332
 973  803.9069
 974  869.224
 975  745.8914
 976  762.0353
 977  671.7126
 978  684.1864
 979  724.9767
 980  675.2579
 981  687.6663
 982  698.4276
 983  711.9623
 984  656.278
 985  626.9808
 986  626.7357
 987  617.3228
 988  627.1601
 989  608.4134
 990  677.9464
 991  704.9472
 992  822.4227
 993  763.5569
 994  764.0814
 995  703.4643
 996  641.9405
 997  564.4523
 998  593.8522
 999  622.0536
1000  679.1306
1001  637.9741
1002  615.8125
1003  538.4481
1004  529.321
1005  522.6531
1006  577.7053
1007  703.5898
1008  749.1271
1009  640.808
1010  521.6014
1011  506.2219
1012  532.1518
1013  596.5959
1014  642.4547
1015  674.6711
1016  614.8992
1017  629.8909
1018  650.8218
1019  653.5685
1020  606.3453
1021  626.899
1022  638.8977
1023  620.6704
