# Input file       =  1180149854.141643_cleaned.dat
# Candidate        =  PSR_0332+5434
# Telescope        =  AR
# Epoch_topo       =  57903.142050250499
# Epoch_bary       =  N/A
# T_sample         =  0.002
# Data Folded      =  7208960
# Data Avg         =  0.281342534085905
# Data StdDev      =  6.37050020603382 
# Profile Bins     =  1024
# Profile Avg      =  1980.6090764163  
# Profile StdDev   =  534.514958668644 
# Reduced chi-sqr  =  0.470
# Prob(Noise)      <  1   (~0.0 sigma)
# P_topo (ms)      =  714.518392966868  +/- 4.93e-05
# P'_topo (s/s)    =  -0                +/- 2.65e-11
# P''_topo (s/s^2) =  0                 +/- 1.19e-14
# P_bary (ms)      =  N/A
# P'_bary (s/s)    =  N/A
# P''_bary (s/s^2) =  N/A
# P_orb (s)        =  N/A
# asin(i)/c (s)    =  N/A
# eccentricity     =  N/A
# w (rad)          =  N/A
# T_peri           =  N/A
######################################################
   0  1974.534
   1  2028.491
   2  2179.533
   3  2161.577
   4  2130.307
   5  2157.158
   6  2286.938
   7  2118.483
   8  1957.309
   9  1969.365
  10  1928.634
  11  1833.253
  12  1854.845
  13  1920.661
  14  1795.817
  15  1690.055
  16  1783.48
  17  2184.059
  18  2228.34
  19  2085.512
  20  2089.232
  21  2047.686
  22  2146.763
  23  1984.14
  24  1772.297
  25  1845.717
  26  2009.07
  27  2144.076
  28  2115.546
  29  1942.504
  30  1761.838
  31  1807.135
  32  1866.919
  33  1966.918
  34  1864.643
  35  2031.025
  36  2226.632
  37  2084.812
  38  2010.392
  39  2068.807
  40  2356.575
  41  2343.056
  42  1974.491
  43  1921.453
  44  1793.692
  45  1777.503
  46  1791.276
  47  1800.249
  48  1762.909
  49  1771.046
  50  1679.592
  51  1785.132
  52  1730.79
  53  1747.502
  54  1749.205
  55  1919.464
  56  2039.105
  57  1955.29
  58  2007.782
  59  1977.869
  60  1859.58
  61  1573.212
  62  1582.782
  63  1809.328
  64  1862.301
  65  1654.293
  66  1523.41
  67  1759.807
  68  1985.145
  69  2267.554
  70  2219.124
  71  2246.95
  72  2247.294
  73  2146.947
  74  2023.275
  75  1822.457
  76  1849.547
  77  1994.12
  78  1933.376
  79  1688.887
  80  1313.604
  81  1359.247
  82  1724.396
  83  1834.365
  84  1879.43
  85  1952.796
  86  1997.862
  87  2054.368
  88  1902.986
  89  1969.305
  90  2067.788
  91  2078.625
  92  2061.59
  93  1951.16
  94  1545.535
  95  1525.954
  96  1820.364
  97  2153.136
  98  2212.578
  99  2174.949
 100  2355.912
 101  2329.516
 102  1962.646
 103  2003.441
 104  2073.8
 105  2137.835
 106  2169.361
 107  2133.11
 108  2027.252
 109  1841.656
 110  1904.018
 111  2142.42
 112  2026.273
 113  1932.663
 114  2028.756
 115  1954.42
 116  1712.779
 117  1642.585
 118  1710.963
 119  2081.261
 120  2045.218
 121  2004.562
 122  1890.123
 123  1796.734
 124  1967.991
 125  2077.468
 126  1953.67
 127  1915.465
 128  1924.285
 129  2132.956
 130  1955.054
 131  1875.489
 132  2039.31
 133  2219.26
 134  2122.531
 135  1978.974
 136  1866.884
 137  2093.52
 138  2060.764
 139  2129.05
 140  2138.436
 141  2190.499
 142  2094.908
 143  2067.059
 144  1893.448
 145  1764.667
 146  1919.385
 147  2111.776
 148  2155.724
 149  2014.795
 150  2065.26
 151  2030.422
 152  1982.117
 153  1937.294
 154  1929.802
 155  2031.171
 156  2101.956
 157  2184.645
 158  2127.337
 159  1979.26
 160  1896.832
 161  2086.594
 162  2105.85
 163  2122.488
 164  2044.623
 165  2183.867
 166  2164.103
 167  1979.08
 168  2021.412
 169  2193.735
 170  2586.78
 171  2656.636
 172  2426.66
 173  2442.371
 174  2565.156
 175  2590.793
 176  2397.109
 177  2005.138
 178  2058.396
 179  2078.537
 180  1955.14
 181  1832.158
 182  1879.921
 183  2122.225
 184  2346.036
 185  2257.419
 186  2001.999
 187  1875.207
 188  1956.092
 189  2081.892
 190  1914.331
 191  1821.433
 192  1895.094
 193  1830.492
 194  1675.735
 195  1618.727
 196  1588.541
 197  1780.731
 198  1764.899
 199  1970.533
 200  2055.633
 201  1994.441
 202  2286.936
 203  2404.883
 204  2255.438
 205  2163.893
 206  2272.028
 207  2587.15
 208  2248.706
 209  1743.079
 210  1708.747
 211  1868.552
 212  1682.28
 213  1608.828
 214  1595.249
 215  1841.719
 216  1830.405
 217  1792.874
 218  1892.719
 219  1818.54
 220  1942.182
 221  2025.288
 222  1870.159
 223  1709.888
 224  1625.652
 225  1694.151
 226  1851.453
 227  1829.582
 228  1697.716
 229  1673.771
 230  1729.099
 231  1857.11
 232  1690.459
 233  1705.766
 234  1984.609
 235  2186.547
 236  2161.805
 237  2088.038
 238  2095.772
 239  1900.13
 240  1897.522
 241  1775.764
 242  1800.878
 243  1811.702
 244  1924.437
 245  1780.81
 246  1487.697
 247  1451.249
 248  1778.973
 249  1969.149
 250  1694.862
 251  1669.24
 252  1935.263
 253  2054.002
 254  2093.552
 255  2071.005
 256  2275.511
 257  2164.813
 258  2098.924
 259  2152.162
 260  2165.109
 261  1975.42
 262  2063.779
 263  2090.507
 264  2233.414
 265  2017.768
 266  1780.975
 267  1766.778
 268  1553.936
 269  1548.332
 270  1828.731
 271  2088.759
 272  2273.406
 273  2111.351
 274  1836.462
 275  1828.451
 276  1757.477
 277  1889.535
 278  1748.16
 279  1538.337
 280  1591.321
 281  1740.197
 282  1801.377
 283  1831.004
 284  1924.899
 285  2179.85
 286  2392.838
 287  2117.272
 288  1962.962
 289  1767.547
 290  1832.896
 291  1864.346
 292  1795.122
 293  1754.772
 294  1850.296
 295  1857.996
 296  1998.176
 297  2180.431
 298  2369.705
 299  2446.536
 300  2029.811
 301  1920.126
 302  1836.044
 303  1943.437
 304  2004.139
 305  1944.631
 306  1924.955
 307  1846.659
 308  1871.906
 309  1786.697
 310  1722.809
 311  1762.292
 312  2031.803
 313  2240.001
 314  2090.698
 315  1895.143
 316  1875.193
 317  1834
 318  2013.62
 319  1955.193
 320  1980.544
 321  2065.077
 322  2306.632
 323  2268.033
 324  2061.732
 325  2001.874
 326  2012.705
 327  2022.618
 328  1985.932
 329  2052.505
 330  2034.565
 331  1999.888
 332  2047.132
 333  2022.768
 334  2096.983
 335  2308.969
 336  2581.854
 337  2709.459
 338  2353.691
 339  2063.345
 340  2202.017
 341  2282.058
 342  2100.828
 343  2009.689
 344  1988.755
 345  2160.875
 346  2016.329
 347  1870.014
 348  1820.572
 349  1943.234
 350  2221.282
 351  2431.296
 352  2109.533
 353  2096.848
 354  2193.348
 355  2373.953
 356  2045.241
 357  1555.373
 358  1737.614
 359  1988.279
 360  1915.369
 361  1887.881
 362  1867.973
 363  1863.102
 364  1912.36
 365  1962.853
 366  2255.434
 367  2384.222
 368  2292.439
 369  2427.399
 370  2229.145
 371  1982.148
 372  1764.579
 373  1773.12
 374  1778.215
 375  1740.895
 376  1741.45
 377  1879.934
 378  1772.435
 379  1802.169
 380  1816.419
 381  1810.901
 382  1864.165
 383  1816.07
 384  1968.741
 385  2234.774
 386  2364.195
 387  2150.019
 388  2013.113
 389  1833.392
 390  1913.203
 391  1794.776
 392  1832.583
 393  1964.472
 394  1824.031
 395  1758.504
 396  1839.133
 397  2046.745
 398  2062.12
 399  2027.786
 400  2266.202
 401  2348.548
 402  2288.104
 403  2183.398
 404  2395.819
 405  2449.913
 406  2315.857
 407  2089.621
 408  2105.318
 409  1875.465
 410  2059.488
 411  2036.578
 412  2171.49
 413  1922.449
 414  1777.739
 415  1862.297
 416  1898.856
 417  1976.012
 418  2098.715
 419  2336.109
 420  2441.299
 421  2327.958
 422  2198.66
 423  2288.231
 424  2159.104
 425  1997.001
 426  2075.35
 427  2012.198
 428  2116.641
 429  2125.339
 430  2032.843
 431  1991.641
 432  2165.492
 433  2405.654
 434  2473.99
 435  2308.572
 436  2360.972
 437  2477.942
 438  2279.136
 439  2158.385
 440  2001.317
 441  2069.123
 442  2316.639
 443  2220.774
 444  1973.158
 445  1914.741
 446  1891.729
 447  2052.29
 448  1951.445
 449  2132.866
 450  2294.527
 451  2271.589
 452  2351.027
 453  2394.523
 454  2319.198
 455  2348.218
 456  2180.372
 457  2169.814
 458  2159.018
 459  2169.45
 460  2216.199
 461  2214.358
 462  2072.156
 463  2195.967
 464  2205.777
 465  2195.644
 466  2035.391
 467  2074.695
 468  2299.393
 469  2405.033
 470  2240.048
 471  2240.415
 472  2039.511
 473  2097.554
 474  2011.293
 475  2014.618
 476  1830.747
 477  1772.499
 478  1755.788
 479  1829.365
 480  1699.017
 481  1698.2
 482  1821.292
 483  2018.674
 484  2279.186
 485  2456.634
 486  2295.59
 487  1975.292
 488  2020.018
 489  2026.18
 490  2105.684
 491  2107.837
 492  2352.038
 493  2386.957
 494  2254.276
 495  2062.934
 496  2077.809
 497  2126.633
 498  2167.728
 499  2195.54
 500  2114.987
 501  1986.396
 502  2040.878
 503  1915.785
 504  1837.841
 505  1727.299
 506  1916.905
 507  2153.429
 508  1863.046
 509  1695.087
 510  1803.313
 511  1866.676
 512  2011.58
 513  2031.283
 514  2331.399
 515  2291.12
 516  1934.565
 517  1990.489
 518  2022.133
 519  1964.263
 520  1873.419
 521  1844.788
 522  1995.431
 523  1800.629
 524  1593.414
 525  1656.74
 526  1741.064
 527  1832.442
 528  2000.737
 529  2087.99
 530  2098.337
 531  1851.154
 532  1842.407
 533  2060.836
 534  2206.613
 535  2180.986
 536  2188.13
 537  2044.96
 538  2054.308
 539  1933.781
 540  1911.321
 541  1852.14
 542  1869.589
 543  2064.309
 544  2146.149
 545  1964.237
 546  1848.654
 547  1879.688
 548  2040.664
 549  2073.96
 550  1953.735
 551  1948.307
 552  2116.908
 553  1998.174
 554  1732.953
 555  1692.542
 556  1907.019
 557  1997.372
 558  1926.693
 559  1927.691
 560  1994.19
 561  2026.971
 562  2149.524
 563  2240.598
 564  2150.959
 565  1992.055
 566  2035.699
 567  2118.774
 568  2017.817
 569  1947.142
 570  2236.544
 571  2297.771
 572  2109.765
 573  1684.726
 574  1782.046
 575  1917.377
 576  2002.305
 577  1815.668
 578  1664.77
 579  1718.021
 580  1809.972
 581  1840.479
 582  1949.04
 583  1999.166
 584  2004.734
 585  2001.256
 586  1988.666
 587  1988.83
 588  1904.846
 589  1716.481
 590  1786.161
 591  1686.409
 592  1647.515
 593  1811.145
 594  1869.092
 595  1873.274
 596  1779.444
 597  1895.383
 598  2179.585
 599  2121.011
 600  2138.749
 601  2125.489
 602  2163.438
 603  2070.871
 604  2002.083
 605  1783.123
 606  1715.207
 607  1716.352
 608  1938.378
 609  1778.803
 610  1344.503
 611  1291.533
 612  1458.522
 613  1750.607
 614  1832.603
 615  1870.67
 616  2041.409
 617  2134.895
 618  2096.362
 619  2249.06
 620  2237.254
 621  2248.446
 622  2185.023
 623  2113.919
 624  1857.537
 625  1795.014
 626  1745.552
 627  1979.309
 628  1867.754
 629  1813.388
 630  1801.95
 631  1885.879
 632  1896.635
 633  1998.232
 634  2052.055
 635  2287.466
 636  2255.433
 637  2173.723
 638  1941.049
 639  1636.325
 640  1948.714
 641  1966.696
 642  1892.098
 643  1648.589
 644  1674.845
 645  1847.423
 646  1763.352
 647  1773.438
 648  1907.877
 649  2011.373
 650  1909.76
 651  1798.883
 652  1613.011
 653  1540.485
 654  1568.43
 655  1876.997
 656  1954.317
 657  1919.854
 658  2094.551
 659  2155.29
 660  2025.811
 661  1898.984
 662  2026.469
 663  2116.625
 664  2088.771
 665  2122.779
 666  2101.46
 667  2040.106
 668  1955.087
 669  1915.482
 670  1876.321
 671  1709.021
 672  1789.87
 673  1932.52
 674  2019.809
 675  1683.36
 676  1822.95
 677  2032.546
 678  2232.772
 679  2269.817
 680  2117.39
 681  2274.623
 682  2069.942
 683  1930.441
 684  1847.828
 685  2030.869
 686  2053.726
 687  1845.182
 688  1659.974
 689  1733.846
 690  1934.536
 691  2074.938
 692  2255.833
 693  2245.016
 694  2333.036
 695  2318.405
 696  2231.927
 697  2117.985
 698  1745.485
 699  1853.622
 700  2185.566
 701  2147.575
 702  1859.801
 703  1708.027
 704  1765.646
 705  1987.543
 706  1755.983
 707  1668.133
 708  1647.36
 709  1671.17
 710  1799.284
 711  1807.927
 712  1683.334
 713  1716.962
 714  1881.518
 715  2084.016
 716  2043.001
 717  1728.264
 718  1914.622
 719  2025.394
 720  1977.439
 721  1889.619
 722  1961.186
 723  2212.213
 724  2058.43
 725  1927.38
 726  2047.248
 727  1992.326
 728  2073.981
 729  1964.532
 730  1852.076
 731  1803.378
 732  1846.341
 733  2000.527
 734  2030.491
 735  2149.274
 736  2139.846
 737  2271.098
 738  2162.757
 739  2062.115
 740  1848.177
 741  1983.051
 742  2096.686
 743  2087.561
 744  1894.451
 745  1798.339
 746  2018.692
 747  2065.954
 748  2152.877
 749  2350.683
 750  2519.941
 751  2422.717
 752  2385.458
 753  2236.879
 754  2177.111
 755  2097.98
 756  2255.575
 757  2436.648
 758  2284.711
 759  2238.332
 760  2282.323
 761  2415.541
 762  2198.558
 763  1950.525
 764  2083.762
 765  2113.128
 766  2184.635
 767  2215.205
 768  2179.809
 769  2017.394
 770  1975.294
 771  1906.25
 772  1838.923
 773  1640.568
 774  1757.492
 775  1847.534
 776  1769.36
 777  1478.927
 778  1621.87
 779  1887.807
 780  2078.953
 781  2004.66
 782  1823.183
 783  2012.324
 784  2083.154
 785  2100.907
 786  2029.177
 787  1788.601
 788  1906.573
 789  1801.423
 790  1778.249
 791  1837.078
 792  2088.278
 793  2310.006
 794  2363.783
 795  2073.273
 796  2136.66
 797  1972.161
 798  1936.74
 799  1953.611
 800  2057.913
 801  2042.781
 802  1958.036
 803  1756.918
 804  1754.37
 805  1893.062
 806  2098.006
 807  2185.122
 808  1813.256
 809  1723.655
 810  1781.025
 811  1884.898
 812  1922.255
 813  1980.282
 814  1993.755
 815  2156.263
 816  2022.9
 817  2061.659
 818  1924.993
 819  1854.778
 820  1966.7
 821  2009.236
 822  2011.917
 823  1892.119
 824  1926.966
 825  2050.069
 826  1947.652
 827  1992.087
 828  2129.259
 829  2383.935
 830  2364.867
 831  2262.15
 832  2116.264
 833  2062.9
 834  2096.508
 835  2047.92
 836  1879.945
 837  2007.355
 838  2068.109
 839  1818.899
 840  1650.521
 841  1651.965
 842  1828.081
 843  1841.576
 844  1871.802
 845  1860.333
 846  1812.769
 847  1672.235
 848  1839.357
 849  1896.131
 850  1853.846
 851  1771.132
 852  1612.525
 853  1744.629
 854  1763.95
 855  1924.717
 856  2268.994
 857  2217.891
 858  2321.021
 859  2222.001
 860  2023.569
 861  1827.078
 862  1863.652
 863  2100.292
 864  2162.006
 865  2025.052
 866  2143.015
 867  2153.509
 868  1815.788
 869  1636.433
 870  1739.31
 871  1997.834
 872  1990.352
 873  1745.401
 874  1696.42
 875  1594.926
 876  1659.747
 877  1866.542
 878  1950.022
 879  1821.428
 880  1793.705
 881  1906.159
 882  2085.632
 883  1941.755
 884  1820.24
 885  2013.418
 886  1954.343
 887  1791.493
 888  1680.483
 889  1764.094
 890  1935.269
 891  2067.686
 892  1997.506
 893  2061.378
 894  2010.123
 895  1939.886
 896  2016.212
 897  1985.574
 898  2125.429
 899  2026.988
 900  1875.324
 901  1914.021
 902  1913.487
 903  1882.802
 904  1699.133
 905  1533.429
 906  1594.565
 907  1755.466
 908  1772.856
 909  1901.423
 910  1733.257
 911  1729.099
 912  1752.26
 913  1903.68
 914  1877.66
 915  1838.957
 916  1866.555
 917  1934.125
 918  1727.541
 919  1707.474
 920  1768.394
 921  1766.265
 922  1820.855
 923  1978.879
 924  2038.935
 925  1918.761
 926  1929.508
 927  2065.964
 928  2052.417
 929  2066.322
 930  2083.638
 931  2216.617
 932  2086.775
 933  1990.859
 934  2171.299
 935  2208.902
 936  2115.14
 937  2064.342
 938  2067.269
 939  1998.344
 940  1938.19
 941  1785.149
 942  1905.641
 943  1895.649
 944  2157.659
 945  2245.193
 946  2145.36
 947  2060.285
 948  2038.036
 949  2161.009
 950  2318.058
 951  2177.862
 952  2006.207
 953  1845.251
 954  1669.326
 955  1817.759
 956  1857.309
 957  2137.143
 958  2398.424
 959  2150.146
 960  1939.682
 961  1732.748
 962  1833.613
 963  1973.47
 964  1958.836
 965  2048.657
 966  2060.963
 967  1927.358
 968  1966.516
 969  1954.538
 970  1846.83
 971  1827.636
 972  1738.921
 973  1797.523
 974  1594.176
 975  1562.741
 976  1779.228
 977  2029.781
 978  1957.259
 979  1973.862
 980  1904.118
 981  1795.174
 982  1766.784
 983  1733.722
 984  1744.005
 985  1837.101
 986  1992.117
 987  2070.999
 988  1816.805
 989  1718.655
 990  1808.671
 991  1935.638
 992  1976.52
 993  1956.202
 994  2123.157
 995  2265.952
 996  2217.768
 997  2128.117
 998  2001.881
 999  2030.228
1000  2054.667
1001  2118.105
1002  1965.353
1003  1844.558
1004  1961.572
1005  1945.286
1006  1833.927
1007  1774.033
1008  1974.621
1009  2138.49
1010  2110.302
1011  2016.916
1012  2006.297
1013  1867.885
1014  1827.618
1015  1800.118
1016  1819.785
1017  1767.778
1018  1868.622
1019  1861.866
1020  1958.743
1021  1820.262
1022  2086.062
1023  2107.331
