# Input file       =  1180236029.103016_cleaned.dat
# Candidate        =  PSR_0332+5434
# Telescope        =  AR
# Epoch_topo       =  57904.139445636756
# Epoch_bary       =  N/A
# T_sample         =  0.002
# Data Folded      =  7208960
# Data Avg         =  0.165616436232813
# Data StdDev      =  5.08109960883552 
# Profile Bins     =  1024
# Profile Avg      =  1165.64435156543 
# Profile StdDev   =  426.328178254447 
# Reduced chi-sqr  =  0.688
# Prob(Noise)      <  1   (~0.0 sigma)
# P_topo (ms)      =  714.517413948809  +/- 0.000199
# P'_topo (s/s)    =  -0                +/- 1.07e-10
# P''_topo (s/s^2) =  0                 +/- 4.81e-14
# P_bary (ms)      =  N/A
# P'_bary (s/s)    =  N/A
# P''_bary (s/s^2) =  N/A
# P_orb (s)        =  N/A
# asin(i)/c (s)    =  N/A
# eccentricity     =  N/A
# w (rad)          =  N/A
# T_peri           =  N/A
######################################################
   0  1079.133
   1  1060.875
   2  1083.695
   3  1240.68
   4  1253.005
   5  1289.534
   6  1257.23
   7  1144.593
   8  1157.571
   9  1011.046
  10  987.6797
  11  946.5266
  12  863.5978
  13  987.6155
  14  979.6708
  15  1197.575
  16  958.7998
  17  1042.753
  18  1057.92
  19  1300.856
  20  1359.929
  21  1197.523
  22  1133.617
  23  936.2905
  24  943.4013
  25  1029.762
  26  1038.861
  27  892.0287
  28  680.5687
  29  652.3033
  30  974.2473
  31  1052.641
  32  1131.538
  33  1173.349
  34  1230.775
  35  1184.57
  36  1100.652
  37  1094.489
  38  1084.45
  39  1065.92
  40  982.9662
  41  1040.255
  42  957.1927
  43  944.371
  44  1038.829
  45  1323.938
  46  1541.99
  47  1541.356
  48  1407.169
  49  1433.274
  50  1235.367
  51  1240.3
  52  1393.696
  53  1505.325
  54  1638.344
  55  1571.653
  56  1574.734
  57  1400.919
  58  1156.965
  59  1174.561
  60  1271.767
  61  1211.746
  62  1172.408
  63  1128.258
  64  1255.743
  65  1240.256
  66  1142.694
  67  1233.642
  68  1289.693
  69  1299.971
  70  1354.982
  71  1300.929
  72  1278.048
  73  1315.457
  74  1185.533
  75  1198.538
  76  1190.848
  77  1205.142
  78  1161.549
  79  1197.679
  80  1240.325
  81  1290.39
  82  1138.83
  83  1380.282
  84  1264.361
  85  1290.677
  86  1094.793
  87  1241.901
  88  1203.489
  89  1118.232
  90  1084.881
  91  1115.758
  92  1101.984
  93  1130.979
  94  1250.56
  95  1367.745
  96  1300.712
  97  1208.874
  98  1333.991
  99  1208.001
 100  1093.453
 101  854.371
 102  849.0145
 103  860.159
 104  776.9625
 105  867.8845
 106  1050.988
 107  991.3568
 108  881.361
 109  798.5524
 110  985.3299
 111  1032.217
 112  1016.101
 113  946.1842
 114  903.0711
 115  821.313
 116  990.8522
 117  1087.838
 118  1037.241
 119  1218.711
 120  1329.882
 121  1660.522
 122  1540.503
 123  1459.806
 124  1356.76
 125  1270.705
 126  1271.152
 127  1174.031
 128  1007.566
 129  991.9408
 130  1036.099
 131  994.1075
 132  1179.82
 133  1214.586
 134  1330.898
 135  1362.262
 136  1405.212
 137  1458.007
 138  1291.031
 139  1130.67
 140  1203.913
 141  1248.92
 142  1232.191
 143  1383.98
 144  1439.993
 145  1405.745
 146  1381.343
 147  1291.244
 148  1416.017
 149  1260.094
 150  1424.793
 151  1608.239
 152  1473.514
 153  1277.163
 154  1062.963
 155  1235.171
 156  1305.224
 157  1242.489
 158  1188.945
 159  1160.163
 160  1231.329
 161  1323.227
 162  1443.917
 163  1471.086
 164  1241.826
 165  1168.866
 166  1012.524
 167  964.5536
 168  762.1337
 169  1064.226
 170  1132.667
 171  1015.595
 172  822.5308
 173  806.9638
 174  728.5878
 175  538.6007
 176  454.5738
 177  765.2925
 178  1038.913
 179  1109.373
 180  1062.992
 181  1008.32
 182  1190.531
 183  1188.366
 184  1354.8
 185  1264.608
 186  1360.073
 187  1240.289
 188  1164.457
 189  1100.244
 190  949.6313
 191  868.6649
 192  792.3379
 193  866.6943
 194  898.1002
 195  855.1699
 196  794.9678
 197  761.6854
 198  754.5948
 199  688.7882
 200  690.0777
 201  754.7514
 202  883.0078
 203  897.8546
 204  910.1722
 205  1065.892
 206  939.3239
 207  816.8723
 208  804.0334
 209  767.1004
 210  861.6517
 211  863.2919
 212  977.9553
 213  993.3263
 214  957.4644
 215  1057.768
 216  1211.745
 217  1125.068
 218  1187.877
 219  985.5335
 220  1092.169
 221  1058.648
 222  1069.009
 223  1204.401
 224  1247.379
 225  1351.474
 226  1370.549
 227  1298.94
 228  1157.558
 229  1070.703
 230  900.4012
 231  829.9064
 232  684.4006
 233  618.0625
 234  721.0367
 235  792.1083
 236  993.8273
 237  1046.194
 238  938.7512
 239  983.6203
 240  965.5916
 241  1029.955
 242  1027.985
 243  1146.441
 244  1265.501
 245  1257.494
 246  1207.916
 247  1139.385
 248  978.9161
 249  936.2115
 250  1105.718
 251  1162.916
 252  1037.489
 253  1058.004
 254  1158.749
 255  1257.697
 256  1123.121
 257  1144.008
 258  1095.277
 259  1160.116
 260  1109.749
 261  1134.996
 262  1132.326
 263  1129.901
 264  1181.606
 265  1117.237
 266  1056.88
 267  1066.143
 268  1123.662
 269  1218.07
 270  1121.749
 271  897.468
 272  829.2798
 273  813.319
 274  717.0662
 275  947.8032
 276  1111.962
 277  1283.35
 278  1195.151
 279  1193.983
 280  1072.6
 281  1018.013
 282  984.2715
 283  1171.406
 284  1275.624
 285  1396.467
 286  1394.891
 287  1293.073
 288  1332.652
 289  1297.823
 290  1189.925
 291  1119.12
 292  1069.7
 293  1075.615
 294  1015.81
 295  1050.167
 296  1108.85
 297  1109.761
 298  863.9375
 299  1089.081
 300  1047.845
 301  1167.349
 302  1168.008
 303  1221.15
 304  1107.572
 305  934.7781
 306  860.116
 307  965.4131
 308  847.0145
 309  1085.236
 310  1226.034
 311  1408.915
 312  1448.838
 313  1453.097
 314  1362.857
 315  1294.252
 316  1011.299
 317  990.0443
 318  979.4028
 319  921.6759
 320  942.293
 321  1007.849
 322  1050.681
 323  1060.376
 324  1029.537
 325  1316.128
 326  1456.588
 327  1334.842
 328  1485.101
 329  1431.471
 330  1525.931
 331  1244.548
 332  1155.686
 333  1148.742
 334  1123.854
 335  1009.518
 336  1062.85
 337  1041.483
 338  1034.331
 339  909.3212
 340  888.205
 341  1014.46
 342  961.7719
 343  832.9689
 344  876.3697
 345  1120.741
 346  1159.77
 347  1037.719
 348  973.1662
 349  1198.587
 350  1168.812
 351  1172.706
 352  1045.021
 353  930.3284
 354  940.7708
 355  970.4652
 356  1047.275
 357  927.3992
 358  977.7375
 359  1076.195
 360  1078.241
 361  1111.373
 362  990.8026
 363  993.4411
 364  1001.755
 365  955.1398
 366  1101.082
 367  1109.498
 368  1174.407
 369  1155.771
 370  1075.038
 371  993.6505
 372  940.4031
 373  807.8059
 374  958.0532
 375  930.1029
 376  1077.575
 377  1040.922
 378  951.8515
 379  928.1784
 380  1088.749
 381  1196.263
 382  1393.515
 383  1349.159
 384  1306.933
 385  1216.582
 386  1082.736
 387  1075.461
 388  937.9282
 389  927.474
 390  1204.929
 391  1194.334
 392  1194.245
 393  1268.792
 394  1332.289
 395  1262.867
 396  986.9047
 397  1004.145
 398  1223.158
 399  1297.369
 400  1353.067
 401  1277.411
 402  1125.453
 403  929.2827
 404  924.8212
 405  1169.026
 406  1353.646
 407  1284.273
 408  1115.576
 409  1260.709
 410  1363.597
 411  1533.224
 412  1610.129
 413  1514.101
 414  1419.955
 415  1138.274
 416  1265.685
 417  1338.33
 418  1320.636
 419  1367.014
 420  1339.128
 421  1410.06
 422  1335.751
 423  1382.414
 424  1451.338
 425  1388.612
 426  1190.837
 427  1129.317
 428  1227.149
 429  1267.113
 430  1356.495
 431  1383.568
 432  1327.342
 433  1205.278
 434  1164.051
 435  1301.312
 436  1229.156
 437  1296.722
 438  1326.774
 439  1512.775
 440  1466.726
 441  1382.666
 442  1375.244
 443  1298.379
 444  1468.05
 445  1353.237
 446  1437.787
 447  1429.762
 448  1476.512
 449  1231.788
 450  1222.059
 451  1158.361
 452  1279.894
 453  1051.619
 454  1035.566
 455  1208.229
 456  1121.135
 457  1049.083
 458  964.726
 459  1080.041
 460  1162.25
 461  1121.855
 462  1027.931
 463  1158.92
 464  985.6777
 465  945.6096
 466  948.3442
 467  1093.381
 468  1099.8
 469  962.3997
 470  994.2792
 471  1070.039
 472  899.2075
 473  982.9238
 474  1247.824
 475  1347.734
 476  1339.961
 477  1252.164
 478  1378.388
 479  1401.051
 480  1183.938
 481  1177.485
 482  1183.156
 483  1142.037
 484  1327.856
 485  1363.246
 486  1358.946
 487  1089.685
 488  1046.097
 489  1367.935
 490  1503.296
 491  1262.49
 492  1346.139
 493  1147.451
 494  1157.249
 495  987.7294
 496  1123.81
 497  1193.568
 498  1215.967
 499  1179.729
 500  1275.891
 501  974.6293
 502  887.3922
 503  968.4747
 504  1130.647
 505  1112.347
 506  957.2919
 507  1011.822
 508  1050.439
 509  1047.078
 510  988.8536
 511  1077.255
 512  1104.143
 513  1190.758
 514  1203.018
 515  1291.847
 516  1388.903
 517  1269.929
 518  1214.431
 519  1049.933
 520  1100.422
 521  930.465
 522  1038.594
 523  1187.54
 524  1301.834
 525  1458.659
 526  1435.271
 527  1440.059
 528  1201.607
 529  1032.432
 530  1093.531
 531  1086.655
 532  1013.288
 533  1113.471
 534  1124.167
 535  1063.812
 536  888.4839
 537  792.1844
 538  822.0839
 539  860.1971
 540  1018.1
 541  1218.961
 542  1298.806
 543  1139.328
 544  966.7892
 545  1006.564
 546  1264.175
 547  1355.23
 548  1265.524
 549  1408.529
 550  1241.658
 551  1103.755
 552  933.735
 553  981.9282
 554  1140.948
 555  1040.61
 556  1037.159
 557  1215.78
 558  1220.78
 559  1165.825
 560  1001.706
 561  1088.985
 562  1297.164
 563  1330.547
 564  1334.543
 565  1282.378
 566  1074.473
 567  1155.576
 568  1149.575
 569  1216.6
 570  1292.825
 571  1269.249
 572  1299.53
 573  1137.678
 574  924.4908
 575  1008.194
 576  1066.382
 577  1270.692
 578  1311.27
 579  1296.534
 580  1237.919
 581  1379.525
 582  1287.002
 583  1339.374
 584  1218.554
 585  1405.04
 586  1391.252
 587  1290.665
 588  1229.287
 589  1207.396
 590  1318.164
 591  1404.983
 592  1275.557
 593  1078.527
 594  1027.665
 595  1041.294
 596  1053.134
 597  1127.235
 598  1278.148
 599  1272.044
 600  1194.852
 601  1060.537
 602  1092.244
 603  1013.642
 604  1142.978
 605  1230.711
 606  1274.979
 607  1061.215
 608  1043.892
 609  1049.001
 610  995.4492
 611  975.3293
 612  1000.176
 613  1247.214
 614  1252.505
 615  1212.997
 616  1084.834
 617  995.6879
 618  1062.394
 619  1020.629
 620  980.8151
 621  955.5306
 622  1086.86
 623  1065.941
 624  1135.266
 625  1145.828
 626  1109.759
 627  1043.073
 628  1037.481
 629  1209.579
 630  1162.516
 631  998.181
 632  1104.557
 633  1219.968
 634  1133.572
 635  1101.622
 636  1006.783
 637  1108.017
 638  1005.365
 639  844.4978
 640  1108.171
 641  1293.04
 642  1391.063
 643  1337.278
 644  1293.155
 645  1438.734
 646  1476.17
 647  1305.731
 648  1329.938
 649  1256.508
 650  1190.792
 651  1159.971
 652  1077.126
 653  1104.927
 654  971.2329
 655  980.764
 656  1274.481
 657  1216.151
 658  1214.698
 659  1232.262
 660  1265.909
 661  1123.661
 662  1165.429
 663  1209.882
 664  1412.058
 665  1254.363
 666  1340.078
 667  1302.377
 668  1066.869
 669  974.6495
 670  954.8722
 671  1048.849
 672  1111.459
 673  1049.999
 674  1089.304
 675  1033.195
 676  1165.751
 677  1282.157
 678  1448.255
 679  1460.183
 680  1532.592
 681  1482.284
 682  1370.969
 683  1247.15
 684  1281.734
 685  1409.529
 686  1347.301
 687  1121.735
 688  924.8656
 689  936.6567
 690  1039.794
 691  1040.944
 692  962.8935
 693  1101.904
 694  1240.136
 695  1167.059
 696  900.3194
 697  860.5338
 698  917.9717
 699  1008.135
 700  1165.348
 701  1149.49
 702  1058.204
 703  848.2845
 704  816.7715
 705  1155.187
 706  1247.471
 707  1116.106
 708  1081.806
 709  1089.609
 710  1280.37
 711  1189.797
 712  1374.818
 713  1504.851
 714  1447.295
 715  1315.286
 716  1212.871
 717  1006.641
 718  1062.49
 719  974.8914
 720  1015.56
 721  1019.229
 722  1005.489
 723  1161.421
 724  1210.692
 725  1229.666
 726  1133.681
 727  1225.094
 728  1383.125
 729  1538.279
 730  1454.594
 731  1359.331
 732  1161.124
 733  993.4089
 734  1136.76
 735  1197.738
 736  1189.805
 737  1125.747
 738  1057.402
 739  1154.332
 740  1194.164
 741  1187.708
 742  1337.784
 743  1232.242
 744  1324.976
 745  1311.139
 746  1480.887
 747  1498.991
 748  1503.398
 749  1381.114
 750  1664.365
 751  1640.93
 752  1744.54
 753  1820.886
 754  1945.503
 755  2123.875
 756  1969.998
 757  1928.456
 758  1873.427
 759  1751.275
 760  1542.916
 761  1438.889
 762  1303.619
 763  1330.537
 764  1196.656
 765  1205.871
 766  1288.966
 767  1122.274
 768  1170.31
 769  1287.824
 770  1431.542
 771  1459.127
 772  1338.28
 773  1403.09
 774  1284.17
 775  1148.807
 776  1216.168
 777  1260.034
 778  1418.131
 779  1356.194
 780  1386.062
 781  1380.934
 782  1321.395
 783  1487.811
 784  1331.702
 785  1305.369
 786  1131.197
 787  1174.673
 788  1209.069
 789  1173.481
 790  1117.119
 791  1123.719
 792  1137.95
 793  1281.027
 794  1336.042
 795  1410.172
 796  1457.862
 797  1405.399
 798  1172.515
 799  1053.354
 800  1011.665
 801  1047.061
 802  1040.762
 803  1012.864
 804  1206.658
 805  1333.769
 806  1330.281
 807  1253.712
 808  1019.299
 809  943.9864
 810  1092.479
 811  1286.724
 812  1521.14
 813  1263.786
 814  1302.73
 815  1396.178
 816  1281.574
 817  1149.511
 818  1059
 819  1121.702
 820  1297.032
 821  1165.494
 822  1277.608
 823  1112.391
 824  1110.71
 825  1225.001
 826  1398.031
 827  1314.706
 828  1267.481
 829  1153.856
 830  1329.495
 831  1366.666
 832  1331.918
 833  1483.09
 834  1488.231
 835  1438.419
 836  1321.095
 837  1215.271
 838  1275.712
 839  1348.808
 840  1304.427
 841  1509.514
 842  1513.86
 843  1681.675
 844  1382.333
 845  1391.702
 846  1323.149
 847  1329.625
 848  1287.268
 849  1288.104
 850  1194.786
 851  935.7471
 852  970.6921
 853  950.937
 854  1131.099
 855  1192.022
 856  1468.375
 857  1740.298
 858  1789.385
 859  1560.477
 860  1446.039
 861  1309.995
 862  1261.231
 863  1068.041
 864  1013.303
 865  924.0529
 866  1071.236
 867  1150.204
 868  1255.765
 869  1076.898
 870  1107.551
 871  1251.349
 872  1436.031
 873  1257.375
 874  1071.18
 875  930.9076
 876  1163.193
 877  1308.142
 878  1343.826
 879  1332.886
 880  1317.41
 881  1230.001
 882  1099.58
 883  1065.312
 884  1083.905
 885  1046.058
 886  980.7585
 887  1046.863
 888  997.8263
 889  836.2698
 890  774.0317
 891  762.7787
 892  845.1308
 893  909.8691
 894  1080.072
 895  1222.514
 896  1395.183
 897  1344.264
 898  1481.122
 899  1398.069
 900  1193.446
 901  1102.614
 902  1021.745
 903  1036.725
 904  1004.759
 905  934.6325
 906  1260.994
 907  1061.056
 908  1016.088
 909  1166.881
 910  1411.651
 911  1477.438
 912  1421.043
 913  1584.333
 914  1630.153
 915  1334.73
 916  1197.61
 917  1265.193
 918  1155.426
 919  1117.917
 920  1150.921
 921  1259.826
 922  1104.589
 923  1077.596
 924  1227.21
 925  1305.758
 926  1192.134
 927  1217.985
 928  1278.63
 929  1209.356
 930  1126.303
 931  1172.278
 932  1094.408
 933  955.1826
 934  818.7651
 935  1004.159
 936  1151.325
 937  997.091
 938  1081.676
 939  1012.175
 940  1201.325
 941  1075.029
 942  1136.178
 943  1123.272
 944  1051.319
 945  1125.093
 946  1093.009
 947  1119.019
 948  929.3467
 949  889.5757
 950  846.9185
 951  855.0513
 952  951.6994
 953  999.4122
 954  944.2117
 955  825.2926
 956  794.813
 957  788.7327
 958  692.2533
 959  752.5034
 960  1108.52
 961  1183.947
 962  1094.22
 963  1037.94
 964  1022.729
 965  1015.256
 966  1132.299
 967  1080.549
 968  1039.617
 969  810.627
 970  948.9628
 971  1080.167
 972  1024.431
 973  1063.159
 974  1200.208
 975  1126.521
 976  1050.37
 977  950.2788
 978  1064.001
 979  1191.905
 980  1141.021
 981  1166.807
 982  1194.681
 983  1060.988
 984  1127.589
 985  1222.911
 986  1314.286
 987  1313.525
 988  1047.897
 989  1091.562
 990  1078.478
 991  1097.706
 992  1228.012
 993  1239.659
 994  1187.011
 995  1157.154
 996  1061.582
 997  1156.65
 998  1053.134
 999  966.7574
1000  1127.672
1001  1286.344
1002  1232.713
1003  1188.722
1004  1343.089
1005  1632.883
1006  1467.088
1007  1201.616
1008  1395.008
1009  1341.776
1010  1390.189
1011  1368.697
1012  1575.084
1013  1531.167
1014  1343.609
1015  1257.537
1016  1366.787
1017  1249.184
1018  1125.814
1019  1168.771
1020  1279.198
1021  1370.201
1022  1206.428
1023  1147.056
