# Input file       =  1180236029.103016_cleaned.dat
# Candidate        =  PSR_0332+5434
# Telescope        =  AR
# Epoch_topo       =  57904.139445636756
# Epoch_bary       =  N/A
# T_sample         =  0.002
# Data Folded      =  7208960
# Data Avg         =  0.165616436232813
# Data StdDev      =  5.08109960883552 
# Profile Bins     =  512
# Profile Avg      =  2331.28870345102 
# Profile StdDev   =  602.919091709254 
# Reduced chi-sqr  =  0.735
# Prob(Noise)      <  1   (~0.0 sigma)
# P_topo (ms)      =  714.517414025129  +/- 0.000204
# P'_topo (s/s)    =  -0                +/- 1.1e-10
# P''_topo (s/s^2) =  0                 +/- 4.93e-14
# P_bary (ms)      =  N/A
# P'_bary (s/s)    =  N/A
# P''_bary (s/s^2) =  N/A
# P_orb (s)        =  N/A
# asin(i)/c (s)    =  N/A
# eccentricity     =  N/A
# w (rad)          =  N/A
# T_peri           =  N/A
######################################################
   0  1732.882
   1  1696.837
   2  1742.643
   3  1551.202
   4  1387.396
   5  1511.2
   6  1811.441
   7  2010.887
   8  1676.451
   9  1564.184
  10  1812.829
  11  1956.004
  12  2077.697
  13  2311.779
  14  2169.405
  15  2112.252
  16  2365.739
  17  2632.679
  18  2641.346
  19  2112.511
  20  1662.401
  21  1274.406
  22  1603.782
  23  2072.163
  24  1914.939
  25  2014.227
  26  2249.203
  27  2520.842
  28  2268.862
  29  1924.888
  30  2277.754
  31  2084.813
  32  2445.398
  33  2265.335
  34  2262.921
  35  2222.391
  36  2281.099
  37  2274.876
  38  2144.738
  39  2350.8
  40  1912.596
  41  1606.428
  42  1781.573
  43  2429.639
  44  2369.878
  45  2037.71
  46  2280.129
  47  2680.851
  48  2692.147
  49  2579.498
  50  2270.321
  51  2100.517
  52  2098.924
  53  2147.379
  54  2006.435
  55  2241.81
  56  2386.143
  57  1964.203
  58  1788.109
  59  2049.782
  60  2726.039
  61  2915.357
  62  2516.019
  63  1958.695
  64  1926.844
  65  1995.884
  66  2084.808
  67  2464.145
  68  2843.264
  69  2924.186
  70  2652.181
  71  2275.148
  72  2129.492
  73  2093.986
  74  1872.987
  75  1932.906
  76  1767.821
  77  2106.854
  78  2084.606
  79  2269.658
  80  2362.7
  81  1939.63
  82  1895.545
  83  1928.222
  84  2128.265
  85  2181.562
  86  1935.075
  87  1986.027
  88  2283.685
  89  2303.923
  90  1975.24
  91  1748.66
  92  1952.765
  93  2088.265
  94  1881.248
  95  2384.891
  96  2777.7
  97  2411.835
  98  2132.147
  99  1901.751
 100  2446.691
 101  2465.743
 102  2526.264
 103  2030.946
 104  2610.59
 105  2543.129
 106  1958.333
 107  2248.385
 108  2570.807
 109  2425.842
 110  2982.337
 111  3110.513
 112  2464.225
 113  2619.626
 114  2680.023
 115  2809.261
 116  2723.611
 117  2777.367
 118  2277.044
 119  2570.646
 120  2760.995
 121  2429.495
 122  2494.09
 123  2563.811
 124  2907.762
 125  2789.928
 126  2713.057
 127  2792.835
 128  2921.458
 129  2578.245
 130  2428.17
 131  2237.591
 132  2303.157
 133  2082.156
 134  2139.973
 135  2220.399
 136  2200.174
 137  1894.762
 138  2110.128
 139  2037.61
 140  2030.502
 141  1945.339
 142  2665.961
 143  2617.714
 144  2723.454
 145  2318.823
 146  2366.085
 147  2748.017
 148  2283.845
 149  2596.309
 150  2724.673
 151  2443.454
 152  2068.685
 153  2399.433
 154  2432.08
 155  2086.413
 156  1928.268
 157  2189.728
 158  2040.72
 159  2075.555
 160  2073.613
 161  2321.664
 162  2602.082
 163  2590.45
 164  2178.771
 165  1999.278
 166  2331.522
 167  2811.036
 168  2799.742
 169  2201.617
 170  2168.136
 171  2179.011
 172  2060.525
 173  1662.323
 174  1759.538
 175  2355.679
 176  2305.502
 177  2044.14
 178  2678.062
 179  2688.515
 180  2191.49
 181  1967.25
 182  2170.192
 183  2299.533
 184  2317.901
 185  2171.051
 186  2666.751
 187  2515.243
 188  2230.187
 189  2422.976
 190  2601.383
 191  2301.275
 192  1971.343
 193  2443.862
 194  2593.119
 195  2609.733
 196  2584.013
 197  2723.06
 198  2611.117
 199  2460.616
 200  2701.919
 201  2278.967
 202  2074.424
 203  2227.523
 204  2524.174
 205  2260.089
 206  2113.336
 207  2418.993
 208  2263.574
 209  2102.957
 210  1945.738
 211  2292.675
 212  2421.627
 213  2086.576
 214  2072.159
 215  1944.195
 216  2171.039
 217  2317.372
 218  2103.619
 219  2282.491
 220  2111.152
 221  2382.912
 222  2180.167
 223  2147.795
 224  1794.792
 225  2545.045
 226  2663.729
 227  2826.769
 228  2731.14
 229  2569.373
 230  2271.915
 231  2173.768
 232  2011.835
 233  2528.482
 234  2453.595
 235  2332.578
 236  2485.335
 237  2619.166
 238  2580.259
 239  1955.915
 240  2090.346
 241  2145.056
 242  2115.91
 243  2526.289
 244  2988.284
 245  2973.761
 246  2535.195
 247  2736.035
 248  2347.459
 249  1899.402
 250  2015.242
 251  2185.747
 252  2306.123
 253  1764.914
 254  1953.799
 255  2350.596
 256  1769.049
 257  2171.127
 258  2282.986
 259  2253.053
 260  2466.85
 261  2945.323
 262  2664.479
 263  2170.774
 264  2010.307
 265  2045.984
 266  2215.431
 267  2448.307
 268  2442.097
 269  2938.759
 270  2728.962
 271  2114.104
 272  2400.286
 273  2244.1
 274  2256.637
 275  2431.362
 276  2573.053
 277  2639.034
 278  3008.471
 279  2941.156
 280  3318.286
 281  3622.025
 282  4091.851
 283  3902.878
 284  3516.216
 285  2889.317
 286  2558.442
 287  2478.126
 288  2347.601
 289  2524.599
 290  2889.483
 291  2745.77
 292  2397.752
 293  2517.742
 294  2760.14
 295  2763.443
 296  2842.218
 297  2537.105
 298  2326.635
 299  2371.02
 300  2243.335
 301  2452.913
 302  2803.523
 303  2806.14
 304  2148.051
 305  2059.693
 306  2061.815
 307  2639.788
 308  2502.772
 309  1967.147
 310  2508.08
 311  2724.122
 312  2707.133
 313  2317.728
 314  2214.976
 315  2538.442
 316  2298.646
 317  2448.641
 318  2666.273
 319  2431.707
 320  2677.052
 321  2907.768
 322  2873.71
 323  2484.658
 324  2647.756
 325  2872.679
 326  3216.716
 327  2736.72
 328  2636.143
 329  2556.838
 330  2033.264
 331  1985.554
 332  2363.687
 333  3348.642
 334  3255.967
 335  2712.927
 336  2215.802
 337  1945.045
 338  2302.374
 339  2286.185
 340  2433.351
 341  2610.339
 342  1972.447
 343  2588.913
 344  2635.427
 345  2537.491
 346  2142.465
 347  2082.784
 348  2007.696
 349  1779.662
 350  1559.684
 351  1814.625
 352  2418.329
 353  2758.908
 354  2844.457
 355  2195.664
 356  2054.376
 357  1985.28
 358  2266.011
 359  2288.597
 360  2919.192
 361  3121.718
 362  2795.197
 363  2470.301
 364  2225.215
 365  2471.15
 366  2142.412
 367  2548.904
 368  2423.225
 369  2472.809
 370  2285.605
 371  1941.142
 372  1899.74
 373  2186.802
 374  2084.221
 375  2234.672
 376  2235.171
 377  2251.265
 378  2145.396
 379  1746.774
 380  1722.26
 381  2019.714
 382  1720.941
 383  1488.689
 384  1553.554
 385  2360.516
 386  2125.9
 387  2018.04
 388  2237.587
 389  1767.986
 390  2094.383
 391  2102.445
 392  2310.444
 393  2007.568
 394  2291.25
 395  2314.553
 396  2224.869
 397  2418.296
 398  2539.916
 399  2135.599
 400  2235.784
 401  2492.664
 402  2258.753
 403  2230.179
 404  2015.887
 405  2511.191
 406  2395.876
 407  3075.39
 408  2593.928
 409  2772.801
 410  2794.635
 411  3016.607
 412  2613.225
 413  2550.141
 414  2325.739
 415  2640.585
 416  2328.308
 417  2127.703
 418  2395.722
 419  2520.966
 420  2376.191
 421  2119.923
 422  1861.734
 423  1899.191
 424  2208.081
 425  2013.701
 426  2447.659
 427  2494.187
 428  1997.124
 429  2019.589
 430  1799.291
 431  1390.973
 432  2125.106
 433  2338.331
 434  2379.839
 435  2172.18
 436  2126.004
 437  2005.286
 438  1894.012
 439  2546.015
 440  3082.371
 441  2767.577
 442  2490.978
 443  2997.128
 444  3208.214
 445  2820.886
 446  2384.511
 447  2449.056
 448  2325.836
 449  2451.756
 450  2426.092
 451  2636.245
 452  2610.04
 453  2562.089
 454  2359.473
 455  2435.103
 456  2339.716
 457  2500.61
 458  2557.061
 459  2532.601
 460  2367.257
 461  2248.212
 462  2244.112
 463  2274.827
 464  2644.354
 465  2484.552
 466  2527.908
 467  1805.654
 468  1699.337
 469  1670.388
 470  2076.931
 471  1682.031
 472  2071.78
 473  1880.396
 474  1761.045
 475  2115.021
 476  2320.142
 477  3067.599
 478  2947.194
 479  2610.175
 480  2364.17
 481  1985.896
 482  2081.008
 483  2456.624
 484  2690.444
 485  2849.409
 486  2367.075
 487  2490.682
 488  2681.55
 489  2811.417
 490  2700.7
 491  2642.457
 492  3094.247
 493  2563.449
 494  2440.376
 495  2482.364
 496  2354.083
 497  2607.212
 498  2939.573
 499  2291.699
 500  1864.348
 501  1927.695
 502  2102.116
 503  1599.61
 504  1143.225
 505  1399.878
 506  2197.507
 507  2090.554
 508  2393.364
 509  2627.625
 510  2565.079
 511  2216.787
