# Input file       =  1180007091.099125_cleaned.dat
# Candidate        =  PSR_0332+5434
# Telescope        =  AR
# Epoch_topo       =  57901.489700221355
# Epoch_bary       =  N/A
# T_sample         =  0.002
# Data Folded      =  7340032
# Data Avg         =  0.116147735132212
# Data StdDev      =  3.30011022184799 
# Profile Bins     =  512
# Profile Avg      =  1665.053490385   
# Profile StdDev   =  395.132217239864 
# Reduced chi-sqr  =  0.919
# Prob(Noise)      <  0.906   (~0.0 sigma)
# P_topo (ms)      =  714.520364526417  +/- 0.000284
# P'_topo (s/s)    =  -0                +/- 1.5e-10
# P''_topo (s/s^2) =  0                 +/- 6.62e-14
# P_bary (ms)      =  N/A
# P'_bary (s/s)    =  N/A
# P''_bary (s/s^2) =  N/A
# P_orb (s)        =  N/A
# asin(i)/c (s)    =  N/A
# eccentricity     =  N/A
# w (rad)          =  N/A
# T_peri           =  N/A
######################################################
   0  1549.747
   1  1434.025
   2  1466.861
   3  1914.896
   4  1743.928
   5  1534.456
   6  1470.463
   7  1896.936
   8  1825.887
   9  1678.115
  10  1503.05
  11  1810.279
  12  1876.864
  13  1812.347
  14  1799.77
  15  1845.485
  16  1467.369
  17  1171.008
  18  1215.131
  19  983.3543
  20  1692.927
  21  1633.859
  22  1566.905
  23  1489.263
  24  1657.274
  25  1671.823
  26  1544.918
  27  1423.583
  28  1417.33
  29  1458.708
  30  1708.67
  31  1802.838
  32  1712.344
  33  1430.449
  34  1498.754
  35  1957.533
  36  2002.337
  37  1547.48
  38  1780.781
  39  1897.104
  40  1885.796
  41  1836.428
  42  1968.814
  43  1826.83
  44  1685.328
  45  1584.216
  46  1718.842
  47  1234.52
  48  1272.537
  49  1618.456
  50  1881.524
  51  1596.635
  52  1516.752
  53  1486.167
  54  1130.117
  55  1568.218
  56  1702.535
  57  1932.501
  58  2082.173
  59  1580.112
  60  1207.796
  61  1498.74
  62  1755.515
  63  1836.06
  64  2015.186
  65  1626.877
  66  1581.31
  67  1621.409
  68  1487.491
  69  1811.327
  70  1641.656
  71  1696.114
  72  1674.046
  73  1689.34
  74  1558.672
  75  1297.274
  76  1456.97
  77  1776.361
  78  1618.176
  79  1410.744
  80  1581.088
  81  1985.098
  82  1721.959
  83  1445.915
  84  1233.074
  85  1443.852
  86  1784.152
  87  1734.117
  88  1632.42
  89  1569.085
  90  1482.435
  91  1590.96
  92  1811.343
  93  1789.497
  94  1680.96
  95  1498.792
  96  1337.374
  97  1461.33
  98  1651.525
  99  1439.367
 100  1164.095
 101  1293.067
 102  1046.075
 103  1407.135
 104  1670.595
 105  1776.453
 106  1551.96
 107  1388.439
 108  1111.202
 109  1255.482
 110  1134.989
 111  1622.001
 112  1801.436
 113  1813.418
 114  1966.2
 115  1661.845
 116  1747.119
 117  1626.492
 118  1329.833
 119  1599.521
 120  1671.557
 121  1818.632
 122  1747.647
 123  2008.072
 124  1982.482
 125  2014.594
 126  2091.567
 127  1938.37
 128  1829.174
 129  1974.586
 130  1882.426
 131  2225.844
 132  1866.588
 133  1645.027
 134  1552.937
 135  1363.248
 136  1448.608
 137  1742.105
 138  1915.2
 139  1799.522
 140  1811.916
 141  1644.363
 142  1545.524
 143  1234.987
 144  1876.194
 145  2080.751
 146  1608.53
 147  1715.692
 148  1646.444
 149  1428.033
 150  1612.486
 151  1885.607
 152  1564.214
 153  1281.377
 154  1475.841
 155  1774.279
 156  1879.47
 157  1796.011
 158  1736.597
 159  1470.999
 160  1798.796
 161  1523.492
 162  1384.103
 163  1698.164
 164  1643.573
 165  1600.967
 166  1685.396
 167  1443.562
 168  1793.278
 169  1831.523
 170  1947.711
 171  1840.438
 172  1878.27
 173  1746.638
 174  1540.926
 175  1350.71
 176  1362.553
 177  1602.189
 178  1475.431
 179  1517.795
 180  1397.61
 181  1468.308
 182  1549.017
 183  1539.169
 184  1659.571
 185  1695.183
 186  1906.824
 187  1533.78
 188  1603.124
 189  1648.307
 190  1640.257
 191  1806.717
 192  1782.397
 193  1590.069
 194  1616.353
 195  1256.027
 196  1790.042
 197  1875.518
 198  1762.53
 199  1701.778
 200  1606.327
 201  2187.532
 202  2183.898
 203  1833.462
 204  1960.168
 205  1349.854
 206  1328.632
 207  1905.632
 208  1852.152
 209  1862.674
 210  1840.191
 211  1559.869
 212  1597.602
 213  1675.676
 214  1463.417
 215  1645.578
 216  1643.175
 217  1666.991
 218  1589.706
 219  1409.19
 220  1401.873
 221  1276.87
 222  1362.834
 223  1455.526
 224  1130.198
 225  1173.459
 226  1333.862
 227  1482.004
 228  1390.745
 229  1575.352
 230  1564.059
 231  1279.578
 232  1383.813
 233  1517.3
 234  1612.472
 235  1731.647
 236  1904.883
 237  2049.182
 238  1743.224
 239  1426.31
 240  1262.397
 241  1701.269
 242  1757.635
 243  1668.26
 244  2007.705
 245  1812.301
 246  1636.655
 247  1857.476
 248  1899.774
 249  1762.575
 250  1421.478
 251  1203.292
 252  1122.451
 253  1308.06
 254  1517.461
 255  1453.755
 256  1332.059
 257  1368.619
 258  1652.24
 259  1769.019
 260  1867.654
 261  1949.405
 262  1915.642
 263  1955.453
 264  1870.517
 265  1461.597
 266  1316.076
 267  1666.608
 268  1739.094
 269  1788.207
 270  1735.905
 271  1742.901
 272  1707.095
 273  1751.584
 274  1703.412
 275  1631.905
 276  1843.623
 277  1776.377
 278  1860.359
 279  1752.837
 280  1940.555
 281  1976.754
 282  1529.368
 283  1678.346
 284  1696.482
 285  1820.364
 286  1924.494
 287  1974.447
 288  1704.888
 289  1545.989
 290  1483.071
 291  1515.373
 292  1384.307
 293  1417.89
 294  1276.551
 295  1299.021
 296  1384.921
 297  1270.398
 298  1154.437
 299  1736.92
 300  1740.299
 301  1652.02
 302  1543.929
 303  1566.772
 304  1672.457
 305  1562.729
 306  1469.258
 307  1557.055
 308  1781.177
 309  1680.228
 310  1593.561
 311  1656.099
 312  1770.969
 313  1806.531
 314  1814.208
 315  1517.043
 316  1222.488
 317  1345.619
 318  1582.806
 319  1553.757
 320  1716.065
 321  1617.001
 322  1559.735
 323  1977.321
 324  2116.757
 325  2381.464
 326  2756.765
 327  3116.256
 328  3187.424
 329  2893.269
 330  2723.248
 331  2504.056
 332  2127.324
 333  2152.826
 334  2232.303
 335  2429.635
 336  1933.721
 337  1775.296
 338  2045.122
 339  2082.824
 340  1965.077
 341  1691.425
 342  1689.288
 343  1969.133
 344  1957.378
 345  2109.339
 346  2025.751
 347  1925.92
 348  1794.048
 349  2017.856
 350  1591.955
 351  1551.927
 352  1436.864
 353  1698.885
 354  1965.386
 355  2131.443
 356  1902.02
 357  1676.458
 358  1640.782
 359  1606.601
 360  1827.798
 361  1623.416
 362  1306.298
 363  1450.705
 364  1685.396
 365  1675.758
 366  1643.708
 367  1897.276
 368  1920.651
 369  2007.892
 370  2003.461
 371  1925.904
 372  1597.056
 373  1696.101
 374  2221.879
 375  2051.382
 376  1707.774
 377  1949.942
 378  1790.754
 379  1754.354
 380  1549.874
 381  1475.037
 382  1045.268
 383  993.7971
 384  1747.463
 385  1727.784
 386  1809.454
 387  1967.053
 388  1552.566
 389  1391.567
 390  1608.268
 391  1693.408
 392  1512.959
 393  1439.709
 394  1746.168
 395  1515.11
 396  1365.963
 397  1527.461
 398  1872.809
 399  1779.338
 400  1439.869
 401  1455.626
 402  1249.977
 403  1248.176
 404  1410.056
 405  1440.067
 406  1350.5
 407  1118.98
 408  1253.426
 409  1473.551
 410  1461.799
 411  1456.134
 412  1233.332
 413  1428.684
 414  1891.744
 415  1429.856
 416  1394.614
 417  1359.485
 418  1445.91
 419  1361.05
 420  1502.73
 421  1578.397
 422  1748.228
 423  1853.876
 424  1874.723
 425  1618.339
 426  1590.667
 427  1726.022
 428  1684.004
 429  1743.546
 430  1370.583
 431  1403.394
 432  1351.09
 433  1448.531
 434  1532.359
 435  2042.476
 436  1746.012
 437  1397.629
 438  1538.77
 439  1712.988
 440  1710.117
 441  1766.642
 442  1792.229
 443  1726.615
 444  1775.613
 445  1532.073
 446  2011.873
 447  1893.76
 448  1767.2
 449  1906.788
 450  1886.824
 451  1914.059
 452  2054.252
 453  1965.916
 454  1808.492
 455  1742.921
 456  2027.738
 457  2174.077
 458  1803.365
 459  1939.092
 460  1698.558
 461  1847.576
 462  1555.23
 463  1599.651
 464  1697.654
 465  1709.006
 466  1748.923
 467  1803.051
 468  1743.425
 469  1483.904
 470  1681.891
 471  2046.305
 472  1950.514
 473  1856.244
 474  1740.964
 475  1601.507
 476  1876.79
 477  1750.564
 478  1624.829
 479  1553.14
 480  1463.65
 481  1478.559
 482  1373.762
 483  1016.656
 484  1480.783
 485  1385.975
 486  1444.301
 487  1563.72
 488  1380.086
 489  1245.371
 490  1233.448
 491  1357.251
 492  1408.705
 493  1891.618
 494  2086.293
 495  1855.795
 496  1902.153
 497  1570.381
 498  1504.844
 499  1648.986
 500  2089.262
 501  1903.533
 502  1973.708
 503  1808.709
 504  1440.784
 505  1499.656
 506  1742.198
 507  1376.932
 508  1075.649
 509  1506.175
 510  1679.937
 511  1754.473
