# Input file       =  1180265636.121797_cleaned.dat
# Candidate        =  PSR_0332+5434
# Telescope        =  AR
# Epoch_topo       =  57904.482119465247
# Epoch_bary       =  N/A
# T_sample         =  0.002
# Data Folded      =  7340032
# Data Avg         =  0.0922300879402818
# Data StdDev      =  3.01965199712584 
# Profile Bins     =  512
# Profile Avg      =  1321.89255042329 
# Profile StdDev   =  361.552102417042 
# Reduced chi-sqr  =  1.090
# Prob(Noise)      <  0.0775   (~1.4 sigma)
# P_topo (ms)      =  714.517424559301  +/- 0.000277
# P'_topo (s/s)    =  -0                +/- 1.46e-10
# P''_topo (s/s^2) =  0                 +/- 6.46e-14
# P_bary (ms)      =  N/A
# P'_bary (s/s)    =  N/A
# P''_bary (s/s^2) =  N/A
# P_orb (s)        =  N/A
# asin(i)/c (s)    =  N/A
# eccentricity     =  N/A
# w (rad)          =  N/A
# T_peri           =  N/A
######################################################
   0  1610.601
   1  1460.752
   2  1373.996
   3  1376.975
   4  1812.78
   5  1559.767
   6  1494.442
   7  1282.629
   8  1309.191
   9  1585.923
  10  1409.339
  11  1381.387
  12  1821.025
  13  1501.921
  14  1412.997
  15  1402.306
  16  1479.065
  17  1600.303
  18  1519.961
  19  1609.561
  20  1304.176
  21  933.0375
  22  1262.309
  23  1330.885
  24  1447.083
  25  1493.881
  26  1117.955
  27  1483.364
  28  1554.488
  29  1368.13
  30  1111.564
  31  1045.335
  32  930.9796
  33  1386.641
  34  1202.869
  35  855.5615
  36  838.5379
  37  815.4865
  38  936.7889
  39  1149.382
  40  1324.844
  41  1448.577
  42  1512.866
  43  1291.026
  44  1220.568
  45  1414.609
  46  888.282
  47  836.496
  48  1052.047
  49  992.3643
  50  726.3874
  51  1152.515
  52  1114.131
  53  894.7079
  54  1145.889
  55  1348.951
  56  1277.694
  57  1051.49
  58  1071.444
  59  892.7896
  60  993.8045
  61  1131.684
  62  1319.775
  63  1325.867
  64  1423.238
  65  1290.496
  66  1272.66
  67  1147.019
  68  1469.55
  69  1508.437
  70  1330.889
  71  1440.413
  72  1535.26
  73  1529.632
  74  1149.866
  75  1310.704
  76  1396.98
  77  1270.039
  78  1244.464
  79  1217.357
  80  1158.481
  81  1298.982
  82  1030.745
  83  790.2968
  84  1072.866
  85  909.111
  86  911.8123
  87  724.2914
  88  687.4921
  89  977.6244
  90  1077.279
  91  1269.509
  92  1251.548
  93  1147.593
  94  950.5019
  95  1190.113
  96  1114.73
  97  1424.729
  98  1515.177
  99  1468.859
 100  1228.749
 101  1223.246
 102  1243.2
 103  1479.198
 104  1263.572
 105  1380.346
 106  1400.317
 107  1504.406
 108  1374.961
 109  1447.241
 110  1297.498
 111  1277.316
 112  1010.265
 113  1230.751
 114  1352.766
 115  1614.431
 116  1412.515
 117  1487.367
 118  1525.585
 119  1067.443
 120  1062.344
 121  1201.062
 122  956.7155
 123  1039.041
 124  1414.099
 125  1665.983
 126  1303.487
 127  1132.251
 128  1384.768
 129  1249.802
 130  1062.053
 131  1138.491
 132  1365.508
 133  1107.15
 134  714.1083
 135  758.7282
 136  1026.652
 137  1013.456
 138  998.4969
 139  1022.948
 140  972.8176
 141  943.1747
 142  861.978
 143  956.3819
 144  1125.391
 145  1208.914
 146  1692.489
 147  1567.586
 148  1595.334
 149  1592.587
 150  1512.646
 151  1581.38
 152  1362.138
 153  1696.723
 154  1423.417
 155  1236.486
 156  1477.546
 157  1325.83
 158  1184.925
 159  1129.894
 160  1467.328
 161  1182.453
 162  925.2275
 163  784.3425
 164  963.2919
 165  1260.693
 166  1402.723
 167  1221.664
 168  1211.173
 169  1469.288
 170  1193.192
 171  1138.271
 172  1141.808
 173  1220.886
 174  1082.184
 175  873.5995
 176  810.3357
 177  940.1639
 178  685.3229
 179  845.8827
 180  1091.774
 181  1293.644
 182  1108.737
 183  1177.746
 184  1404.09
 185  1233.702
 186  1162.487
 187  1362.225
 188  1360.827
 189  1329.974
 190  1123.819
 191  1297.024
 192  1300.403
 193  1616.706
 194  1562.595
 195  1612.502
 196  1359.297
 197  1102.603
 198  1779.383
 199  1498.054
 200  1676.55
 201  1728.384
 202  1441.71
 203  1423.256
 204  1384.543
 205  1522.85
 206  1310.519
 207  1143.242
 208  1259.519
 209  1258.246
 210  1235.007
 211  1154.197
 212  1130.223
 213  1088.854
 214  969.6522
 215  1005.151
 216  870.612
 217  1196.753
 218  1501.977
 219  1364.91
 220  1042.112
 221  806.1697
 222  955.1527
 223  1422.139
 224  1357.299
 225  783.9854
 226  1123.208
 227  1394.056
 228  1131.373
 229  1142.881
 230  1261.228
 231  1728.906
 232  1770.39
 233  1524.54
 234  1738.696
 235  1615.076
 236  1427.118
 237  1528.235
 238  1303.28
 239  1130.675
 240  1257.728
 241  1467.785
 242  1611.949
 243  1355.106
 244  1359.185
 245  940.9736
 246  1111.225
 247  1481.286
 248  1766.54
 249  1380.857
 250  1012.409
 251  1178.786
 252  1242.353
 253  1236.047
 254  1205.113
 255  1410.707
 256  1495.87
 257  1362.125
 258  1691.148
 259  1600.988
 260  1293.396
 261  1141.412
 262  1436.563
 263  1233.771
 264  1068.007
 265  1271.959
 266  1547.964
 267  1650.06
 268  1324.823
 269  1137.379
 270  1734.518
 271  1771.983
 272  1494.999
 273  1462.01
 274  1409.138
 275  1505.504
 276  1753.562
 277  1568.477
 278  1654.715
 279  1504.348
 280  1325.428
 281  1413.317
 282  1710.829
 283  1688.324
 284  1645.822
 285  1391.825
 286  1462.696
 287  1366.261
 288  1391.492
 289  1523.028
 290  1614.132
 291  1442.999
 292  1364.911
 293  1376.589
 294  1701.442
 295  1539.229
 296  1070.267
 297  1377.483
 298  1627.551
 299  1273.924
 300  1407.283
 301  1519.057
 302  1660.681
 303  1837.811
 304  1429.596
 305  1105.651
 306  1207.205
 307  1515.318
 308  1799.483
 309  1399.336
 310  1576.451
 311  1272.436
 312  1123.124
 313  1124.228
 314  1431.752
 315  1726.046
 316  1578.187
 317  1403.927
 318  1565.126
 319  1253.458
 320  995.0596
 321  1358.582
 322  1534.016
 323  1552.385
 324  1744.509
 325  1925.353
 326  2253.755
 327  2273.297
 328  2624.435
 329  2566.578
 330  2586.626
 331  2005.133
 332  1585.44
 333  1232.157
 334  1386.966
 335  1321.469
 336  1225.776
 337  1407.706
 338  1391.77
 339  1337.637
 340  1448.241
 341  1201.729
 342  1206.457
 343  1538.024
 344  1628.411
 345  1311.659
 346  921.8192
 347  1178.05
 348  1357.784
 349  1505.835
 350  1312.815
 351  1375.981
 352  1568.611
 353  1543.853
 354  1280.299
 355  1029.743
 356  1407.831
 357  1486.811
 358  1394.402
 359  1636.841
 360  1262.816
 361  1319.322
 362  1221.377
 363  1133.427
 364  1341.089
 365  1332.811
 366  1652.348
 367  2029.388
 368  1562.535
 369  1445.85
 370  1094.978
 371  941.0113
 372  1031.724
 373  897.6712
 374  980.2461
 375  1257.564
 376  1295.951
 377  1165.605
 378  989.5354
 379  1001.874
 380  1064.209
 381  782.3143
 382  1016.233
 383  1257.272
 384  833.0962
 385  566.923
 386  798.9929
 387  934.8483
 388  1349.369
 389  1334.423
 390  1129.725
 391  873.0564
 392  1300.977
 393  1043.394
 394  934.3675
 395  797.7452
 396  1049.132
 397  1204.822
 398  1130.584
 399  1434.7
 400  1398.59
 401  1020.071
 402  1375.109
 403  1341.226
 404  1157.635
 405  1317.771
 406  1610.826
 407  1744.988
 408  1719.829
 409  1686.165
 410  1785.542
 411  1722.411
 412  1444.128
 413  1623.73
 414  1888.793
 415  1771.459
 416  1265.059
 417  1382.38
 418  1451.887
 419  1335.729
 420  1524.936
 421  1335.141
 422  907.0685
 423  813.2079
 424  1128.132
 425  1245.108
 426  1239.914
 427  1257.116
 428  1325.203
 429  1179.187
 430  1158.884
 431  1353.875
 432  1299.352
 433  1169.504
 434  1122.33
 435  909.1173
 436  1142.143
 437  1035.927
 438  1169.27
 439  1082.327
 440  810.2561
 441  1004.661
 442  1389.037
 443  1468.333
 444  1347.227
 445  1653.248
 446  1498.665
 447  1431.342
 448  1165.458
 449  1549.545
 450  1455.563
 451  1584.694
 452  1495.308
 453  1690.602
 454  1567.569
 455  1815.601
 456  1775.645
 457  1744.911
 458  1764.207
 459  1463.327
 460  1496.677
 461  1432.245
 462  1465.85
 463  1502.878
 464  1209.48
 465  1059.329
 466  1412.604
 467  1476.515
 468  1510.651
 469  1499.142
 470  1307.695
 471  1674.389
 472  1365.961
 473  1160.333
 474  1210.695
 475  1112.518
 476  1217.769
 477  1124.547
 478  1281.578
 479  1517.771
 480  1363.894
 481  1275.306
 482  1224.79
 483  1189.265
 484  1195.396
 485  1324.636
 486  1025.179
 487  1247.389
 488  1512.705
 489  1516.432
 490  1625.764
 491  1456.102
 492  1387.85
 493  1363.118
 494  1396.901
 495  1505.699
 496  1266.989
 497  1440.386
 498  1472.48
 499  1708.794
 500  1652.291
 501  1712.407
 502  1341.055
 503  1208.669
 504  1408.361
 505  1141.125
 506  1337.954
 507  1214.176
 508  1166.861
 509  1275.255
 510  1444.381
 511  1591.87
