# Input file       =  1180868747.104038_cleaned.dat
# Candidate        =  PSR_0332+5434
# Telescope        =  AR
# Epoch_topo       =  57911.462570648589
# Epoch_bary       =  N/A
# T_sample         =  0.002
# Data Folded      =  7340032
# Data Avg         =  0.101139117546803
# Data StdDev      =  3.11239138771814 
# Profile Bins     =  512
# Profile Avg      =  1449.48294398463 
# Profile StdDev   =  372.656071244389 
# Reduced chi-sqr  =  0.972
# Prob(Noise)      <  0.665   (~0.0 sigma)
# P_topo (ms)      =  714.510669599967  +/- 0.000355
# P'_topo (s/s)    =  -0                +/- 1.87e-10
# P''_topo (s/s^2) =  0                 +/- 8.27e-14
# P_bary (ms)      =  N/A
# P'_bary (s/s)    =  N/A
# P''_bary (s/s^2) =  N/A
# P_orb (s)        =  N/A
# asin(i)/c (s)    =  N/A
# eccentricity     =  N/A
# w (rad)          =  N/A
# T_peri           =  N/A
######################################################
   0  1173.515
   1  885.8016
   2  606.6949
   3  1130.038
   4  1139.444
   5  1112.891
   6  1287.351
   7  1304.029
   8  1242.062
   9  1120.19
  10  855.1531
  11  1115.692
  12  1286.531
  13  1428.401
  14  1439.076
  15  1487.658
  16  1417.083
  17  1192.98
  18  1386.596
  19  1638.108
  20  1377.82
  21  1329.637
  22  1631.429
  23  1411.283
  24  1682.635
  25  1613.176
  26  1853.084
  27  1459.865
  28  1383.443
  29  1420.225
  30  1590.889
  31  1521.911
  32  1620.527
  33  1790.792
  34  1464.538
  35  1447.731
  36  1390.468
  37  1736.262
  38  1883.118
  39  1624.547
  40  1400.908
  41  1388.519
  42  1582.785
  43  1804.364
  44  1529.453
  45  1730.424
  46  1715.43
  47  1572.369
  48  1656.609
  49  1100.924
  50  1686.336
  51  1765.059
  52  1640.827
  53  1419.293
  54  1484.156
  55  1461.519
  56  1723.526
  57  1838.061
  58  1731.347
  59  1698.629
  60  1607.421
  61  1659.811
  62  1587.043
  63  1656.44
  64  1899.255
  65  1516.1
  66  1501.802
  67  1343.144
  68  1381.024
  69  1401.675
  70  1386.023
  71  1253.559
  72  1540.759
  73  1530.236
  74  1360.508
  75  1149.957
  76  1320.974
  77  1566.66
  78  1210.276
  79  1101.097
  80  1587.753
  81  1568.78
  82  990.2847
  83  905.2813
  84  1334.828
  85  1293.311
  86  878.0751
  87  917.0003
  88  1167.919
  89  1597.272
  90  1749.933
  91  1350.919
  92  1493.394
  93  1487.812
  94  1235.048
  95  1411.663
  96  1527.292
  97  1673.946
  98  1706.19
  99  1866.184
 100  1647.727
 101  1410.616
 102  1715.442
 103  1666.564
 104  1625.656
 105  1513.928
 106  1637.759
 107  1426.117
 108  1383.771
 109  1518.562
 110  1639.86
 111  1463.84
 112  1410.432
 113  1444.57
 114  1655.964
 115  1636.028
 116  1622.241
 117  1934.888
 118  1611.789
 119  1382.188
 120  1333.63
 121  1366.228
 122  1637.846
 123  1840.077
 124  1787.542
 125  1744.197
 126  1703.907
 127  1828.819
 128  1749.365
 129  1357.628
 130  1504.929
 131  1393.897
 132  1155.654
 133  1504.368
 134  1879.329
 135  1832.998
 136  1684.587
 137  1399.071
 138  1550.265
 139  1193.392
 140  1164.728
 141  1410.25
 142  1280.156
 143  1115.735
 144  1070.992
 145  1095.231
 146  1127.693
 147  1367.829
 148  1451.314
 149  1141.924
 150  1016.258
 151  1128.484
 152  1227.561
 153  1060.458
 154  1073.485
 155  1219.923
 156  1154.557
 157  1233.928
 158  1329.346
 159  1518.433
 160  1196.075
 161  1179.134
 162  1332.175
 163  1220.174
 164  1189.013
 165  1209.771
 166  1158.15
 167  1324.291
 168  1538.156
 169  1689.61
 170  1647.396
 171  1861.191
 172  1699.092
 173  1569.903
 174  1549.633
 175  1336.872
 176  1439.027
 177  1296.284
 178  1081.078
 179  1297.066
 180  1460.049
 181  1408.563
 182  1328.115
 183  1840.564
 184  1766.11
 185  1427.683
 186  1432.594
 187  1333.969
 188  1571.488
 189  1567.326
 190  1627.205
 191  1806.539
 192  1765.098
 193  1231.786
 194  1517.968
 195  1859.636
 196  1882.877
 197  1530.012
 198  1252.443
 199  1425.664
 200  1272.383
 201  1502.411
 202  1647.04
 203  1777.697
 204  1461.528
 205  1447.477
 206  1456.823
 207  1437.717
 208  1716.372
 209  1542.745
 210  1571.796
 211  1712.159
 212  1628.279
 213  1563.973
 214  1663.661
 215  1380.072
 216  1355.504
 217  1402.259
 218  1443.147
 219  1305.312
 220  1419.003
 221  1499.989
 222  1245.454
 223  1373.574
 224  1179.972
 225  1284.005
 226  1439.495
 227  1296.843
 228  1403.312
 229  1420.829
 230  1188.095
 231  1357.077
 232  1428.772
 233  1613.284
 234  1709.792
 235  1536.396
 236  1715.075
 237  1605.564
 238  1461.808
 239  1338.888
 240  1062.145
 241  1151.432
 242  1090.977
 243  1373.456
 244  1387.427
 245  1230.567
 246  1169.77
 247  1117.016
 248  876.8009
 249  599.7888
 250  785.9012
 251  629.7014
 252  742.7487
 253  1186.105
 254  1385.466
 255  828.2882
 256  859.2806
 257  890.1913
 258  888.3977
 259  1142.77
 260  1412.598
 261  1324.044
 262  1381.119
 263  1421.159
 264  1243.342
 265  1140.883
 266  1232.686
 267  1315.649
 268  1469.502
 269  1437.617
 270  1601.35
 271  1673.214
 272  1095.122
 273  1139.462
 274  1197.038
 275  1351.413
 276  1533.469
 277  1355.424
 278  1640.229
 279  1506.477
 280  1479.728
 281  1259.737
 282  1144.474
 283  1127.844
 284  1406.855
 285  1445.544
 286  1429.681
 287  1230.787
 288  1360.935
 289  1296.255
 290  1181.84
 291  1324.182
 292  1306.228
 293  1262.073
 294  1267.531
 295  1497.633
 296  1601.277
 297  1564.457
 298  1489.518
 299  1716.553
 300  1853.247
 301  1709.562
 302  1300.257
 303  1303.37
 304  1336.741
 305  1390.608
 306  1482.8
 307  1463.414
 308  1405.001
 309  1566.643
 310  1206.794
 311  1483.188
 312  1616.257
 313  1596.339
 314  1422.708
 315  1670.823
 316  1629.603
 317  1619.314
 318  1532.972
 319  1619.852
 320  1550.963
 321  1676.197
 322  1971.534
 323  1978.5
 324  1717.951
 325  1910.908
 326  2315.28
 327  2654.307
 328  2538.017
 329  2540.86
 330  2184.985
 331  1695.07
 332  1450.935
 333  1485.762
 334  1322.344
 335  1412.43
 336  1251.54
 337  1426.504
 338  1472.858
 339  1589.238
 340  1640.692
 341  1823.973
 342  1803.061
 343  1933.332
 344  1721.253
 345  1650.079
 346  1533.255
 347  1364.867
 348  1512.531
 349  1644.25
 350  1624.507
 351  1248.868
 352  1499.678
 353  1417.922
 354  1698.773
 355  1634.499
 356  1595.05
 357  1557.476
 358  1438.281
 359  1291.422
 360  1064.037
 361  1454.163
 362  1793.597
 363  1858.255
 364  1356.502
 365  1446.647
 366  1761.015
 367  1598.171
 368  1605.88
 369  1484.107
 370  1511.975
 371  1632.439
 372  1591.708
 373  1482.002
 374  1542.977
 375  1521.747
 376  1446.218
 377  1590.157
 378  1590.259
 379  1506.437
 380  1362.793
 381  1605.85
 382  1759.773
 383  1700.607
 384  1720.811
 385  1453.995
 386  1477.309
 387  1569.528
 388  1633.319
 389  1611.056
 390  1797.525
 391  1670.77
 392  1401.558
 393  1407.924
 394  1529.998
 395  1509.947
 396  1768.347
 397  1537.408
 398  1563.1
 399  1913.723
 400  1860.334
 401  1720.047
 402  1827.927
 403  1796.88
 404  1490.757
 405  1409.378
 406  1443.027
 407  1248.598
 408  1172.142
 409  1316.826
 410  1394.229
 411  1476.447
 412  1238.256
 413  1150.731
 414  865.2552
 415  963.0505
 416  1091.071
 417  1100.42
 418  1223.292
 419  1321.626
 420  1586.595
 421  1512.007
 422  1128.495
 423  963.5137
 424  1037.189
 425  1316.516
 426  1309.282
 427  1627.516
 428  1650.898
 429  1722.284
 430  1487.825
 431  1723.542
 432  1680.61
 433  1574.632
 434  1731.75
 435  1657.913
 436  1372.988
 437  1593.231
 438  1631.267
 439  1522.259
 440  1442.042
 441  1711.688
 442  1435.798
 443  1492.674
 444  1603.577
 445  1787.15
 446  1861.534
 447  1734.466
 448  1681.362
 449  1636.421
 450  1683.079
 451  1645.786
 452  1464.138
 453  1779.978
 454  1710.894
 455  1147.302
 456  1301.701
 457  1660.699
 458  1362.198
 459  1141.396
 460  1162.013
 461  1448.369
 462  1572.965
 463  1657.587
 464  1623.127
 465  1559.956
 466  1288.484
 467  1425.27
 468  1518.501
 469  1650.225
 470  1653.876
 471  1473.003
 472  1384.431
 473  1542.599
 474  1482.925
 475  1670.363
 476  1732.981
 477  1641.571
 478  1137.009
 479  1369.482
 480  1563.818
 481  1494.481
 482  1508.569
 483  1803.921
 484  1788.675
 485  1369.925
 486  1321.165
 487  1181.555
 488  1360.373
 489  1348.249
 490  1510.499
 491  1569.635
 492  1447.428
 493  1494.968
 494  1298.754
 495  1208.253
 496  1011.379
 497  1002.539
 498  1060.938
 499  869.9148
 500  1048.332
 501  1075.774
 502  1127.013
 503  1021.323
 504  990.7645
 505  1007.798
 506  844.0928
 507  858.877
 508  1047.947
 509  890.7079
 510  810.0076
 511  1122.952
