# Input file       =  1180868747.104038_cleaned.dat
# Candidate        =  PSR_0332+5434
# Telescope        =  AR
# Epoch_topo       =  57911.462570648589
# Epoch_bary       =  N/A
# T_sample         =  0.002
# Data Folded      =  7340032
# Data Avg         =  0.101139117546803
# Data StdDev      =  3.11239138771814 
# Profile Bins     =  512
# Profile Avg      =  1449.48294399067 
# Profile StdDev   =  372.656071244389 
# Reduced chi-sqr  =  0.968
# Prob(Noise)      <  0.691   (~0.0 sigma)
# P_topo (ms)      =  714.510669645947  +/- 0.000344
# P'_topo (s/s)    =  -0                +/- 1.81e-10
# P''_topo (s/s^2) =  0                 +/- 8.01e-14
# P_bary (ms)      =  N/A
# P'_bary (s/s)    =  N/A
# P''_bary (s/s^2) =  N/A
# P_orb (s)        =  N/A
# asin(i)/c (s)    =  N/A
# eccentricity     =  N/A
# w (rad)          =  N/A
# T_peri           =  N/A
######################################################
   0  1517.565
   1  1820.958
   2  1577.534
   3  1639.629
   4  1772.437
   5  1573.423
   6  1711.807
   7  1185.302
   8  1483.869
   9  1820.211
  10  1664.786
  11  1469.749
  12  1458.883
  13  1478.588
  14  1634.73
  15  1833.523
  16  1753.19
  17  1705.453
  18  1652.681
  19  1604.486
  20  1669.288
  21  1539.637
  22  1927.683
  23  1575.08
  24  1537.996
  25  1356.664
  26  1395.657
  27  1368.211
  28  1406.104
  29  1241.467
  30  1445.756
  31  1625.499
  32  1356.569
  33  1239.991
  34  1185.284
  35  1607.97
  36  1312.576
  37  1068.109
  38  1419.725
  39  1672.474
  40  1156.8
  41  848.8243
  42  1234.189
  43  1367.499
  44  960.5952
  45  854.9452
  46  1081.162
  47  1482.846
  48  1772.755
  49  1481.689
  50  1365.289
  51  1593.434
  52  1219.511
  53  1386.806
  54  1466.224
  55  1680.589
  56  1696.024
  57  1825.14
  58  1752.976
  59  1380.916
  60  1683.141
  61  1677.817
  62  1658.556
  63  1522.394
  64  1591.154
  65  1529.049
  66  1346.057
  67  1498.971
  68  1597.007
  69  1534.847
  70  1392.667
  71  1440.59
  72  1588.418
  73  1682.427
  74  1570.623
  75  1892.982
  76  1729.208
  77  1406.709
  78  1381.336
  79  1302.155
  80  1581.342
  81  1772.687
  82  1821.872
  83  1725.604
  84  1739.2
  85  1766.396
  86  1869.989
  87  1370.862
  88  1478.959
  89  1465.897
  90  1202.864
  91  1373.311
  92  1792.311
  93  1875.693
  94  1740.08
  95  1454.985
  96  1485.438
  97  1327.328
  98  1079.983
  99  1393.004
 100  1355.222
 101  1146.872
 102  1061.391
 103  1112.537
 104  1074.527
 105  1295.643
 106  1455.373
 107  1243.999
 108  993.9997
 109  1146.12
 110  1181.813
 111  1143.69
 112  985.8958
 113  1230.975
 114  1194.761
 115  1161.928
 116  1326.903
 117  1460.321
 118  1336.698
 119  1114.633
 120  1334.838
 121  1243.323
 122  1172.349
 123  1252.185
 124  1104.315
 125  1330.562
 126  1431.889
 127  1725.865
 128  1580.486
 129  1829.265
 130  1796.915
 131  1565.002
 132  1594.898
 133  1363.517
 134  1386.89
 135  1394.108
 136  1085.272
 137  1231.414
 138  1432.827
 139  1441.468
 140  1307.548
 141  1687.567
 142  1877.545
 143  1493.384
 144  1400.682
 145  1380.211
 146  1469.097
 147  1627.961
 148  1571.195
 149  1741.322
 150  1848.407
 151  1311.292
 152  1413.319
 153  1792.479
 154  1906.76
 155  1658.672
 156  1260.467
 157  1416.82
 158  1320.916
 159  1405.287
 160  1588.501
 161  1782.863
 162  1553.234
 163  1466.092
 164  1432.221
 165  1409.302
 166  1633.161
 167  1636.986
 168  1508.448
 169  1709.396
 170  1701.199
 171  1507.929
 172  1675.488
 173  1453.868
 174  1367.438
 175  1380.679
 176  1446.634
 177  1338.149
 178  1356.44
 179  1532.878
 180  1263.358
 181  1344.717
 182  1248.186
 183  1230.411
 184  1411.992
 185  1352.796
 186  1364.554
 187  1450.065
 188  1234.768
 189  1255.656
 190  1458.609
 191  1506.239
 192  1782.242
 193  1530.72
 194  1653.897
 195  1684.999
 196  1432.863
 197  1437.358
 198  1099.19
 199  1130.178
 200  1105.336
 201  1262.093
 202  1452.207
 203  1245.121
 204  1180.479
 205  1134.849
 206  965.71
 207  629.6676
 208  736.2783
 209  686.1517
 210  653.272
 211  1072.044
 212  1403.891
 213  993.9431
 214  776.9276
 215  935.8002
 216  842.8727
 217  1075.072
 218  1344.444
 219  1383.892
 220  1319.727
 221  1474.979
 222  1265.595
 223  1138.501
 224  1200.27
 225  1306.73
 226  1453.576
 227  1457.169
 228  1484.564
 229  1756.503
 230  1217.369
 231  1099.775
 232  1184.136
 233  1283.26
 234  1554.798
 235  1370.372
 236  1554.835
 237  1552.17
 238  1500.619
 239  1309.94
 240  1168.042
 241  1083.464
 242  1364.044
 243  1461.073
 244  1449.397
 245  1275.09
 246  1306.659
 247  1332.417
 248  1209.519
 249  1262.712
 250  1360.406
 251  1233.498
 252  1264.025
 253  1394.303
 254  1638.681
 255  1564.394
 256  1526.066
 257  1593.835
 258  1849.848
 259  1779.292
 260  1388.829
 261  1298.583
 262  1334.671
 263  1349.969
 264  1421.422
 265  1530.092
 266  1386.746
 267  1608.323
 268  1256.894
 269  1378.607
 270  1606.436
 271  1608.843
 272  1462.421
 273  1565.444
 274  1695.097
 275  1610.043
 276  1575.628
 277  1570.163
 278  1585.207
 279  1603.452
 280  1910.793
 281  1983.729
 282  1806.44
 283  1801.459
 284  2189.819
 285  2611.309
 286  2601.632
 287  2492.365
 288  2371.445
 289  1752.329
 290  1547.009
 291  1440.137
 292  1379.635
 293  1361.932
 294  1322.885
 295  1335.12
 296  1470.542
 297  1593.642
 298  1574.74
 299  1823.014
 300  1777.483
 301  1920.776
 302  1793.655
 303  1629.924
 304  1604.45
 305  1386.137
 306  1460.995
 307  1636.965
 308  1690.401
 309  1260.204
 310  1456.385
 311  1402.711
 312  1661.385
 313  1660.57
 314  1630.733
 315  1540.394
 316  1499.301
 317  1322.26
 318  1085.898
 319  1319.546
 320  1722.331
 321  1905.722
 322  1470.268
 323  1371.078
 324  1712.009
 325  1664.08
 326  1575.589
 327  1535.603
 328  1460.163
 329  1620.798
 330  1633.558
 331  1504.121
 332  1529.564
 333  1534.917
 334  1426.442
 335  1552.119
 336  1607.43
 337  1521.3
 338  1418.538
 339  1499.996
 340  1753.221
 341  1713.353
 342  1705.047
 343  1535.081
 344  1443.497
 345  1546.662
 346  1669.608
 347  1555.015
 348  1790.986
 349  1710.116
 350  1474.479
 351  1361.338
 352  1523.482
 353  1499.729
 354  1661.424
 355  1714.455
 356  1449.713
 357  1864.563
 358  1890.722
 359  1731.299
 360  1813.513
 361  1817.234
 362  1575.009
 363  1408.563
 364  1423.735
 365  1329.765
 366  1140.506
 367  1301.707
 368  1344.724
 369  1532.503
 370  1269.947
 371  1206.808
 372  878.8726
 373  964.6563
 374  1040.292
 375  1129.201
 376  1159.421
 377  1305.623
 378  1498.863
 379  1594.121
 380  1199.855
 381  989.0774
 382  975.1393
 383  1287.026
 384  1275.208
 385  1562.397
 386  1656.627
 387  1734.721
 388  1545.226
 389  1638.499
 390  1697.262
 391  1568.996
 392  1671.676
 393  1754.833
 394  1419.069
 395  1496.816
 396  1681.5
 397  1558.649
 398  1428.802
 399  1645.264
 400  1548.053
 401  1415.22
 402  1601.065
 403  1729.956
 404  1875.341
 405  1768.202
 406  1674.046
 407  1655.565
 408  1630.687
 409  1723.717
 410  1447.429
 411  1718.657
 412  1744.449
 413  1322.093
 414  1150.365
 415  1644.978
 416  1476.386
 417  1134.217
 418  1183.437
 419  1350.331
 420  1564.919
 421  1607.561
 422  1682.837
 423  1581.019
 424  1325.201
 425  1380.032
 426  1478.917
 427  1637.09
 428  1666.043
 429  1508.59
 430  1374.492
 431  1539.364
 432  1474.756
 433  1635.736
 434  1730.218
 435  1689.746
 436  1251.785
 437  1245.191
 438  1581.874
 439  1479.481
 440  1503.417
 441  1709.651
 442  1888.805
 443  1420.216
 444  1363.495
 445  1172.025
 446  1323.646
 447  1340.35
 448  1454.713
 449  1588.044
 450  1487.119
 451  1446.307
 452  1374.889
 453  1216.326
 454  1118.609
 455  941.7511
 456  1109.825
 457  902.2775
 458  971.9066
 459  1104.26
 460  1091.921
 461  1071.235
 462  978.5822
 463  993.1995
 464  912.5944
 465  817.8011
 466  1019.516
 467  956.0367
 468  772.7699
 469  1043.324
 470  1201.957
 471  986.5828
 472  608.1626
 473  981.4877
 474  1161.869
 475  1138.737
 476  1202.397
 477  1384.085
 478  1190.481
 479  1211.701
 480  883.1144
 481  1022.816
 482  1257.035
 483  1375.629
 484  1421.384
 485  1505.199
 486  1450.328
 487  1291.216
 488  1261.121
 489  1646.829
 490  1434.855
 491  1271.984
 492  1601.693
 493  1431.888
 494  1636.812
 495  1620.045
 496  1818.862
 497  1583.916
 498  1357.768
 499  1395.032
 500  1547.408
 501  1570.684
 502  1541.419
 503  1793.313
 504  1527.12
 505  1480.888
 506  1380.11
 507  1622.889
 508  1911.028
 509  1677.672
 510  1469.743
 511  1316.516
