# Input file       =  1180179408.10232_cleaned.dat
# Candidate        =  PSR_0332+5434
# Telescope        =  AR
# Epoch_topo       =  57903.484109980556
# Epoch_bary       =  N/A
# T_sample         =  0.002
# Data Folded      =  7340032
# Data Avg         =  0.0973875365608757
# Data StdDev      =  3.13017929641411 
# Profile Bins     =  512
# Profile Avg      =  1396.09582722761 
# Profile StdDev   =  374.785871563351 
# Reduced chi-sqr  =  1.305
# Prob(Noise)      <  3.91e-06   (~4.5 sigma)
# P_topo (ms)      =  714.518401132372  +/- 0.000296
# P'_topo (s/s)    =  -0                +/- 1.56e-10
# P''_topo (s/s^2) =  0                 +/- 6.89e-14
# P_bary (ms)      =  N/A
# P'_bary (s/s)    =  N/A
# P''_bary (s/s^2) =  N/A
# P_orb (s)        =  N/A
# asin(i)/c (s)    =  N/A
# eccentricity     =  N/A
# w (rad)          =  N/A
# T_peri           =  N/A
######################################################
   0  1702.814
   1  1476.796
   2  1649.929
   3  1791.286
   4  1552.536
   5  1484.113
   6  1335.056
   7  1292.769
   8  1324.018
   9  1429.041
  10  1369.849
  11  1591.341
  12  1711.077
  13  1696.233
  14  2165.822
  15  1771.284
  16  1567.516
  17  1715.542
  18  1776.459
  19  1659.577
  20  1350.965
  21  1175.257
  22  1031.031
  23  1199.219
  24  1691.068
  25  1837.329
  26  1437.104
  27  1581.28
  28  1388.358
  29  1690.927
  30  1745.516
  31  1356.962
  32  1262.449
  33  1326.163
  34  1591.231
  35  1494.494
  36  1375.63
  37  1465.379
  38  1466.431
  39  1095.173
  40  1423.634
  41  1285.285
  42  1326.505
  43  1349.87
  44  1316.667
  45  1604.649
  46  1353.421
  47  1347.835
  48  1081.293
  49  1125.284
  50  1447.533
  51  1530.635
  52  1644.39
  53  2020.391
  54  1737.776
  55  1640.308
  56  1661.267
  57  1555.677
  58  1275.874
  59  1359.338
  60  1855.337
  61  1708.01
  62  1784.746
  63  1680.687
  64  1898.008
  65  1986.904
  66  1767.191
  67  1599.95
  68  1501.999
  69  1342.02
  70  1637.578
  71  2069.181
  72  2183.169
  73  1825.415
  74  1720.063
  75  1683.205
  76  1591.704
  77  1697.038
  78  1650.425
  79  1788.917
  80  1642.904
  81  2028.023
  82  2192.012
  83  2380.18
  84  2822.404
  85  3027.136
  86  2544.43
  87  1532.313
  88  1444.823
  89  1793.781
  90  1471.686
  91  1392.949
  92  1705.564
  93  1644.279
  94  1581.411
  95  1726.94
  96  1806.182
  97  1744.789
  98  1672.576
  99  1595.804
 100  1321.405
 101  1577.68
 102  1829.495
 103  1752.212
 104  1490.76
 105  1679.441
 106  1636.308
 107  1621.633
 108  2020.323
 109  2042.712
 110  1539.609
 111  1646.769
 112  1574.087
 113  1718.121
 114  1738.144
 115  1416.726
 116  1793.144
 117  1793.849
 118  1642.524
 119  1478.644
 120  1093.088
 121  1192.996
 122  1397.562
 123  1327.375
 124  1155.846
 125  1107.533
 126  1153.632
 127  1116.267
 128  1306.495
 129  1377.017
 130  1171.223
 131  992.7565
 132  1296.629
 133  1205.325
 134  1451.409
 135  1417.014
 136  1169.58
 137  1095.127
 138  1374.85
 139  1585.336
 140  1115.64
 141  1470.704
 142  1786.859
 143  1453.001
 144  1505.086
 145  1654.294
 146  1609.033
 147  1863.052
 148  1717.07
 149  1483.58
 150  1410.482
 151  1338.745
 152  1471.803
 153  1366.644
 154  1456.119
 155  1200.367
 156  1129.593
 157  1404.854
 158  1844.244
 159  1705.519
 160  1414.948
 161  1223.277
 162  1200.347
 163  1264.149
 164  1360.88
 165  1557.313
 166  1508.619
 167  1412.175
 168  1198.97
 169  1119.133
 170  1213.304
 171  1207.464
 172  1291.152
 173  1416.581
 174  1745.235
 175  1845.365
 176  1490.351
 177  1701.972
 178  1468.698
 179  1422.163
 180  1751.072
 181  1954.901
 182  1923.871
 183  1807.807
 184  1628.192
 185  1613.719
 186  1414.156
 187  1429.777
 188  1542.374
 189  1315.76
 190  1436.746
 191  1315.312
 192  1444.639
 193  1604.693
 194  1623.163
 195  1693.009
 196  1395.925
 197  1442.481
 198  1131.763
 199  1301.61
 200  1261.209
 201  834.6722
 202  678.1418
 203  477.6042
 204  667.4358
 205  1041.222
 206  966.5601
 207  1145.553
 208  1227.082
 209  1094.226
 210  1310.593
 211  1133.283
 212  972.9621
 213  1067.016
 214  1201.338
 215  1296.943
 216  1284.458
 217  1508.751
 218  1277.477
 219  1003.076
 220  1140.949
 221  1548.52
 222  1404.776
 223  1362.091
 224  1583.788
 225  1559.227
 226  1468.814
 227  1696.405
 228  1403.479
 229  1517.776
 230  1473.725
 231  1379.247
 232  1622.266
 233  1499.885
 234  1434.75
 235  1207.369
 236  1416.217
 237  1418.357
 238  1403.284
 239  1587.485
 240  1638.611
 241  1260.99
 242  1245.702
 243  1367.399
 244  998.3793
 245  748.7568
 246  943.3704
 247  1345.841
 248  1676.885
 249  1240.468
 250  1280.334
 251  1366.79
 252  1563.65
 253  1159.412
 254  1195.79
 255  1212.672
 256  885.8479
 257  1324.244
 258  1342.242
 259  1388.003
 260  1311.324
 261  1139.843
 262  700.6913
 263  967.4628
 264  1339.582
 265  1118.981
 266  1439.77
 267  1254.486
 268  1337.127
 269  1535.557
 270  1346.949
 271  1478.618
 272  1326.261
 273  1507.543
 274  1439.521
 275  1306.994
 276  1446.797
 277  1583.015
 278  1526.311
 279  1305.983
 280  1417.106
 281  1338.975
 282  1476.992
 283  1569.988
 284  1714.402
 285  1795.242
 286  1481.46
 287  1405.375
 288  1674.66
 289  1414.363
 290  1304.583
 291  1259.922
 292  1195.99
 293  1322.346
 294  931.5774
 295  1021.663
 296  897.7217
 297  922.3503
 298  1081.033
 299  1340.959
 300  1196.149
 301  857.9413
 302  903.2668
 303  1501.4
 304  1282.744
 305  1120.495
 306  1514.077
 307  1497.43
 308  1417.149
 309  1073.98
 310  1323.462
 311  1483.63
 312  1597.722
 313  1290.204
 314  1091.318
 315  1274.446
 316  1254.972
 317  1474.596
 318  1519.269
 319  1323.217
 320  1166.392
 321  988.8438
 322  940.218
 323  1080.823
 324  1470.204
 325  1459.005
 326  1060.492
 327  1294.365
 328  1076.138
 329  1078.276
 330  1198.048
 331  1487.5
 332  1015.111
 333  794.754
 334  860.0822
 335  790.974
 336  1016.304
 337  432.8392
 338  758.6429
 339  1027.896
 340  1289.708
 341  1167.796
 342  712.9384
 343  1073.753
 344  945.6111
 345  874.5876
 346  669.3222
 347  656.9477
 348  796.8566
 349  925.3824
 350  1117.157
 351  925.64
 352  1223.027
 353  1076.071
 354  900.807
 355  1019.38
 356  772.9952
 357  1063.999
 358  970.4854
 359  992.387
 360  1011.098
 361  1239.757
 362  1090.988
 363  1004.791
 364  1084.525
 365  1122.23
 366  1276.577
 367  1342.934
 368  1019.648
 369  1163.751
 370  1057.009
 371  1113.556
 372  1158.258
 373  1103.953
 374  1074.742
 375  1580.39
 376  1407.644
 377  992.0958
 378  1165.762
 379  1050.171
 380  968.8965
 381  1212.574
 382  1365.978
 383  1425.815
 384  1574.852
 385  1575.415
 386  1328.246
 387  1084.138
 388  933.8397
 389  1250.917
 390  1293.723
 391  1301.662
 392  1125.758
 393  1201.903
 394  1290.703
 395  1298.041
 396  1104.5
 397  929.0166
 398  1016.637
 399  1304.753
 400  1097.185
 401  875.8033
 402  1039.794
 403  1066.675
 404  1046.733
 405  1300.554
 406  1165.71
 407  1327.807
 408  1355.336
 409  1404.62
 410  1252.622
 411  1166.371
 412  1133.064
 413  1129.042
 414  833.3481
 415  848.9349
 416  1387.816
 417  1730.332
 418  1583.587
 419  1283.57
 420  1257.502
 421  1359.862
 422  1285.47
 423  1209.192
 424  1491.833
 425  1584.966
 426  1295.276
 427  1347.091
 428  1748.997
 429  1673.708
 430  1567.897
 431  1457.605
 432  1279.539
 433  1497.569
 434  1657.76
 435  1495.094
 436  1504.925
 437  1175.152
 438  1085.622
 439  1422.728
 440  1788.469
 441  2112.172
 442  2022.46
 443  1931.509
 444  1890.628
 445  1952.349
 446  1391.887
 447  1483.291
 448  1596.601
 449  1486.543
 450  1723.408
 451  1594.761
 452  1753.342
 453  1589.696
 454  1767.582
 455  1824.083
 456  1715.103
 457  1458.942
 458  1537.765
 459  1857.571
 460  1532.528
 461  1466.093
 462  1429.366
 463  1406.698
 464  1527.347
 465  1683.392
 466  1603.213
 467  1473.849
 468  1355.533
 469  1137.971
 470  929.3574
 471  1012.556
 472  1162.096
 473  1017.396
 474  1150.852
 475  1164.429
 476  1353.172
 477  1296.611
 478  1422.031
 479  1628.906
 480  1333.308
 481  1346.922
 482  1365.435
 483  1515.842
 484  1423.716
 485  1295.199
 486  947.0941
 487  1549.387
 488  1472.428
 489  1382.873
 490  1506.88
 491  1722.489
 492  1655.591
 493  1481.243
 494  1686.805
 495  1585.651
 496  1503.314
 497  1480.592
 498  1421.456
 499  1740.017
 500  1706.054
 501  1512.081
 502  1329.753
 503  1299.228
 504  1317.986
 505  1595.154
 506  1694.804
 507  1790.672
 508  1830.095
 509  2059.752
 510  1930.932
 511  1545.87
