# Input file       =  1180250726.097181_cleaned.dat
# Candidate        =  PSR_0332+5434
# Telescope        =  AR
# Epoch_topo       =  57904.309549735895
# Epoch_bary       =  N/A
# T_sample         =  0.002
# Data Folded      =  7340032
# Data Avg         =  0.105452935581395
# Data StdDev      =  2.91841880558211 
# Profile Bins     =  512
# Profile Avg      =  1511.92287584167 
# Profile StdDev   =  349.431145011401 
# Reduced chi-sqr  =  1.366
# Prob(Noise)      <  6.68e-08   (~5.3 sigma)
# P_topo (ms)      =  714.517259207823  +/- 0.000231
# P'_topo (s/s)    =  -0                +/- 1.22e-10
# P''_topo (s/s^2) =  0                 +/- 5.37e-14
# P_bary (ms)      =  N/A
# P'_bary (s/s)    =  N/A
# P''_bary (s/s^2) =  N/A
# P_orb (s)        =  N/A
# asin(i)/c (s)    =  N/A
# eccentricity     =  N/A
# w (rad)          =  N/A
# T_peri           =  N/A
######################################################
   0  1862.952
   1  1596.008
   2  1482.077
   3  966.262
   4  1176.033
   5  1533.958
   6  1440.547
   7  1339.391
   8  1179.777
   9  1126.54
  10  1040.336
  11  816.3065
  12  817.8385
  13  1017.979
  14  1002.985
  15  1149.495
  16  1236.587
  17  1379.737
  18  1182.798
  19  1127.193
  20  1044.828
  21  1008.396
  22  1271.42
  23  1603.692
  24  1954.17
  25  1716.284
  26  1441.245
  27  1286.663
  28  1491.196
  29  1664.912
  30  1819.917
  31  1772.081
  32  1595.609
  33  1670.711
  34  1608.587
  35  1820.576
  36  1821.694
  37  1451.152
  38  1501.418
  39  1442.981
  40  1600.756
  41  1675.653
  42  1643.317
  43  1592.016
  44  1642.213
  45  1478.917
  46  1716.409
  47  1727.939
  48  1633.379
  49  1352.883
  50  1455.639
  51  1473.627
  52  1590.596
  53  1283.835
  54  1141.015
  55  1067.029
  56  1139.367
  57  1562.763
  58  1778.635
  59  1531.314
  60  1236.393
  61  1153.447
  62  1136.032
  63  1011.354
  64  1235.722
  65  1625.885
  66  1703.776
  67  1350.788
  68  1752.752
  69  1608.669
  70  1295.287
  71  1747.371
  72  1522.304
  73  1398.328
  74  1827.1
  75  1740.162
  76  1616.867
  77  1477.229
  78  1687.003
  79  1808.663
  80  1565.88
  81  1562.197
  82  1550.019
  83  1376.345
  84  1427.585
  85  1235.436
  86  1298.015
  87  1266.397
  88  1449.235
  89  1539.828
  90  1437.559
  91  1265.249
  92  1370.286
  93  1127.526
  94  1234.414
  95  1072.439
  96  973.1805
  97  1066.371
  98  1237.622
  99  1094.389
 100  1259.208
 101  1421.983
 102  1396.062
 103  1348.169
 104  1151.697
 105  1253.052
 106  1072.102
 107  1310.332
 108  1298.673
 109  1424.274
 110  1441.502
 111  1309.657
 112  1219.993
 113  1496.818
 114  1647.77
 115  1972.477
 116  1741.68
 117  1612.867
 118  1601.835
 119  1688.307
 120  1598.172
 121  1346.551
 122  1402.796
 123  1583.568
 124  1566.238
 125  1419.101
 126  1625.399
 127  1472.435
 128  1371.823
 129  1193.127
 130  1144.385
 131  1168.63
 132  1380.092
 133  1466.454
 134  1281.097
 135  1081.772
 136  1340.3
 137  1402.107
 138  1106.751
 139  1433.327
 140  1642.264
 141  1331.224
 142  1351.489
 143  1633.973
 144  2011.178
 145  1873.911
 146  1497.473
 147  1751.806
 148  1467.047
 149  1389.698
 150  1489.856
 151  1563.927
 152  1697.768
 153  1687.783
 154  1662.343
 155  1491.943
 156  1540.944
 157  1727.634
 158  1307.004
 159  1522.654
 160  1390.077
 161  1374.434
 162  1813.543
 163  1807.22
 164  1820.896
 165  1734.835
 166  1546.589
 167  1758.906
 168  1636.313
 169  1597.337
 170  1567.444
 171  1580.746
 172  1530.924
 173  1894.663
 174  1720.3
 175  1792.063
 176  1402.438
 177  1230.642
 178  1319.987
 179  1247.835
 180  1445.475
 181  1377.419
 182  1318.664
 183  1366.054
 184  1177.778
 185  1108.22
 186  972.4574
 187  1071.882
 188  1170.38
 189  1128.395
 190  1187.092
 191  1101.977
 192  1105.759
 193  1417.716
 194  1332.727
 195  1141.078
 196  1215.803
 197  1099.364
 198  1217.258
 199  1480.022
 200  1403.102
 201  1588.149
 202  1375.237
 203  1460.218
 204  1451.864
 205  1446.192
 206  1693.803
 207  1376.432
 208  1451.183
 209  1546.877
 210  1665.264
 211  1574.692
 212  1580.895
 213  1389.099
 214  1505.674
 215  1459.962
 216  1344.727
 217  1397.652
 218  1635.033
 219  1728.448
 220  1620.306
 221  1439.66
 222  1754.456
 223  1571.346
 224  1088.403
 225  1231.825
 226  1530.318
 227  1736.093
 228  1805.204
 229  1640.755
 230  1379.048
 231  1204.494
 232  1431.793
 233  1565.409
 234  1530.326
 235  1599.133
 236  1523.996
 237  1494.356
 238  1715.703
 239  1726.811
 240  1367.038
 241  1498.101
 242  1637.195
 243  1602.038
 244  1588.042
 245  1929.421
 246  1772.412
 247  1578.15
 248  1892.016
 249  1394.117
 250  1552.013
 251  1902.233
 252  1734.251
 253  1571.339
 254  1763.111
 255  1580.417
 256  1608.081
 257  1581.598
 258  1615.07
 259  1305.504
 260  1740.638
 261  1917.91
 262  1496.667
 263  1471.573
 264  1381.849
 265  1389.729
 266  1417.693
 267  1433.51
 268  1493.391
 269  1510.382
 270  1247.514
 271  1430.824
 272  1640.32
 273  1383.96
 274  1280.054
 275  1299.497
 276  1139.765
 277  1533.024
 278  1458.861
 279  1427.113
 280  1608.472
 281  1794.972
 282  1516.622
 283  1536.277
 284  1663.948
 285  1794.204
 286  1931.758
 287  1811.154
 288  1717.196
 289  1936.902
 290  2170.517
 291  2065.88
 292  1631.341
 293  1667.312
 294  1890.269
 295  1797.146
 296  2194.411
 297  2036.569
 298  1653.312
 299  1772.648
 300  1794.682
 301  1654.527
 302  1701.233
 303  1755.124
 304  1782.35
 305  1793.362
 306  1546.084
 307  1691.404
 308  1384.767
 309  1445.78
 310  1639.809
 311  1183.085
 312  1366.602
 313  1528.211
 314  1326.412
 315  1268.235
 316  1472.428
 317  1611.739
 318  1439.984
 319  1408.526
 320  1408.682
 321  1555.021
 322  1612.136
 323  1819.872
 324  1778.602
 325  2088.2
 326  2222.998
 327  2697.016
 328  2966.452
 329  3028.516
 330  3085.292
 331  2760.184
 332  2211.916
 333  1737.775
 334  1797.924
 335  2052.853
 336  1722.013
 337  1723.45
 338  1543.053
 339  1412.218
 340  1656.8
 341  1861.354
 342  1961.685
 343  1927.786
 344  1634.884
 345  1448.538
 346  1473.946
 347  1510.077
 348  1250.171
 349  1159.73
 350  718.9529
 351  919.879
 352  800.4468
 353  1172.117
 354  1481.351
 355  1196.12
 356  896.8427
 357  851.8513
 358  1085.735
 359  959.0604
 360  972.9836
 361  917.2308
 362  768.6376
 363  668.0988
 364  841.2103
 365  995.8676
 366  1058.887
 367  1346.897
 368  1595.626
 369  1629.478
 370  1487.33
 371  1370.383
 372  1369.03
 373  1208.739
 374  1362.029
 375  1600.657
 376  1630.172
 377  1555.432
 378  1457.735
 379  1583.627
 380  1520.845
 381  1311.506
 382  1323.734
 383  1527.568
 384  1844.499
 385  1843.811
 386  1790.415
 387  1699.618
 388  1378.577
 389  1496.511
 390  1495.252
 391  1453.265
 392  1228.314
 393  1481.665
 394  1561.876
 395  1082.385
 396  1118.17
 397  1169.565
 398  1219.383
 399  1516.193
 400  1630.674
 401  1678.185
 402  1442.278
 403  1257.061
 404  1369.838
 405  1507.277
 406  1523.282
 407  1699.246
 408  1405.96
 409  1457.482
 410  1338.488
 411  1639.078
 412  1701.527
 413  1570.808
 414  1359.425
 415  1178.431
 416  1259.232
 417  1641.767
 418  1547.755
 419  1663.537
 420  1703.319
 421  1501.225
 422  1652.43
 423  1488.77
 424  1474.04
 425  1496.081
 426  1540.165
 427  1489.65
 428  1537.42
 429  1673.169
 430  1508.054
 431  1402.35
 432  1496.499
 433  1399.332
 434  1526.505
 435  1439.811
 436  1158.878
 437  1316.588
 438  1505.569
 439  1155.223
 440  1168.567
 441  1500.708
 442  1176.3
 443  1279.471
 444  1523.087
 445  1516.106
 446  1030.219
 447  1094.564
 448  1495.151
 449  1340.379
 450  1645.098
 451  1532.692
 452  1483.096
 453  1226.495
 454  1607.526
 455  1720.754
 456  1845.001
 457  1797.937
 458  2145.823
 459  1885.719
 460  1712.285
 461  1567.517
 462  1559.789
 463  1940.993
 464  1949.048
 465  1867.075
 466  1684.532
 467  1556.568
 468  1163.937
 469  1458.772
 470  1768.456
 471  1860.832
 472  1800.854
 473  1609.137
 474  1617.309
 475  1574.405
 476  1682.22
 477  2050.45
 478  1845.736
 479  1840.772
 480  1885.017
 481  1860.629
 482  1834.548
 483  1820.186
 484  1734.198
 485  1381.748
 486  1563.898
 487  1730.467
 488  1801.801
 489  1585.909
 490  1740.028
 491  1392.84
 492  1518.794
 493  1700.079
 494  1570.241
 495  1560.282
 496  2032.963
 497  1974.134
 498  1583.108
 499  1919.259
 500  1885.138
 501  1839.868
 502  1861.868
 503  2065.437
 504  1889.034
 505  1429.951
 506  1646.343
 507  1545.69
 508  1245.991
 509  1347.314
 510  1642.472
 511  1631.218
