# Input file       =  1180925359.100276_cleaned.dat
# Candidate        =  PSR_0332+5434
# Telescope        =  AR
# Epoch_topo       =  57912.117802086526
# Epoch_bary       =  N/A
# T_sample         =  0.002
# Data Folded      =  7208960
# Data Avg         =  0.102983110095374
# Data StdDev      =  4.20508773289299 
# Profile Bins     =  1024
# Profile Avg      =  724.868995183763 
# Profile StdDev   =  352.826657727194 
# Reduced chi-sqr  =  0.676
# Prob(Noise)      <  1   (~0.0 sigma)
# P_topo (ms)      =  714.509698986121  +/- 5.59e-05
# P'_topo (s/s)    =  -0                +/- 3e-11
# P''_topo (s/s^2) =  0                 +/- 1.35e-14
# P_bary (ms)      =  N/A
# P'_bary (s/s)    =  N/A
# P''_bary (s/s^2) =  N/A
# P_orb (s)        =  N/A
# asin(i)/c (s)    =  N/A
# eccentricity     =  N/A
# w (rad)          =  N/A
# T_peri           =  N/A
######################################################
   0  640.9256
   1  674.2015
   2  718.9484
   3  670.0671
   4  607.8385
   5  516.652
   6  492.7721
   7  640.7
   8  690.5405
   9  716.5374
  10  676.2148
  11  759.9276
  12  752.4145
  13  751.9067
  14  779.7471
  15  825.2834
  16  820.3094
  17  858.2045
  18  931.2052
  19  867.0324
  20  724.9359
  21  667.8987
  22  735.3879
  23  727.9393
  24  652.0252
  25  759.5036
  26  674.7453
  27  618.2047
  28  502.0151
  29  652.8998
  30  665.9778
  31  677.7198
  32  699.8958
  33  637.6692
  34  546.3317
  35  535.6811
  36  650.9922
  37  724.1818
  38  704.4199
  39  625.9483
  40  643.079
  41  594.4117
  42  567.8539
  43  442.9832
  44  412.9479
  45  445.7207
  46  613.6564
  47  832.2402
  48  809.0599
  49  656.1324
  50  634.0307
  51  811.6674
  52  911.6089
  53  817.3243
  54  834.2896
  55  776.6593
  56  685.722
  57  534.9939
  58  475.0455
  59  560.2084
  60  597.9077
  61  800.044
  62  852.3533
  63  827.8762
  64  700.7999
  65  739.5346
  66  834.1142
  67  759.8287
  68  686.2165
  69  610.812
  70  652.9705
  71  671.8937
  72  739.0907
  73  700.8414
  74  487.594
  75  428.4232
  76  525.8947
  77  762.394
  78  649.6635
  79  492.7791
  80  471.4706
  81  660.4799
  82  831.3127
  83  931.6974
  84  1014.006
  85  951.0729
  86  897.2831
  87  747.5819
  88  788.5283
  89  638.916
  90  582.6665
  91  476.2724
  92  392.354
  93  364.3642
  94  308.7311
  95  410.2794
  96  520.7193
  97  557.4209
  98  679.0022
  99  735.0509
 100  713.8421
 101  641.675
 102  602.6383
 103  591.3835
 104  523.4875
 105  590.9805
 106  714.5806
 107  659.6382
 108  555.3696
 109  450.4798
 110  469.2757
 111  430.7075
 112  491.4976
 113  581.3565
 114  700.4874
 115  738.691
 116  696.9134
 117  555.6635
 118  499.862
 119  638.6107
 120  684.1826
 121  667.5406
 122  533.4338
 123  538.0084
 124  588.847
 125  609.4908
 126  599.1927
 127  480.6021
 128  397.7998
 129  506.7885
 130  524.1844
 131  538.7693
 132  507.5219
 133  570.3198
 134  682.5483
 135  692.2706
 136  751.4746
 137  906.2692
 138  886.6615
 139  846.3284
 140  712.324
 141  731.4495
 142  668.459
 143  614.4906
 144  634.376
 145  743.826
 146  844.0647
 147  982.0406
 148  961.588
 149  1001.658
 150  949.1555
 151  885.5775
 152  906.6937
 153  851.492
 154  899.8422
 155  816.2545
 156  867.4244
 157  750.6633
 158  718.5688
 159  644.0942
 160  664.3633
 161  593.84
 162  568.9387
 163  552.8472
 164  676.897
 165  637.9229
 166  602.867
 167  403.5316
 168  492.7362
 169  640.0501
 170  756.1511
 171  741.882
 172  531.4445
 173  484.8476
 174  438.0191
 175  616.7986
 176  495.9133
 177  511.7502
 178  498.0356
 179  741.2059
 180  854.0862
 181  886.0531
 182  784.2536
 183  820.0345
 184  854.7911
 185  918.8138
 186  773.6313
 187  655.7259
 188  656.5826
 189  676.9885
 190  584.3732
 191  511.12
 192  505.4954
 193  610.7673
 194  693.1289
 195  784.794
 196  786.9296
 197  530.7371
 198  427.9482
 199  477.9169
 200  635.8699
 201  642.837
 202  656.0865
 203  747.2298
 204  656.6439
 205  607.1503
 206  553.9717
 207  769.3348
 208  881.8489
 209  828.6111
 210  718.6428
 211  643.1555
 212  628.0048
 213  613.7736
 214  714.1298
 215  816.834
 216  878.8567
 217  929.3696
 218  968.647
 219  903.1263
 220  680.7477
 221  626.8157
 222  748.8443
 223  852.2043
 224  683.7424
 225  556.3204
 226  618.1895
 227  642.0714
 228  684.0521
 229  686.5444
 230  727.1026
 231  743.8283
 232  852.8915
 233  838.4678
 234  751.5981
 235  689.2468
 236  789.9308
 237  845.9445
 238  780.282
 239  675.3683
 240  650.7732
 241  588.5331
 242  646.6539
 243  824.3462
 244  937.6357
 245  962.963
 246  840.9482
 247  896.2845
 248  854.8375
 249  902.3672
 250  926.3424
 251  1020.932
 252  956.2924
 253  948.2889
 254  785.4536
 255  823.853
 256  745.8056
 257  649.4987
 258  452.7977
 259  420.4338
 260  438.8495
 261  465.2334
 262  694.5839
 263  745.2972
 264  829.0601
 265  761.2346
 266  876.2225
 267  862.9694
 268  823.1363
 269  857.9802
 270  951.3925
 271  885.929
 272  868.2259
 273  702.9299
 274  574.2647
 275  503.7176
 276  577.8774
 277  690.8522
 278  503.8962
 279  415.5811
 280  556.5607
 281  912.2782
 282  1115.582
 283  1078.014
 284  963.6109
 285  974.7979
 286  916.3165
 287  838.8259
 288  642.5093
 289  631.47
 290  610.7545
 291  733.1536
 292  835.8654
 293  731.4209
 294  657.86
 295  592.3536
 296  835.8051
 297  933.5329
 298  916.5202
 299  803.7918
 300  761.4788
 301  710.564
 302  696.7117
 303  606.3742
 304  589.5518
 305  589.7533
 306  584.5044
 307  662.2605
 308  576.5106
 309  531.2268
 310  568.6902
 311  667.9332
 312  913.7752
 313  919.4738
 314  1012.816
 315  859.9905
 316  851.0783
 317  787.8814
 318  793.0291
 319  816.129
 320  885.4091
 321  964.3917
 322  1029.566
 323  995.0707
 324  828.8517
 325  608.6067
 326  420.2665
 327  378.0824
 328  450.7729
 329  568.5038
 330  643.3495
 331  731.654
 332  727.5898
 333  761.545
 334  831.1123
 335  861.6209
 336  908.854
 337  857.1464
 338  680.0696
 339  413.2737
 340  395.2459
 341  561.1534
 342  716.1187
 343  623.7379
 344  529.5286
 345  655.5244
 346  732.0682
 347  891.563
 348  885.5649
 349  977.3983
 350  948.6214
 351  875.1978
 352  918.3611
 353  795.47
 354  690.8286
 355  681.8543
 356  789.1836
 357  666.259
 358  660.4792
 359  748.5992
 360  852.7966
 361  721.8259
 362  620.0222
 363  583.2084
 364  631.2607
 365  698.2217
 366  791.7236
 367  805.507
 368  752.4096
 369  625.9152
 370  626.6157
 371  582.0236
 372  542.2064
 373  525.2108
 374  624.0416
 375  627.1819
 376  620.3976
 377  666.3528
 378  869.6856
 379  912.6249
 380  879.1946
 381  937.8514
 382  880.3081
 383  795.6992
 384  629.4429
 385  711.8016
 386  843.4733
 387  835.098
 388  866.0325
 389  728.2673
 390  628.6005
 391  479.9141
 392  513.0331
 393  607.3574
 394  575.6887
 395  600.3116
 396  629.1782
 397  601.1678
 398  541.6222
 399  700.674
 400  849.6756
 401  886.4466
 402  756.7327
 403  640.5739
 404  548.0206
 405  451.8272
 406  540.3273
 407  674.0757
 408  698.9867
 409  647.3834
 410  789.788
 411  884.7643
 412  929.351
 413  885.3577
 414  899.4005
 415  959.8444
 416  933.6727
 417  940.2513
 418  958.3784
 419  844.9718
 420  691.3644
 421  486.8725
 422  529.6258
 423  414.503
 424  548.72
 425  714.2361
 426  902.5754
 427  814.7515
 428  819.7255
 429  908.25
 430  915.2838
 431  869.9584
 432  836.6206
 433  796.9143
 434  805.2855
 435  845.3593
 436  834.1016
 437  768.8804
 438  646.4506
 439  663.4891
 440  649.0642
 441  636.2748
 442  633.3176
 443  702.5274
 444  750.9429
 445  739.598
 446  713.2873
 447  880.7782
 448  832.6307
 449  915.8176
 450  802.2789
 451  851.5331
 452  750.2181
 453  665.9225
 454  621.1473
 455  683.4987
 456  778.1183
 457  695.554
 458  683.3466
 459  648.6831
 460  716.3666
 461  573.8058
 462  558.7469
 463  652.5068
 464  739.5883
 465  733.8123
 466  740.8367
 467  831.8617
 468  798.4144
 469  644.6769
 470  604.3555
 471  470.3118
 472  531.1157
 473  419.6988
 474  611.1753
 475  664.0435
 476  824.7374
 477  755.3981
 478  796.8796
 479  936.1925
 480  1040.085
 481  1100.895
 482  980.2032
 483  957.4958
 484  887.7993
 485  874.9658
 486  875.4904
 487  855.8832
 488  815.3047
 489  744.5865
 490  740.9135
 491  636.1718
 492  609.9147
 493  605.3285
 494  722.1222
 495  810.0317
 496  912.1908
 497  887.1641
 498  840.3204
 499  759.6329
 500  796.2971
 501  716.5932
 502  677.9107
 503  681.843
 504  751.3533
 505  713.855
 506  480.0902
 507  442.9768
 508  528.0357
 509  723.2178
 510  643.6783
 511  669.434
 512  728.1745
 513  894.127
 514  904.4176
 515  895.9697
 516  874.4973
 517  742.6202
 518  728.3701
 519  603.3087
 520  566.7862
 521  487.9716
 522  601.3932
 523  701.1108
 524  566.7993
 525  414.1431
 526  427.0348
 527  501.1084
 528  694.6528
 529  713.319
 530  820.8404
 531  862.2512
 532  1045.504
 533  1098.235
 534  876.9097
 535  659.7006
 536  516.7768
 537  671.4521
 538  672.394
 539  634.1844
 540  604.7058
 541  727.407
 542  679.259
 543  769.8239
 544  845.0141
 545  888.8411
 546  803.2816
 547  725.1165
 548  908.5901
 549  948.0689
 550  863.4184
 551  795.0214
 552  856.1888
 553  825.701
 554  727.325
 555  712.3922
 556  673.8022
 557  713.2875
 558  671.7521
 559  792.7248
 560  692.2885
 561  658.4299
 562  679.3379
 563  719.3372
 564  785.4745
 565  666.1132
 566  778.6599
 567  794.3933
 568  741.2413
 569  509.8381
 570  515.586
 571  590.3575
 572  635.2523
 573  551.4016
 574  580.3119
 575  668.3306
 576  770.0735
 577  992.9569
 578  1089.908
 579  1080.095
 580  917.0877
 581  946.5369
 582  1003.918
 583  865.7905
 584  752.4554
 585  581.7686
 586  637.7548
 587  555.7405
 588  552.8127
 589  509.6911
 590  553.0217
 591  693.9357
 592  844.1579
 593  835.7408
 594  670.6733
 595  654.8989
 596  856.962
 597  987.3992
 598  844.7521
 599  704.0543
 600  723.1273
 601  736.6442
 602  751.8802
 603  629.4968
 604  636.5262
 605  730.9526
 606  832.9427
 607  771.7563
 608  615.5517
 609  600.9194
 610  654.6798
 611  684.1195
 612  809.9509
 613  996.8464
 614  1050.799
 615  939.3285
 616  803.258
 617  680.5101
 618  730.3811
 619  630.1436
 620  645.5956
 621  667.5565
 622  632.7378
 623  627.5827
 624  420.3991
 625  323.9393
 626  342.0291
 627  410.9477
 628  673.8524
 629  827.4301
 630  787.6218
 631  768.3104
 632  827.9402
 633  988.6183
 634  907.7621
 635  802.1182
 636  737.0981
 637  719.5923
 638  502.5724
 639  291.0415
 640  254.9955
 641  408.7926
 642  587.5297
 643  774.3004
 644  838.5374
 645  886.0683
 646  913.8622
 647  937.4346
 648  1026.319
 649  843.293
 650  701.3618
 651  638.9882
 652  646.2382
 653  702.9918
 654  567.2288
 655  682.3414
 656  763.9946
 657  868.8277
 658  721.6288
 659  709.3367
 660  714.5872
 661  804.3715
 662  637.4209
 663  561.6802
 664  489.4304
 665  652.5106
 666  663.4737
 667  626.0201
 668  427.4903
 669  521.4216
 670  574.1533
 671  638.005
 672  626.693
 673  683.7741
 674  672.707
 675  727.3975
 676  669.549
 677  670.1995
 678  690.2641
 679  893.2906
 680  930.7888
 681  902.4922
 682  861.4035
 683  863.1024
 684  823.5349
 685  800.0067
 686  918.6257
 687  761.6744
 688  669.2586
 689  442.6091
 690  481.3134
 691  477.9612
 692  508.3069
 693  608.5995
 694  678.7318
 695  806.6411
 696  971.1651
 697  1014.505
 698  967.9592
 699  784.7266
 700  691.6462
 701  660.3157
 702  633.2625
 703  648.1687
 704  661.3311
 705  679.6085
 706  573.356
 707  588.8629
 708  650.8922
 709  830.1753
 710  976.8899
 711  1107.252
 712  1034.124
 713  954.2369
 714  854.7783
 715  848.2737
 716  754.3495
 717  566.2736
 718  480.2441
 719  607.9153
 720  845.3988
 721  796.4406
 722  820.4057
 723  857.6735
 724  905.7719
 725  932.5641
 726  1039.675
 727  989.7206
 728  824.333
 729  751.4974
 730  793.8337
 731  817.0159
 732  708.4375
 733  783.6837
 734  825.4958
 735  768.2034
 736  660.0543
 737  757.0527
 738  961.7902
 739  1063.875
 740  1012.521
 741  971.8303
 742  884.646
 743  830.1562
 744  850.6556
 745  966.886
 746  1042.812
 747  979.9897
 748  931.0587
 749  981.0264
 750  1065.648
 751  1177.76
 752  1407.467
 753  1417.383
 754  1336.307
 755  1233.586
 756  1324.607
 757  1188.773
 758  1127.137
 759  1129.248
 760  1171.479
 761  1045.263
 762  882.3849
 763  888.3038
 764  807.4209
 765  681.5516
 766  577.2866
 767  608.2169
 768  495.3107
 769  596.4988
 770  639.3597
 771  697.4967
 772  430.6864
 773  446.3788
 774  707.6118
 775  893.092
 776  995.9632
 777  864.5069
 778  999.8511
 779  934.6672
 780  852.3101
 781  619.5919
 782  487.9708
 783  583.1509
 784  475.3895
 785  529.0569
 786  510.9508
 787  549.7904
 788  573.4767
 789  552.2158
 790  531.6231
 791  448.8313
 792  538.5919
 793  543.0601
 794  667.2308
 795  612.8199
 796  739.2685
 797  591.8657
 798  650.4337
 799  717.5352
 800  776.7324
 801  690.2626
 802  565.9534
 803  677.7983
 804  833.8993
 805  929.2424
 806  879.7189
 807  850.7966
 808  823.7804
 809  774.5864
 810  797.1252
 811  789.4081
 812  796.1448
 813  809.2241
 814  785.9428
 815  729.143
 816  636.6779
 817  671.2532
 818  642.9363
 819  647.395
 820  552.2651
 821  549.2927
 822  600.8193
 823  700.4666
 824  706.3346
 825  783.3546
 826  790.0144
 827  865.6065
 828  902.8693
 829  1092.66
 830  1058.903
 831  835.5731
 832  687.9857
 833  547.1833
 834  677.6881
 835  701.8571
 836  719.4111
 837  620.5358
 838  626.3874
 839  828.8691
 840  866.6868
 841  900.6873
 842  853.7939
 843  909.847
 844  929.434
 845  956.1097
 846  914.877
 847  753.2479
 848  866.5449
 849  888.6093
 850  1029.818
 851  758.1224
 852  623.1686
 853  591.7529
 854  527.5564
 855  547.4993
 856  586.5312
 857  693.9911
 858  773.428
 859  656.098
 860  651.3454
 861  658.676
 862  804.2145
 863  896.6134
 864  979.6229
 865  939.4194
 866  659.3693
 867  502.5281
 868  454.1738
 869  629.9291
 870  782.2593
 871  912.5569
 872  830.6121
 873  635.3375
 874  603.8804
 875  778.7372
 876  927.8369
 877  984.0354
 878  1070.327
 879  1010.199
 880  754.3453
 881  624.6937
 882  812.8799
 883  942.0558
 884  854.6546
 885  729.6113
 886  700.173
 887  660.3127
 888  559.5295
 889  666.5564
 890  646.9166
 891  551.6332
 892  431.668
 893  667.7507
 894  829.204
 895  769.7416
 896  638.3425
 897  614.1216
 898  607.744
 899  547.2413
 900  561.0394
 901  591.3625
 902  715.0963
 903  762.9266
 904  863.7376
 905  684.6378
 906  606.2659
 907  571.4995
 908  870.1658
 909  993.3399
 910  930.1003
 911  677.0453
 912  598.871
 913  672.6782
 914  733.7369
 915  727.9844
 916  669.1224
 917  570.1413
 918  565.0904
 919  556.562
 920  612.5163
 921  630.0327
 922  766.9027
 923  943.8925
 924  747.3165
 925  667.7392
 926  598.4664
 927  756.3445
 928  643.9339
 929  686.8307
 930  614.9074
 931  615.2189
 932  519.2545
 933  690.2545
 934  701.0969
 935  709.136
 936  590.6219
 937  748.0311
 938  770.4905
 939  763.7363
 940  766.5572
 941  1026.382
 942  1125.79
 943  1059.782
 944  837.2265
 945  849.5587
 946  838.5542
 947  814.1553
 948  720.2529
 949  655.4174
 950  530.8766
 951  401.9344
 952  410.5481
 953  550.8109
 954  642.8401
 955  582.8792
 956  599.9706
 957  557.4885
 958  672.2637
 959  694.7977
 960  756.2099
 961  695.0314
 962  717.7918
 963  768.2806
 964  735.7615
 965  707.1345
 966  796.1013
 967  883.8137
 968  813.8864
 969  684.9749
 970  615.5911
 971  601.5361
 972  573.6356
 973  620.0508
 974  784.6747
 975  843.426
 976  862.843
 977  932.6352
 978  872.0002
 979  895.6059
 980  768.7692
 981  779.0059
 982  720.5053
 983  770.8578
 984  815.307
 985  723.4542
 986  647.9307
 987  573.2128
 988  555.1576
 989  523.4924
 990  645.1273
 991  756.7823
 992  762.9015
 993  668.7446
 994  494.4734
 995  524.2424
 996  642.1514
 997  840.3478
 998  803.756
 999  787.0309
1000  559.5961
1001  556.1202
1002  509.9207
1003  552.8368
1004  590.5328
1005  567.1003
1006  673.3613
1007  578.0835
1008  685.7561
1009  745.2798
1010  869.7972
1011  885.8049
1012  937.1088
1013  945.0872
1014  831.1638
1015  764.6262
1016  807.3714
1017  901.4018
1018  719.2314
1019  649.2289
1020  668.5438
1021  701.6299
1022  617.8378
1023  606.8267
