# Input file       =  1180336856.118337_cleaned.dat
# Candidate        =  PSR_0332+5434
# Telescope        =  AR
# Epoch_topo       =  57905.306424980750
# Epoch_bary       =  N/A
# T_sample         =  0.002
# Data Folded      =  7340032
# Data Avg         =  0.104974785205351
# Data StdDev      =  2.75853300143112 
# Profile Bins     =  512
# Profile Avg      =  1504.94365746933 
# Profile StdDev   =  330.287532206862 
# Reduced chi-sqr  =  1.278
# Prob(Noise)      <  1.94e-05   (~4.1 sigma)
# P_topo (ms)      =  714.516284018153  +/- 0.000308
# P'_topo (s/s)    =  -0                +/- 1.62e-10
# P''_topo (s/s^2) =  0                 +/- 7.17e-14
# P_bary (ms)      =  N/A
# P'_bary (s/s)    =  N/A
# P''_bary (s/s^2) =  N/A
# P_orb (s)        =  N/A
# asin(i)/c (s)    =  N/A
# eccentricity     =  N/A
# w (rad)          =  N/A
# T_peri           =  N/A
######################################################
   0  1644.284
   1  1607.256
   2  1379.719
   3  1430.381
   4  1372.85
   5  1154.34
   6  1489.764
   7  1602.565
   8  1310.705
   9  1339.548
  10  1199.146
  11  1594.957
  12  1535.702
  13  1484.164
  14  1539.726
  15  1594.559
  16  1357.826
  17  1310.213
  18  1601.873
  19  1422.545
  20  1450.521
  21  1143.655
  22  1588.588
  23  1507.42
  24  1271.484
  25  1429.057
  26  1204.894
  27  1212.308
  28  1227.097
  29  1275.001
  30  1175.575
  31  1045.046
  32  1271.521
  33  1371.152
  34  1369.474
  35  1223.295
  36  1254.552
  37  1183.74
  38  1170.987
  39  1210.474
  40  1368.406
  41  1378.262
  42  1427.46
  43  1393.894
  44  1651.843
  45  1940.404
  46  1818.512
  47  1757.395
  48  1841.199
  49  1741.254
  50  1621.059
  51  1735.133
  52  1790.366
  53  2062.338
  54  1557.35
  55  1459.635
  56  1623.018
  57  1628.16
  58  1603.343
  59  1569.464
  60  1808.417
  61  1630.796
  62  1559.955
  63  1776.045
  64  1561.578
  65  1596.26
  66  1914.511
  67  1543.552
  68  1838.792
  69  1746.249
  70  1460.065
  71  1518.019
  72  1157.307
  73  1207.026
  74  1315.827
  75  1278.147
  76  1239.622
  77  1030.964
  78  1127.872
  79  1504.239
  80  1607.833
  81  1348.133
  82  1366.868
  83  1531.491
  84  1569.904
  85  1522.454
  86  1450.261
  87  1478.112
  88  1406.942
  89  1247.322
  90  1562.204
  91  1555.909
  92  1778.165
  93  1863.896
  94  1551.756
  95  1485.937
  96  1492.381
  97  1431.718
  98  1513.586
  99  1425.72
 100  1508.955
 101  1533.326
 102  1477.207
 103  1452.396
 104  1550.11
 105  1428.656
 106  1537.745
 107  1555.184
 108  1750.532
 109  1704.861
 110  1617.429
 111  1744.664
 112  1611.115
 113  1694.779
 114  1884.254
 115  1879.263
 116  1773.681
 117  1429.697
 118  1524.346
 119  1640.135
 120  1702.031
 121  1724.85
 122  1533.777
 123  1767.479
 124  1417.093
 125  1205.551
 126  1577.035
 127  1714.729
 128  1854.81
 129  1851.129
 130  1675.395
 131  1569.146
 132  1771.265
 133  1820.333
 134  1990.234
 135  1911.458
 136  1632.824
 137  1705.529
 138  1903.941
 139  1703.54
 140  1462.881
 141  1541.922
 142  1586.66
 143  1432.214
 144  1640.787
 145  1658.877
 146  1757.41
 147  1752.084
 148  2072.399
 149  1874.379
 150  1668.639
 151  1650.095
 152  1634.482
 153  1939.617
 154  1997.933
 155  1793.856
 156  1690.274
 157  1781.574
 158  1608.583
 159  1359.548
 160  1364.556
 161  1415.052
 162  1906.539
 163  1817.594
 164  1543.889
 165  1804.932
 166  1748.137
 167  1195.264
 168  1392.113
 169  1369.715
 170  1563.287
 171  1467.981
 172  1447.477
 173  1542.451
 174  1881.254
 175  1914.124
 176  1690.318
 177  1592.746
 178  1763.983
 179  1805.396
 180  1623.98
 181  1299.844
 182  1252.974
 183  1597.057
 184  1731.386
 185  1437.597
 186  1245.699
 187  1080.94
 188  1372.762
 189  1549.281
 190  1478.45
 191  1333.405
 192  1390.81
 193  1771.001
 194  1414.292
 195  1299.749
 196  1254.453
 197  1591.706
 198  1665.076
 199  1734.013
 200  1720.954
 201  1492.634
 202  1489.643
 203  1687.529
 204  1647.569
 205  1320.016
 206  1341.462
 207  1304.532
 208  1301.197
 209  1429.126
 210  1393.463
 211  1348.372
 212  1195.214
 213  1203.995
 214  1648.498
 215  1517.687
 216  1577.895
 217  1763.819
 218  1706.518
 219  1775.459
 220  1858.298
 221  1911.12
 222  1776.476
 223  1850.338
 224  1739.353
 225  2077.074
 226  3041.839
 227  2864.171
 228  2919.666
 229  2735.41
 230  2884.039
 231  2139.497
 232  1693.638
 233  1552.947
 234  1412.893
 235  1658.272
 236  1530.542
 237  1451.644
 238  1709.463
 239  1567.867
 240  1585.905
 241  1793.21
 242  1716.057
 243  1462.643
 244  1244.056
 245  1423.235
 246  1186.765
 247  1251.531
 248  1527.65
 249  1515.497
 250  1570.005
 251  1380.881
 252  1328.849
 253  1056.026
 254  1106.614
 255  1371.231
 256  1363.773
 257  1376.388
 258  1318.784
 259  1337.838
 260  1176.9
 261  1323.164
 262  1413.822
 263  1501.025
 264  1807.747
 265  1640.026
 266  1771.691
 267  1540.227
 268  1363.671
 269  1464.424
 270  1666.966
 271  1542.667
 272  1409.035
 273  1524.598
 274  1460.406
 275  1633.278
 276  1516.325
 277  1470.339
 278  1676.075
 279  1625.848
 280  1606.551
 281  1686.378
 282  1505.672
 283  1476.766
 284  1548.697
 285  1476.098
 286  1278.703
 287  1405.178
 288  1299.004
 289  1467.833
 290  1511.089
 291  1529.271
 292  1626.631
 293  1532.267
 294  1671.766
 295  1728.985
 296  1075.408
 297  1071.514
 298  1454.414
 299  1584.224
 300  1681.376
 301  1825.377
 302  1545.041
 303  1422.729
 304  1489.261
 305  1797.631
 306  2085.732
 307  2042.015
 308  1591.573
 309  1613.727
 310  1644.469
 311  1667.922
 312  1742.489
 313  1556.971
 314  1585.384
 315  1707.582
 316  1835.838
 317  1747.926
 318  1201.657
 319  1066.933
 320  1282.406
 321  1532.082
 322  1530.99
 323  1397.667
 324  1299.347
 325  1378.621
 326  1599.475
 327  1696.968
 328  1503.169
 329  1637.168
 330  1728.279
 331  1599.943
 332  1837.578
 333  1641.492
 334  1590.066
 335  1485.325
 336  1634.836
 337  1457.868
 338  1784.811
 339  1945.333
 340  1647.885
 341  1634.585
 342  1579.844
 343  1770.427
 344  1542.003
 345  1579.706
 346  1669.925
 347  1495.086
 348  1579.9
 349  1432.339
 350  1400.288
 351  1856.676
 352  1600.164
 353  1485.113
 354  1576.777
 355  1515.992
 356  1115.218
 357  1377.513
 358  1326.89
 359  1343.271
 360  1567.739
 361  1412.287
 362  1553.477
 363  1295.175
 364  1481.397
 365  1667.83
 366  1476.118
 367  1401.513
 368  1370.516
 369  1185.513
 370  1085.993
 371  1254.007
 372  1562.859
 373  1611.594
 374  1162.433
 375  1041.928
 376  1014.638
 377  1079.816
 378  730.5309
 379  1076.754
 380  1246.904
 381  1285.125
 382  973.5149
 383  957.7465
 384  1047.235
 385  975.1006
 386  1058.753
 387  1413.08
 388  1499.198
 389  1387.429
 390  1389.269
 391  1144.323
 392  1448.727
 393  1275.944
 394  1221.829
 395  1343.511
 396  1431.817
 397  1509.997
 398  1545.035
 399  1388.709
 400  1395.38
 401  1386.117
 402  1352.904
 403  1384.188
 404  1596.084
 405  1545.187
 406  1434.592
 407  1641.792
 408  1788.42
 409  1945.075
 410  1673.546
 411  1334.612
 412  1457.952
 413  1516.346
 414  1432.208
 415  1500.014
 416  1535.241
 417  1378.058
 418  1068.171
 419  797.8187
 420  867.7707
 421  1150.444
 422  1107.638
 423  1043.24
 424  1094.064
 425  914.44
 426  1034.895
 427  1229.092
 428  1095.534
 429  1394.497
 430  1127.782
 431  1096.668
 432  1178.164
 433  1248.928
 434  1335.454
 435  1360.646
 436  1145.524
 437  1476.48
 438  1563.613
 439  1410.117
 440  1352.587
 441  1302.653
 442  1652.7
 443  1237.894
 444  1178.501
 445  1286.473
 446  1302.708
 447  1317.94
 448  1666.091
 449  1675.68
 450  1558.508
 451  1609.406
 452  1467.44
 453  1254.885
 454  1327.396
 455  1404.488
 456  1534.01
 457  1502.312
 458  1289.11
 459  1270.195
 460  1224.526
 461  1341.251
 462  1181.547
 463  1396.738
 464  1331.27
 465  1071.461
 466  1201.863
 467  1326.714
 468  1342.928
 469  1211.182
 470  1116.436
 471  1083.134
 472  1034.051
 473  976.1256
 474  1165.913
 475  1607.618
 476  1820.693
 477  1990.604
 478  1948.514
 479  1807.884
 480  1562.309
 481  1680.509
 482  1808.388
 483  1761.59
 484  1617.249
 485  1550.262
 486  1535.474
 487  1848.774
 488  1821.274
 489  1502.307
 490  1686.94
 491  1636.499
 492  1462.599
 493  1136.607
 494  1163.363
 495  1239.31
 496  1314.275
 497  1482.714
 498  1652.491
 499  1489.297
 500  1679.76
 501  1555.485
 502  1328.42
 503  1383.92
 504  1761.152
 505  1678.754
 506  1353.661
 507  1190.788
 508  1477.169
 509  1410.181
 510  1324.246
 511  1165.214
