# Input file       =  1180179408.10232_cleaned.dat
# Candidate        =  PSR_0332+5434
# Telescope        =  AR
# Epoch_topo       =  57903.484109980556
# Epoch_bary       =  N/A
# T_sample         =  0.002
# Data Folded      =  7340032
# Data Avg         =  0.0973875365608757
# Data StdDev      =  3.13017929641411 
# Profile Bins     =  1024
# Profile Avg      =  698.047913616764 
# Profile StdDev   =  265.013631275356 
# Reduced chi-sqr  =  1.178
# Prob(Noise)      <  6.83e-05   (~3.8 sigma)
# P_topo (ms)      =  714.518401217     +/- 0.000286
# P'_topo (s/s)    =  -0                +/- 1.51e-10
# P''_topo (s/s^2) =  0                 +/- 6.65e-14
# P_bary (ms)      =  N/A
# P'_bary (s/s)    =  N/A
# P''_bary (s/s^2) =  N/A
# P_orb (s)        =  N/A
# asin(i)/c (s)    =  N/A
# eccentricity     =  N/A
# w (rad)          =  N/A
# T_peri           =  N/A
######################################################
   0  777.1738
   1  671.9047
   2  539.1431
   3  492.1245
   4  503.1479
   5  535.4099
   6  684.6181
   7  773.8478
   8  775.448
   9  703.0275
  10  686.0224
  11  687.033
  12  660.446
  13  813.5434
  14  819.8389
  15  823.7797
  16  681.155
  17  712.1364
  18  806.6682
  19  860.559
  20  818.9371
  21  708.4285
  22  667.3824
  23  747.4603
  24  825.0916
  25  766.6381
  26  662.1473
  27  660.7056
  28  749.5997
  29  803.6968
  30  813.2325
  31  755.731
  32  729.1326
  33  742.0194
  34  668.3416
  35  627.5464
  36  585.1002
  37  703.7842
  38  755.4059
  39  717.8234
  40  659.5923
  41  676.142
  42  776.6152
  43  790.1909
  44  787.1547
  45  832.9156
  46  795.864
  47  644.7941
  48  556.8187
  49  602.0062
  50  697.3596
  51  723.3326
  52  607.9424
  53  514.9026
  54  433.2247
  55  375.5431
  56  352.5546
  57  450.9343
  58  565.2167
  59  649.9111
  60  759.5601
  61  878.6578
  62  752.4574
  63  634.4623
  64  584.3575
  65  621.4258
  66  665.0398
  67  648.9638
  68  754.744
  69  783.0044
  70  762.2065
  71  581.2083
  72  540.1346
  73  589.5652
  74  631.2609
  75  664.3738
  76  494.7169
  77  460.6361
  78  432.2906
  79  670.5621
  80  713.7913
  81  670.9118
  82  651.8629
  83  687.8531
  84  711.3549
  85  661.1552
  86  642.1353
  87  578.1103
  88  504.5954
  89  342.0059
  90  339.0674
  91  448.6211
  92  611.5415
  93  706.1808
  94  607.5831
  95  541.8558
  96  604.0211
  97  722.028
  98  724.5527
  99  653.9427
 100  572.565
 101  682.7012
 102  703.7324
 103  780.524
 104  725.4008
 105  644.6557
 106  712.4247
 107  731.3104
 108  748.4022
 109  627.7629
 110  688.3214
 111  738.2167
 112  791.8986
 113  734.1506
 114  673.6722
 115  649.8608
 116  682.8966
 117  688.99
 118  772.7709
 119  785.0054
 120  809.7717
 121  760.3537
 122  724.6004
 123  656.912
 124  652.0875
 125  700.8345
 126  720.5686
 127  640.9223
 128  688.0287
 129  725.3726
 130  783.7642
 131  775.86
 132  791.4594
 133  850.0654
 134  901.7278
 135  895.8027
 136  871.0157
 137  747.3905
 138  682.3356
 139  667.8253
 140  770.8484
 141  841.445
 142  833.0168
 143  702.3645
 144  679.2029
 145  638.7568
 146  671.6959
 147  637.6101
 148  601.7506
 149  581.8619
 150  637.0355
 151  680.1333
 152  610.087
 153  462.4546
 154  449.0455
 155  492.0317
 156  534.7468
 157  442.9408
 158  423.403
 159  462.1961
 160  480.0526
 161  542.7206
 162  573.4589
 163  687.0905
 164  664.2831
 165  613.0571
 166  554.4686
 167  431.5392
 168  384.5421
 169  402.5319
 170  564.9782
 171  730.8342
 172  810.3486
 173  667.0972
 174  565.3989
 175  509.3038
 176  650.6239
 177  738.532
 178  804.6658
 179  748.0983
 180  739.3646
 181  721.4434
 182  639.4502
 183  528.6602
 184  548.8394
 185  652.2697
 186  717.9669
 187  755.0663
 188  746.0853
 189  832.6184
 190  751.6876
 191  691.2768
 192  523.2604
 193  531.1154
 194  588.3025
 195  617.7633
 196  649.437
 197  621.7044
 198  664.3549
 199  724.5638
 200  763.7317
 201  768.1558
 202  742.1143
 203  680.3417
 204  599.1696
 205  597.8983
 206  563.4829
 207  518.1949
 208  437.4124
 209  475.1672
 210  481.4648
 211  522.5463
 212  589.0208
 213  721.3492
 214  817.6256
 215  765.0225
 216  623.8248
 217  505.1354
 218  562.7645
 219  660.7101
 220  638.7757
 221  536.7079
 222  509.4546
 223  546.5368
 224  525.802
 225  579.928
 226  675.3708
 227  794.289
 228  661.9891
 229  519.9859
 230  449.9893
 231  410.3052
 232  381.4547
 233  427.9885
 234  428.1026
 235  371.8889
 236  448.1856
 237  523.6616
 238  447.8273
 239  193.9366
 240  203.4758
 241  356.2037
 242  475.5118
 243  514.1931
 244  530.7073
 245  613.3351
 246  733.3238
 247  622.5762
 248  429.9538
 249  314.7346
 250  442.7163
 251  537.8541
 252  534.9631
 253  442.0878
 254  492.0178
 255  468.9129
 256  385.3047
 257  335.5464
 258  329.8363
 259  319.5208
 260  341.5675
 261  378.622
 262  413.1182
 263  436.417
 264  542.7916
 265  594.6416
 266  494.3159
 267  433.3221
 268  525.8452
 269  619.972
 270  608.7594
 271  563.486
 272  476.249
 273  426.7067
 274  491.4226
 275  552.6379
 276  433.8346
 277  370.7146
 278  423.1829
 279  541.3489
 280  534.4108
 281  463.3455
 282  492.2961
 283  489.0307
 284  509.0598
 285  516.52
 286  521.7975
 287  606.7024
 288  655.9448
 289  563.2844
 290  486.3327
 291  480.2613
 292  544.2401
 293  533.8295
 294  555.496
 295  528.7961
 296  598.4302
 297  607.2718
 298  709.0455
 299  660.4107
 300  639.2304
 301  509.9562
 302  483.8549
 303  571.7101
 304  626.377
 305  518.3143
 306  501.2173
 307  536.6461
 308  593.0007
 309  592.4089
 310  564.6862
 311  565.855
 312  538.3182
 313  500.2579
 314  609.6438
 315  769.9061
 316  857.7025
 317  740.3516
 318  552.7919
 319  506.7919
 320  509.9295
 321  572.2335
 322  588.2996
 323  529.1331
 324  516.7919
 325  462.5702
 326  523.9464
 327  606.0863
 328  618.1136
 329  667.7927
 330  722.3822
 331  713.3268
 332  719.9738
 333  789.3005
 334  821.9361
 335  799.2756
 336  760.1125
 337  679.1545
 338  588.3873
 339  548.4547
 340  520.0071
 341  462.1023
 342  480.8797
 343  639.2372
 344  631.9941
 345  652.8843
 346  645.8471
 347  668.1666
 348  607.0258
 349  544.8149
 350  591.3337
 351  585.5378
 352  640.6333
 353  620.5333
 354  680.6671
 355  648.7667
 356  603.7247
 357  566.3065
 358  517.4813
 359  453.5576
 360  466.2557
 361  483.3929
 362  591.3987
 363  651.5282
 364  658.2138
 365  605.3401
 366  403.9619
 367  430.1632
 368  477.5438
 369  555.6157
 370  500.0538
 371  550.2706
 372  531.8092
 373  499.5682
 374  559.1497
 375  626.4706
 376  675.3767
 377  567.4128
 378  590.945
 379  645.3026
 380  708.9034
 381  669.567
 382  688.9952
 383  688.2874
 384  708.9392
 385  640.3455
 386  587.952
 387  590.6735
 388  564.4736
 389  546.9711
 390  589.1461
 391  544.2231
 392  561.6079
 393  420.6901
 394  370.827
 395  382.6498
 396  533.2527
 397  684.3328
 398  773.8561
 399  845.7964
 400  905.2591
 401  834.0989
 402  688.2011
 403  646.8902
 404  619.332
 405  630.8444
 406  640.6114
 407  673.356
 408  712.518
 409  638.5763
 410  593.135
 411  574.47
 412  675.5229
 413  743.0187
 414  781.7407
 415  791.0143
 416  760.8309
 417  654.9211
 418  605.3668
 419  636.536
 420  765.7379
 421  883.9429
 422  902.8644
 423  865.5683
 424  792.1296
 425  790.6573
 426  757.0589
 427  743.9119
 428  687.2387
 429  640.4671
 430  628.8967
 431  722.2446
 432  841.4289
 433  832.5871
 434  802.9236
 435  721.0944
 436  762.9112
 437  768.3725
 438  702.2409
 439  613.4528
 440  514.436
 441  567.9097
 442  540.8452
 443  679.3455
 444  820.2485
 445  859.9289
 446  975.412
 447  1032.601
 448  1105.835
 449  1028.025
 450  957.728
 451  989.8145
 452  944.0037
 453  930.5428
 454  978.2365
 455  1009.838
 456  874.9775
 457  738.8738
 458  623.6907
 459  739.2145
 460  784.9014
 461  812.8918
 462  730.9394
 463  746.8013
 464  785.345
 465  906.4258
 466  807.7029
 467  818.5138
 468  793.2048
 469  894.8809
 470  866.7357
 471  806.2781
 472  770.921
 473  884.563
 474  915.106
 475  916.3976
 476  907.6528
 477  859.8211
 478  819.3492
 479  703.8789
 480  723.8643
 481  750.355
 482  837.6185
 483  939.6128
 484  933.6116
 485  786.3889
 486  675.1611
 487  712.1339
 488  791.0259
 489  725.4895
 490  690.1245
 491  697.3243
 492  689.8152
 493  718.0282
 494  874.3077
 495  868.3896
 496  753.2445
 497  792.7228
 498  838.5729
 499  772.5568
 500  653.7161
 501  652.2661
 502  719.6686
 503  580.0113
 504  476.7026
 505  469.4471
 506  485.9092
 507  522.4145
 508  496.0015
 509  601.1076
 510  581.1861
 511  521.0024
 512  473.0882
 513  581.2101
 514  607.8271
 515  587.0344
 516  574.8914
 517  644.7109
 518  724.1021
 519  654.5888
 520  627.1822
 521  685.7407
 522  776.5048
 523  830.5653
 524  799.4479
 525  673.5753
 526  622.1969
 527  663.0732
 528  694.2468
 529  649.5139
 530  719.6867
 531  775.5607
 532  738.971
 533  730.0609
 534  712.8016
 535  703.5115
 536  501.7422
 537  428.3959
 538  573.9693
 539  779.0693
 540  810.5547
 541  746.7191
 542  698.6105
 543  709.4592
 544  663.4744
 545  761.4853
 546  789.076
 547  878.4838
 548  835.7882
 549  857.3974
 550  789.0225
 551  711.6102
 552  774.6596
 553  840.6631
 554  868.2332
 555  804.8748
 556  745.7154
 557  766.4438
 558  746.997
 559  753.7606
 560  691.5389
 561  721.3861
 562  739.2128
 563  882.7999
 564  882.4268
 565  863.8435
 566  818.5661
 567  765.103
 568  717.4155
 569  645.3434
 570  675.4736
 571  685.1452
 572  608.7094
 573  646.1556
 574  710.599
 575  774.7631
 576  841.5956
 577  821.2757
 578  879.9044
 579  888.8485
 580  909.8128
 581  883.7976
 582  976.1384
 583  1010.877
 584  1071.923
 585  955.4288
 586  912.1927
 587  751.577
 588  779.4363
 589  875.5449
 590  845.9597
 591  749.638
 592  712.4147
 593  809.5699
 594  887.1382
 595  926.5975
 596  823.8423
 597  775.4634
 598  749.3029
 599  750.1299
 600  727.8517
 601  672.1246
 602  652.1318
 603  640.9002
 604  659.6828
 605  661.9363
 606  664.6804
 607  729.4383
 608  678.1329
 609  660.3997
 610  754.8817
 611  773.7502
 612  833.2986
 613  873.3818
 614  841.3452
 615  829.759
 616  898.4703
 617  1096.402
 618  1092.787
 619  917.3089
 620  776.7585
 621  779.2433
 622  802.9113
 623  891.9709
 624  825.7268
 625  937.6712
 626  835.6047
 627  879.2404
 628  744.1587
 629  726.6696
 630  602.8014
 631  597.7706
 632  571.4203
 633  489.4713
 634  523.5831
 635  562.3871
 636  706.1433
 637  805.0203
 638  941.1788
 639  948.065
 640  830.2919
 641  688.0407
 642  750.3708
 643  796.7267
 644  766.3099
 645  661.6695
 646  748.6563
 647  816.2172
 648  924.9372
 649  913.7455
 650  770.9838
 651  702.9741
 652  642.156
 653  662.2786
 654  567.9536
 655  623.75
 656  744.8591
 657  790.8553
 658  828.4896
 659  781.8393
 660  669.5082
 661  706.3408
 662  670.4501
 663  741.3204
 664  747.151
 665  757.174
 666  644.9805
 667  495.3528
 668  610.7675
 669  716.5945
 670  750.9919
 671  613.14
 672  645.82
 673  641.0662
 674  701.3669
 675  698.467
 676  644.765
 677  657.1884
 678  679.0639
 679  822.4012
 680  776.9885
 681  699.2335
 682  609.6487
 683  685.3214
 684  681.2343
 685  561.929
 686  476.1875
 687  522.1222
 688  666.1089
 689  715.9211
 690  757.0901
 691  774.118
 692  744.1902
 693  809.2075
 694  913.1204
 695  1026.144
 696  983.0192
 697  848.236
 698  842.3458
 699  836.5851
 700  800.6451
 701  844.6467
 702  804.3658
 703  793.9492
 704  740.8088
 705  641.7328
 706  600.683
 707  623.6802
 708  819.2908
 709  962.6199
 710  908.6473
 711  843.1808
 712  852.0779
 713  909.2545
 714  853.9423
 715  819.4118
 716  889.5522
 717  939.5903
 718  970.7816
 719  991.6176
 720  1002.152
 721  863.8568
 722  872.4406
 723  781.3256
 724  800.9752
 725  737.7602
 726  742.116
 727  683.3073
 728  648.8907
 729  787.1245
 730  931.8973
 731  1059.343
 732  1016.652
 733  1095.745
 734  1100.478
 735  935.3393
 736  828.3668
 737  863.5908
 738  871.2043
 739  853.0578
 740  803.2787
 741  810.8184
 742  783.2281
 743  819.8719
 744  881.5276
 745  800.1148
 746  859.9777
 747  925.9175
 748  852.0696
 749  802.228
 750  892.9085
 751  1024.474
 752  1026.805
 753  1041.508
 754  1184.141
 755  1171.933
 756  1226.756
 757  1384.549
 758  1528.864
 759  1542.27
 760  1439.951
 761  1316.09
 762  1103.921
 763  779.7845
 764  645.9988
 765  667.3773
 766  870.6644
 767  898.4442
 768  874.7077
 769  710.6002
 770  720.0268
 771  654.2667
 772  761.4201
 773  827.2681
 774  909.0225
 775  807.3845
 776  792.2244
 777  783.3617
 778  821.5925
 779  871.9545
 780  873.9728
 781  883.6771
 782  930.2723
 783  871.3464
 784  837.2034
 785  838.6105
 786  851.6569
 787  850.3448
 788  700.6503
 789  638.314
 790  694.4014
 791  755.3224
 792  865.0455
 793  901.6664
 794  945.7795
 795  918.6399
 796  796.6379
 797  717.5267
 798  752.549
 799  800.1086
 800  920.4442
 801  812.0991
 802  777.5319
 803  760.3157
 804  921.0626
 805  998.0032
 806  1051.948
 807  1039.68
 808  951.7913
 809  763.3559
 810  747.3376
 811  805.8387
 812  862.142
 813  807.465
 814  754.8113
 815  832.7198
 816  923.447
 817  920.7852
 818  752.5046
 819  671.4335
 820  780.3511
 821  916.6409
 822  887.7839
 823  892.7037
 824  898.5209
 825  846.0753
 826  757.6532
 827  760.1494
 828  688.5907
 829  560.2784
 830  505.0718
 831  600.8521
 832  626.9241
 833  723.3187
 834  692.6492
 835  673.441
 836  617.98
 837  597.0358
 838  530.6654
 839  538.7789
 840  594.6751
 841  593.9883
 842  548.9089
 843  533.8562
 844  609.5179
 845  637.6188
 846  682.8959
 847  701.314
 848  651.2344
 849  626.5404
 850  520.2493
 851  456.926
 852  558.3632
 853  624.8066
 854  682.176
 855  587.8832
 856  625.7955
 857  743.456
 858  738.2526
 859  719.0663
 860  678.2686
 861  586.5403
 862  541.3016
 863  498.4332
 864  613.5102
 865  639.28
 866  800.1255
 867  835.2226
 868  700.9803
 869  548.3588
 870  538.8218
 871  688.7941
 872  894.502
 873  905.9655
 874  829.9206
 875  739.2504
 876  692.065
 877  737.066
 878  810.0261
 879  837.6921
 880  782.7285
 881  757.7443
 882  904.8848
 883  915.1768
 884  949.7842
 885  846.7126
 886  844.4022
 887  766.5983
 888  682.9481
 889  712.955
 890  686.2192
 891  701.553
 892  628.622
 893  742.0577
 894  738.9153
 895  690.0705
 896  691.1801
 897  739.6817
 898  689.1118
 899  612.8129
 900  587.7941
 901  534.0199
 902  579.9688
 903  659.7462
 904  823.6851
 905  924.4603
 906  936.853
 907  881.7017
 908  785.6318
 909  709.9762
 910  677.3057
 911  608.8989
 912  595.6953
 913  563.2115
 914  648.3393
 915  631.3113
 916  624.8358
 917  643.8149
 918  774.959
 919  780.7959
 920  749.1658
 921  746.768
 922  754.9095
 923  738.4445
 924  642.3419
 925  600.6157
 926  573.571
 927  581.8778
 928  543.5596
 929  614.6481
 930  617.5354
 931  619.8471
 932  590.5199
 933  640.4401
 934  661.1808
 935  708.2543
 936  748.6619
 937  877.1988
 938  922.2058
 939  965.2149
 940  813.5059
 941  735.9608
 942  760.1882
 943  845.6583
 944  863.8643
 945  776.4853
 946  664.3427
 947  705.6727
 948  758.263
 949  880.4238
 950  904.4123
 951  1010.217
 952  944.8905
 953  967.0497
 954  973.8599
 955  935.6417
 956  806.3037
 957  789.8867
 958  853.6442
 959  825.4939
 960  763.8943
 961  693.8997
 962  713.4895
 963  690.9727
 964  756.0306
 965  773.5239
 966  731.9459
 967  668.1914
 968  665.9174
 969  737.4616
 970  691.5922
 971  646.967
 972  656.9313
 973  743.9503
 974  756.7678
 975  787.8833
 976  815.8526
 977  802.0715
 978  811.9166
 979  862.5
 980  817.8103
 981  702.0137
 982  670.0286
 983  725.4756
 984  705.1818
 985  537.75
 986  575.9945
 987  620.7001
 988  711.7231
 989  624.8661
 990  591.058
 991  445.5558
 992  332.2417
 993  338.6474
 994  341.3542
 995  276.5586
 996  145.2983
 997  316.9917
 998  451.0973
 999  561.7735
1000  471.7297
1001  452.2822
1002  523.1515
1003  554.0197
1004  621.7164
1005  606.8547
1006  604.217
1007  512.5504
1008  599.1894
1009  651.5946
1010  662.6849
1011  571.6618
1012  516.9282
1013  495.9134
1014  479.6107
1015  548.2826
1016  558.4255
1017  594.0502
1018  607.1083
1019  655.0965
1020  638.5888
1021  633.8022
1022  665.5641
1023  749.2979
