# Input file       =  1180149854.141643_cleaned.dat
# Candidate        =  PSR_0332+5434
# Telescope        =  AR
# Epoch_topo       =  57903.142050250499
# Epoch_bary       =  N/A
# T_sample         =  0.002
# Data Folded      =  7208960
# Data Avg         =  0.0383952712365432
# Data StdDev      =  1.00018073618721 
# Profile Bins     =  512
# Profile Avg      =  540.570922047467 
# Profile StdDev   =  118.680621800541 
# Reduced chi-sqr  =  0.884
# Prob(Noise)      <  0.972   (~0.0 sigma)
# P_topo (ms)      =  714.518392197757  +/- 0.000328
# P'_topo (s/s)    =  -0                +/- 1.76e-10
# P''_topo (s/s^2) =  0                 +/- 7.91e-14
# P_bary (ms)      =  N/A
# P'_bary (s/s)    =  N/A
# P''_bary (s/s^2) =  N/A
# P_orb (s)        =  N/A
# asin(i)/c (s)    =  N/A
# eccentricity     =  N/A
# w (rad)          =  N/A
# T_peri           =  N/A
######################################################
   0  870.4144
   1  796.9855
   2  740.8252
   3  577.7762
   4  501.7843
   5  547.2672
   6  518.3983
   7  517.9299
   8  436.3498
   9  547.8396
  10  459.3522
  11  506.6726
  12  469.7029
  13  547.6137
  14  596.5886
  15  443.6725
  16  418.5748
  17  434.7921
  18  591.7559
  19  549.2161
  20  465.6076
  21  444.364
  22  523.8443
  23  456.9814
  24  537.6054
  25  533.2144
  26  491.3165
  27  483.3019
  28  479.0922
  29  565.7781
  30  581.6429
  31  547.9097
  32  507.8295
  33  468.1514
  34  584.2639
  35  541.9797
  36  608.3193
  37  554.5695
  38  549.6255
  39  551.2485
  40  639.6228
  41  492.8741
  42  465.5876
  43  468.0574
  44  425.6344
  45  454.9564
  46  563.9688
  47  507.8254
  48  478.7017
  49  658.037
  50  707.595
  51  633.9498
  52  524.3951
  53  588.8152
  54  524.8522
  55  510.4502
  56  437.1829
  57  542.2925
  58  508.7738
  59  438.4776
  60  571.0588
  61  469.0404
  62  504.3508
  63  500.5575
  64  529.8169
  65  526.4319
  66  591.3358
  67  612.1909
  68  587.9447
  69  575.2351
  70  536.8123
  71  546.1301
  72  563.5423
  73  532.7073
  74  377.1945
  75  486.11
  76  555.7679
  77  520.5589
  78  481.735
  79  415.429
  80  401.4409
  81  413.2387
  82  474.1652
  83  574.9032
  84  526.8992
  85  512.4153
  86  536.2046
  87  503.047
  88  512.9861
  89  623.9407
  90  607.955
  91  561.7598
  92  559.0779
  93  562.4651
  94  569.3578
  95  453.1851
  96  504.7431
  97  570.7905
  98  502.329
  99  582.9767
 100  589.9039
 101  531.9708
 102  368.1073
 103  477.35
 104  534.1225
 105  476.1252
 106  521.7388
 107  472.9418
 108  452.9117
 109  500.1272
 110  556.9111
 111  514.1196
 112  412.632
 113  480.4571
 114  594.9811
 115  578.0248
 116  510.8419
 117  570.9943
 118  642.0593
 119  651.2685
 120  565.7681
 121  598.274
 122  591.5696
 123  580.1841
 124  560.8798
 125  592.4724
 126  705.5143
 127  645.0549
 128  547.2661
 129  414.0384
 130  478.5825
 131  546.2242
 132  617.5977
 133  564.7487
 134  602.3866
 135  629.8003
 136  630.7733
 137  482.9724
 138  477.6638
 139  596.4727
 140  610.0123
 141  519.6588
 142  655.4717
 143  642.174
 144  608.0729
 145  522.7061
 146  450.2253
 147  606.4814
 148  524.7559
 149  490.2367
 150  484.0367
 151  629.4977
 152  599.7775
 153  573.4901
 154  516.5499
 155  493.0175
 156  486.3415
 157  535.8688
 158  472.2569
 159  509.7471
 160  503.6221
 161  472.2819
 162  534.5532
 163  491.2864
 164  400.3114
 165  479.0249
 166  522.0986
 167  545.4211
 168  615.3546
 169  597.7794
 170  593.8519
 171  544.1165
 172  521.7053
 173  407.0465
 174  452.0623
 175  575.3751
 176  583.6821
 177  553.265
 178  606.194
 179  597.9886
 180  503.7419
 181  444.8953
 182  597.6611
 183  715.0878
 184  660.537
 185  621.6964
 186  565.6285
 187  559.6605
 188  538.3347
 189  577.2664
 190  547.9683
 191  499.351
 192  489.3967
 193  525.9374
 194  516.4672
 195  500.0305
 196  530.7463
 197  532.4344
 198  587.5503
 199  551.7353
 200  642.6753
 201  527.5969
 202  509.7079
 203  565.0131
 204  581.8011
 205  499.6089
 206  510.041
 207  646.5535
 208  678.8303
 209  585.5543
 210  503.2826
 211  493.0971
 212  552.7872
 213  522.5447
 214  590.6978
 215  608.7928
 216  600.3372
 217  556.2937
 218  628.3076
 219  744.5104
 220  644.5665
 221  702.8083
 222  566.3279
 223  597.1221
 224  621.5684
 225  669.1505
 226  615.2117
 227  548.8235
 228  562.0673
 229  529.7847
 230  459.9286
 231  368.8428
 232  445.0035
 233  466.2906
 234  548.2843
 235  605.6707
 236  507.9559
 237  617.0188
 238  452.2577
 239  460.6194
 240  454.8886
 241  540.8699
 242  515.8657
 243  543.5021
 244  441.6144
 245  387.1164
 246  420.7911
 247  505.9114
 248  480.8677
 249  425.1121
 250  427.1833
 251  580.0963
 252  562.4619
 253  431.425
 254  374.148
 255  484.6893
 256  415.9147
 257  375.6363
 258  427.7747
 259  424.1348
 260  509.4167
 261  597.5903
 262  572.7061
 263  609.2912
 264  593.2125
 265  561.1827
 266  507.4902
 267  379.0482
 268  411.4171
 269  551.7386
 270  516.9822
 271  449.9067
 272  474.6991
 273  441.2816
 274  560.7885
 275  606.7911
 276  663.8583
 277  577.1944
 278  470.8475
 279  455.5313
 280  387.3539
 281  544.5801
 282  670.8185
 283  696.0599
 284  513.4719
 285  523.324
 286  534.3344
 287  493.994
 288  537.9893
 289  577.8369
 290  631.9548
 291  490.6355
 292  461.2148
 293  533.2009
 294  589.8433
 295  632.1381
 296  532.2825
 297  524.5234
 298  573.1338
 299  586.5425
 300  632.7436
 301  717.4229
 302  698.5259
 303  572.3212
 304  554.2126
 305  573.8217
 306  642.0358
 307  568.6668
 308  533.7163
 309  587.3175
 310  544.4853
 311  573.3375
 312  416.418
 313  589.4885
 314  594.3713
 315  467.3613
 316  528.2221
 317  688.0049
 318  579.511
 319  404.9819
 320  400.4171
 321  516.0861
 322  514.291
 323  531.6277
 324  542.5189
 325  520.735
 326  721.5145
 327  635.2869
 328  463.8876
 329  466.648
 330  553.1669
 331  527.7946
 332  580.0159
 333  586.8124
 334  625.7928
 335  621.7614
 336  695.6157
 337  631.9901
 338  576.5945
 339  617.8068
 340  503.0932
 341  466.3074
 342  544.7399
 343  597.9367
 344  635.5944
 345  633.663
 346  561.6804
 347  577.2639
 348  585.2737
 349  539.0479
 350  627.2699
 351  658.0087
 352  607.7277
 353  550.8106
 354  622.2423
 355  720.5263
 356  635.3792
 357  704.2645
 358  696.6428
 359  693.896
 360  642.1135
 361  552.2002
 362  612.3493
 363  677.7498
 364  614.5512
 365  600.9349
 366  567.8864
 367  651.7458
 368  654.2467
 369  584.8064
 370  532.6465
 371  542.0541
 372  486.5172
 373  445.0831
 374  464.5506
 375  549.8559
 376  674.2654
 377  554.3499
 378  540.8248
 379  686.6007
 380  677.8276
 381  576.2847
 382  520.4562
 383  447.4963
 384  400.6756
 385  398.2538
 386  483.9804
 387  572.777
 388  480.5595
 389  475.1292
 390  613.0089
 391  531.8289
 392  422.7413
 393  455.4759
 394  507.3038
 395  470.0895
 396  391.3369
 397  458.3187
 398  514.7899
 399  433.1405
 400  484.7129
 401  540.3228
 402  570.462
 403  585.2026
 404  514.116
 405  539.3835
 406  479.1901
 407  513.736
 408  479.0623
 409  552.9484
 410  499.8931
 411  439.8884
 412  550.8893
 413  572.3103
 414  596.2053
 415  573.3051
 416  505.4655
 417  537.8181
 418  546.6607
 419  566.5145
 420  449.6952
 421  530.4774
 422  486.8142
 423  416.7691
 424  475.2589
 425  478.1891
 426  399.7261
 427  429.1537
 428  442.6928
 429  465.5194
 430  478.5669
 431  566.1526
 432  597.7634
 433  612.5004
 434  528.8831
 435  479.4285
 436  416.2421
 437  531.291
 438  460.1665
 439  381.468
 440  458.5155
 441  441.7058
 442  512.7633
 443  562.8932
 444  592.8583
 445  539.671
 446  475.832
 447  466.6623
 448  465.7829
 449  520.0299
 450  546.3358
 451  594.5629
 452  548.4125
 453  510.7093
 454  549.4698
 455  453.9454
 456  504.3973
 457  543.8799
 458  494.9385
 459  367.7715
 460  290.9274
 461  480.6721
 462  554.3704
 463  583.2463
 464  571.5199
 465  525.7761
 466  541.8142
 467  503.4103
 468  406.1901
 469  345.1396
 470  413.8327
 471  392.1952
 472  460.1789
 473  566.398
 474  597.3806
 475  468.4948
 476  491.3889
 477  433.8725
 478  467.4135
 479  564.2977
 480  646.587
 481  692.4768
 482  496.3109
 483  435.0915
 484  525.7739
 485  458.3242
 486  595.6199
 487  501.1956
 488  481.4183
 489  472.2915
 490  495.7061
 491  542.2355
 492  570.4174
 493  646.8663
 494  652.6183
 495  696.4283
 496  607.0144
 497  608.3774
 498  541.3372
 499  515.8135
 500  539.8519
 501  624.7767
 502  640.1133
 503  618.9637
 504  667.0646
 505  666.2693
 506  618.8926
 507  617.7536
 508  734.3472
 509  768.917
 510  789.9011
 511  870.6061
