# Input file       =  1180580777.110533_cleaned.dat
# Candidate        =  PSR_0332+5434
# Telescope        =  AR
# Epoch_topo       =  57908.129584612652
# Epoch_bary       =  N/A
# T_sample         =  0.002
# Data Folded      =  7143424
# Data Avg         =  0.133648568323232
# Data StdDev      =  4.68215762705501 
# Profile Bins     =  512
# Profile Avg      =  1864.63600704351 
# Profile StdDev   =  553.049831228716 
# Reduced chi-sqr  =  0.553
# Prob(Noise)      <  1   (~0.0 sigma)
# P_topo (ms)      =  714.513527562147  +/- 7.94e-05
# P'_topo (s/s)    =  -0                +/- 4.3e-11
# P''_topo (s/s^2) =  0                 +/- 1.95e-14
# P_bary (ms)      =  N/A
# P'_bary (s/s)    =  N/A
# P''_bary (s/s^2) =  N/A
# P_orb (s)        =  N/A
# asin(i)/c (s)    =  N/A
# eccentricity     =  N/A
# w (rad)          =  N/A
# T_peri           =  N/A
######################################################
   0  1944.387
   1  2259.093
   2  2383.639
   3  2125.349
   4  2040.274
   5  2143.556
   6  2210.588
   7  2240.186
   8  2291.989
   9  2500.073
  10  2344.151
  11  2180.05
  12  2231.055
  13  2330.943
  14  2195.067
  15  1882.587
  16  1800.791
  17  1865.932
  18  1854.266
  19  1605.967
  20  2085.376
  21  1991.294
  22  2180.643
  23  2115.044
  24  1508.275
  25  1932.163
  26  2059.152
  27  2434.755
  28  1585.949
  29  1878.676
  30  2186.074
  31  2019.508
  32  1848.209
  33  2164.951
  34  2254.553
  35  1619.812
  36  1804.156
  37  1636.532
  38  1581.532
  39  1696.335
  40  1909.775
  41  2241.148
  42  1946.003
  43  2083.84
  44  1980.281
  45  1955.717
  46  1750.42
  47  1400.13
  48  1638.763
  49  1710.58
  50  1771.51
  51  1984.986
  52  2141.27
  53  1918.925
  54  1955.625
  55  2052.494
  56  1575.724
  57  1788.125
  58  1779.811
  59  1944.013
  60  1642.313
  61  1690.596
  62  1813.979
  63  1970.802
  64  2152.162
  65  1646.22
  66  1593.859
  67  1461.564
  68  1743.126
  69  1640.579
  70  1510.261
  71  1640.406
  72  1505.488
  73  1493.448
  74  2008.759
  75  2019.65
  76  2242.139
  77  1754.986
  78  1921.697
  79  1637.028
  80  1481.171
  81  1582.358
  82  2025.134
  83  1706.786
  84  1765.098
  85  1778.764
  86  1526.112
  87  1942.099
  88  2089.393
  89  2199.015
  90  2114.714
  91  1967.681
  92  2122.135
  93  2024.974
  94  2610.222
  95  2081.336
  96  2231.086
  97  2049.623
  98  1998.416
  99  1587.747
 100  1601.322
 101  2077.235
 102  1689.252
 103  1923.72
 104  2002.077
 105  1923.868
 106  1787.875
 107  2125.759
 108  2199.165
 109  1665.618
 110  1445.705
 111  1437.203
 112  1686.32
 113  1720.306
 114  1747.707
 115  1533.668
 116  1608.182
 117  1479.491
 118  1604.095
 119  2150.811
 120  2371.964
 121  1815.984
 122  1986.942
 123  1767.855
 124  1806.789
 125  1951.78
 126  2027.327
 127  1698.801
 128  1950.848
 129  1912.758
 130  1648.531
 131  1554.557
 132  1459.386
 133  1666.949
 134  1516.154
 135  1870.704
 136  2023.871
 137  1935.633
 138  1928.575
 139  1773.67
 140  1762.294
 141  1949.715
 142  1798.88
 143  1754.693
 144  1653.988
 145  1685.484
 146  1563.157
 147  1702.536
 148  1617.121
 149  1784.813
 150  2083.175
 151  1771.371
 152  1730.963
 153  1871.541
 154  1901.64
 155  1727.332
 156  1933.704
 157  1383.252
 158  1467.64
 159  2036.865
 160  2032.273
 161  1778.352
 162  1413.668
 163  1645.644
 164  1599.553
 165  1443.777
 166  1709.638
 167  1780.604
 168  1619.093
 169  1444.606
 170  1578.877
 171  1757.281
 172  1855.389
 173  2039.297
 174  2353.773
 175  2118.82
 176  1873.578
 177  1691.97
 178  1697.492
 179  1905.926
 180  1435.495
 181  1410.074
 182  1614.293
 183  2109.722
 184  2132.344
 185  1865.678
 186  1631.707
 187  1560.931
 188  1675.857
 189  1629.273
 190  2167.198
 191  1996.686
 192  1773.923
 193  1870.237
 194  1778.372
 195  1559.462
 196  1682.651
 197  1836.073
 198  1773.016
 199  1561.184
 200  1826.826
 201  1732.999
 202  2065.052
 203  2375.907
 204  1743.984
 205  1513.645
 206  1333.98
 207  1678.207
 208  2116.167
 209  2021.254
 210  1291.388
 211  1637.968
 212  1908.801
 213  2020.085
 214  1793.631
 215  1574.888
 216  1914.813
 217  1995.735
 218  1765.847
 219  2113.841
 220  2075.688
 221  2202.534
 222  2136.645
 223  2017.711
 224  2125.378
 225  1919.05
 226  1786.042
 227  1826.833
 228  1717.98
 229  1641.341
 230  1908.918
 231  1614.514
 232  1545.15
 233  1421.927
 234  1562.015
 235  1574.388
 236  1737.136
 237  2030.233
 238  1515.328
 239  1399.204
 240  1588.995
 241  1925.665
 242  1708.447
 243  1659.617
 244  2150.149
 245  1628.254
 246  1733.171
 247  1459.129
 248  1312.327
 249  1347.832
 250  1669.611
 251  1618.052
 252  1573.815
 253  1542.886
 254  1536.644
 255  1726.837
 256  1833.721
 257  2112.908
 258  1851.531
 259  1650.82
 260  1744.179
 261  1791.678
 262  1572.281
 263  1287.743
 264  1770.746
 265  2040.638
 266  1848.186
 267  1375.456
 268  1283.603
 269  1763.61
 270  2213.153
 271  2047.165
 272  1920.708
 273  1944.994
 274  2209.431
 275  1731.617
 276  1786.883
 277  1712.369
 278  1936.069
 279  1690.675
 280  1654.69
 281  1743.101
 282  1536.301
 283  1554.051
 284  1513.461
 285  1766.332
 286  1478.23
 287  1452.886
 288  1510.488
 289  1802.636
 290  2344.128
 291  2063.307
 292  1804.45
 293  1577.199
 294  1413.315
 295  1894.409
 296  1701.628
 297  1691.68
 298  1954.108
 299  1695.082
 300  1772.467
 301  1553.605
 302  1820.629
 303  1821.896
 304  1723.67
 305  1751.915
 306  1934.781
 307  1918.003
 308  1927.199
 309  1859.483
 310  1614.541
 311  2007.986
 312  1712.49
 313  1991.719
 314  1848.257
 315  1742.64
 316  1623.165
 317  2197.051
 318  2202.863
 319  1739.345
 320  2049.751
 321  1815.316
 322  1918.35
 323  1967.584
 324  2309.531
 325  2482.165
 326  2344.736
 327  3177.844
 328  3216.73
 329  2649.361
 330  2503.24
 331  2333.492
 332  2300.692
 333  2088.787
 334  2106.429
 335  1820.465
 336  1561.856
 337  1706.407
 338  1491.386
 339  1571.781
 340  2253.346
 341  2284.255
 342  1603.166
 343  1623.005
 344  1836.406
 345  1996.173
 346  2031.146
 347  2219.495
 348  2069.44
 349  1998.096
 350  1606.29
 351  1750.367
 352  2021.566
 353  1732.61
 354  1791.736
 355  1650.035
 356  1795.12
 357  2013.087
 358  1798.603
 359  1642.78
 360  1576.547
 361  2080.715
 362  2142.502
 363  2040.936
 364  2325.144
 365  2352.116
 366  2124.883
 367  2212.379
 368  2569.029
 369  2317.122
 370  1709.566
 371  1825.96
 372  2127.828
 373  2336.214
 374  2274.08
 375  2335.445
 376  2172.487
 377  1608.567
 378  1270.438
 379  1734.342
 380  2195.306
 381  2056.096
 382  1741.655
 383  1705.761
 384  2333.468
 385  2564.292
 386  1938.713
 387  2306.747
 388  2513.969
 389  2581.766
 390  2229.148
 391  1998.372
 392  2041.91
 393  2044.404
 394  2088.665
 395  2105.913
 396  2064.663
 397  2000.951
 398  2069.856
 399  2131.397
 400  1845.759
 401  1722.61
 402  1438.908
 403  1686.208
 404  1899.039
 405  2186.01
 406  2234.677
 407  1775.954
 408  1731.425
 409  1717.392
 410  1721.842
 411  1338.328
 412  1361.756
 413  1633.468
 414  1856.855
 415  1837.753
 416  1995.951
 417  2482.693
 418  2047.124
 419  1745.144
 420  1636.735
 421  2038.034
 422  2079.788
 423  2036.819
 424  1835.885
 425  1711.361
 426  2089.561
 427  2163.32
 428  2387.396
 429  2048.154
 430  1641.479
 431  1849.933
 432  2345.336
 433  2570.556
 434  2246.677
 435  2153.336
 436  2298.579
 437  2256.312
 438  2460.443
 439  2605.769
 440  2371.185
 441  2273.593
 442  2093.904
 443  2015.403
 444  1540.833
 445  1666.003
 446  2208.474
 447  2409.888
 448  2305.227
 449  1665.35
 450  1867.277
 451  2022.323
 452  1848.326
 453  1722.526
 454  1694.665
 455  1598.826
 456  1811.246
 457  1977.426
 458  2496.398
 459  2164.556
 460  2271.074
 461  2148.612
 462  1784.401
 463  1630.203
 464  1382.517
 465  1995.694
 466  2213.613
 467  1900.062
 468  1688.086
 469  1537.743
 470  2045.324
 471  2120.116
 472  2146.03
 473  1499.272
 474  1744.026
 475  1707.506
 476  1495.263
 477  1288.369
 478  1173.615
 479  1367.67
 480  1757.741
 481  1515.292
 482  1331.334
 483  1003.874
 484  1157.774
 485  1464.338
 486  1348.412
 487  1181.777
 488  1728.809
 489  2024.031
 490  2159.499
 491  1757.586
 492  1577.993
 493  1803.709
 494  1621.089
 495  1545.751
 496  1457.101
 497  1407.656
 498  1313.815
 499  1702.215
 500  1824.135
 501  1899.741
 502  1851.246
 503  1793.227
 504  1981.746
 505  1995.155
 506  1959.966
 507  2078.987
 508  2111.205
 509  1899.01
 510  1640.214
 511  1633.023
