# Input file       =  1181356138.126529_cleaned.dat
# Candidate        =  PSR_0332+5434
# Telescope        =  AR
# Epoch_topo       =  57917.103670445940
# Epoch_bary       =  N/A
# T_sample         =  0.002
# Data Folded      =  7208960
# Data Avg         =  0.239554834117139
# Data StdDev      =  5.74459116441755 
# Profile Bins     =  1024
# Profile Avg      =  1686.4472103726  
# Profile StdDev   =  481.998243388896 
# Reduced chi-sqr  =  0.464
# Prob(Noise)      <  1   (~0.0 sigma)
# P_topo (ms)      =  714.504995871319  +/- 4.12e-05
# P'_topo (s/s)    =  -0                +/- 2.21e-11
# P''_topo (s/s^2) =  0                 +/- 9.94e-15
# P_bary (ms)      =  N/A
# P'_bary (s/s)    =  N/A
# P''_bary (s/s^2) =  N/A
# P_orb (s)        =  N/A
# asin(i)/c (s)    =  N/A
# eccentricity     =  N/A
# w (rad)          =  N/A
# T_peri           =  N/A
######################################################
   0  1752.203
   1  1785.669
   2  1926.185
   3  1865.02
   4  1894.641
   5  1896.513
   6  2056.262
   7  1854.161
   8  1727.967
   9  1554.43
  10  1395.564
  11  1315.412
  12  1509.973
  13  1785.329
  14  1769.641
  15  1723.98
  16  1760.119
  17  1646.73
  18  1373.297
  19  1349.006
  20  1585.305
  21  1725.98
  22  1654.408
  23  1583.654
  24  1611.661
  25  1573.447
  26  1684.571
  27  1737.495
  28  1805.725
  29  1739.61
  30  1650.036
  31  1726.715
  32  1692.473
  33  1694.587
  34  1728.252
  35  1968.825
  36  1971.449
  37  1911.072
  38  1750.714
  39  1840.345
  40  1769.211
  41  1760.415
  42  1703.348
  43  1652.808
  44  1542.233
  45  1637.236
  46  1688.808
  47  1889.956
  48  1752.197
  49  1680.182
  50  1458.705
  51  1408.47
  52  1465.767
  53  1496.626
  54  1612.275
  55  1668.685
  56  1690.308
  57  1696.314
  58  1484.884
  59  1344.961
  60  1290.755
  61  1523.48
  62  1662.652
  63  1686.583
  64  1720.708
  65  1796.811
  66  1692.433
  67  1667.887
  68  1722.443
  69  1860.471
  70  1751.126
  71  1737.872
  72  1852.432
  73  1774.056
  74  1533.272
  75  1447.083
  76  1470.432
  77  1406.955
  78  1303.306
  79  1491.417
  80  1585.038
  81  1559.152
  82  1495.419
  83  1632.415
  84  1653.071
  85  1553.985
  86  1621.706
  87  1680.904
  88  1558.564
  89  1382.775
  90  1428.701
  91  1645.609
  92  1600.607
  93  1661.52
  94  1659.803
  95  1887.11
  96  1862.322
  97  1848.589
  98  1815.803
  99  1805.292
 100  1724.518
 101  1771.088
 102  1720.044
 103  1584.373
 104  1445.455
 105  1514.857
 106  1605.727
 107  1593.825
 108  1661.479
 109  1724.693
 110  1705.897
 111  1557.71
 112  1625.321
 113  1747.545
 114  1656.507
 115  1587.598
 116  1646.378
 117  1609.935
 118  1340.226
 119  1328.266
 120  1641.774
 121  1758.107
 122  1591.64
 123  1459.542
 124  1587.562
 125  1732.096
 126  1701.371
 127  1571.564
 128  1664.999
 129  1659.932
 130  1781.044
 131  1840.246
 132  1879.262
 133  1652.505
 134  1569.726
 135  1658.801
 136  1870.965
 137  1869.681
 138  1888.263
 139  2074.992
 140  1902.287
 141  1593.95
 142  1457.554
 143  1613.027
 144  1620.23
 145  1512.85
 146  1729.783
 147  1696.235
 148  1447.554
 149  1342.905
 150  1499.819
 151  1607.866
 152  1415.483
 153  1390.648
 154  1554.811
 155  1589.923
 156  1579.21
 157  1477.792
 158  1542.67
 159  1391.023
 160  1572.375
 161  1788.267
 162  1858.924
 163  1643.336
 164  1597.352
 165  1665.826
 166  1631.772
 167  1621.248
 168  1752.778
 169  1863.842
 170  1828.09
 171  1712.642
 172  1653.605
 173  1593.525
 174  1480.571
 175  1559.144
 176  1561.105
 177  1499.248
 178  1533.236
 179  1785.163
 180  1994.144
 181  1886.72
 182  1652.01
 183  1630.844
 184  1610.097
 185  1563.094
 186  1557.983
 187  1532.49
 188  1616.396
 189  1450.029
 190  1507.231
 191  1461.64
 192  1362.89
 193  1372.073
 194  1565.836
 195  1889.005
 196  1806.6
 197  1687.212
 198  1760.328
 199  1943.468
 200  1988.841
 201  1813.663
 202  1820.147
 203  1844.938
 204  1887.598
 205  1836.651
 206  1712.66
 207  1587.011
 208  1356.265
 209  1467.571
 210  1547.51
 211  1547.543
 212  1465.707
 213  1606.28
 214  1708.135
 215  1612.193
 216  1531.877
 217  1582.203
 218  1602.804
 219  1524.094
 220  1613.751
 221  1697.115
 222  1542.673
 223  1443.756
 224  1447.838
 225  1435.434
 226  1247.689
 227  1344.701
 228  1623.978
 229  1769.385
 230  1746.05
 231  1685.198
 232  1727.869
 233  1688.36
 234  1833.246
 235  1924.739
 236  1899.313
 237  1712.642
 238  1792.873
 239  1895.58
 240  1787.458
 241  1608.98
 242  1651.952
 243  1848.647
 244  1981.397
 245  1914.979
 246  1834.774
 247  1648.961
 248  1539.437
 249  1471.153
 250  1542.287
 251  1605.373
 252  1556.285
 253  1680.185
 254  1649.14
 255  1697.444
 256  1551.147
 257  1589.912
 258  1571.087
 259  1621.764
 260  1718.361
 261  1867.176
 262  1957.317
 263  1938.144
 264  1813.126
 265  1703.329
 266  1591.141
 267  1516.731
 268  1621.627
 269  1843.484
 270  1922.561
 271  1869.597
 272  1864.568
 273  1827.918
 274  1699.125
 275  1592.649
 276  1799.941
 277  1888.831
 278  1819.777
 279  1734.533
 280  1772.683
 281  1756.835
 282  1619.609
 283  1658.269
 284  1755.823
 285  1654.869
 286  1638.964
 287  1714.477
 288  1791.96
 289  1504.981
 290  1511.809
 291  1587.821
 292  1696.734
 293  1617.498
 294  1738.582
 295  1840.89
 296  1732.147
 297  1636.326
 298  1568.295
 299  1699.281
 300  1590.216
 301  1761.431
 302  1966.216
 303  1985.928
 304  1816.499
 305  1716.959
 306  1791.586
 307  1632.733
 308  1514.346
 309  1522.97
 310  1684.694
 311  1713.167
 312  1734.626
 313  1779.454
 314  1762.054
 315  1642.392
 316  1539.098
 317  1484.602
 318  1483.677
 319  1408.632
 320  1574.243
 321  1567.514
 322  1485.818
 323  1437.789
 324  1603.65
 325  1708.137
 326  1781.529
 327  1844.051
 328  1926.349
 329  1777.225
 330  1595.933
 331  1631.182
 332  1873.234
 333  1904.667
 334  1848.18
 335  1764.347
 336  1788.916
 337  1620.185
 338  1604.994
 339  1656.676
 340  1669.065
 341  1455.049
 342  1626.275
 343  1826.137
 344  1836.857
 345  1631.699
 346  1683.385
 347  1772.209
 348  1640.285
 349  1402.666
 350  1450.813
 351  1547.021
 352  1483.481
 353  1410.691
 354  1446.121
 355  1503.339
 356  1345.887
 357  1389.692
 358  1486.728
 359  1456.023
 360  1324.457
 361  1526.507
 362  1746.954
 363  1701.168
 364  1694.847
 365  1802.195
 366  1832.601
 367  1687.829
 368  1545.868
 369  1760.527
 370  1653.215
 371  1478.592
 372  1351.858
 373  1313.532
 374  1308.073
 375  1383.592
 376  1585.537
 377  1528.01
 378  1380.107
 379  1434.518
 380  1604.166
 381  1550.089
 382  1345.502
 383  1311.129
 384  1429.816
 385  1464.545
 386  1631.181
 387  1637.249
 388  1578.311
 389  1435.385
 390  1485.703
 391  1632.425
 392  1669.932
 393  1632.214
 394  1730.621
 395  1913.65
 396  2049.661
 397  1989.511
 398  1786.72
 399  1764.4
 400  1704.296
 401  1828.984
 402  1897.565
 403  1976.424
 404  1754.266
 405  1594.709
 406  1645.088
 407  1793.382
 408  1688.67
 409  1544.306
 410  1661.798
 411  1785.853
 412  1799.795
 413  1726.845
 414  1764.357
 415  1712.993
 416  1576.705
 417  1639.124
 418  1773.462
 419  1780.585
 420  1833.424
 421  1713.203
 422  1625.486
 423  1494.596
 424  1554.216
 425  1757.94
 426  1798.894
 427  1777.825
 428  1682.536
 429  1714.726
 430  1670.21
 431  1718.871
 432  1709.313
 433  1774.233
 434  1748.552
 435  1883.135
 436  1870.117
 437  1749.928
 438  1659.207
 439  1695.852
 440  1693.212
 441  1495.768
 442  1487.703
 443  1618.306
 444  1674.948
 445  1635.383
 446  1633.549
 447  1676.567
 448  1615.824
 449  1608.208
 450  1795.504
 451  1876.901
 452  1675.253
 453  1508.758
 454  1586.994
 455  1660.56
 456  1688.094
 457  1725.984
 458  1785.647
 459  1760.602
 460  1663.636
 461  1742.374
 462  1752.542
 463  1680.753
 464  1758.568
 465  1868.78
 466  1998.861
 467  1732.355
 468  1715.611
 469  1839.722
 470  2006.664
 471  1878.863
 472  1749.107
 473  1687.663
 474  1717.216
 475  1837.864
 476  2045.105
 477  1987.355
 478  1663.987
 479  1523.65
 480  1544.504
 481  1587.967
 482  1414.989
 483  1386.521
 484  1461.863
 485  1534.955
 486  1526.822
 487  1505.799
 488  1493.784
 489  1443.123
 490  1476.944
 491  1600.196
 492  1771.381
 493  1800.877
 494  1879.184
 495  1866.727
 496  1761.126
 497  1512.62
 498  1662.282
 499  1864.245
 500  2004.706
 501  1768.043
 502  1705.216
 503  1601.654
 504  1457.887
 505  1430.377
 506  1608.104
 507  1695.453
 508  1614.474
 509  1777.427
 510  2046.375
 511  1926.043
 512  1669.004
 513  1650.259
 514  1731.462
 515  1566.044
 516  1500.89
 517  1543.827
 518  1477.314
 519  1283.868
 520  1334.065
 521  1374.959
 522  1416.308
 523  1471.566
 524  1909.498
 525  1964.24
 526  1962.86
 527  1768.438
 528  1901.522
 529  1925.257
 530  1916.728
 531  1901.698
 532  1948.508
 533  1911.303
 534  1815.936
 535  1775.897
 536  1890.338
 537  1733.724
 538  1472.924
 539  1517.487
 540  1629.189
 541  1832.316
 542  2055.312
 543  2196.619
 544  2097.367
 545  1767.617
 546  1697.991
 547  1654.926
 548  1796.308
 549  1838.48
 550  1978.998
 551  1892.121
 552  1748.837
 553  1566.197
 554  1576.569
 555  1680.653
 556  1806.057
 557  1939.653
 558  2080.021
 559  2142.48
 560  2025.023
 561  1975.727
 562  2019.172
 563  2077.042
 564  1950.356
 565  1831.629
 566  1908.42
 567  1805.714
 568  1760.904
 569  1727.366
 570  1819.649
 571  1690.032
 572  1745.903
 573  1976.359
 574  2122.175
 575  2003.766
 576  1827.626
 577  1783.231
 578  1721.634
 579  1703.322
 580  1819.15
 581  1873.93
 582  1662.116
 583  1724.165
 584  1914.902
 585  1961.896
 586  1687.538
 587  1565.072
 588  1635.708
 589  1575.435
 590  1462.677
 591  1684.591
 592  1878.747
 593  1876.904
 594  1767.602
 595  1842.627
 596  1815.926
 597  1695.554
 598  1720.227
 599  1973.792
 600  1986.535
 601  2020.006
 602  2039.448
 603  1995.774
 604  1799.809
 605  1662.188
 606  1615.237
 607  1537.593
 608  1427.93
 609  1576.09
 610  1708.36
 611  1704.127
 612  1507.714
 613  1595.193
 614  1742.925
 615  1831.458
 616  1869.293
 617  1916.266
 618  1880.475
 619  1625.458
 620  1586.332
 621  1569.971
 622  1702.878
 623  1727.547
 624  1698.079
 625  1740.534
 626  1684.687
 627  1629.597
 628  1602.479
 629  1564.539
 630  1523.791
 631  1605.61
 632  1782.753
 633  1958.881
 634  1733.338
 635  1525.201
 636  1410.467
 637  1553.039
 638  1586.994
 639  1763.456
 640  1863.993
 641  1793.133
 642  1605.62
 643  1581.972
 644  1560.403
 645  1407.109
 646  1378.039
 647  1495.631
 648  1674.35
 649  1486.032
 650  1605.33
 651  1598.032
 652  1511.993
 653  1394.747
 654  1462.307
 655  1813.356
 656  1821.967
 657  1836.107
 658  2049.498
 659  2043.931
 660  1917.329
 661  1740.601
 662  1817.586
 663  1711.516
 664  1575.203
 665  1569.684
 666  1763.106
 667  1733.022
 668  1632.078
 669  1688.091
 670  1715.486
 671  1477.832
 672  1448.139
 673  1571.556
 674  1804.511
 675  1759.307
 676  1847.215
 677  1703.132
 678  1498.745
 679  1349.155
 680  1493.052
 681  1643.047
 682  1608.15
 683  1471.804
 684  1474.409
 685  1526.406
 686  1510.76
 687  1622.905
 688  1669.849
 689  1752.074
 690  1635.616
 691  1833.886
 692  1837.315
 693  1820.007
 694  1854.679
 695  1918.54
 696  1970.971
 697  1878.029
 698  1975.859
 699  1988.152
 700  1800.689
 701  1629.227
 702  1462.465
 703  1423.711
 704  1332.8
 705  1477.209
 706  1624.855
 707  1735.416
 708  1862.385
 709  1786.46
 710  1757.704
 711  1671.438
 712  1641.112
 713  1614.826
 714  1616.826
 715  1736.368
 716  1820.075
 717  1834.37
 718  1760.739
 719  1500.308
 720  1425.315
 721  1560.632
 722  1817.625
 723  1968.302
 724  2108.782
 725  2252.252
 726  2224.104
 727  2011.568
 728  2045.679
 729  1974.022
 730  1921.188
 731  1636.875
 732  1651.567
 733  1670.932
 734  1617.943
 735  1616.13
 736  1489.331
 737  1477.028
 738  1372.738
 739  1595.205
 740  1764.576
 741  1731.4
 742  1583.217
 743  1554.643
 744  1591.457
 745  1597.138
 746  1718.584
 747  1871.04
 748  1989.204
 749  2072.075
 750  2262.997
 751  2264.146
 752  2125.363
 753  2056.181
 754  2158.6
 755  2293.559
 756  2290.089
 757  2337.473
 758  2370.545
 759  2262.191
 760  1978.52
 761  1802.681
 762  1767.329
 763  1848.292
 764  1896.954
 765  1994.497
 766  1927.311
 767  1852.105
 768  1703.364
 769  1797.808
 770  1829.814
 771  1835.871
 772  1708.371
 773  1691.786
 774  1693.702
 775  1705.19
 776  1644.296
 777  1654.196
 778  1511.166
 779  1430.164
 780  1472.041
 781  1718.32
 782  1737.087
 783  1612.878
 784  1508.12
 785  1673.019
 786  1602.009
 787  1614.431
 788  1769.66
 789  2014.87
 790  1957.743
 791  1783.752
 792  1863.273
 793  1929.75
 794  1675.673
 795  1493.247
 796  1582.339
 797  1535.196
 798  1446.501
 799  1546.335
 800  1765.927
 801  1558.02
 802  1386.613
 803  1501.975
 804  1644.584
 805  1613.028
 806  1669.114
 807  1845.973
 808  1642.771
 809  1346.105
 810  1297.655
 811  1401.099
 812  1340.356
 813  1297.152
 814  1388.713
 815  1478.004
 816  1354.246
 817  1468.373
 818  1643.508
 819  1641.656
 820  1513.859
 821  1583.608
 822  1779.544
 823  1802.654
 824  1752.854
 825  1730.473
 826  1628.129
 827  1531.12
 828  1609.243
 829  1803.26
 830  1825.397
 831  1782.97
 832  1675.318
 833  1588.979
 834  1520.091
 835  1410.1
 836  1486.6
 837  1550.997
 838  1480.176
 839  1538.5
 840  1772.19
 841  1783.97
 842  1587.034
 843  1561.578
 844  1566.187
 845  1578.331
 846  1426.676
 847  1531.17
 848  1537.102
 849  1518.597
 850  1487.164
 851  1552.523
 852  1570.8
 853  1446.425
 854  1638.792
 855  1914.873
 856  1961.695
 857  1707.933
 858  1812.265
 859  1968.077
 860  1930.256
 861  1856.621
 862  1720.168
 863  1852.804
 864  1612.74
 865  1660.54
 866  1612.477
 867  1542.372
 868  1411.579
 869  1529.656
 870  1797.892
 871  1713.762
 872  1659.189
 873  1955.322
 874  2001.057
 875  1777.853
 876  1461.67
 877  1645.574
 878  1688.442
 879  1605.742
 880  1678.704
 881  1750.615
 882  1685.086
 883  1551.546
 884  1496.367
 885  1482.575
 886  1319.216
 887  1499.151
 888  1672.789
 889  1739.106
 890  1768.255
 891  1911.064
 892  2048.646
 893  2052.269
 894  1935.984
 895  1958.611
 896  1836.078
 897  1770.874
 898  1671.003
 899  1671.418
 900  1414.919
 901  1263.64
 902  1283.233
 903  1561.115
 904  1619.415
 905  1780.26
 906  1822.775
 907  1703.87
 908  1408.22
 909  1329.434
 910  1440.975
 911  1461.401
 912  1381.366
 913  1617.85
 914  1832.218
 915  1885.647
 916  1619.007
 917  1450.751
 918  1465.11
 919  1502.016
 920  1705.732
 921  1744.078
 922  1886.273
 923  1944.459
 924  2021.62
 925  1864.906
 926  1884.73
 927  1824.005
 928  1860.706
 929  1858.964
 930  1798.078
 931  1694.513
 932  1560.218
 933  1663.174
 934  1675.522
 935  1535.538
 936  1443.29
 937  1532.098
 938  1535.121
 939  1462.122
 940  1453.786
 941  1641.656
 942  1614.843
 943  1570.533
 944  1564.552
 945  1597.165
 946  1514.175
 947  1706.596
 948  1896.794
 949  1747.889
 950  1438.401
 951  1344.541
 952  1544.947
 953  1634.936
 954  1711.007
 955  1862.799
 956  1909.159
 957  1668.926
 958  1554.801
 959  1537.334
 960  1544.503
 961  1542.1
 962  1724.741
 963  1884.326
 964  1766.902
 965  1755.193
 966  1788.997
 967  1818.7
 968  1567.819
 969  1606.13
 970  1697.926
 971  1791.658
 972  1710.7
 973  1700.448
 974  1707.892
 975  1579.351
 976  1482.733
 977  1531.949
 978  1702.501
 979  1538.804
 980  1490.48
 981  1415.185
 982  1471.208
 983  1410.267
 984  1459.022
 985  1569.735
 986  1621.158
 987  1644.035
 988  1839.647
 989  2012.829
 990  1991.011
 991  1751.24
 992  1811.142
 993  1886.895
 994  2016.938
 995  1968.095
 996  2018.328
 997  1828.676
 998  1683.274
 999  1554.181
1000  1554.611
1001  1468.328
1002  1432.436
1003  1580.156
1004  1667.462
1005  1632.234
1006  1701.807
1007  1967.483
1008  2039.297
1009  1830.554
1010  1797.885
1011  1811.405
1012  1736.096
1013  1735.249
1014  1814.975
1015  1868.942
1016  1611.797
1017  1570.348
1018  1751.266
1019  1896.465
1020  1895.332
1021  1965.427
1022  1981.528
1023  1960.962
