# Input file       =  1181270019.127795_cleaned.dat
# Candidate        =  PSR_0332+5434
# Telescope        =  AR
# Epoch_topo       =  57916.106922775405
# Epoch_bary       =  N/A
# T_sample         =  0.002
# Data Folded      =  7143424
# Data Avg         =  0.19475834956713 
# Data StdDev      =  5.21676043808764 
# Profile Bins     =  1024
# Profile Avg      =  1358.67283179955 
# Profile StdDev   =  435.716623657548 
# Reduced chi-sqr  =  0.436
# Prob(Noise)      <  1   (~0.0 sigma)
# P_topo (ms)      =  714.505927684156  +/- 4.38e-05
# P'_topo (s/s)    =  -0                +/- 2.37e-11
# P''_topo (s/s^2) =  0                 +/- 1.08e-14
# P_bary (ms)      =  N/A
# P'_bary (s/s)    =  N/A
# P''_bary (s/s^2) =  N/A
# P_orb (s)        =  N/A
# asin(i)/c (s)    =  N/A
# eccentricity     =  N/A
# w (rad)          =  N/A
# T_peri           =  N/A
######################################################
   0  1489.235
   1  1546.664
   2  1349.946
   3  1228.034
   4  1329.784
   5  1471.35
   6  1399.266
   7  1191.208
   8  1272.595
   9  1305.018
  10  1383.132
  11  1405.902
  12  1392.649
  13  1387.393
  14  1538.302
  15  1438.978
  16  1286.725
  17  1296.041
  18  1460.699
  19  1430.308
  20  1239.186
  21  1004.788
  22  1293.443
  23  1274.974
  24  1458.329
  25  1373.188
  26  1359.061
  27  1294.171
  28  1211.171
  29  1294.491
  30  1353.2
  31  1383.55
  32  1359.36
  33  1507.231
  34  1407.1
  35  1318.252
  36  1110.821
  37  1135.177
  38  1319.703
  39  1157.292
  40  1344.187
  41  1353.712
  42  1271.658
  43  1268.878
  44  1247.521
  45  1327.213
  46  1305.61
  47  1377.43
  48  1372.764
  49  1267
  50  1187.309
  51  1213.889
  52  1196.096
  53  1240.885
  54  1286.801
  55  1176.132
  56  1201.562
  57  1198
  58  1320.722
  59  1216.447
  60  1147.585
  61  1131.169
  62  1289.098
  63  1346.174
  64  1213.325
  65  1102.791
  66  1022.234
  67  1183.161
  68  1242.025
  69  1294.457
  70  1307.827
  71  1182.229
  72  1134.72
  73  1211.019
  74  1443.511
  75  1529.325
  76  1445.372
  77  1339.837
  78  1405.258
  79  1289.276
  80  1103.221
  81  1222.622
  82  1320.216
  83  1499.326
  84  1349.304
  85  1354.605
  86  1307.488
  87  1183.028
  88  1299.325
  89  1396.837
  90  1393.693
  91  1231.678
  92  1359.088
  93  1367.599
  94  1448.267
  95  1336.53
  96  1400.247
  97  1384.084
  98  1285.047
  99  1244.2
 100  1244.101
 101  1172.959
 102  1289.938
 103  1417.555
 104  1530.522
 105  1466.279
 106  1358.036
 107  1434.371
 108  1456.172
 109  1334.262
 110  1258.219
 111  1323.404
 112  1246.299
 113  1318.582
 114  1300.511
 115  1385.284
 116  1288.496
 117  1368.509
 118  1511.163
 119  1503.516
 120  1333.139
 121  1447.652
 122  1545.296
 123  1569.202
 124  1489.247
 125  1297.173
 126  1259.965
 127  1092.845
 128  1289.582
 129  1464.964
 130  1499.829
 131  1420.194
 132  1574.923
 133  1491.994
 134  1403.749
 135  1178.901
 136  1193.896
 137  1338.297
 138  1295.683
 139  1255.867
 140  1211.728
 141  1142.406
 142  1234.054
 143  1314.902
 144  1490.683
 145  1452.761
 146  1396.028
 147  1542.296
 148  1637.21
 149  1410.403
 150  1277.911
 151  1207.272
 152  1084.782
 153  1001.139
 154  882.7833
 155  1078.54
 156  1180.76
 157  1323.606
 158  1430.512
 159  1344.253
 160  1360.805
 161  1545.253
 162  1519.101
 163  1328.487
 164  1211.747
 165  1097.493
 166  1157.846
 167  1199.924
 168  1124.636
 169  1052.681
 170  1061.221
 171  1345.772
 172  1493.73
 173  1445.297
 174  1494.587
 175  1421.775
 176  1428.96
 177  1318.249
 178  1355.141
 179  1150.348
 180  1157.939
 181  1194.018
 182  1261.457
 183  1228.679
 184  1100.96
 185  1196.144
 186  1275.058
 187  1332.878
 188  1357.605
 189  1301.679
 190  1254.307
 191  1332.692
 192  1259.943
 193  1233.977
 194  1201.156
 195  1203.623
 196  1446.374
 197  1512.579
 198  1534.607
 199  1331.554
 200  1207.373
 201  1254.929
 202  1394.969
 203  1403.368
 204  1403.57
 205  1240.124
 206  1128.341
 207  1194.853
 208  1250.345
 209  1364.578
 210  1581.137
 211  1608.279
 212  1708.957
 213  1449.411
 214  1377.101
 215  1483.889
 216  1536.114
 217  1503.79
 218  1344.519
 219  1185.457
 220  1306.541
 221  1504.477
 222  1557.676
 223  1425.641
 224  1072.361
 225  1168.945
 226  1378.189
 227  1320.761
 228  1178.41
 229  1101.555
 230  1252.847
 231  1336.342
 232  1356.612
 233  1320.702
 234  1424.122
 235  1228.595
 236  1262.487
 237  1377.671
 238  1420.236
 239  1484.979
 240  1497.174
 241  1748.063
 242  1652.969
 243  1376.754
 244  1365.729
 245  1296.095
 246  1418.063
 247  1457.964
 248  1627.698
 249  1427.067
 250  1427.873
 251  1264.726
 252  1439.227
 253  1209.674
 254  1201.644
 255  1465.099
 256  1509.487
 257  1474.757
 258  1468.151
 259  1733.702
 260  1790.573
 261  1677.239
 262  1501.38
 263  1555.052
 264  1383.578
 265  1304.881
 266  1294.726
 267  1208.484
 268  967.0622
 269  1038.306
 270  1290.942
 271  1449.751
 272  1231.632
 273  1135.091
 274  1399.341
 275  1459.605
 276  1499.015
 277  1434.814
 278  1419.642
 279  1382.993
 280  1594.945
 281  1560.536
 282  1565.337
 283  1305.819
 284  1323.801
 285  1363.104
 286  1225.465
 287  1230.562
 288  1369.897
 289  1304.436
 290  1434.2
 291  1385.783
 292  1386.854
 293  1294.975
 294  1138.635
 295  1484.227
 296  1595.837
 297  1383.034
 298  1250.34
 299  1330.275
 300  1531.48
 301  1624.064
 302  1465.925
 303  1412.261
 304  1398.804
 305  1358.912
 306  1323.51
 307  1259.639
 308  1265.485
 309  1495.836
 310  1449.01
 311  1570.473
 312  1539.648
 313  1549.947
 314  1677.885
 315  1700.846
 316  1581.3
 317  1508.349
 318  1460.539
 319  1502.585
 320  1656.073
 321  1562.178
 322  1607.349
 323  1666.967
 324  1782.901
 325  1814.596
 326  1650.2
 327  1544.99
 328  1642.146
 329  1626.761
 330  1664.12
 331  1558.406
 332  1418.77
 333  1509.514
 334  1519.798
 335  1409.915
 336  1332.008
 337  1245.194
 338  1337.036
 339  1388.025
 340  1288.316
 341  1351.43
 342  1239.464
 343  1432.878
 344  1689.938
 345  1743.28
 346  1620.208
 347  1424.244
 348  1308.629
 349  1409.263
 350  1292.726
 351  1148.145
 352  1172.645
 353  1237.981
 354  1346.419
 355  1470.501
 356  1462.388
 357  1390.704
 358  1446.202
 359  1428.318
 360  1685.793
 361  1590.176
 362  1460.416
 363  1447.64
 364  1337.718
 365  1357.804
 366  1263.345
 367  1349.861
 368  1437.657
 369  1369.682
 370  1260.256
 371  1396.068
 372  1425.585
 373  1509.381
 374  1615.744
 375  1391.984
 376  1310.94
 377  1177.213
 378  1233.514
 379  1409.743
 380  1219.028
 381  1281.216
 382  1397.479
 383  1450.863
 384  1567.659
 385  1587.913
 386  1596.315
 387  1534.602
 388  1417.088
 389  1394.066
 390  1325.199
 391  1132.252
 392  1239.003
 393  1381.74
 394  1401.879
 395  1306.901
 396  1193.056
 397  1279.706
 398  1273.869
 399  1218.263
 400  1201.682
 401  1201.181
 402  1094.223
 403  1336.309
 404  1515.64
 405  1428.574
 406  1337.573
 407  1234.106
 408  1474.264
 409  1288.525
 410  1258.153
 411  1460.842
 412  1432.99
 413  1322.644
 414  1304.844
 415  1315.891
 416  1098.358
 417  1131.157
 418  1340.849
 419  1537.181
 420  1240.151
 421  1083.928
 422  1231.074
 423  1254.553
 424  1321.528
 425  1319.338
 426  1471.418
 427  1571.644
 428  1804.049
 429  1703.823
 430  1556.028
 431  1140.272
 432  1125.146
 433  1323.554
 434  1248.457
 435  1245.477
 436  1157.197
 437  1176.738
 438  1162.736
 439  1044.711
 440  1088.619
 441  1181.039
 442  1298.619
 443  1521.164
 444  1751.515
 445  1585.124
 446  1619.755
 447  1588.863
 448  1642.535
 449  1492.761
 450  1333.26
 451  1358.089
 452  1456.52
 453  1351.171
 454  1395.147
 455  1403.4
 456  1311.014
 457  1380.424
 458  1422.693
 459  1535.113
 460  1577.139
 461  1323.668
 462  1254.482
 463  1071.628
 464  1080.921
 465  1062.393
 466  1003.533
 467  1176.96
 468  1407.384
 469  1372.047
 470  1298.219
 471  1280.058
 472  1217.124
 473  1431.776
 474  1358.488
 475  1325.75
 476  1346.877
 477  1418.579
 478  1749.182
 479  1772.288
 480  1632.817
 481  1504.828
 482  1349.35
 483  1187.412
 484  1181.029
 485  1112.718
 486  1303.828
 487  1416.573
 488  1547.917
 489  1558.221
 490  1356.15
 491  1360.244
 492  1393.355
 493  1471.809
 494  1361.318
 495  1320.627
 496  1258.393
 497  1400.623
 498  1375.283
 499  1275.303
 500  1218.113
 501  1097.234
 502  1117.979
 503  990.1364
 504  1106.017
 505  1218.109
 506  1424.241
 507  1219.211
 508  1235.62
 509  1158.394
 510  1305.855
 511  1456.28
 512  1571.302
 513  1512.739
 514  1448.574
 515  1356.704
 516  1470.077
 517  1484.419
 518  1468.555
 519  1399.769
 520  1390.707
 521  1436.549
 522  1446.922
 523  1361.691
 524  1268.107
 525  1346.574
 526  1385.418
 527  1658.476
 528  1408.378
 529  1236.967
 530  1160.248
 531  1295.363
 532  1372.418
 533  1304.165
 534  1411.434
 535  1492.535
 536  1430.998
 537  1501.411
 538  1522.325
 539  1366.593
 540  1267.287
 541  1486.248
 542  1399.302
 543  1320.224
 544  971.0915
 545  1100.698
 546  1211.224
 547  1289.082
 548  1322.661
 549  1280.888
 550  1218.178
 551  1285.77
 552  1353.662
 553  1377.251
 554  1534.387
 555  1417.612
 556  1459.687
 557  1424.71
 558  1372.173
 559  1397.132
 560  1297.101
 561  1297.449
 562  1301.559
 563  1225.831
 564  1329.659
 565  1273.279
 566  1345.384
 567  1455.127
 568  1345.885
 569  1231.932
 570  1308.583
 571  1409.972
 572  1375.833
 573  1323.411
 574  1343.545
 575  1477.71
 576  1362.461
 577  1441.654
 578  1461.514
 579  1442.039
 580  1186.692
 581  1092.841
 582  1035.357
 583  1088.865
 584  1171.302
 585  1269.186
 586  1294.047
 587  1020.997
 588  1032.042
 589  1144.208
 590  1401.509
 591  1414.312
 592  1381.669
 593  1334.798
 594  1353.343
 595  1380.275
 596  1384.634
 597  1335.736
 598  1094.285
 599  1225.598
 600  1489.651
 601  1517.239
 602  1385.855
 603  1187.124
 604  1304.767
 605  1339.585
 606  1318.638
 607  1254.656
 608  1276.036
 609  1279.115
 610  1331.633
 611  1537.569
 612  1577.804
 613  1471.457
 614  1398.346
 615  1418.8
 616  1430.109
 617  1354.964
 618  1536.781
 619  1673.939
 620  1560.415
 621  1517.655
 622  1401.287
 623  1347.43
 624  1193.947
 625  1147.511
 626  1305.549
 627  1354.102
 628  1257.004
 629  1246.106
 630  1301.801
 631  1284.572
 632  1223.838
 633  1051.785
 634  1165.768
 635  1249.192
 636  1287.128
 637  1352.317
 638  1420.04
 639  1298.684
 640  1409.447
 641  1370.542
 642  1418.449
 643  1232.937
 644  1187.84
 645  1418.796
 646  1321.392
 647  1237.183
 648  1255.182
 649  1301.139
 650  1399.503
 651  1290.95
 652  1242.395
 653  1216.537
 654  1207.126
 655  1285.355
 656  1309.875
 657  1082.757
 658  1133.199
 659  1199.514
 660  1345.614
 661  1466.444
 662  1478.573
 663  1472.926
 664  1433.987
 665  1288.014
 666  1280.833
 667  1185.594
 668  1350.933
 669  1502.644
 670  1519.961
 671  1447.204
 672  1340.206
 673  1330.784
 674  1437.563
 675  1426.427
 676  1407.675
 677  1419.537
 678  1518.562
 679  1569.319
 680  1518.38
 681  1422.192
 682  1381.379
 683  1346.209
 684  1330.95
 685  1415.253
 686  1288.637
 687  1169.469
 688  1175.204
 689  1284.981
 690  1429.202
 691  1353.028
 692  1333.745
 693  1383.736
 694  1374.84
 695  1241.632
 696  1266.352
 697  1277.338
 698  1136.246
 699  973.3584
 700  952.7661
 701  1273.052
 702  1339.793
 703  1341.264
 704  1354.413
 705  1379.622
 706  1426.617
 707  1381.775
 708  1471.869
 709  1488.257
 710  1505.035
 711  1274.416
 712  1323.673
 713  1241.497
 714  1324.021
 715  1334.109
 716  1225.565
 717  1170.124
 718  1242.003
 719  1306.952
 720  1295.845
 721  1055.601
 722  1002.036
 723  1243.788
 724  1374.224
 725  1451.04
 726  1529.537
 727  1509.234
 728  1647.967
 729  1525.691
 730  1502.37
 731  1392.417
 732  1168.968
 733  1227.224
 734  1315
 735  1187.432
 736  1119.869
 737  1145.307
 738  1405.401
 739  1481.639
 740  1332.544
 741  1483.941
 742  1760.349
 743  1708.555
 744  1714.259
 745  1591.784
 746  1632.969
 747  1578.046
 748  1404.948
 749  1531.761
 750  1475.083
 751  1538.393
 752  1636.675
 753  1764.069
 754  1798.353
 755  2043.946
 756  2126.189
 757  2138.599
 758  1978.649
 759  1856.889
 760  1831.037
 761  1646.928
 762  1586.431
 763  1549.096
 764  1488.717
 765  1236.947
 766  1280.059
 767  1427.903
 768  1531.229
 769  1428.714
 770  1351.367
 771  1424.12
 772  1382.241
 773  1388.417
 774  1472.524
 775  1462.752
 776  1376.737
 777  1298.166
 778  1209.793
 779  1105.53
 780  1038.788
 781  1163.715
 782  1564.433
 783  1599.707
 784  1478.592
 785  1353.677
 786  1195.254
 787  1381.417
 788  1519.066
 789  1522.843
 790  1383.449
 791  1299.734
 792  1438.24
 793  1434.014
 794  1254.016
 795  1081.978
 796  1181.236
 797  1249.694
 798  1332.672
 799  1211.081
 800  1135.289
 801  1298.994
 802  1200.803
 803  1350.354
 804  1357.557
 805  1398.805
 806  1397.185
 807  1548.028
 808  1651.228
 809  1694.736
 810  1555.155
 811  1652.475
 812  1665.413
 813  1310.678
 814  1353.016
 815  1381.138
 816  1362.358
 817  1292.677
 818  1246.505
 819  1240.492
 820  1233.522
 821  1098.885
 822  1314.272
 823  1511.143
 824  1513.424
 825  1550.09
 826  1432.924
 827  1544.696
 828  1427.089
 829  1243.337
 830  1306.44
 831  1527.033
 832  1455.013
 833  1374.561
 834  1213.108
 835  1281.242
 836  1353.472
 837  1354.909
 838  1477.026
 839  1496.637
 840  1440.823
 841  1622.161
 842  1584.158
 843  1464.967
 844  1443.422
 845  1479.959
 846  1644.965
 847  1518.314
 848  1321.907
 849  1367.137
 850  1394.501
 851  1421.744
 852  1458.772
 853  1478.749
 854  1511.356
 855  1535.045
 856  1428.821
 857  1579.062
 858  1494.535
 859  1515.005
 860  1482.325
 861  1560.559
 862  1612.836
 863  1446.957
 864  1293.608
 865  1324.165
 866  1413.433
 867  1328.207
 868  1430.956
 869  1300.08
 870  1258.319
 871  1367.686
 872  1516.191
 873  1658.023
 874  1454.927
 875  1384.234
 876  1438.01
 877  1290.647
 878  1044.181
 879  1174.862
 880  1194.319
 881  1267.207
 882  1139.338
 883  1042.154
 884  1053.141
 885  1149.768
 886  1291.524
 887  1244.969
 888  1102.23
 889  1079.091
 890  1370.889
 891  1338.246
 892  1317.564
 893  1294.48
 894  1287.538
 895  1454.322
 896  1323.271
 897  1338.734
 898  1480.027
 899  1252.841
 900  1302.38
 901  1291.511
 902  1248.356
 903  1230.191
 904  1255.228
 905  1466.859
 906  1482.822
 907  1298.304
 908  1303.298
 909  1436.866
 910  1419.158
 911  1478.089
 912  1368.302
 913  1252.252
 914  1323.685
 915  1194.992
 916  1178.332
 917  976.0688
 918  1013.407
 919  1215.915
 920  1336.846
 921  1189.324
 922  1226.105
 923  1136.626
 924  1242.076
 925  1195.007
 926  1177.509
 927  1220.801
 928  1193.726
 929  1289.611
 930  1376.974
 931  1288.128
 932  1136.494
 933  1223.007
 934  1413.724
 935  1537.39
 936  1396.646
 937  1265.464
 938  1499.622
 939  1426.028
 940  1464.989
 941  1398.309
 942  1242.788
 943  1079.367
 944  1164.267
 945  1345.64
 946  1475.171
 947  1248.833
 948  1086.859
 949  1191.581
 950  1237.965
 951  1371.469
 952  1264.037
 953  1195.232
 954  1345.299
 955  1568.164
 956  1642.315
 957  1457.6
 958  1198.723
 959  1155.576
 960  1225.118
 961  1249.672
 962  1124.068
 963  1070.791
 964  1179.206
 965  1386.771
 966  1276.109
 967  1230.767
 968  1319.424
 969  1317.635
 970  1363.48
 971  1239.934
 972  1197.046
 973  1206.426
 974  1350.302
 975  1485.544
 976  1620.409
 977  1415.216
 978  1445.942
 979  1483.984
 980  1259.263
 981  1184.047
 982  1160.398
 983  1325.357
 984  1310.11
 985  1100.784
 986  1216.237
 987  1389.929
 988  1391.247
 989  1545.189
 990  1462.937
 991  1533.47
 992  1411.674
 993  1251.489
 994  1261.571
 995  1201.169
 996  1249.237
 997  1489.368
 998  1433.224
 999  1293.427
1000  1218.417
1001  1288.896
1002  1390.166
1003  1483.316
1004  1571.476
1005  1731.039
1006  1659.422
1007  1573.434
1008  1662.431
1009  1590.964
1010  1553.706
1011  1430.455
1012  1386.259
1013  1471.847
1014  1430.387
1015  1377.91
1016  1291.899
1017  1358.24
1018  1413.715
1019  1432.181
1020  1240.434
1021  1335.036
1022  1351.694
1023  1427.702
