# Input file       =  1181127197.108836_cleaned.dat
# Candidate        =  PSR_0332+5434
# Telescope        =  AR
# Epoch_topo       =  57914.453890148565
# Epoch_bary       =  N/A
# T_sample         =  0.002
# Data Folded      =  7340032
# Data Avg         =  0.112774332820014
# Data StdDev      =  3.57186059583356 
# Profile Bins     =  512
# Profile Avg      =  1616.5139041816  
# Profile StdDev   =  427.669714653677 
# Reduced chi-sqr  =  0.842
# Prob(Noise)      <  0.996   (~0.0 sigma)
# P_topo (ms)      =  714.507827297554  +/- 0.000702
# P'_topo (s/s)    =  -0                +/- 3.71e-10
# P''_topo (s/s^2) =  0                 +/- 1.64e-13
# P_bary (ms)      =  N/A
# P'_bary (s/s)    =  N/A
# P''_bary (s/s^2) =  N/A
# P_orb (s)        =  N/A
# asin(i)/c (s)    =  N/A
# eccentricity     =  N/A
# w (rad)          =  N/A
# T_peri           =  N/A
######################################################
   0  1598.44
   1  1507.218
   2  1434.434
   3  1344.402
   4  1184.385
   5  1419.853
   6  1470.802
   7  1462.252
   8  1752.675
   9  1452.781
  10  1358.703
  11  1154.708
  12  1160.294
  13  1911.661
  14  2125.776
  15  1809.038
  16  1190.533
  17  1218.753
  18  1443.304
  19  1461.682
  20  1438.961
  21  1592.206
  22  1815.127
  23  1787.426
  24  1580.389
  25  1599.179
  26  1823.537
  27  1651.595
  28  1387.598
  29  1590.454
  30  1610.762
  31  1648.541
  32  1481.203
  33  1252.187
  34  1253.739
  35  1264.596
  36  1090.732
  37  1462.306
  38  1742.77
  39  1163.004
  40  1074.119
  41  1510.377
  42  1298.588
  43  1338.517
  44  1147.608
  45  1236.688
  46  1611.624
  47  1398.743
  48  1739.558
  49  1565.281
  50  1438.233
  51  1515.623
  52  1460.82
  53  1539.6
  54  1623.465
  55  1911.781
  56  1814.712
  57  1613.966
  58  1517.562
  59  1279.732
  60  1373.733
  61  1171.518
  62  1215.156
  63  1577.08
  64  1742.745
  65  1658.822
  66  1449.722
  67  1403.227
  68  1389.678
  69  1344.464
  70  1470.452
  71  1611.47
  72  1309.269
  73  1434.115
  74  1684.625
  75  1652.126
  76  1412.822
  77  1504.848
  78  1736.524
  79  1389.286
  80  1237.815
  81  2107.197
  82  1941.041
  83  1545.104
  84  1456.733
  85  1649.086
  86  1558.414
  87  2023.542
  88  2136.721
  89  1819.905
  90  1672.863
  91  1859.287
  92  1618.703
  93  1503.8
  94  1832.246
  95  1734.232
  96  1509.035
  97  1607.988
  98  1596.763
  99  1776.701
 100  1740.587
 101  1938.555
 102  1976.821
 103  1838.84
 104  1784.473
 105  1707.561
 106  1881.842
 107  1906.518
 108  1659.456
 109  1510.007
 110  1519.954
 111  1733.66
 112  2122.955
 113  1974.656
 114  2034.055
 115  2011.447
 116  2323.972
 117  2047.423
 118  1945.62
 119  1908.075
 120  1966.15
 121  1994.28
 122  1945.989
 123  2043.625
 124  2024.793
 125  2109.716
 126  2100.823
 127  1997.353
 128  1864.823
 129  1728.299
 130  2125.984
 131  1973.924
 132  2056.104
 133  1783.557
 134  1601.979
 135  1396.092
 136  1321.136
 137  1748.403
 138  1602.749
 139  1763.678
 140  2063.628
 141  1946.478
 142  1986.863
 143  1508.909
 144  1533.36
 145  1306.383
 146  1232.301
 147  1637.187
 148  1563.627
 149  1601.422
 150  1676.661
 151  1961.307
 152  1673.13
 153  1674.839
 154  1787.246
 155  1672.238
 156  1662.718
 157  1786.272
 158  1573.467
 159  1347.542
 160  1342.186
 161  1536.118
 162  1668.612
 163  1500.822
 164  1544.237
 165  1709.81
 166  1804.422
 167  1445.769
 168  1602.417
 169  1912.722
 170  1939.307
 171  1595.482
 172  1436.728
 173  1437.334
 174  1454.151
 175  1315.948
 176  974.9046
 177  1414.149
 178  1896.589
 179  2256.954
 180  2073.558
 181  1963.651
 182  1737.435
 183  1971.891
 184  1912.691
 185  2042.967
 186  2080.444
 187  1902.236
 188  2111.985
 189  2168.806
 190  2525.023
 191  2253.725
 192  1908.765
 193  2051.478
 194  2009.057
 195  1945.174
 196  2174.742
 197  2082.858
 198  1750.267
 199  1874.323
 200  1645.092
 201  1803.172
 202  1845.879
 203  1822.376
 204  1840.704
 205  1771.882
 206  1599.149
 207  1317.071
 208  1374.3
 209  1408.401
 210  1312.326
 211  1691.97
 212  1645.266
 213  1556.007
 214  1634.178
 215  1386.721
 216  1506.677
 217  1403.759
 218  1041.218
 219  1472.853
 220  1993.926
 221  2191.171
 222  1877.916
 223  1476.984
 224  1679.014
 225  1506.131
 226  1935.368
 227  1749.098
 228  1719.834
 229  1856.817
 230  1805.525
 231  1774.819
 232  1670.453
 233  1634.391
 234  1737.245
 235  1861.799
 236  2134.423
 237  1813.423
 238  1727.768
 239  1485.192
 240  1679.564
 241  1392.279
 242  1460.678
 243  1606.068
 244  1547.534
 245  1616.626
 246  1590.42
 247  1315.971
 248  1242.065
 249  1659.645
 250  1711.257
 251  1502.791
 252  1665.443
 253  1746.954
 254  1358.243
 255  1309.892
 256  1663.687
 257  1815.175
 258  2019.229
 259  1529.142
 260  1556.102
 261  1727.039
 262  1458.386
 263  1630.918
 264  1652.553
 265  1882.365
 266  1905.406
 267  1848.697
 268  1986.082
 269  1757.209
 270  1702.274
 271  1641.68
 272  1542.689
 273  1542.318
 274  1645.981
 275  1547.281
 276  1730.845
 277  1547.632
 278  1736.751
 279  1750.765
 280  1771.069
 281  1805.835
 282  1720.284
 283  1715.342
 284  1476.779
 285  1495.893
 286  1456.052
 287  1590.726
 288  1507.412
 289  1517.544
 290  1567.094
 291  1620.248
 292  1185.926
 293  1376.03
 294  1429.825
 295  1624.285
 296  1626.921
 297  1721.812
 298  1666.2
 299  1567.453
 300  1659.69
 301  1546.539
 302  1409.274
 303  1426.525
 304  1255.732
 305  1106.229
 306  1083.064
 307  1322.745
 308  1192.368
 309  1345.179
 310  1289.344
 311  1070.546
 312  1012.349
 313  1110.166
 314  1097.149
 315  1286.184
 316  1185.774
 317  1470.718
 318  1794.486
 319  1446.758
 320  1172.439
 321  1148.737
 322  1150.809
 323  1371.958
 324  1530.328
 325  1429.251
 326  1730.272
 327  1856.214
 328  1869.752
 329  1478.651
 330  1435.991
 331  1689.995
 332  1694.829
 333  1563.215
 334  1528.786
 335  1433.106
 336  1363.424
 337  1435.708
 338  1638.698
 339  1746.763
 340  1847.975
 341  1940.071
 342  1813.201
 343  1750.176
 344  1961.75
 345  1947.968
 346  1549.767
 347  1785.535
 348  2054.86
 349  2227.689
 350  1841.694
 351  1406.101
 352  1407.255
 353  1672.742
 354  1825.548
 355  1887.37
 356  1853.621
 357  1634.325
 358  1406.989
 359  1535.902
 360  1476.987
 361  1488.934
 362  1723.526
 363  1687.674
 364  1653.163
 365  1885.391
 366  1692.271
 367  1609.145
 368  1929.101
 369  1692.766
 370  1423.574
 371  1706.578
 372  1574.982
 373  1657.744
 374  2168.745
 375  2773.11
 376  2667.852
 377  2653.344
 378  2817.325
 379  2419.682
 380  1812.631
 381  1465.218
 382  1488.249
 383  1482.64
 384  1852.937
 385  2014.081
 386  2017.392
 387  1696.449
 388  1664.201
 389  1441.243
 390  1334.391
 391  1345.758
 392  1435.56
 393  1231.114
 394  1186.72
 395  1362.192
 396  1669.683
 397  1240.193
 398  1160.249
 399  1082.155
 400  1065.215
 401  1443.063
 402  1184.788
 403  1385.948
 404  1491.891
 405  1210.341
 406  1241.169
 407  1571.544
 408  1702.794
 409  1676.226
 410  1693.261
 411  1468.946
 412  1600.201
 413  1528.59
 414  1691.904
 415  1615.225
 416  1382.359
 417  1539.304
 418  1537.032
 419  1536.04
 420  1436.889
 421  1098.037
 422  1091.811
 423  1203.688
 424  1488.059
 425  1684.041
 426  1965.072
 427  1382.267
 428  1119.839
 429  1217.87
 430  1326.026
 431  1608.823
 432  1784.322
 433  1467.089
 434  1246.328
 435  1272.238
 436  1094.776
 437  1572.09
 438  1438.196
 439  1283.179
 440  1435.989
 441  1306.149
 442  1241.032
 443  1345.82
 444  1596.962
 445  1355.365
 446  1478.353
 447  1254.796
 448  1441.409
 449  1308.53
 450  1306.891
 451  1473.866
 452  1638.357
 453  1706.136
 454  1582.18
 455  1561.849
 456  1468.096
 457  1213.361
 458  1119.674
 459  1433.323
 460  1676.48
 461  1644.88
 462  1513.505
 463  1364.557
 464  1760.22
 465  1678.331
 466  1535.325
 467  1638.829
 468  1739.684
 469  1966.969
 470  1926.583
 471  1700.788
 472  1456.014
 473  1255.991
 474  1426.512
 475  1593.75
 476  1285.559
 477  1386.132
 478  1361.948
 479  1599.199
 480  1625.643
 481  1394.134
 482  1609.775
 483  1420.881
 484  1474.155
 485  1309.655
 486  1294.463
 487  1380.971
 488  1082.139
 489  1669.146
 490  1819.265
 491  1366.697
 492  1482.188
 493  1908.148
 494  1839.808
 495  1965.596
 496  1687.441
 497  1532.727
 498  1240.743
 499  1704.628
 500  2068.685
 501  1858.936
 502  1695.184
 503  1497.442
 504  1725.44
 505  1678.289
 506  1774.711
 507  2078.265
 508  2121.823
 509  2204.282
 510  2044.098
 511  1885.265
