# Input file       =  1181543118.119314_cleaned.dat
# Candidate        =  PSR_0332+5434
# Telescope        =  AR
# Epoch_topo       =  57919.267790732803
# Epoch_bary       =  N/A
# T_sample         =  0.002
# Data Folded      =  7340032
# Data Avg         =  0.0660455333969104
# Data StdDev      =  2.78714605151482 
# Profile Bins     =  512
# Profile Avg      =  947.315262649427 
# Profile StdDev   =  333.713459573384 
# Reduced chi-sqr  =  0.976
# Prob(Noise)      <  0.641   (~0.0 sigma)
# P_topo (ms)      =  714.502996116432  +/- 0.000359
# P'_topo (s/s)    =  -0                +/- 1.89e-10
# P''_topo (s/s^2) =  0                 +/- 8.36e-14
# P_bary (ms)      =  N/A
# P'_bary (s/s)    =  N/A
# P''_bary (s/s^2) =  N/A
# P_orb (s)        =  N/A
# asin(i)/c (s)    =  N/A
# eccentricity     =  N/A
# w (rad)          =  N/A
# T_peri           =  N/A
######################################################
   0  761.6952
   1  764.0049
   2  769.1215
   3  626.5127
   4  584.6063
   5  793.853
   6  733.4552
   7  794.4774
   8  813.8524
   9  786.0797
  10  753.6853
  11  575.5159
  12  715.6148
  13  690.5737
  14  862.2606
  15  855.0999
  16  654.0684
  17  691.4366
  18  757.2192
  19  655.2613
  20  783.0032
  21  921.1702
  22  978.3585
  23  775.1462
  24  728.7947
  25  591.3964
  26  740.7744
  27  991.5901
  28  753.8866
  29  548.37
  30  664.2872
  31  656.3506
  32  840.5876
  33  963.6766
  34  1012.109
  35  999.6476
  36  843.578
  37  1158.361
  38  960.0243
  39  969.0469
  40  1036.37
  41  1051.361
  42  901.7274
  43  1074.254
  44  1055.383
  45  1032.921
  46  924.2614
  47  1024.289
  48  760.1832
  49  820.5541
  50  901.7811
  51  934.9689
  52  887.7363
  53  1099.514
  54  998.0106
  55  960.2733
  56  771.5875
  57  740.7426
  58  517.4558
  59  719.1339
  60  881.4761
  61  941.4642
  62  874.7576
  63  854.8861
  64  768.0072
  65  242.8703
  66  562.6187
  67  922.8047
  68  1115.74
  69  1116.827
  70  820.3748
  71  853.9169
  72  765.5651
  73  695.3419
  74  818.1769
  75  698.7045
  76  392.5244
  77  483.3938
  78  708.2435
  79  914.1246
  80  1067.907
  81  793.6418
  82  853.5555
  83  950.2673
  84  1067.348
  85  1067.911
  86  1021.499
  87  778.0494
  88  998.1425
  89  906.882
  90  776.2422
  91  602.2678
  92  613.466
  93  608.2949
  94  693.1918
  95  949.3115
  96  1108.442
  97  1039.781
  98  758.649
  99  1235.168
 100  1561.164
 101  1586.341
 102  1366.878
 103  1110.044
 104  1310.471
 105  1268.151
 106  993.7205
 107  812.9003
 108  824.2028
 109  1007.967
 110  1082.622
 111  823.3335
 112  901.4597
 113  1002.264
 114  1294.198
 115  1207.332
 116  1002.464
 117  977.0172
 118  1054.1
 119  1167.878
 120  1351.132
 121  1422.161
 122  964.7234
 123  1093.867
 124  992.1027
 125  937.1434
 126  950.1345
 127  1081.728
 128  1168.983
 129  1335.788
 130  1173.974
 131  1388.498
 132  1361.708
 133  1429.052
 134  1313.873
 135  1014.784
 136  1407.755
 137  1028.082
 138  968.1303
 139  1304.908
 140  1087.764
 141  830.4776
 142  937.4609
 143  1019.551
 144  1052.116
 145  999.4382
 146  871.0319
 147  919.3171
 148  997.0939
 149  1091.966
 150  938.0876
 151  1023.617
 152  968.7053
 153  1237.953
 154  1186.545
 155  858.925
 156  789.8294
 157  702.9297
 158  880.7114
 159  1151.923
 160  820.7406
 161  873.5997
 162  925.5605
 163  912.3469
 164  814.2793
 165  572.6048
 166  758.5542
 167  788.5233
 168  579.4704
 169  762.8516
 170  913.5687
 171  780.3747
 172  970.7245
 173  1010.679
 174  856.2646
 175  387.0949
 176  840.0076
 177  1186.261
 178  1056.692
 179  828.4155
 180  977.024
 181  1174.216
 182  1167.625
 183  1263.864
 184  855.6669
 185  810.7409
 186  807.8583
 187  855.6811
 188  834.551
 189  653.9409
 190  590.2538
 191  720.4073
 192  958.8253
 193  955.0747
 194  820.1378
 195  882.2407
 196  963.4604
 197  1034.245
 198  1013.532
 199  675.989
 200  551.914
 201  739.364
 202  1079.644
 203  1145.569
 204  1057.265
 205  884.1148
 206  952.641
 207  1200.402
 208  1310.335
 209  1348.285
 210  1057.639
 211  913.2712
 212  810.08
 213  653.0292
 214  740.4478
 215  842.8618
 216  1021.033
 217  887.7294
 218  676.9197
 219  769.3329
 220  730.4186
 221  905.5817
 222  1127.133
 223  795.6649
 224  664.431
 225  895.0687
 226  808.1066
 227  961.7926
 228  1202.194
 229  907.5956
 230  892.2267
 231  897.8297
 232  1197.187
 233  1133.739
 234  1052.612
 235  1148.142
 236  1007.42
 237  800.0346
 238  923.1242
 239  481.9909
 240  427.6165
 241  659.5076
 242  753.8334
 243  829.3883
 244  609.2876
 245  756.5922
 246  621.8679
 247  1111.232
 248  1101.969
 249  769.0794
 250  902.0702
 251  855.4615
 252  1346.366
 253  1239.082
 254  838.2852
 255  1148.72
 256  1403.622
 257  999.5654
 258  1000.412
 259  1240.445
 260  1339.075
 261  958.4183
 262  798.235
 263  877.3889
 264  1107.698
 265  1023.855
 266  1046.187
 267  1045.359
 268  956.5159
 269  992.9067
 270  963.2207
 271  932.3841
 272  1046.904
 273  1230.092
 274  1067.242
 275  621.3847
 276  672.8664
 277  687.6445
 278  831.163
 279  859.6773
 280  1056.752
 281  1199.607
 282  925.7707
 283  1052.235
 284  785.5811
 285  955.2234
 286  1001.203
 287  991.8177
 288  925.1948
 289  763.356
 290  880.3826
 291  743.248
 292  869.0694
 293  809.0692
 294  916.9406
 295  575.666
 296  842.658
 297  792.4459
 298  1026.771
 299  998.7714
 300  710.7048
 301  645.1148
 302  726.4529
 303  714.3582
 304  622.5814
 305  766.578
 306  845.4075
 307  952.5016
 308  1119.91
 309  1118.255
 310  1062.859
 311  970.5709
 312  1046.994
 313  1171.745
 314  1312.199
 315  1266.743
 316  1084.708
 317  1111.491
 318  1082.502
 319  1016.124
 320  1244.443
 321  1503.188
 322  1292.465
 323  1254.494
 324  1607.972
 325  1754.708
 326  2052.396
 327  2308.144
 328  2213.227
 329  1751.534
 330  1632.715
 331  1558.424
 332  1160.231
 333  871.8564
 334  898.9263
 335  1068.672
 336  1271.44
 337  1051.641
 338  1120.54
 339  1252.769
 340  962.7296
 341  879.6973
 342  1110.095
 343  1298.887
 344  1446.392
 345  1279.343
 346  996.4635
 347  1057.757
 348  948.2666
 349  960.8887
 350  853.4413
 351  749.9149
 352  968.9327
 353  758.8445
 354  800.0555
 355  997.4844
 356  1203.469
 357  1291.157
 358  768.6901
 359  940.7399
 360  918.2388
 361  810.3686
 362  838.7408
 363  1092.624
 364  1404.974
 365  824.2932
 366  982.3792
 367  1213.792
 368  1041.524
 369  1167.595
 370  798.5554
 371  983.0016
 372  1112.065
 373  1180.399
 374  1301.321
 375  1129.68
 376  858.0042
 377  753.1659
 378  987.8993
 379  1057.683
 380  989.1224
 381  970.0873
 382  1163.116
 383  1394.381
 384  1376.113
 385  1214.854
 386  773.6838
 387  859.9705
 388  1046.94
 389  865.3095
 390  1067.191
 391  1221.407
 392  939.8218
 393  785.5897
 394  906.2062
 395  988.949
 396  1183.897
 397  1500.748
 398  1059.845
 399  753.8828
 400  697.5842
 401  873.1011
 402  979.5295
 403  1217.133
 404  1074.276
 405  662.4375
 406  944.3529
 407  1148.401
 408  856.4218
 409  707.3373
 410  568.3995
 411  1098.941
 412  1054.31
 413  959.0245
 414  983.3791
 415  901.6229
 416  889.8268
 417  929.8663
 418  1005.627
 419  678.2449
 420  536.0575
 421  914.9516
 422  1196.018
 423  1053.784
 424  954.5411
 425  715.7426
 426  694.0226
 427  458.6113
 428  439.0529
 429  500.7593
 430  588.781
 431  831.7056
 432  876.2524
 433  824.732
 434  720.8679
 435  870.535
 436  909.2928
 437  940.7009
 438  958.3974
 439  958.6478
 440  1153.834
 441  1053.067
 442  978.9559
 443  499.0331
 444  727.1098
 445  749.6999
 446  643.866
 447  680.9243
 448  591.8245
 449  685.6647
 450  854.6996
 451  885.2285
 452  884.7802
 453  617.9827
 454  784.5507
 455  941.9161
 456  1178.913
 457  1050.604
 458  902.0953
 459  827.9385
 460  985.4985
 461  1128.236
 462  877.0192
 463  829.3289
 464  1081.556
 465  1209.56
 466  847.34
 467  1037.712
 468  965.7134
 469  947.8078
 470  887.2493
 471  716.8642
 472  905.4007
 473  690.8097
 474  662.943
 475  1333.999
 476  1222.746
 477  1037.447
 478  939.1981
 479  891.012
 480  1007.926
 481  893.9424
 482  817.5364
 483  1002.662
 484  1035
 485  944.0256
 486  852.3148
 487  828.0657
 488  1012.02
 489  1092.2
 490  694.4051
 491  862.8354
 492  990.3616
 493  973.9442
 494  974.7493
 495  710.7882
 496  599.3255
 497  1014.752
 498  1205.424
 499  1158.634
 500  923.0246
 501  866.6126
 502  915.0183
 503  873.4572
 504  988.6835
 505  642.2625
 506  677.5895
 507  946.4339
 508  970.8041
 509  712.851
 510  638.0335
 511  874.2061
