# Input file       =  1181198473.10547_cleaned.dat
# Candidate        =  PSR_0332+5434
# Telescope        =  AR
# Epoch_topo       =  57915.278843813307
# Epoch_bary       =  N/A
# T_sample         =  0.002
# Data Folded      =  7340032
# Data Avg         =  0.0859990921089775
# Data StdDev      =  2.70390791021691 
# Profile Bins     =  512
# Profile Avg      =  1232.77982688963 
# Profile StdDev   =  323.747104173427 
# Reduced chi-sqr  =  1.181
# Prob(Noise)      <  0.00299   (~2.7 sigma)
# P_topo (ms)      =  714.506716910221  +/- 0.000231
# P'_topo (s/s)    =  -0                +/- 1.22e-10
# P''_topo (s/s^2) =  0                 +/- 5.39e-14
# P_bary (ms)      =  N/A
# P'_bary (s/s)    =  N/A
# P''_bary (s/s^2) =  N/A
# P_orb (s)        =  N/A
# asin(i)/c (s)    =  N/A
# eccentricity     =  N/A
# w (rad)          =  N/A
# T_peri           =  N/A
######################################################
   0  1213.338
   1  1580.349
   2  1411.333
   3  1248.83
   4  1336.791
   5  1320.295
   6  1511.275
   7  1359.776
   8  1226.217
   9  1493.388
  10  1644.249
  11  1196.582
  12  1083.838
  13  1563.74
  14  1403.765
  15  1711.237
  16  1605.068
  17  1253.483
  18  1123.225
  19  1314.388
  20  1294.925
  21  1464.225
  22  1255.286
  23  1103.844
  24  1255.33
  25  1425.286
  26  1316.365
  27  1159.523
  28  1255.471
  29  1273.327
  30  1675.399
  31  1535.021
  32  1104.175
  33  1136.011
  34  1462.109
  35  1552.225
  36  1252.482
  37  1225.095
  38  955.7151
  39  1031.391
  40  1342.573
  41  1304.843
  42  1105.881
  43  1075.658
  44  1189.675
  45  1288.701
  46  1541.442
  47  1412.286
  48  1327.657
  49  1264.113
  50  1222.296
  51  1098.992
  52  1172.761
  53  1556.707
  54  1294.661
  55  1108.529
  56  1348.688
  57  1614.92
  58  1318.305
  59  1146.321
  60  1066.422
  61  1193.151
  62  1032.591
  63  1217.107
  64  1407.52
  65  1683.203
  66  1627.997
  67  1544.327
  68  1496.691
  69  1212.774
  70  1135.693
  71  1213.91
  72  1236.611
  73  1407.191
  74  1166.38
  75  898.2462
  76  1211.251
  77  1045.733
  78  1089.986
  79  938.472
  80  1121.807
  81  1493.865
  82  1392.146
  83  1132.943
  84  1175.864
  85  997.9057
  86  1131.258
  87  1264.445
  88  1288.846
  89  1266.375
  90  1380.185
  91  1265.853
  92  1303.651
  93  1167.37
  94  959.4445
  95  983.248
  96  1543.415
  97  1447.561
  98  1157.413
  99  1101.806
 100  1308.325
 101  1319.055
 102  1353.236
 103  1689.875
 104  1641.455
 105  1476.485
 106  1334.03
 107  1436.048
 108  1397.575
 109  1067.317
 110  1053.83
 111  1237.85
 112  1220.324
 113  1248.098
 114  1157.595
 115  1014.196
 116  1210.736
 117  1334.365
 118  1551.007
 119  1481.784
 120  1639.476
 121  1630.898
 122  1519.302
 123  1236.654
 124  1131.206
 125  1316.508
 126  1217.964
 127  1029.4
 128  1217.56
 129  1321.939
 130  1020.775
 131  1229.98
 132  1188.744
 133  1284.458
 134  1228.213
 135  1339.665
 136  1389.422
 137  1145.756
 138  1233.099
 139  1380.28
 140  1185.412
 141  1464.198
 142  1407.283
 143  1056.262
 144  1003.291
 145  1386.859
 146  1583.27
 147  1672.231
 148  1636.978
 149  1332.062
 150  1277.929
 151  1406.397
 152  1578.355
 153  1842.168
 154  2215.048
 155  2297.358
 156  2557.707
 157  2655.453
 158  2371.049
 159  1663.916
 160  1243.81
 161  1267.61
 162  1238.982
 163  1050.06
 164  871.834
 165  1081.738
 166  929.3882
 167  1484.863
 168  1411.934
 169  1245.521
 170  1128.044
 171  1306.908
 172  1275.421
 173  1040.691
 174  1257.043
 175  1193.523
 176  937.7225
 177  880.9865
 178  1109.909
 179  1426.023
 180  1338.57
 181  1040.337
 182  987.6164
 183  1046.238
 184  1211.245
 185  1411.082
 186  1472.603
 187  1381.475
 188  1488.304
 189  1488.21
 190  1483.526
 191  1431.036
 192  1430.071
 193  1230.443
 194  1237.104
 195  1178.481
 196  1178.461
 197  1371.784
 198  1245.582
 199  1301.357
 200  1181.042
 201  1186.328
 202  1030.862
 203  1057.617
 204  1010.566
 205  976.8797
 206  858.068
 207  837.3148
 208  850.795
 209  594.03
 210  678.9194
 211  609.4178
 212  905.1594
 213  1158.62
 214  1288.908
 215  1273.914
 216  1099.825
 217  1144.74
 218  1215.72
 219  989.8754
 220  974.6942
 221  1258.604
 222  1288.942
 223  1225.066
 224  1172.79
 225  1324.563
 226  962.4736
 227  977.7212
 228  1035.281
 229  1134.376
 230  1374.425
 231  1424.451
 232  1418.733
 233  1155.48
 234  1179.72
 235  1011.708
 236  1092.601
 237  1293.744
 238  1225.321
 239  1008.73
 240  1090.542
 241  1004.37
 242  1079.38
 243  1255.757
 244  1193.426
 245  1108.998
 246  1045.017
 247  970.5482
 248  923.4355
 249  993.6899
 250  605.6859
 251  647.618
 252  752.0641
 253  740.1461
 254  742.7208
 255  951.2721
 256  1120.466
 257  889.8571
 258  1164.785
 259  1070.496
 260  993.0936
 261  784.3774
 262  741.439
 263  964.027
 264  842.1352
 265  686.6892
 266  785.003
 267  963.5285
 268  882.5632
 269  1313.211
 270  1429.328
 271  1115.432
 272  1065.541
 273  1092.007
 274  1262.064
 275  1261.449
 276  1170.402
 277  1339.705
 278  1313.84
 279  1058.027
 280  813.9749
 281  896.9377
 282  1189.664
 283  1260.068
 284  948.2935
 285  861.5532
 286  949.0306
 287  1088.101
 288  1266.363
 289  1050.678
 290  816.4978
 291  792.6871
 292  783.2469
 293  749.6691
 294  979.3174
 295  1019.034
 296  1043.775
 297  1006.009
 298  808.6444
 299  812.7508
 300  923.708
 301  949.4611
 302  723.7371
 303  872.7717
 304  1075.78
 305  1060.822
 306  809.5131
 307  916.5728
 308  1026.05
 309  1105.08
 310  1109.788
 311  1206.764
 312  1315.802
 313  1385.341
 314  1191.807
 315  1133.651
 316  1114.467
 317  1012.929
 318  1065.004
 319  1293.482
 320  1516.385
 321  1065.176
 322  1016.324
 323  1123.689
 324  1036.927
 325  1122.063
 326  1250.394
 327  1444.592
 328  1559.816
 329  993.0328
 330  1076.056
 331  1431.637
 332  1408.293
 333  1147.97
 334  1203.734
 335  1116.716
 336  1202.759
 337  1001.379
 338  958.6194
 339  1314.852
 340  1140.445
 341  998.9708
 342  1201.703
 343  1411.962
 344  1185.988
 345  1141.484
 346  1425.825
 347  1260.113
 348  1538.433
 349  1308.065
 350  1049.318
 351  1140.327
 352  1063.413
 353  1146.857
 354  1005.246
 355  1222.278
 356  1452.48
 357  1205.106
 358  953.2598
 359  1282.089
 360  1367.702
 361  1167.371
 362  1366.354
 363  1407.773
 364  1367.079
 365  1184.354
 366  1155.823
 367  1134.57
 368  1344.885
 369  1484.606
 370  1547.786
 371  1537.175
 372  1249.369
 373  1428.567
 374  1309.877
 375  1346.375
 376  1520.255
 377  1466.343
 378  1113.674
 379  906.9388
 380  1020.303
 381  980.8263
 382  825.9094
 383  1009.66
 384  1088.168
 385  1217.162
 386  1306.862
 387  1254.398
 388  739.9721
 389  1086.029
 390  1073.886
 391  718.1702
 392  979.9806
 393  1138.62
 394  1147.376
 395  1006.904
 396  1240.696
 397  1094.898
 398  1177.331
 399  1504.183
 400  1580.294
 401  1336.844
 402  1456.875
 403  1540.617
 404  1444.418
 405  1498.347
 406  1581.825
 407  1373.595
 408  1458.077
 409  1248.693
 410  1310.003
 411  1492.419
 412  1268.971
 413  1045.782
 414  1125.84
 415  1344.928
 416  1328.384
 417  1337.314
 418  1316.449
 419  1471.5
 420  1495.902
 421  1309.322
 422  1481.814
 423  1707.846
 424  1297.067
 425  1171.592
 426  1255.259
 427  1514.644
 428  1601.125
 429  1317.83
 430  1324.511
 431  1322.714
 432  1449.431
 433  1530.514
 434  1452.46
 435  1278.115
 436  1196.699
 437  1105.599
 438  1312.002
 439  1520.671
 440  1509.92
 441  1387.014
 442  1437.113
 443  1238.559
 444  1351.293
 445  1240.168
 446  1106.748
 447  1439.622
 448  1451.23
 449  1553.392
 450  1706.232
 451  1694.669
 452  1692.009
 453  1513.321
 454  1407.396
 455  1342.008
 456  1150.928
 457  958.0035
 458  1126.517
 459  1201.188
 460  1106.91
 461  1174.302
 462  1008.931
 463  1153.378
 464  838.5511
 465  855.1483
 466  726.0106
 467  1093.377
 468  1107.203
 469  1051.398
 470  1279.479
 471  1346.746
 472  1270.01
 473  1073.7
 474  945.5427
 475  994.5737
 476  1070.651
 477  988.597
 478  774.9018
 479  809.0435
 480  1427.907
 481  1302.352
 482  1045.468
 483  1342.298
 484  1288.857
 485  1250.611
 486  1124.516
 487  1375.522
 488  1665.434
 489  1623.61
 490  1234.557
 491  1126.646
 492  1533.497
 493  1844.948
 494  1790.997
 495  1571.199
 496  1382.11
 497  1201.881
 498  1116.49
 499  1039.491
 500  1361.887
 501  1735.873
 502  1473.835
 503  1223.568
 504  1418.52
 505  1513.513
 506  1335.121
 507  1100.791
 508  1007.365
 509  1504.987
 510  1517.197
 511  1213.877
