# Input file       =  1181127197.108836_cleaned.dat
# Candidate        =  PSR_0332+5434
# Telescope        =  AR
# Epoch_topo       =  57914.453890148565
# Epoch_bary       =  N/A
# T_sample         =  0.002
# Data Folded      =  7340032
# Data Avg         =  0.112774332820014
# Data StdDev      =  3.57186059583356 
# Profile Bins     =  512
# Profile Avg      =  1616.51390407177 
# Profile StdDev   =  427.669714653677 
# Reduced chi-sqr  =  0.845
# Prob(Noise)      <  0.995   (~0.0 sigma)
# P_topo (ms)      =  714.507827466641  +/- 0.000705
# P'_topo (s/s)    =  -0                +/- 3.72e-10
# P''_topo (s/s^2) =  0                 +/- 1.64e-13
# P_bary (ms)      =  N/A
# P'_bary (s/s)    =  N/A
# P''_bary (s/s^2) =  N/A
# P_orb (s)        =  N/A
# asin(i)/c (s)    =  N/A
# eccentricity     =  N/A
# w (rad)          =  N/A
# T_peri           =  N/A
######################################################
   0  1769.243
   1  1498.346
   2  1499.734
   3  1474.539
   4  1465.767
   5  1513.592
   6  1703.128
   7  1943.596
   8  1780.715
   9  1596.861
  10  1446.852
  11  1272.85
  12  1379.251
  13  1095.365
  14  1313.894
  15  1597.945
  16  1813.124
  17  1537.542
  18  1502.012
  19  1312.605
  20  1469.515
  21  1276.554
  22  1592.235
  23  1529.425
  24  1287.052
  25  1534.202
  26  1670.793
  27  1618.364
  28  1360.677
  29  1615.609
  30  1686.918
  31  1297.198
  32  1393.016
  33  2241.781
  34  1784.825
  35  1461.253
  36  1524.588
  37  1613.405
  38  1665.076
  39  2105.372
  40  2069.655
  41  1700.421
  42  1765.043
  43  1800.314
  44  1585.535
  45  1554.399
  46  1860.698
  47  1665.009
  48  1491.335
  49  1639.335
  50  1592.31
  51  1805.211
  52  1753.689
  53  2009.286
  54  1925.514
  55  1836.884
  56  1763.042
  57  1743.008
  58  1918.389
  59  1827.695
  60  1611.466
  61  1496.822
  62  1563.625
  63  1827.559
  64  2122.132
  65  1946.043
  66  2059.589
  67  2066.212
  68  2321.144
  69  1976.968
  70  1959.447
  71  1878.838
  72  2009.345
  73  1952.363
  74  1980.175
  75  2035.802
  76  2045.849
  77  2122.863
  78  2098.538
  79  1953.242
  80  1799.616
  81  1835.979
  82  2067.866
  83  2030.467
  84  1972.238
  85  1773.802
  86  1543.316
  87  1338.838
  88  1403.276
  89  1774.674
  90  1577.329
  91  1874.25
  92  2090.32
  93  1888.013
  94  1937.939
  95  1402.332
  96  1614.353
  97  1190.97
  98  1342.99
  99  1630.289
 100  1554.182
 101  1592.478
 102  1795.51
 103  1923.849
 104  1630.792
 105  1723.033
 106  1744.667
 107  1661.577
 108  1693.948
 109  1781.444
 110  1494.536
 111  1294.881
 112  1360.006
 113  1629.298
 114  1640.021
 115  1481.044
 116  1569.861
 117  1753.786
 118  1778.159
 119  1412.529
 120  1697.584
 121  1937.2
 122  1879.507
 123  1500.59
 124  1447.05
 125  1412.85
 126  1469.491
 127  1220.016
 128  1023.48
 129  1582.001
 130  1992.776
 131  2262.299
 132  2012.471
 133  1910.816
 134  1730.937
 135  2025.339
 136  1907.671
 137  2086.238
 138  2025.313
 139  1961.248
 140  2097.606
 141  2267.217
 142  2512.278
 143  2117.313
 144  1926.508
 145  2076.225
 146  1950.19
 147  2028.746
 148  2191.75
 149  1982.05
 150  1744.243
 151  1862.008
 152  1619.831
 153  1856.109
 154  1826.978
 155  1836.897
 156  1831.459
 157  1729.281
 158  1539.067
 159  1310.632
 160  1404.948
 161  1331.721
 162  1399.938
 163  1732.262
 164  1571.45
 165  1612.53
 166  1575.125
 167  1388.745
 168  1578.346
 169  1247.874
 170  1082.078
 171  1626.785
 172  2094.167
 173  2151.686
 174  1722.755
 175  1477.809
 176  1705.383
 177  1531.283
 178  2019.352
 179  1629.347
 180  1797.109
 181  1834.676
 182  1813.91
 183  1753.067
 184  1648.042
 185  1623.677
 186  1756.137
 187  1951.312
 188  2102.445
 189  1793.268
 190  1632.572
 191  1546.107
 192  1643.435
 193  1346.142
 194  1531.876
 195  1602.439
 196  1553.341
 197  1608.042
 198  1553.992
 199  1242.709
 200  1355.269
 201  1708.979
 202  1624.707
 203  1512.512
 204  1718.69
 205  1724.181
 206  1219.362
 207  1453.353
 208  1628.984
 209  1992.675
 210  1891.759
 211  1493.466
 212  1582.273
 213  1664.35
 214  1492.523
 215  1671.905
 216  1677.001
 217  1937.786
 218  1881.068
 219  1848.045
 220  1999.692
 221  1680.018
 222  1721.696
 223  1604.373
 224  1504.027
 225  1614.036
 226  1590.855
 227  1602.841
 228  1662.754
 229  1598.249
 230  1760.131
 231  1740.253
 232  1810.47
 233  1740.196
 234  1775.449
 235  1635.439
 236  1479.554
 237  1498.263
 238  1444.201
 239  1627.6
 240  1474.482
 241  1521.18
 242  1601.432
 243  1545.218
 244  1140.101
 245  1478.936
 246  1429.721
 247  1648.292
 248  1648.672
 249  1721.119
 250  1599.647
 251  1601.876
 252  1698.914
 253  1448.766
 254  1459.085
 255  1360.07
 256  1213.849
 257  1043.072
 258  1190.601
 259  1272.853
 260  1258.469
 261  1324.718
 262  1257.492
 263  1013.315
 264  1067.204
 265  1079.006
 266  1131.945
 267  1283.186
 268  1228.012
 269  1579.272
 270  1780.735
 271  1325.026
 272  1163.556
 273  1162.514
 274  1168.719
 275  1413.619
 276  1531.055
 277  1458.347
 278  1830.926
 279  1838.62
 280  1784.619
 281  1402.983
 282  1482.044
 283  1785.168
 284  1606.833
 285  1593.277
 286  1474.784
 287  1404.119
 288  1370.964
 289  1474.23
 290  1673.927
 291  1769.47
 292  1884.461
 293  1918.638
 294  1780.051
 295  1795.619
 296  2029.607
 297  1804.49
 298  1564.711
 299  1860.991
 300  2153.117
 301  2177.167
 302  1693.245
 303  1382.308
 304  1430.425
 305  1725.63
 306  1829.456
 307  1892.533
 308  1844.515
 309  1572.117
 310  1399.331
 311  1587.592
 312  1408.901
 313  1588.517
 314  1745.864
 315  1623.339
 316  1718.521
 317  1856.536
 318  1635.826
 319  1704.688
 320  1931.093
 321  1582.532
 322  1468.983
 323  1733.294
 324  1504.893
 325  1794.494
 326  2299.488
 327  2841.809
 328  2622.088
 329  2721.34
 330  2789.975
 331  2228.551
 332  1683.05
 333  1474.221
 334  1436.564
 335  1571.421
 336  1893.815
 337  2075.669
 338  1920.109
 339  1675.97
 340  1629.117
 341  1445.674
 342  1291.009
 343  1423.327
 344  1338.66
 345  1223.941
 346  1194.568
 347  1474.792
 348  1579.595
 349  1185.211
 350  1130.936
 351  1077.934
 352  1179.772
 353  1424.893
 354  1181.763
 355  1424.066
 356  1452.523
 357  1154.234
 358  1307.07
 359  1645.425
 360  1667.506
 361  1733.167
 362  1588.002
 363  1540.23
 364  1549.887
 365  1564.68
 366  1729.996
 367  1534.805
 368  1413.848
 369  1532.18
 370  1529.603
 371  1515.18
 372  1386.258
 373  1063.776
 374  1082.875
 375  1279.351
 376  1527.423
 377  1827.412
 378  1838.743
 379  1243.292
 380  1121.71
 381  1283.821
 382  1372.272
 383  1708.729
 384  1727.486
 385  1383.398
 386  1223.703
 387  1249.839
 388  1176.041
 389  1628.486
 390  1320.906
 391  1323.944
 392  1444.463
 393  1268.887
 394  1246.425
 395  1406.98
 396  1585.868
 397  1356.069
 398  1401.989
 399  1264.479
 400  1479.273
 401  1290.26
 402  1357.252
 403  1503.241
 404  1651.819
 405  1710.316
 406  1547.205
 407  1550.087
 408  1420.349
 409  1160.2
 410  1191.351
 411  1504.173
 412  1693.802
 413  1600.879
 414  1443.222
 415  1424.807
 416  1827.345
 417  1623.482
 418  1574.403
 419  1621.989
 420  1772.616
 421  2041.112
 422  1849.478
 423  1685.133
 424  1340.545
 425  1286.586
 426  1472.802
 427  1542.908
 428  1277.994
 429  1398.057
 430  1387.877
 431  1688.239
 432  1538.185
 433  1422.127
 434  1601.359
 435  1367.689
 436  1496.308
 437  1233.931
 438  1369.174
 439  1258.378
 440  1207.911
 441  1772.702
 442  1730.595
 443  1327.05
 444  1590.252
 445  1943.853
 446  1856.27
 447  1933.576
 448  1613.26
 449  1464.485
 450  1294.789
 451  1853.568
 452  2073.198
 453  1786.677
 454  1644.649
 455  1476.609
 456  1810.453
 457  1596.615
 458  1929.271
 459  2037.078
 460  2171.181
 461  2192.267
 462  2019.365
 463  1826.414
 464  1524.307
 465  1506.724
 466  1384.563
 467  1312.351
 468  1204.351
 469  1479.324
 470  1465.202
 471  1494.26
 472  1738.655
 473  1367.041
 474  1380.616
 475  1078.047
 476  1330.339
 477  2017.391
 478  2092.996
 479  1653.385
 480  1121.802
 481  1308.793
 482  1458.162
 483  1451.808
 484  1456.589
 485  1689.489
 486  1821.729
 487  1737.337
 488  1541.192
 489  1623.382
 490  1869.309
 491  1518.316
 492  1451.738
 493  1587.863
 494  1657.348
 495  1595.392
 496  1439.973
 497  1215.076
 498  1245.744
 499  1255.061
 500  1076.508
 501  1663.048
 502  1604.332
 503  1058.917
 504  1177.447
 505  1512.398
 506  1307.118
 507  1301.607
 508  1105.24
 509  1365.396
 510  1582.065
 511  1423.337
