# Input file       =  1181183852.10865_cleaned.dat
# Candidate        =  PSR_0332+5434
# Telescope        =  AR
# Epoch_topo       =  57915.109619313080
# Epoch_bary       =  N/A
# T_sample         =  0.002
# Data Folded      =  7143424
# Data Avg         =  0.17008755722301 
# Data StdDev      =  4.30054462443663 
# Profile Bins     =  1024
# Profile Avg      =  1186.54994286167 
# Profile StdDev   =  359.192032274928 
# Reduced chi-sqr  =  0.623
# Prob(Noise)      <  1   (~0.0 sigma)
# P_topo (ms)      =  714.506864777303  +/- 5.75e-05
# P'_topo (s/s)    =  -0                +/- 3.12e-11
# P''_topo (s/s^2) =  0                 +/- 1.42e-14
# P_bary (ms)      =  N/A
# P'_bary (s/s)    =  N/A
# P''_bary (s/s^2) =  N/A
# P_orb (s)        =  N/A
# asin(i)/c (s)    =  N/A
# eccentricity     =  N/A
# w (rad)          =  N/A
# T_peri           =  N/A
######################################################
   0  1417.815
   1  1309.214
   2  1216.402
   3  1081.229
   4  995.5327
   5  869.97
   6  933.4277
   7  1033.32
   8  1090.628
   9  985.926
  10  1096.784
  11  1137.691
  12  1185.783
  13  1251.829
  14  1369.116
  15  1433.625
  16  1393.484
  17  1308.711
  18  1192.499
  19  1054.751
  20  1100.727
  21  1174.999
  22  1142.509
  23  1013.782
  24  1100.858
  25  1072.073
  26  1045.654
  27  924.6136
  28  1025.598
  29  991.5173
  30  1039.418
  31  1031.761
  32  1196.701
  33  1277.541
  34  1342.41
  35  1276.939
  36  1214.014
  37  1242.276
  38  1289.536
  39  1283.36
  40  1257.504
  41  1165.027
  42  1125.89
  43  1162.401
  44  1123.323
  45  942.9568
  46  893.7432
  47  982.1556
  48  1064.956
  49  1167.135
  50  1211.28
  51  1279.275
  52  1217.697
  53  1231.109
  54  1272.046
  55  1152.717
  56  1147.822
  57  1239.368
  58  1279.97
  59  1183.562
  60  1105.989
  61  1106.524
  62  1150.499
  63  1078.501
  64  1235.24
  65  1333.642
  66  1369.721
  67  1365.688
  68  1467.851
  69  1477.636
  70  1243.44
  71  1106.052
  72  1143.677
  73  1277.094
  74  1239.289
  75  1235.097
  76  1234.406
  77  1167.572
  78  1145.991
  79  1165.824
  80  1236.114
  81  1241.801
  82  1333.501
  83  1431.606
  84  1467.988
  85  1465.077
  86  1506.042
  87  1453.924
  88  1257.438
  89  1084.402
  90  1112.088
  91  1124.183
  92  1204.431
  93  1195.081
  94  1146.511
  95  1032.487
  96  935.5887
  97  1121.258
  98  1293.341
  99  1309.311
 100  1254.176
 101  1135.203
 102  1226.401
 103  1155.418
 104  1181.12
 105  1107.934
 106  1057.164
 107  1059.461
 108  1090.089
 109  960.6472
 110  963.2501
 111  860.9825
 112  929.4003
 113  787.9188
 114  749.8474
 115  755.7786
 116  968.2224
 117  1109.48
 118  1111.321
 119  1159.192
 120  1089.072
 121  1101.581
 122  1125.656
 123  1300.771
 124  1291.157
 125  1173.847
 126  1106.915
 127  1121.058
 128  1011.758
 129  946.1906
 130  1050.285
 131  1136.654
 132  1140.126
 133  1072.17
 134  1200.912
 135  1248.873
 136  1278.059
 137  1321.744
 138  1229.757
 139  1133.106
 140  1228.088
 141  1302.684
 142  1075.007
 143  882.5717
 144  934.2275
 145  1075.689
 146  1092.167
 147  1080.91
 148  1148.151
 149  1155.443
 150  1049.424
 151  1124.635
 152  1196.491
 153  1257.805
 154  1227.049
 155  1197.472
 156  1116.256
 157  954.095
 158  789.7156
 159  768.1044
 160  796.2523
 161  929.4808
 162  1066.421
 163  1233.151
 164  1222.916
 165  1139
 166  1162.534
 167  1210.694
 168  1344.162
 169  1186.505
 170  1095.119
 171  902.0646
 172  911.2126
 173  1071.269
 174  962.369
 175  938.8141
 176  870.6668
 177  999.3155
 178  1021.969
 179  910.4993
 180  996.6522
 181  1022.345
 182  1046.531
 183  989.7772
 184  1183.587
 185  1364.205
 186  1485.003
 187  1369.724
 188  1167.153
 189  927.2896
 190  847.5194
 191  942.5341
 192  929.8661
 193  841.5247
 194  750.5449
 195  926.6194
 196  1044.523
 197  1156.607
 198  1045.108
 199  1121.593
 200  1119.793
 201  1094.401
 202  1108.311
 203  1125.787
 204  1153.491
 205  1067.864
 206  1097.49
 207  1078.195
 208  1130.829
 209  1164.141
 210  1338.909
 211  1404.809
 212  1331.403
 213  1224.961
 214  1173.707
 215  1101.352
 216  1171.014
 217  1199.11
 218  1262.634
 219  1238.347
 220  1160.426
 221  1330.086
 222  1372.172
 223  1424.742
 224  1232.633
 225  1210.971
 226  1192.005
 227  1175.601
 228  1155.439
 229  1208.725
 230  1223.895
 231  1217.166
 232  1200.484
 233  1183.229
 234  1147.575
 235  1107.68
 236  1045.401
 237  1072.557
 238  1068.699
 239  1150.981
 240  1183.276
 241  1293.169
 242  1233.073
 243  1222.441
 244  1198.745
 245  1244.311
 246  1333.674
 247  1270.888
 248  1166.054
 249  1121.742
 250  1291.51
 251  1379.865
 252  1403.473
 253  1346.404
 254  1295.342
 255  1124.958
 256  1021.537
 257  1001.752
 258  1124.899
 259  1202.458
 260  1323.203
 261  1187.052
 262  1103.948
 263  1037.963
 264  1166.148
 265  1269.331
 266  1270.987
 267  1324.123
 268  1184.33
 269  1135.494
 270  1183.074
 271  1221.017
 272  1155.076
 273  1166.242
 274  1260.011
 275  1255.759
 276  1141.768
 277  1148.911
 278  1268.034
 279  1164.834
 280  1101.397
 281  1031.545
 282  1092.469
 283  1092.642
 284  1096.789
 285  1031.494
 286  995.8972
 287  982.5439
 288  1011.146
 289  960.2811
 290  915.0022
 291  853.3085
 292  929.6284
 293  929.9281
 294  1029.04
 295  1117.308
 296  1226.769
 297  1380.941
 298  1359.076
 299  1426.447
 300  1411.691
 301  1399.973
 302  1265.865
 303  1108.559
 304  1159.969
 305  1118.152
 306  920.4288
 307  695.7985
 308  774.0599
 309  950.7426
 310  1027.822
 311  960.8759
 312  1016.374
 313  1122.058
 314  1294.16
 315  1314.087
 316  1343.25
 317  1271.536
 318  1312.399
 319  1350.66
 320  1353.434
 321  1240.04
 322  1051.887
 323  980.2983
 324  996.9727
 325  974.3578
 326  938.8932
 327  923.3403
 328  939.3872
 329  1066.911
 330  1170.732
 331  1272.259
 332  1313.207
 333  1333.477
 334  1386.072
 335  1382.161
 336  1318.665
 337  1284.996
 338  1211.547
 339  1059.582
 340  1076.327
 341  981.4601
 342  975.8076
 343  1003.293
 344  1050.97
 345  1052.919
 346  1006.219
 347  1079.234
 348  1235.766
 349  1238.052
 350  1125.907
 351  1106.352
 352  1126.545
 353  1154.768
 354  1072.303
 355  1103.997
 356  1224.29
 357  1264.558
 358  1202.422
 359  1097.295
 360  1102.727
 361  1086.127
 362  1233.006
 363  1227.689
 364  1188.479
 365  1035.662
 366  1123.144
 367  1223.027
 368  1236.132
 369  1269.154
 370  1369.407
 371  1475.526
 372  1365.805
 373  1228.699
 374  1245.002
 375  1304.498
 376  1262.487
 377  1054.668
 378  935.959
 379  933.2597
 380  1059.984
 381  1210.199
 382  1130.714
 383  1116.565
 384  1167.902
 385  1251.646
 386  1250.663
 387  1253.003
 388  1289.706
 389  1290.663
 390  1248.012
 391  1136.625
 392  1176.046
 393  1284.059
 394  1480.476
 395  1492.925
 396  1437.992
 397  1342.295
 398  1247.048
 399  1352.266
 400  1346.925
 401  1175.611
 402  1131.223
 403  1222.273
 404  1344.877
 405  1388.971
 406  1228.141
 407  1164.84
 408  1083.603
 409  965.5042
 410  1054.85
 411  1121.894
 412  1351.909
 413  1376.514
 414  1437.726
 415  1361.493
 416  1259.493
 417  1244.928
 418  1234.794
 419  1083.303
 420  1026.037
 421  1014.846
 422  1088.013
 423  1128.453
 424  1147.817
 425  1074.262
 426  1038.59
 427  1250.681
 428  1448.632
 429  1419.217
 430  1282.614
 431  1256.603
 432  1276.338
 433  1214.743
 434  1154.146
 435  1120.484
 436  1219.692
 437  1233.463
 438  1206.364
 439  1019.992
 440  1036.136
 441  1073.535
 442  1018.099
 443  1006.62
 444  1053.256
 445  1115.369
 446  1120.314
 447  1240.876
 448  1387.018
 449  1349.953
 450  1286.905
 451  1083.971
 452  954.3017
 453  911.8608
 454  1011.404
 455  1087.232
 456  958.3215
 457  837.3702
 458  842.4415
 459  962.8558
 460  1026.964
 461  1192.444
 462  1339.003
 463  1339.422
 464  1301.211
 465  1238.911
 466  1302.084
 467  1345.513
 468  1296.777
 469  1169.952
 470  1037.444
 471  939.7049
 472  939.9613
 473  874.6796
 474  927.962
 475  1034.72
 476  1065.542
 477  1064.751
 478  1033.526
 479  1122.653
 480  1236.183
 481  1356.885
 482  1410.967
 483  1394.156
 484  1318.186
 485  1369.412
 486  1393.629
 487  1363.894
 488  1038.084
 489  988.6259
 490  1035.835
 491  1110.511
 492  1127.079
 493  1151.939
 494  1162.085
 495  1130.503
 496  1111.68
 497  1202.721
 498  1154.494
 499  1123.131
 500  1184.863
 501  1235.083
 502  1220.871
 503  1145.405
 504  1234.693
 505  1298.779
 506  1131.221
 507  1169.141
 508  1229.71
 509  1231.088
 510  1164.408
 511  1110.729
 512  1164.388
 513  1159.504
 514  1299.313
 515  1295.177
 516  1308.546
 517  1170.848
 518  1152.258
 519  1033.798
 520  1000.669
 521  978.9996
 522  1223.842
 523  1352.43
 524  1387.013
 525  1289.783
 526  1319.689
 527  1450.611
 528  1418.898
 529  1461.173
 530  1386.331
 531  1369.924
 532  1304.196
 533  1228.343
 534  1229.573
 535  1122.306
 536  1053.864
 537  1133.002
 538  1170.693
 539  1077.881
 540  1107.387
 541  1175.871
 542  1193.243
 543  1137.314
 544  1207.012
 545  1343.265
 546  1306.167
 547  1224.642
 548  1191.109
 549  1164.316
 550  1362.481
 551  1364.797
 552  1413.06
 553  1260.396
 554  1265.43
 555  1184.55
 556  1064.832
 557  1066.126
 558  1055.663
 559  1137.306
 560  1143.728
 561  1142.23
 562  1194.924
 563  1253.974
 564  1274.6
 565  1232.664
 566  1218.372
 567  1248.415
 568  1158.686
 569  973.2237
 570  929.5777
 571  872.1799
 572  901.4171
 573  904.0728
 574  1033.398
 575  1132.915
 576  1213.475
 577  1312.466
 578  1424.124
 579  1359.502
 580  1220.234
 581  1194.458
 582  1180.317
 583  1179.894
 584  1113.28
 585  1083.527
 586  1035.23
 587  1009.508
 588  1028.815
 589  1128.793
 590  1146.979
 591  1211.929
 592  1302.75
 593  1362.531
 594  1495.298
 595  1468.596
 596  1460.726
 597  1176.117
 598  1016.197
 599  996.9885
 600  986.1389
 601  856.2621
 602  708.4595
 603  800.6512
 604  981.584
 605  1271.265
 606  1289.43
 607  1241.772
 608  1116.667
 609  1177.912
 610  1223.488
 611  1175.362
 612  952.0961
 613  1076.882
 614  1178.854
 615  1236.868
 616  1131.643
 617  1030.366
 618  1147.269
 619  1069.809
 620  1173.661
 621  1071.381
 622  1020.965
 623  1121.272
 624  1213.227
 625  1164.421
 626  1146.357
 627  1200.659
 628  1322.283
 629  1271.299
 630  1312.422
 631  1351.96
 632  1374.28
 633  1283.451
 634  1228.271
 635  1220.514
 636  1082.981
 637  993.545
 638  978.4784
 639  1112.196
 640  1153.463
 641  1088.625
 642  1127.494
 643  1247.786
 644  1307.455
 645  1358.108
 646  1429.154
 647  1371.705
 648  1276.411
 649  1243.506
 650  1185.444
 651  1130.419
 652  1084.814
 653  1144.934
 654  1067.864
 655  1039.905
 656  1153.932
 657  1281.373
 658  1302.777
 659  1383.353
 660  1429.151
 661  1513.768
 662  1363.53
 663  1361.122
 664  1355.58
 665  1314.451
 666  1244.62
 667  1231.658
 668  1196.12
 669  1115.563
 670  1234.624
 671  1290.706
 672  1292.128
 673  1225.063
 674  1387.607
 675  1475.92
 676  1391.999
 677  1311.565
 678  1295.851
 679  1245.887
 680  1066.307
 681  1058.772
 682  990.4687
 683  1123.749
 684  1140.553
 685  1272.931
 686  1225.033
 687  1038.61
 688  1052.484
 689  1121.322
 690  1090.274
 691  1080.59
 692  1215.98
 693  1378.401
 694  1407.307
 695  1275.015
 696  1274.742
 697  1264.071
 698  1254.49
 699  1171.928
 700  1182.226
 701  1230.181
 702  1097.782
 703  1002.144
 704  881.8252
 705  860.9929
 706  735.4783
 707  906.5482
 708  1176.117
 709  1336.902
 710  1400.779
 711  1403.473
 712  1356.164
 713  1269.673
 714  1205.948
 715  1221.618
 716  1142.829
 717  1139.704
 718  1186.1
 719  1239.458
 720  1169.469
 721  1080.893
 722  979.0309
 723  941.5627
 724  1020.256
 725  1156.537
 726  1351.654
 727  1342.424
 728  1324.483
 729  1240.803
 730  1263.522
 731  1211.715
 732  1264.19
 733  1311.51
 734  1288.809
 735  1121.21
 736  1008.602
 737  1118.343
 738  1146.522
 739  1102.403
 740  1071.409
 741  1151.262
 742  1104.793
 743  1251.783
 744  1374.786
 745  1368.994
 746  1314.662
 747  1399.622
 748  1637.55
 749  1611.427
 750  1467.566
 751  1457.197
 752  1445.92
 753  1516.271
 754  1586.863
 755  1720.008
 756  1805.431
 757  1773.734
 758  1768.817
 759  1864.676
 760  1761.529
 761  1757.646
 762  1558.38
 763  1437.328
 764  1330.938
 765  1294.673
 766  1268.913
 767  1137.896
 768  1165.491
 769  1208.215
 770  1215.139
 771  1146.828
 772  1245.13
 773  1312.507
 774  1196.346
 775  1163.545
 776  1139.99
 777  1232.016
 778  1202.304
 779  1344.089
 780  1412.6
 781  1491.787
 782  1350.462
 783  1254.322
 784  1222.056
 785  1265.658
 786  1335.484
 787  1291.16
 788  1194.469
 789  1164.998
 790  1266.408
 791  1493.324
 792  1494.315
 793  1378.522
 794  1424.573
 795  1404.57
 796  1355.924
 797  1384.574
 798  1277.114
 799  1117.92
 800  939.4269
 801  1077.81
 802  1298.838
 803  1236.035
 804  1273.831
 805  1253.087
 806  1295.176
 807  1238.898
 808  1301.265
 809  1409.006
 810  1324.284
 811  1294.349
 812  1228.426
 813  1307.757
 814  1232.724
 815  1312.502
 816  1384.683
 817  1363.295
 818  1198.604
 819  979.247
 820  976.5828
 821  1008.339
 822  1270.893
 823  1351.547
 824  1485.024
 825  1329.682
 826  1410.488
 827  1562.91
 828  1629.722
 829  1519.474
 830  1282.063
 831  1260.855
 832  1203.817
 833  1199.663
 834  1259.48
 835  1208.105
 836  1084.533
 837  1042.305
 838  1137.955
 839  1117.628
 840  1346.576
 841  1393.552
 842  1490.169
 843  1353.952
 844  1326.543
 845  1426.778
 846  1401.903
 847  1436.979
 848  1393.96
 849  1260.331
 850  1088.983
 851  956.5734
 852  1009.909
 853  974.7673
 854  1043.714
 855  1049.238
 856  1167.885
 857  1211.932
 858  1136.223
 859  1139.006
 860  1120.7
 861  1209.244
 862  1164.035
 863  1167.791
 864  1094.486
 865  1056.83
 866  961.9441
 867  994.2632
 868  1006.284
 869  993.5189
 870  1097.91
 871  1086.263
 872  936.8088
 873  804.1896
 874  903.5591
 875  1226.464
 876  1224.75
 877  1232.01
 878  1288.944
 879  1311.257
 880  1258.278
 881  1150.691
 882  1250.305
 883  1270.281
 884  1232.704
 885  1193.37
 886  1171.16
 887  1169.216
 888  1150.391
 889  1257.655
 890  1263.346
 891  1334.846
 892  1418.112
 893  1399.255
 894  1295.409
 895  1142.443
 896  1259.947
 897  1202.366
 898  1087.889
 899  1023.271
 900  1055.322
 901  1002.122
 902  836.1963
 903  779.0918
 904  915.4568
 905  1032.55
 906  1126.256
 907  1268.076
 908  1307.105
 909  1185.081
 910  1130.227
 911  1236.603
 912  1270.355
 913  1320.866
 914  1378.372
 915  1339.131
 916  1132.454
 917  1043.194
 918  1036.807
 919  1038.583
 920  1064.859
 921  1187.591
 922  1141.313
 923  1102.506
 924  1177.151
 925  1411.155
 926  1496.106
 927  1290.606
 928  1158.443
 929  1137.661
 930  1200.934
 931  1089.087
 932  1087.964
 933  1090.713
 934  1088.967
 935  1023.99
 936  960.6232
 937  1127.1
 938  1176.719
 939  1329.024
 940  1350.441
 941  1390.661
 942  1290.814
 943  1289.442
 944  1204.018
 945  1155.981
 946  1079.643
 947  1069.327
 948  1160.783
 949  1135.752
 950  1190.165
 951  1134.976
 952  1197.431
 953  1287.319
 954  1338.006
 955  1360.754
 956  1388.741
 957  1491.968
 958  1543.25
 959  1442.073
 960  1286.711
 961  1317.545
 962  1300.269
 963  1284.656
 964  1324.547
 965  1293.26
 966  1188.187
 967  1141.173
 968  1236.221
 969  1316.011
 970  1286.902
 971  1283.026
 972  1299.165
 973  1266.724
 974  1240.089
 975  1291.857
 976  1295.815
 977  1317.978
 978  1263.733
 979  1277.228
 980  1215.278
 981  1105.457
 982  1132.263
 983  1268.594
 984  1328.893
 985  1283.258
 986  1134.938
 987  1127.278
 988  1140.93
 989  1260.513
 990  1250.81
 991  1179.956
 992  1079.237
 993  1100.709
 994  1265.82
 995  1267.844
 996  1274.986
 997  1205.123
 998  1330.028
 999  1302.699
1000  1228.298
1001  1079.334
1002  1039.294
1003  1020.214
1004  1025.474
1005  1048.224
1006  1058.524
1007  1044.929
1008  1155.877
1009  1240.498
1010  1300.176
1011  1203.649
1012  1142.264
1013  1137.104
1014  1082.959
1015  988.0224
1016  946.6548
1017  1070.843
1018  1144.471
1019  1159.96
1020  1154.357
1021  1219.506
1022  1274.768
1023  1359.314
