# Input file       =  1181026120.100374_cleaned.dat
# Candidate        =  PSR_0332+5434
# Telescope        =  AR
# Epoch_topo       =  57913.284017365440
# Epoch_bary       =  N/A
# T_sample         =  0.002
# Data Folded      =  7340032
# Data Avg         =  0.0719422857426771
# Data StdDev      =  2.46968661378852 
# Profile Bins     =  1024
# Profile Avg      =  515.832846140154 
# Profile StdDev   =  209.093651083189 
# Reduced chi-sqr  =  1.062
# Prob(Noise)      <  0.0818   (~1.4 sigma)
# P_topo (ms)      =  714.508600988721  +/- 0.000334
# P'_topo (s/s)    =  -0                +/- 1.76e-10
# P''_topo (s/s^2) =  0                 +/- 7.79e-14
# P_bary (ms)      =  N/A
# P'_bary (s/s)    =  N/A
# P''_bary (s/s^2) =  N/A
# P_orb (s)        =  N/A
# asin(i)/c (s)    =  N/A
# eccentricity     =  N/A
# w (rad)          =  N/A
# T_peri           =  N/A
######################################################
   0  521.0307
   1  592.7437
   2  610.9391
   3  590.5172
   4  511.8872
   5  601.1594
   6  607.9969
   7  677.3632
   8  649.5743
   9  607.0632
  10  598.3901
  11  674.7104
  12  681.3134
  13  541.4014
  14  371.5545
  15  496.4391
  16  671.515
  17  723.5805
  18  683.5234
  19  653.4268
  20  572.7527
  21  508.3591
  22  638.3759
  23  700.5943
  24  604.0468
  25  549.2938
  26  590.2666
  27  649.7934
  28  614.4587
  29  519.0944
  30  497.6353
  31  439.7566
  32  367.1658
  33  268.4952
  34  229.021
  35  248.7132
  36  358.8426
  37  427.8525
  38  469.8028
  39  411.0277
  40  485.8662
  41  546.8354
  42  594.7491
  43  556.0864
  44  531.3753
  45  471.1839
  46  365.2129
  47  333.9284
  48  314.0343
  49  340.7959
  50  386.4753
  51  556.1754
  52  691.723
  53  691.3077
  54  564.7938
  55  545.4951
  56  572.1005
  57  530.6738
  58  518.4954
  59  442.1172
  60  448.5432
  61  411.3721
  62  482.407
  63  532.4122
  64  568.4249
  65  598.1951
  66  596.1354
  67  459.4589
  68  387.0095
  69  423.2823
  70  489.6712
  71  506.4475
  72  499.7909
  73  513.2608
  74  433.9353
  75  477.8873
  76  492.6852
  77  532.5651
  78  506.2481
  79  552.6573
  80  511.11
  81  560.9083
  82  614.4573
  83  676.2027
  84  682.3812
  85  587.3247
  86  590.021
  87  522.3624
  88  569.1926
  89  554.0153
  90  586.9709
  91  681.3456
  92  669.7826
  93  621.3438
  94  486.455
  95  441.7057
  96  377.9455
  97  432.7612
  98  356.4855
  99  335.0138
 100  391.4178
 101  382.2423
 102  420.562
 103  465.0464
 104  611.9533
 105  669.5089
 106  601.4637
 107  565.1814
 108  640.6599
 109  724.3304
 110  665.0816
 111  540.2233
 112  584.7182
 113  621.2939
 114  668.7251
 115  632.5132
 116  557.2167
 117  475.1008
 118  454.2634
 119  413.1098
 120  316.3663
 121  332.3444
 122  385.161
 123  543.8729
 124  586.4729
 125  693.3221
 126  659.5188
 127  599.9384
 128  534.1933
 129  559.4775
 130  533.6707
 131  460.9627
 132  417.36
 133  428.5767
 134  397.4611
 135  373.4401
 136  383.0089
 137  405.8589
 138  405.07
 139  348.7344
 140  361.224
 141  408.7698
 142  505.6825
 143  487.8638
 144  381.9408
 145  362.3039
 146  391.9228
 147  436.2044
 148  391.9464
 149  405.4487
 150  520.265
 151  521.8228
 152  461.0256
 153  326.1859
 154  391.5472
 155  442.7435
 156  495.5019
 157  506.5652
 158  451.9398
 159  391.0798
 160  335.6034
 161  352.7438
 162  385.7664
 163  411.9904
 164  377.4068
 165  406.8626
 166  330.1495
 167  278.2549
 168  279.0895
 169  356.1841
 170  434.1654
 171  392.8062
 172  461.0025
 173  526.7426
 174  603.4207
 175  603.9338
 176  545.0391
 177  485.5188
 178  300.1425
 179  258.2006
 180  250.4893
 181  316.1359
 182  410.2306
 183  527.4963
 184  625.7476
 185  545.8672
 186  411.3545
 187  329.9648
 188  319.2677
 189  476.3562
 190  514.8375
 191  571.2288
 192  531.2227
 193  588.633
 194  631.6947
 195  675.8773
 196  689.8904
 197  630.517
 198  585.4763
 199  544.4687
 200  594.5711
 201  572.4214
 202  601.6276
 203  608.0607
 204  730.1282
 205  712.4755
 206  656.3539
 207  649.5963
 208  720.5754
 209  735.1836
 210  642.7108
 211  591.2728
 212  638.5453
 213  552.6874
 214  525.5637
 215  431.4532
 216  391.6193
 217  370.9421
 218  396.6226
 219  414.269
 220  359.5739
 221  401.5748
 222  495.5613
 223  525.3223
 224  522.5609
 225  542.3721
 226  593.3301
 227  625.593
 228  612.4539
 229  653.7631
 230  636.9972
 231  601.7603
 232  557.9274
 233  587.1468
 234  609.453
 235  501.3875
 236  495.386
 237  491.0993
 238  618.994
 239  671.681
 240  638.4104
 241  558.0403
 242  473.8406
 243  528.9222
 244  532.5971
 245  521.3341
 246  516.2228
 247  553.8132
 248  573.7214
 249  479.729
 250  482.8057
 251  483.2428
 252  469.8166
 253  483.9079
 254  469.084
 255  477.4061
 256  461.981
 257  429.7698
 258  521.9121
 259  575.7363
 260  612.6141
 261  568.1021
 262  516.2816
 263  511.6016
 264  460.7951
 265  539.1135
 266  581.0123
 267  608.608
 268  539.6324
 269  465.6064
 270  374.7566
 271  409.408
 272  434.218
 273  500.9175
 274  507.2354
 275  457.0704
 276  315.8004
 277  269.6855
 278  322.0758
 279  459.7619
 280  499.3514
 281  527.7546
 282  462.4107
 283  417.2703
 284  496.5911
 285  579.1459
 286  622.2374
 287  609.6719
 288  605.0652
 289  563.5737
 290  498.2813
 291  555.6732
 292  563.5679
 293  544.8054
 294  497.9516
 295  545.6539
 296  491.7516
 297  483.6314
 298  456.5838
 299  494.8757
 300  538.2977
 301  616.9845
 302  627.8623
 303  508.1718
 304  498.0933
 305  482.355
 306  454.2609
 307  402.5992
 308  453.4413
 309  521.296
 310  543.5994
 311  597.3615
 312  612.4129
 313  573.325
 314  425.445
 315  335.5634
 316  424.1015
 317  535.7476
 318  669.0851
 319  627.1974
 320  524.6704
 321  501.3315
 322  475.417
 323  601.8392
 324  468.3666
 325  505.5759
 326  530.9161
 327  651.3104
 328  597.4538
 329  496.9633
 330  491.9117
 331  572.2054
 332  670.4748
 333  566.3844
 334  523.9207
 335  554.2907
 336  628.2676
 337  583.1749
 338  540.1532
 339  501.6983
 340  493.2073
 341  468.0173
 342  516.488
 343  566.8167
 344  544.4988
 345  566.7234
 346  553.9509
 347  552.9746
 348  495.2646
 349  524.3174
 350  619.9808
 351  614.7427
 352  591.5203
 353  590.9462
 354  570.6927
 355  611.9128
 356  623.5536
 357  673.909
 358  608.6161
 359  608.2454
 360  616.0413
 361  582.4616
 362  614.5501
 363  632.3013
 364  649.2993
 365  619.2809
 366  610.8243
 367  662.1215
 368  591.8602
 369  618.9534
 370  603.362
 371  621.9135
 372  655.9759
 373  581.1326
 374  561.7204
 375  444.8847
 376  420.2155
 377  337.9416
 378  263.1948
 379  310.5151
 380  397.1336
 381  508.2765
 382  462.4319
 383  460.7583
 384  452.3541
 385  492.9627
 386  524.7281
 387  608.2031
 388  637.375
 389  557.5931
 390  459.769
 391  496.0059
 392  549.5068
 393  477.4153
 394  446.7469
 395  483.4294
 396  637.1855
 397  688.4572
 398  619.6961
 399  551.4742
 400  521.0403
 401  488.822
 402  370.1933
 403  308.5854
 404  342.9118
 405  453.9586
 406  547.4715
 407  638.3495
 408  637.2403
 409  534.5306
 410  510.998
 411  504.0777
 412  502.2983
 413  397.5965
 414  385.5523
 415  343.959
 416  389.8697
 417  380.6111
 418  394.6939
 419  329.339
 420  216.9733
 421  293.3718
 422  316.6769
 423  424.8676
 424  491.8108
 425  621.8763
 426  619.4684
 427  560.6547
 428  580.3163
 429  542.4501
 430  484.6602
 431  382.9483
 432  461.7402
 433  451.272
 434  510.2588
 435  401.7879
 436  359.3697
 437  341.8307
 438  428.6176
 439  509.0568
 440  452.9696
 441  383.6003
 442  431.7755
 443  516.3942
 444  504.7665
 445  424.4169
 446  437.9987
 447  501.4048
 448  445.534
 449  489.9039
 450  526.2618
 451  607.529
 452  555.0564
 453  473.971
 454  518.5004
 455  471.183
 456  382.6907
 457  331.8613
 458  339.7348
 459  435.8303
 460  388.1684
 461  396.4727
 462  376.7383
 463  407.2259
 464  491.3865
 465  529.6806
 466  537.6221
 467  439.5802
 468  435.3233
 469  390.4605
 470  489.3221
 471  501.4729
 472  547.3276
 473  588.9839
 474  524.1841
 475  525.5694
 476  402.942
 477  333.5433
 478  291.4452
 479  412.9673
 480  533.6948
 481  529.1166
 482  429.9625
 483  333.5075
 484  311.3679
 485  330.059
 486  401.17
 487  420.573
 488  474.4885
 489  479.1677
 490  597.3051
 491  636.4952
 492  751.3062
 493  702.311
 494  659.7313
 495  526.1838
 496  458.3762
 497  458.1984
 498  421.9798
 499  502.05
 500  465.5669
 501  466.5119
 502  377.6178
 503  464.2224
 504  505.7716
 505  556.6531
 506  593.7598
 507  478.9046
 508  391.6008
 509  381.3622
 510  468.8681
 511  481.0103
 512  482.4439
 513  445.5672
 514  547.677
 515  647.4341
 516  719.863
 517  699.7917
 518  539.1026
 519  493.7739
 520  467.3339
 521  467.8601
 522  397.6177
 523  416.3253
 524  535.7723
 525  551.491
 526  539.4835
 527  473.8855
 528  491.6281
 529  574.0554
 530  614.4908
 531  652.9794
 532  602.8005
 533  579.3494
 534  629.1087
 535  583.3251
 536  595.5635
 537  578.2109
 538  586.052
 539  381.3446
 540  254.963
 541  258.0593
 542  440.1715
 543  511.9158
 544  586.0013
 545  556.598
 546  537.7965
 547  435.0835
 548  465.8836
 549  520.4517
 550  600.3231
 551  551.6355
 552  522.6302
 553  480.1591
 554  574.6463
 555  581.7018
 556  569.5365
 557  597.206
 558  593.4025
 559  561.7996
 560  403.0909
 561  358.6747
 562  333.5204
 563  380.9934
 564  457.6016
 565  492.7355
 566  542.8358
 567  582.0644
 568  677.1194
 569  688.4291
 570  594.7875
 571  568.7676
 572  639.1765
 573  702.8585
 574  706.2283
 575  582.4506
 576  460.596
 577  445.6534
 578  485.679
 579  566.7901
 580  560.2408
 581  566.3898
 582  583.4161
 583  568.1168
 584  539.3896
 585  434.6382
 586  387.0894
 587  447.5624
 588  464.5415
 589  503.2856
 590  490.2451
 591  534.4332
 592  556.4116
 593  591.2422
 594  608.3304
 595  565.7078
 596  528.6075
 597  522.5745
 598  580.9795
 599  636.5701
 600  618.2128
 601  568.5414
 602  533.3752
 603  599.4376
 604  630.0803
 605  661.563
 606  659.1754
 607  731.1854
 608  719.6323
 609  683.9795
 610  598.7614
 611  502.9165
 612  554.7397
 613  614.4849
 614  553.3964
 615  471.9726
 616  458.6786
 617  488.9506
 618  542.321
 619  641.3159
 620  724.2186
 621  659.1465
 622  625.1208
 623  613.3236
 624  649.3956
 625  603.2856
 626  496.6811
 627  483.1864
 628  428.4873
 629  524.6677
 630  433.3419
 631  379.3854
 632  501.1682
 633  764.1555
 634  819.4109
 635  721.4557
 636  593.0956
 637  638.2981
 638  583.5242
 639  582.5696
 640  573.6308
 641  600.8765
 642  570.7615
 643  541.4867
 644  559.894
 645  513.0479
 646  508.4478
 647  486.4161
 648  482.7021
 649  519.1149
 650  551.6994
 651  570.5593
 652  509.4768
 653  428.8314
 654  412.9744
 655  387.9924
 656  420.5698
 657  596.7844
 658  677.2479
 659  674.6788
 660  629.8552
 661  658.0842
 662  703.0662
 663  671.7549
 664  541.1605
 665  531.8818
 666  489.4283
 667  569.4264
 668  683.086
 669  774.2668
 670  771.8476
 671  576.7082
 672  485.4429
 673  357.3619
 674  395.7906
 675  427.101
 676  575.9844
 677  633.4245
 678  628.0863
 679  587.0515
 680  591.032
 681  579.837
 682  624.1695
 683  574.2642
 684  606.684
 685  568.2643
 686  523.3564
 687  442.5948
 688  417.9325
 689  446.3059
 690  455.6292
 691  462.3178
 692  457.681
 693  425.9862
 694  367.7133
 695  335.3131
 696  305.6677
 697  370.5072
 698  408.8576
 699  439.9622
 700  502.1202
 701  512.4139
 702  546.5404
 703  586.076
 704  607.29
 705  514.8379
 706  447.7825
 707  387.6948
 708  435.278
 709  501.6255
 710  582.2855
 711  609.5668
 712  645.6568
 713  678.0573
 714  676.4756
 715  554.7991
 716  597.8975
 717  640.3577
 718  668.9886
 719  592.358
 720  577.6385
 721  555.1556
 722  519.4549
 723  646.6417
 724  742.8682
 725  554.2296
 726  356.2805
 727  335.9715
 728  551.6824
 729  543.3199
 730  586.4283
 731  569.8579
 732  539.0422
 733  456.8361
 734  419.372
 735  416.3115
 736  518.3726
 737  667.0842
 738  845.3122
 739  877.3318
 740  847.516
 741  809.5095
 742  747.7285
 743  638.9864
 744  617.9172
 745  665.0767
 746  712.6301
 747  649.9064
 748  673.5995
 749  801.4062
 750  922.5076
 751  961.171
 752  950.8763
 753  953.6036
 754  1063.412
 755  1117.986
 756  1134.184
 757  1095.653
 758  1020.565
 759  853.0947
 760  670.6474
 761  607.0132
 762  583.8565
 763  711.7016
 764  712.879
 765  727.9396
 766  635.8784
 767  578.8451
 768  560.4164
 769  580.7283
 770  609.1982
 771  588.7158
 772  461.5906
 773  325.4537
 774  216.4283
 775  266.1175
 776  357.1453
 777  450.5857
 778  454.6043
 779  429.6543
 780  446.7712
 781  509.9868
 782  557.5522
 783  520.7634
 784  431.1479
 785  415.7737
 786  507.4553
 787  598.2038
 788  582.547
 789  578.9623
 790  529.5264
 791  478.2989
 792  457.5874
 793  486.5369
 794  463.6709
 795  376.1991
 796  438.7902
 797  633.1956
 798  736.671
 799  696.3844
 800  571.7905
 801  505.2188
 802  436.4695
 803  474.3196
 804  521.2822
 805  476.7193
 806  491.098
 807  471.4472
 808  500.7345
 809  348.2827
 810  349.0333
 811  372.789
 812  465.666
 813  483.8813
 814  444.191
 815  371.6982
 816  270.7088
 817  235.9344
 818  326.9758
 819  400.8593
 820  425.5004
 821  380.7745
 822  367.999
 823  402.1178
 824  438.0383
 825  428.481
 826  336.6617
 827  324.1193
 828  371.6394
 829  365.1306
 830  309.0429
 831  314.8808
 832  319.5568
 833  419.121
 834  404.1162
 835  351.7489
 836  310.0705
 837  342.5102
 838  358.3121
 839  382.2548
 840  452.0008
 841  415.6024
 842  437.8293
 843  483.6067
 844  505.0449
 845  469.0452
 846  419.7153
 847  393.4959
 848  391.165
 849  444.446
 850  456.7806
 851  389.9161
 852  335.6046
 853  310.5948
 854  452.4866
 855  529.5936
 856  554.3412
 857  472.0962
 858  413.8333
 859  431.0698
 860  397.4176
 861  397.2271
 862  407.9252
 863  439.6606
 864  477.0883
 865  444.9138
 866  405.1724
 867  435.9322
 868  613.8928
 869  603.6138
 870  626.0565
 871  568.5258
 872  689.4985
 873  617.6119
 874  501.2065
 875  379.9311
 876  244.2113
 877  204.8755
 878  284.9535
 879  434.53
 880  572.61
 881  529.462
 882  538.137
 883  548.7062
 884  534.0876
 885  479.7874
 886  486.7422
 887  549.2487
 888  559.5565
 889  580.6847
 890  544.0596
 891  493.5161
 892  422.2596
 893  385.7927
 894  389.4807
 895  440.1234
 896  509.1998
 897  525.472
 898  450.588
 899  353.1781
 900  317.8614
 901  317.9733
 902  398.9412
 903  427.7809
 904  473.2296
 905  506.1643
 906  489.0156
 907  427.7901
 908  371.8008
 909  383.7309
 910  419.1656
 911  429.6389
 912  447.7843
 913  531.6394
 914  425.8585
 915  496.1222
 916  464.5858
 917  493.1382
 918  399.0846
 919  363.9149
 920  456.0561
 921  503.7412
 922  514.9993
 923  441.4015
 924  329.2223
 925  241.918
 926  292.0712
 927  412.613
 928  486.8403
 929  506.607
 930  501.786
 931  534.255
 932  503.8447
 933  398.6964
 934  438.4089
 935  444.5219
 936  467.6743
 937  457.8912
 938  541.1901
 939  581.1582
 940  491.8951
 941  467.9154
 942  467.041
 943  458.438
 944  447.5604
 945  499.9019
 946  543.0344
 947  442.896
 948  413.8964
 949  331.5942
 950  298.4047
 951  278.8438
 952  327.4305
 953  477.8305
 954  540.7842
 955  532.8941
 956  390.7257
 957  409.0754
 958  367.1814
 959  397.975
 960  334.6997
 961  399.1452
 962  466.9352
 963  455.6332
 964  465.6333
 965  470.6131
 966  679.8129
 967  710.0833
 968  731.0757
 969  562.0192
 970  619.4465
 971  603.0493
 972  559.0674
 973  499.9449
 974  586.782
 975  708.0594
 976  723.5103
 977  631.3527
 978  650.2516
 979  632.5498
 980  569.6857
 981  489.325
 982  514.2679
 983  613.278
 984  586.5583
 985  567.215
 986  663.483
 987  697.9004
 988  688.5537
 989  548.8697
 990  561.2758
 991  638.6136
 992  622.5782
 993  624.0856
 994  543.1136
 995  570.9634
 996  613.8627
 997  576.7945
 998  601.7111
 999  556.808
1000  566.9377
1001  481.715
1002  447.9899
1003  435.5212
1004  474.5125
1005  521.8754
1006  536.6669
1007  574.4503
1008  656.603
1009  693.4825
1010  675.0426
1011  675.6597
1012  659.0979
1013  634.4254
1014  513.0839
1015  390.0307
1016  482.2796
1017  578.4041
1018  715.1134
1019  597.926
1020  511.0909
1021  402.5133
1022  413.3231
1023  431.7025
