# Input file       =  1181528503.117767_cleaned.dat
# Candidate        =  PSR_0332+5434
# Telescope        =  AR
# Epoch_topo       =  57919.098635622307
# Epoch_bary       =  N/A
# T_sample         =  0.002
# Data Folded      =  7208960
# Data Avg         =  0.0957063912075357
# Data StdDev      =  3.84316384500303 
# Profile Bins     =  1024
# Profile Avg      =  673.825678692712 
# Profile StdDev   =  322.459539648544 
# Reduced chi-sqr  =  0.763
# Prob(Noise)      <  1   (~0.0 sigma)
# P_topo (ms)      =  714.503141343447  +/- 5.19e-05
# P'_topo (s/s)    =  -0                +/- 2.79e-11
# P''_topo (s/s^2) =  0                 +/- 1.25e-14
# P_bary (ms)      =  N/A
# P'_bary (s/s)    =  N/A
# P''_bary (s/s^2) =  N/A
# P_orb (s)        =  N/A
# asin(i)/c (s)    =  N/A
# eccentricity     =  N/A
# w (rad)          =  N/A
# T_peri           =  N/A
######################################################
   0  710.8659
   1  753.0323
   2  728.4176
   3  574.9159
   4  494.5996
   5  597.5229
   6  631.2438
   7  664.2146
   8  636.2189
   9  618.8997
  10  599.1827
  11  683.0173
  12  825.6461
  13  929.909
  14  937.2622
  15  895.4633
  16  794.9055
  17  622.4222
  18  509.2393
  19  566.9531
  20  564.2482
  21  620.6449
  22  634.1805
  23  678.6992
  24  614.4877
  25  562.7786
  26  624.8412
  27  684.9385
  28  742.9108
  29  772.6541
  30  790.4209
  31  813.5589
  32  842.0685
  33  782.1477
  34  631.6411
  35  523.6407
  36  513.3536
  37  551.7988
  38  535.5363
  39  540.1017
  40  574.3694
  41  572.5692
  42  604.0435
  43  555.3093
  44  602.7015
  45  521.1392
  46  632.2659
  47  814.1028
  48  959.0754
  49  841.3671
  50  712.3807
  51  632.1026
  52  643.1198
  53  652.0597
  54  744.9681
  55  745.6597
  56  757.1255
  57  723.028
  58  664.1425
  59  727.1116
  60  748.1812
  61  846.1833
  62  746.2543
  63  752.1927
  64  804.1695
  65  861.4276
  66  776.8468
  67  685.2524
  68  701.4256
  69  549.9222
  70  448.8725
  71  350.9343
  72  499.7571
  73  553.4067
  74  576.2398
  75  538.5278
  76  582.0875
  77  535.285
  78  673.6827
  79  663.7994
  80  632.9835
  81  471.7828
  82  543.5078
  83  675.5254
  84  754.5932
  85  787.1536
  86  767.9179
  87  691.5588
  88  660.5136
  89  693.6221
  90  693.7026
  91  477.0919
  92  431.0649
  93  499.6322
  94  546.2227
  95  568.1316
  96  609.7031
  97  803.183
  98  811.5296
  99  639.768
 100  573.5723
 101  619.0861
 102  677.9184
 103  675.8444
 104  601.1715
 105  663.8124
 106  570.8751
 107  607.3459
 108  623.0039
 109  699.0974
 110  730.8878
 111  723.2096
 112  732.7614
 113  624.8851
 114  669.478
 115  724.3074
 116  702.4644
 117  510.2567
 118  563.0736
 119  718.8405
 120  752.178
 121  673.7648
 122  614.993
 123  676.2763
 124  668.8373
 125  670.4621
 126  721.9002
 127  830.9203
 128  881.1807
 129  1004.801
 130  971.1427
 131  810.0389
 132  550.2054
 133  473.9173
 134  369.9568
 135  352.0098
 136  403.1877
 137  381.709
 138  479.5435
 139  504.873
 140  548.4598
 141  635.8618
 142  756.1226
 143  914.6446
 144  873.3118
 145  815.3923
 146  861.4397
 147  820.9974
 148  848.1158
 149  781.3012
 150  737.1994
 151  744.2762
 152  681.8579
 153  703.1533
 154  553.3778
 155  542.5438
 156  563.8743
 157  666.6357
 158  634.1055
 159  647.788
 160  711.6745
 161  769.3943
 162  738.9638
 163  628.5322
 164  546.2766
 165  555.5124
 166  592.5461
 167  504.7757
 168  401.436
 169  430.6712
 170  646.8803
 171  797.1556
 172  744.095
 173  572.5958
 174  466.1139
 175  482.5915
 176  572.1954
 177  595.4353
 178  753.3273
 179  900.7156
 180  1062.089
 181  908.021
 182  699.3688
 183  529.0563
 184  588.6381
 185  559.1603
 186  601.6772
 187  601.8004
 188  625.9167
 189  529.2489
 190  588.394
 191  556.387
 192  661.6667
 193  725.0953
 194  874.7553
 195  912.1583
 196  798.1868
 197  858.4163
 198  966.9375
 199  981.2424
 200  832.7514
 201  836.3884
 202  782.4773
 203  647.364
 204  488.074
 205  513.4365
 206  677.0074
 207  700.7177
 208  704.1893
 209  721.0576
 210  737.9277
 211  822.2385
 212  905.0656
 213  928.3285
 214  700.3776
 215  579.4894
 216  659.0501
 217  665.493
 218  616.5284
 219  697.6976
 220  816.176
 221  860.9867
 222  698.3188
 223  586.0345
 224  603.4045
 225  617.6624
 226  690.1494
 227  707.9556
 228  700.265
 229  662.0674
 230  765.6401
 231  923.371
 232  822.5519
 233  712.7728
 234  645.074
 235  743.2661
 236  732.2776
 237  750.8871
 238  878.2733
 239  922.9406
 240  791.196
 241  599.0233
 242  538.9768
 243  613.2907
 244  573.4633
 245  796.6503
 246  832.5584
 247  745.8452
 248  538.8749
 249  578.917
 250  627.5604
 251  589.337
 252  722.4825
 253  864.5962
 254  799.685
 255  496.3903
 256  352.3329
 257  523.7269
 258  727.4583
 259  915.7215
 260  855.8179
 261  763.127
 262  743.5515
 263  723.6445
 264  787.2472
 265  661.8668
 266  746.8378
 267  760.4983
 268  725.8475
 269  646.3549
 270  696.1588
 271  865.7048
 272  1020.697
 273  1042.204
 274  966.6072
 275  782.4434
 276  757.0138
 277  789.8101
 278  772.5394
 279  674.6147
 280  636.9453
 281  723.4139
 282  695.9121
 283  602.7933
 284  625.7413
 285  708.8439
 286  796.8234
 287  767.7819
 288  706.1477
 289  626.7446
 290  624.0895
 291  669.1392
 292  793.9706
 293  764.0331
 294  808.15
 295  803.3492
 296  820.3232
 297  728.0112
 298  536.7211
 299  456.3079
 300  451.7293
 301  573.1346
 302  579.1142
 303  554.463
 304  500.1652
 305  601.4688
 306  709.0771
 307  810.6789
 308  900.4346
 309  931.1297
 310  959.1104
 311  931.1946
 312  984.7968
 313  908.6223
 314  671.5963
 315  601.8107
 316  471.383
 317  440.6699
 318  332.3317
 319  477.8635
 320  540.4696
 321  572.1911
 322  532.7086
 323  460.8758
 324  602.386
 325  747.3342
 326  881.5209
 327  884.7145
 328  779.8271
 329  760.631
 330  600.0089
 331  601.5204
 332  462.8772
 333  417.0209
 334  461.5073
 335  479.0908
 336  484.2138
 337  378.2832
 338  365.0253
 339  383.099
 340  450.1648
 341  487.5376
 342  637.9777
 343  695.8129
 344  758.8624
 345  692.0748
 346  798.317
 347  771.8497
 348  697.2844
 349  507.8555
 350  439.4304
 351  322.689
 352  300.1326
 353  367.1803
 354  489.5534
 355  486.4486
 356  533.4697
 357  565.1576
 358  619.9504
 359  579.4785
 360  572.5201
 361  686.3425
 362  811.6284
 363  801.8533
 364  798.4288
 365  777.2767
 366  814.2178
 367  657.5145
 368  679.1308
 369  667.3315
 370  582.257
 371  525.7918
 372  565.1939
 373  580.0994
 374  598.6612
 375  643.5871
 376  859.7786
 377  855.952
 378  787.8705
 379  725.3963
 380  632.2585
 381  547.2581
 382  486.8217
 383  554.8255
 384  562.6489
 385  547.2308
 386  649.7006
 387  522.3911
 388  476.4135
 389  428.6427
 390  645.2496
 391  804.8785
 392  917.4117
 393  810.5098
 394  640.4768
 395  646.3975
 396  733.882
 397  737.295
 398  723.4001
 399  682.7727
 400  737.9957
 401  685.3114
 402  777.7668
 403  801.6771
 404  856.8207
 405  781.4736
 406  729.6213
 407  685.9134
 408  657.7802
 409  753.3261
 410  926.2357
 411  869.1177
 412  724.299
 413  576.2047
 414  562.3016
 415  612.2242
 416  711.9783
 417  771.0908
 418  824.0065
 419  747.2372
 420  760.4901
 421  626.2915
 422  548.5699
 423  584.2661
 424  695.6588
 425  802.1204
 426  705.3187
 427  688.1187
 428  689.9702
 429  712.3487
 430  683.0897
 431  677.8671
 432  639.0084
 433  678.1399
 434  740.8555
 435  834.0443
 436  901.9454
 437  907.1129
 438  927.5502
 439  906.1224
 440  809.8749
 441  739.3576
 442  692.5754
 443  772.6913
 444  705.2206
 445  656.8323
 446  655.7075
 447  672.1024
 448  678.8472
 449  565.5081
 450  436.5684
 451  361.6366
 452  488.9571
 453  659.5644
 454  746.995
 455  660.6481
 456  759.5244
 457  815.7678
 458  859.2649
 459  724.281
 460  747.574
 461  763.062
 462  674.4719
 463  540.0594
 464  454.665
 465  359.7697
 466  280.7421
 467  354.0747
 468  432.3193
 469  369.1127
 470  451.4069
 471  660.2023
 472  847.6527
 473  881.541
 474  806.0076
 475  859.9407
 476  821.5663
 477  816.8016
 478  696.7599
 479  643.1429
 480  598.9108
 481  468.2699
 482  313.8146
 483  341.4863
 484  500.4867
 485  595.8031
 486  487.3422
 487  281.0972
 488  270.0642
 489  451.2441
 490  584.2087
 491  637.9855
 492  591.6028
 493  658.9328
 494  694.6284
 495  761.0518
 496  723.1712
 497  659.415
 498  627.921
 499  550.0287
 500  501.8598
 501  562.7783
 502  579.1132
 503  607.7992
 504  585.6723
 505  672.6972
 506  670.8243
 507  590.3391
 508  616.3251
 509  608.4981
 510  727.6
 511  647.1906
 512  636.6443
 513  590.3926
 514  628.7
 515  563.8416
 516  647.5568
 517  733.3469
 518  664.7864
 519  519.8969
 520  416.9239
 521  502.3171
 522  527.483
 523  637.3818
 524  773.5375
 525  888.5928
 526  871.7332
 527  833.5145
 528  895.0054
 529  951.3036
 530  976.7126
 531  907.4531
 532  833.0594
 533  823.8093
 534  782.6868
 535  692.3633
 536  569.6776
 537  425.0953
 538  425.1473
 539  585.9758
 540  682.4919
 541  644.6626
 542  564.5106
 543  747.0515
 544  775.6914
 545  801.5159
 546  710.6746
 547  611.656
 548  547.1085
 549  619.3648
 550  649.6414
 551  583.3146
 552  428.2091
 553  397.4201
 554  387.2984
 555  406.8864
 556  468.6498
 557  652.2598
 558  821.2984
 559  895.391
 560  853.7669
 561  877.8162
 562  848.0029
 563  830.9255
 564  784.8655
 565  843.1576
 566  845.0284
 567  715.0528
 568  654.4141
 569  704.5654
 570  825.4757
 571  765.8345
 572  861.171
 573  880.0115
 574  760.6414
 575  699.4433
 576  892.0959
 577  1012.3
 578  905.1813
 579  763.8777
 580  729.6411
 581  716.0706
 582  678.9308
 583  723.923
 584  853.6638
 585  808.9922
 586  762.4632
 587  580.4499
 588  536.2509
 589  514.1934
 590  647.279
 591  854.0629
 592  863.5558
 593  819.1146
 594  736.4948
 595  644.824
 596  499.6055
 597  420.1888
 598  531.524
 599  601.4349
 600  644.1724
 601  674.4359
 602  782.1255
 603  786.0358
 604  759.1376
 605  870.4427
 606  870.7471
 607  700.5339
 608  622.8619
 609  700.4208
 610  654.4935
 611  448.9038
 612  360.0219
 613  462.6849
 614  428.2784
 615  428.4452
 616  576.166
 617  744.9904
 618  766.7145
 619  693.1484
 620  815.2881
 621  893.9636
 622  921.3294
 623  921.7746
 624  931.2889
 625  927.0968
 626  912.5591
 627  935.8872
 628  844.6339
 629  652.0471
 630  473.5366
 631  512.947
 632  522.2809
 633  594.2698
 634  582.6396
 635  737.4849
 636  785.5667
 637  885.8319
 638  830.8082
 639  768.8005
 640  837.5319
 641  946.6968
 642  1014.386
 643  709.2218
 644  501.7211
 645  384.1852
 646  486.4622
 647  401.6591
 648  409.3825
 649  589.9713
 650  782.4262
 651  902.2833
 652  874.4293
 653  936.7725
 654  1010.216
 655  1101.094
 656  1318.522
 657  1447.481
 658  1409.048
 659  1281.537
 660  1127.344
 661  1039.834
 662  936.8926
 663  844.8328
 664  831.9589
 665  684.1928
 666  490.0374
 667  429.8164
 668  551.5292
 669  738.6091
 670  690.6196
 671  670.4655
 672  735.7145
 673  782.6732
 674  777.61
 675  739.2365
 676  756.5538
 677  702.761
 678  612.4338
 679  536.0746
 680  440.1731
 681  426.2156
 682  503.6599
 683  580.9182
 684  496.0073
 685  287.9031
 686  231.1203
 687  325.6357
 688  559.8336
 689  727.7557
 690  810.1982
 691  867.1337
 692  889.4422
 693  815.2659
 694  700.5414
 695  645.2112
 696  676.5048
 697  655.2795
 698  658.7255
 699  586.0343
 700  550.5521
 701  541.8808
 702  554.5356
 703  467.6549
 704  404.058
 705  560.5162
 706  803.6233
 707  858.4626
 708  668.1487
 709  570.8569
 710  695.6339
 711  722.5797
 712  618.4986
 713  550.1387
 714  516.5831
 715  500.1132
 716  480.6263
 717  436.3596
 718  337.2065
 719  369.3222
 720  548.634
 721  678.9043
 722  756.0265
 723  744.7877
 724  855.4368
 725  933.6415
 726  920.6348
 727  822.5556
 728  792.4122
 729  863.9172
 730  851.9604
 731  745.7636
 732  663.2661
 733  503.9823
 734  418.0837
 735  376.5022
 736  470.5346
 737  544.4189
 738  466.7305
 739  614.6564
 740  613.3854
 741  646.7789
 742  575.1297
 743  711.1093
 744  624.4251
 745  468.2937
 746  458.0035
 747  669.3804
 748  779.4107
 749  664.5124
 750  614.2902
 751  625.688
 752  627.2778
 753  582.1116
 754  646.8475
 755  685.3087
 756  715.3873
 757  714.0859
 758  826.1544
 759  897.4017
 760  882.0375
 761  872.6881
 762  747.1135
 763  677.6646
 764  570.218
 765  726.7446
 766  780.4734
 767  743.8348
 768  705.4753
 769  705.3986
 770  773.2305
 771  803.2192
 772  806.5148
 773  751.2263
 774  692.4034
 775  691.4938
 776  679.226
 777  587.6714
 778  544.1061
 779  544.412
 780  608.289
 781  585.392
 782  499.6058
 783  522.5158
 784  573.7545
 785  559.1809
 786  611.2086
 787  646.9401
 788  734.0961
 789  753.0453
 790  867.2445
 791  912.1024
 792  801.6025
 793  705.2238
 794  714.8116
 795  689.1112
 796  507.4309
 797  352.8966
 798  410.6574
 799  562.8223
 800  660.5411
 801  659.2719
 802  816.1279
 803  842.7408
 804  748.2563
 805  598.6398
 806  688.9995
 807  817.928
 808  723.7324
 809  622.9009
 810  503.1909
 811  496.0143
 812  572.6758
 813  648.1635
 814  745.7592
 815  724.1478
 816  728.0739
 817  702.3689
 818  638.7565
 819  629.433
 820  644.8752
 821  693.2291
 822  814.5133
 823  857.4919
 824  866.1095
 825  672.6276
 826  504.8055
 827  412.7297
 828  410.7905
 829  409.6679
 830  442.82
 831  526.5705
 832  570.6962
 833  590.3747
 834  497.0577
 835  471.9195
 836  423.0334
 837  427.3036
 838  533.0933
 839  650.5009
 840  780.5859
 841  753.7119
 842  639.3168
 843  600.3987
 844  636.7734
 845  610.7878
 846  481.505
 847  437.6289
 848  538.2756
 849  622.4155
 850  554.6703
 851  484.8837
 852  542.9405
 853  648.4863
 854  694.4539
 855  808.1866
 856  857.7184
 857  887.1115
 858  836.8893
 859  775.8729
 860  673.123
 861  523.1404
 862  588.0914
 863  606.2253
 864  593.5081
 865  622.5333
 866  562.6608
 867  521.8974
 868  376.2004
 869  417.0538
 870  467.79
 871  621.7881
 872  803.0816
 873  952.0947
 874  940.8869
 875  807.5817
 876  655.9892
 877  648.8162
 878  596.8179
 879  594.8981
 880  570.9586
 881  639.8787
 882  638.3099
 883  689.1532
 884  679.6553
 885  638.3631
 886  652.3204
 887  642.4433
 888  703.7369
 889  776.9652
 890  922.4365
 891  1026.388
 892  1062.786
 893  1053.188
 894  929.3317
 895  814.6943
 896  697.5222
 897  649.1669
 898  602.7507
 899  538.3943
 900  455.2192
 901  460.6926
 902  506.8936
 903  533.8024
 904  602.3683
 905  642.8573
 906  845.6314
 907  892.9808
 908  901.2134
 909  827.4411
 910  623.9194
 911  524.1013
 912  525.6526
 913  723.6701
 914  658.5362
 915  552.7617
 916  478.0585
 917  578.472
 918  728.7017
 919  801.813
 920  811.9164
 921  810.8203
 922  862.8397
 923  837.0565
 924  768.5756
 925  706.6364
 926  650.9403
 927  656.562
 928  701.0183
 929  540.6846
 930  504.281
 931  474.2206
 932  629.2284
 933  602.6965
 934  609.9443
 935  582.228
 936  608.2205
 937  674.6385
 938  694.3122
 939  764.2561
 940  837.3777
 941  714.0847
 942  643.7497
 943  548.1797
 944  570.5668
 945  656.0939
 946  651.0623
 947  654.5097
 948  589.8019
 949  659.4918
 950  643.5883
 951  779.1598
 952  850.2502
 953  799.2452
 954  777.9907
 955  798.6369
 956  726.3588
 957  666.264
 958  691.8006
 959  728.0876
 960  594.7874
 961  582.1434
 962  682.2341
 963  618.6537
 964  566.5729
 965  552.1948
 966  633.9435
 967  633.3063
 968  540.5889
 969  605.2875
 970  596.7892
 971  637.2584
 972  679.2001
 973  625.1628
 974  489.0564
 975  320.8433
 976  417.8054
 977  552.8385
 978  738.2762
 979  768.1873
 980  747.0768
 981  640.2454
 982  617.368
 983  579.3586
 984  664.8043
 985  679.0391
 986  848.0111
 987  890.3995
 988  923.083
 989  892.6321
 990  853.5771
 991  733.0426
 992  587.3439
 993  417.8777
 994  357.1915
 995  395.3568
 996  444.1687
 997  536.2975
 998  568.358
 999  504.5907
1000  527.8887
1001  553.1134
1002  699.0432
1003  731.7927
1004  852.334
1005  887.4405
1006  917.4919
1007  786.0972
1008  696.5107
1009  529.3898
1010  572.3172
1011  585.5096
1012  645.8606
1013  807.3312
1014  872.8937
1015  826.1597
1016  745.7676
1017  892.9121
1018  977.4321
1019  1011.846
1020  971.6028
1021  1078.821
1022  980.2363
1023  813.5552
