# Input file       =  1181112274.121032_cleaned.dat
# Candidate        =  PSR_0332+5434
# Telescope        =  AR
# Epoch_topo       =  57914.281170382317
# Epoch_bary       =  N/A
# T_sample         =  0.002
# Data Folded      =  7340032
# Data Avg         =  0.0683695721745609
# Data StdDev      =  2.52168925528937 
# Profile Bins     =  512
# Profile Avg      =  979.989809051022 
# Profile StdDev   =  301.929511334462 
# Reduced chi-sqr  =  1.001
# Prob(Noise)      <  0.486   (~0.0 sigma)
# P_topo (ms)      =  714.507657082862  +/- 0.000579
# P'_topo (s/s)    =  -0                +/- 3.06e-10
# P''_topo (s/s^2) =  0                 +/- 1.35e-13
# P_bary (ms)      =  N/A
# P'_bary (s/s)    =  N/A
# P''_bary (s/s^2) =  N/A
# P_orb (s)        =  N/A
# asin(i)/c (s)    =  N/A
# eccentricity     =  N/A
# w (rad)          =  N/A
# T_peri           =  N/A
######################################################
   0  828.2097
   1  914.9522
   2  867.6278
   3  1038.062
   4  848.6731
   5  1035.549
   6  1062.895
   7  1137.139
   8  1056.135
   9  1199.319
  10  1363.728
  11  1265.083
  12  1258.971
  13  1151.748
  14  1022.261
  15  914.6381
  16  793.8013
  17  904.3174
  18  847.4899
  19  1139.799
  20  1137.739
  21  816.7684
  22  844.9703
  23  790.0367
  24  1024.628
  25  941.7494
  26  877.0001
  27  972.5338
  28  1039.362
  29  1055.133
  30  696.8202
  31  745.5069
  32  923.3644
  33  777.1464
  34  585.2382
  35  441.6773
  36  745.2426
  37  581.8886
  38  928.8555
  39  869.5602
  40  502.4468
  41  559.9276
  42  891.5493
  43  824.0172
  44  852.7457
  45  1001.24
  46  1044.651
  47  860.986
  48  658.3978
  49  763.9194
  50  1066.179
  51  1001.9
  52  929.4492
  53  712.4561
  54  661.6641
  55  726.8994
  56  883.8232
  57  1063.803
  58  1081.36
  59  791.9088
  60  666.9053
  61  622.9035
  62  683.7925
  63  671.0045
  64  492.6052
  65  930.6638
  66  909.6792
  67  777.4098
  68  928.2422
  69  602.4011
  70  946.6125
  71  1103.455
  72  871.5573
  73  787.614
  74  747.6111
  75  576.7819
  76  624.5054
  77  752.6861
  78  1121.387
  79  1168.83
  80  1085.578
  81  1220.681
  82  992.2521
  83  751.2343
  84  969.2628
  85  932.3375
  86  998.6682
  87  1004.381
  88  971.9203
  89  908.2283
  90  955.7065
  91  927.2429
  92  1167.739
  93  1268.867
  94  1351.099
  95  1135.973
  96  709.0443
  97  891.6399
  98  785.9003
  99  899.8779
 100  1050.21
 101  1266.992
 102  988.7285
 103  995.5784
 104  765.0627
 105  588.3663
 106  695.6568
 107  617.9902
 108  810.3491
 109  1058.18
 110  944.3364
 111  830.546
 112  1007.974
 113  684.7305
 114  891.769
 115  905.3739
 116  904.2042
 117  836.174
 118  865.239
 119  916.1693
 120  755.0501
 121  860.5444
 122  1070.023
 123  933.4026
 124  1090.949
 125  1127.396
 126  1108.546
 127  1079.248
 128  1259.241
 129  1076.9
 130  1038.78
 131  929.869
 132  734.2887
 133  983.5244
 134  1176.117
 135  1118.553
 136  1050.852
 137  846.8613
 138  854.6041
 139  1027.778
 140  962.2269
 141  1024.378
 142  1229.885
 143  1169.256
 144  1138.73
 145  1037.028
 146  1026.197
 147  1140.952
 148  1076.396
 149  1103.534
 150  909.4589
 151  745.618
 152  828.6307
 153  1048.018
 154  1106.096
 155  771.9387
 156  774.4178
 157  829.0665
 158  833.692
 159  851.7362
 160  1172.458
 161  1325.502
 162  1153.375
 163  850.609
 164  937.9456
 165  1040.893
 166  988.4971
 167  1112.186
 168  1280.72
 169  991.9286
 170  693.0626
 171  835.7098
 172  1043.548
 173  747.8997
 174  609.9457
 175  640.2871
 176  838.4211
 177  740.2006
 178  601.3127
 179  710.3262
 180  681.7158
 181  834.0532
 182  667.3417
 183  839.2529
 184  877.8613
 185  784.8621
 186  1032.361
 187  1303.71
 188  1180.565
 189  887.1646
 190  1041.131
 191  999.6957
 192  1007.827
 193  981.0512
 194  1021.405
 195  1328.617
 196  1341.495
 197  1069.143
 198  937.3872
 199  965.9765
 200  1369.639
 201  1240.669
 202  1126.321
 203  1108.484
 204  1154.024
 205  1339.17
 206  1322.471
 207  1047.059
 208  1156.08
 209  1487.307
 210  1462.308
 211  1279.675
 212  1060.402
 213  1134.302
 214  1048.868
 215  1339.822
 216  1710.042
 217  1894.479
 218  2160.594
 219  1969.131
 220  1624.44
 221  1577.406
 222  1382.713
 223  769.3761
 224  864.5208
 225  807.2778
 226  876.77
 227  827.3572
 228  750.1638
 229  639.5655
 230  978.7396
 231  1022.875
 232  1070.541
 233  954.179
 234  1163.986
 235  1148.019
 236  1289.96
 237  1234.152
 238  1171.188
 239  996.5343
 240  745.4977
 241  817.9673
 242  771.753
 243  836.8316
 244  863.6345
 245  1093.677
 246  1204.701
 247  809.1353
 248  685.168
 249  721.7164
 250  766.0565
 251  811.3879
 252  842.2972
 253  994.8016
 254  770.549
 255  906.2748
 256  953.1317
 257  987.4823
 258  862.0442
 259  996.4439
 260  913.8196
 261  736.2465
 262  627.8462
 263  805.2097
 264  686.2946
 265  579.6084
 266  591.9505
 267  1141.405
 268  892.6121
 269  976.176
 270  1028.193
 271  989.858
 272  970.3782
 273  1099.244
 274  875.3428
 275  1164.299
 276  1032.225
 277  1090.583
 278  1022.999
 279  919.0208
 280  1125.091
 281  928.9285
 282  1120.147
 283  1051.106
 284  1110.787
 285  1151.165
 286  1037.853
 287  871.713
 288  1017.877
 289  1089.82
 290  994.4802
 291  912.1407
 292  993.585
 293  682.0178
 294  612.5524
 295  752.7894
 296  1140.796
 297  985.9382
 298  913.2513
 299  990.5144
 300  971.1521
 301  1081.756
 302  986.9772
 303  957.5798
 304  974.5632
 305  1082.259
 306  1155.352
 307  1244.001
 308  993.2779
 309  1108.197
 310  1539.438
 311  1101.242
 312  1051.187
 313  1053.02
 314  1178.309
 315  944.7225
 316  957.646
 317  853.0925
 318  942.8885
 319  1038.172
 320  1066.466
 321  916.2889
 322  847.4772
 323  806.7686
 324  867.658
 325  1075.036
 326  1115.764
 327  1010.582
 328  751.9016
 329  856.1689
 330  1049.224
 331  1414.985
 332  1159.781
 333  970.623
 334  979.348
 335  1100.321
 336  1093.542
 337  1006.234
 338  1035.435
 339  1112.61
 340  1338.827
 341  1148.854
 342  855.6388
 343  1156.297
 344  1081.518
 345  751.6455
 346  595.8452
 347  966.3301
 348  1048.469
 349  1157.853
 350  1141.462
 351  1319.156
 352  1094.492
 353  1083.082
 354  1191.713
 355  1394.583
 356  1217.605
 357  1076.341
 358  1354.191
 359  1557.434
 360  1458.638
 361  1511.032
 362  1525.053
 363  1321.748
 364  1204.59
 365  1082.705
 366  1070.253
 367  1252.62
 368  1436.934
 369  1514.132
 370  1377.339
 371  1215.083
 372  1120.938
 373  1072.214
 374  1023.186
 375  1049.368
 376  955.1517
 377  943.3008
 378  1137.302
 379  1262.663
 380  987.351
 381  880.3584
 382  872.0018
 383  1034.711
 384  955.9314
 385  892.4681
 386  1199.195
 387  1183.692
 388  1097.317
 389  1208.129
 390  948.2595
 391  765.5496
 392  997.6234
 393  1038.533
 394  1082.754
 395  969.1944
 396  693.1322
 397  954.7862
 398  887.6893
 399  961.754
 400  910.1035
 401  898.2719
 402  1205.673
 403  1128.771
 404  1004.007
 405  1089.908
 406  1000.681
 407  968.4646
 408  1296.47
 409  1202.846
 410  841.1028
 411  935.047
 412  871.7404
 413  775.4272
 414  1235.67
 415  1348.585
 416  1322.503
 417  1219.475
 418  1282.056
 419  1018.013
 420  1104.258
 421  1235.977
 422  1189.426
 423  1171.307
 424  829.3215
 425  691.9882
 426  941.3519
 427  1156.419
 428  1119.551
 429  1148.354
 430  980.1646
 431  842.9724
 432  696.8
 433  768.7957
 434  815.9467
 435  780.8905
 436  724.8272
 437  598.6688
 438  902.204
 439  752.9816
 440  604.4589
 441  962.6118
 442  1051.675
 443  946.1664
 444  829.2066
 445  879.2861
 446  799.6804
 447  667.1913
 448  754.8836
 449  761.2141
 450  929.7102
 451  881.3391
 452  792.567
 453  1009.638
 454  913.7208
 455  892.9866
 456  1135.529
 457  955.6313
 458  1130.412
 459  881.7071
 460  698.8671
 461  884.8603
 462  723.0101
 463  1094.202
 464  1046.206
 465  986.9967
 466  1158.376
 467  1199.19
 468  977.9231
 469  992.0679
 470  1264.274
 471  992.2325
 472  547.5994
 473  642.2822
 474  733.0777
 475  960.4413
 476  817.0454
 477  663.7115
 478  756.0463
 479  734.9867
 480  923.9596
 481  822.5405
 482  642.4577
 483  699.454
 484  670.3508
 485  765.5677
 486  965.8829
 487  905.2809
 488  823.5929
 489  603.9356
 490  523.8909
 491  800.0211
 492  1081.651
 493  931.2242
 494  1056.018
 495  821.1815
 496  1062.51
 497  834.1381
 498  881.0595
 499  1114.279
 500  1314.349
 501  999.3948
 502  1034.141
 503  1044.6
 504  797.8325
 505  1043.973
 506  854.5638
 507  973.467
 508  1138.226
 509  965.7921
 510  762.6091
 511  792.6357
