# Input file       =  1181558042.121278_cleaned.dat
# Candidate        =  PSR_0332+5434
# Telescope        =  AR
# Epoch_topo       =  57919.440522237011
# Epoch_bary       =  N/A
# T_sample         =  0.002
# Data Folded      =  7340032
# Data Avg         =  0.150773626346823
# Data StdDev      =  4.87763243983825 
# Profile Bins     =  512
# Profile Avg      =  2161.61853950683 
# Profile StdDev   =  584.013742351647 
# Reduced chi-sqr  =  1.111
# Prob(Noise)      <  0.0418   (~1.7 sigma)
# P_topo (ms)      =  714.503170169543  +/- 0.00011
# P'_topo (s/s)    =  -0                +/- 5.79e-11
# P''_topo (s/s^2) =  0                 +/- 2.56e-14
# P_bary (ms)      =  N/A
# P'_bary (s/s)    =  N/A
# P''_bary (s/s^2) =  N/A
# P_orb (s)        =  N/A
# asin(i)/c (s)    =  N/A
# eccentricity     =  N/A
# w (rad)          =  N/A
# T_peri           =  N/A
######################################################
   0  1992.952
   1  2007.588
   2  2004.365
   3  1572.183
   4  1922.297
   5  1643.628
   6  1234.278
   7  1385.5
   8  1614.32
   9  2171.61
  10  2120.894
  11  1429.505
  12  1632.939
  13  1999.602
  14  2013.135
  15  1731.631
  16  1553.435
  17  1786.226
  18  2195.223
  19  2103.529
  20  1602.944
  21  1739.788
  22  1884.178
  23  1918.419
  24  1720.64
  25  1301.102
  26  1675.96
  27  1692.073
  28  2008.401
  29  2319.325
  30  2404.93
  31  2531.728
  32  2193.947
  33  2021.232
  34  2274.436
  35  2312.524
  36  2259.258
  37  2544.611
  38  2262.398
  39  2180.231
  40  2801.282
  41  3004.408
  42  2845.699
  43  2487.778
  44  2282.328
  45  2288.573
  46  2540.239
  47  2578.91
  48  2526.82
  49  2429.652
  50  1960.453
  51  1814.017
  52  2281.487
  53  2228.421
  54  2083.271
  55  2198.159
  56  2351.275
  57  2315.035
  58  2030.553
  59  2130.524
  60  2092.507
  61  2268.754
  62  2671.984
  63  2229.197
  64  1587.159
  65  1897.941
  66  2255.964
  67  2262.832
  68  2237.301
  69  1915.255
  70  2191.734
  71  2467.951
  72  2527.465
  73  2440.831
  74  2320.975
  75  2805.191
  76  2779.666
  77  2610.703
  78  2407.527
  79  2326.513
  80  2457.152
  81  2486.133
  82  2260.83
  83  2293.307
  84  2472.903
  85  2471.469
  86  2665.11
  87  2326.663
  88  1879.86
  89  1880.204
  90  1976.69
  91  1810.068
  92  1430.695
  93  1665.264
  94  1750.832
  95  1534.048
  96  1497.118
  97  1404.889
  98  1462.207
  99  1407.798
 100  1891.019
 101  1907.872
 102  1696.504
 103  1481.54
 104  1756.457
 105  1636.258
 106  1504.321
 107  1375.364
 108  2007.592
 109  1862.202
 110  1846.106
 111  2271.485
 112  2593.338
 113  2585.048
 114  2321.98
 115  2260.861
 116  2400.165
 117  2493.52
 118  2289.156
 119  2687.987
 120  3459.749
 121  3378.018
 122  2647.569
 123  2590.667
 124  2324.453
 125  2214.815
 126  1900.636
 127  2568.952
 128  2562.738
 129  2526.843
 130  2233.354
 131  2140.258
 132  1992.976
 133  2321.155
 134  1978.019
 135  1694.808
 136  1910.74
 137  2240.106
 138  2089.101
 139  2108.056
 140  1931.309
 141  1946.268
 142  1674.044
 143  1989.938
 144  1884.562
 145  1834.98
 146  2007.963
 147  2112.403
 148  1830.84
 149  1835.661
 150  1595.288
 151  1553.38
 152  1641.667
 153  1745.99
 154  1679.837
 155  1809.965
 156  1954.541
 157  2069.436
 158  2592.116
 159  2258.309
 160  2162.62
 161  2607.893
 162  2612.627
 163  2175.773
 164  1907.924
 165  2147.255
 166  2060.154
 167  2131.602
 168  1796.907
 169  1571.776
 170  1425.314
 171  1796.527
 172  1804.692
 173  1329.135
 174  1116.408
 175  1004.171
 176  1657.058
 177  1450.986
 178  1006.858
 179  1028.222
 180  1477.422
 181  1542.916
 182  1413.365
 183  1266.277
 184  1520.572
 185  1744.068
 186  1887.157
 187  1664.839
 188  1726.469
 189  1719.383
 190  2090.008
 191  2027.237
 192  1808.26
 193  1793.456
 194  2249.562
 195  2272.254
 196  2243.954
 197  2335.017
 198  2178.701
 199  2464.41
 200  2463.98
 201  2593.062
 202  2412.628
 203  2767.331
 204  3066.701
 205  3003.495
 206  3088.211
 207  2791.923
 208  2769.772
 209  2864.597
 210  2928.11
 211  2746.031
 212  2884.243
 213  2758.514
 214  2592.123
 215  2152.53
 216  2334.263
 217  2457.955
 218  2540.881
 219  2719.385
 220  2357.329
 221  2108.085
 222  1883.251
 223  1843.432
 224  1950.198
 225  1420.216
 226  1637.617
 227  1891.82
 228  1960.181
 229  1861.953
 230  1664.746
 231  1486.598
 232  1596.44
 233  1855.253
 234  2083.249
 235  1994.239
 236  2325.638
 237  2617.91
 238  2812.075
 239  2658.805
 240  2197.59
 241  2348.246
 242  2995.552
 243  3090.229
 244  3173.707
 245  2815.201
 246  2666.599
 247  2594.479
 248  2767.282
 249  3208.909
 250  2767.662
 251  2964.539
 252  3156.417
 253  3169.673
 254  2904.853
 255  2546.602
 256  2546.776
 257  2572.245
 258  2564.186
 259  2092.628
 260  2030.38
 261  2522.877
 262  2608.568
 263  2817.876
 264  2533.244
 265  2426.927
 266  2583.818
 267  2261.75
 268  2075.948
 269  2059.527
 270  2160.918
 271  2149.782
 272  2301.344
 273  2068.294
 274  2020.812
 275  2009.934
 276  2100.05
 277  2172.252
 278  2494.226
 279  2146.908
 280  2096.085
 281  2295.498
 282  2563.515
 283  2408.373
 284  2162.443
 285  2557.826
 286  3103.796
 287  3191
 288  3336.269
 289  2421.18
 290  2502.548
 291  2970.914
 292  2821.917
 293  2577.158
 294  2822.977
 295  2922.179
 296  2823.017
 297  2503.917
 298  2516.859
 299  2461.194
 300  2548.843
 301  2500.546
 302  2549.006
 303  2603.322
 304  2742.592
 305  2462.653
 306  2586.881
 307  2421.609
 308  2028.164
 309  2350.532
 310  2347.245
 311  2314.913
 312  2389.551
 313  2499.967
 314  2244.973
 315  2139.408
 316  2067.99
 317  1854.98
 318  1928.25
 319  2399.7
 320  2691.587
 321  2371.356
 322  1965.751
 323  2197.451
 324  2706.285
 325  3091.82
 326  3248.861
 327  3438.45
 328  3467.149
 329  3580.286
 330  3263.23
 331  2673.023
 332  2439.65
 333  2733.349
 334  2751.834
 335  2555.005
 336  2337.911
 337  2158.004
 338  2453.623
 339  2598.855
 340  2025.354
 341  1709.128
 342  2074.199
 343  2167.048
 344  1987.168
 345  2073.24
 346  1850.753
 347  1579.178
 348  1913.449
 349  1835.327
 350  1517.355
 351  1638.417
 352  1980.396
 353  2020.71
 354  2027.551
 355  2118.202
 356  1946.618
 357  1925.7
 358  2067.811
 359  2092.565
 360  1840.214
 361  1678.298
 362  1775.685
 363  1749.689
 364  1405.24
 365  1653.768
 366  2004.096
 367  1953.692
 368  2015.18
 369  1878.362
 370  2206.763
 371  2114.665
 372  2384.19
 373  2578.264
 374  2834.217
 375  2951.682
 376  2990.167
 377  3073.871
 378  2622.603
 379  2172.359
 380  2563.968
 381  2644.672
 382  2541.732
 383  2151.094
 384  1841.31
 385  2002.881
 386  1805.325
 387  2049.065
 388  2178.131
 389  2115.923
 390  1664.552
 391  1700.504
 392  2164.352
 393  2094.908
 394  1887.656
 395  1951.409
 396  1962.491
 397  2001.13
 398  1417.317
 399  1398.299
 400  1613.203
 401  1745.367
 402  1631.272
 403  1929.539
 404  1780.429
 405  1799.492
 406  1772.374
 407  1782.3
 408  1786.106
 409  1625.874
 410  2032.386
 411  2470.563
 412  2705.91
 413  2162.041
 414  2048.867
 415  2664.622
 416  2230.243
 417  1846.516
 418  2033.701
 419  2027.106
 420  2437.013
 421  2267.075
 422  2308.473
 423  2436.792
 424  2254.494
 425  2466.797
 426  1562.299
 427  1494.55
 428  2134.045
 429  2236.035
 430  1992.127
 431  1970.376
 432  1613.226
 433  1613.21
 434  1724.55
 435  2193.543
 436  1897.647
 437  1341.562
 438  1448.131
 439  1968.545
 440  2213.977
 441  2056.585
 442  1969.456
 443  1985.888
 444  2137.536
 445  1901.817
 446  1476.255
 447  1724.417
 448  1882.4
 449  2070.351
 450  1939.576
 451  1617.775
 452  2115.776
 453  1850.863
 454  2196.195
 455  2319.181
 456  2093.31
 457  2318.924
 458  2648.39
 459  2425.036
 460  2160.908
 461  2000.534
 462  2286.711
 463  2588.36
 464  2107.595
 465  2054.736
 466  2147.458
 467  2254.355
 468  2259.142
 469  1973.207
 470  2296.566
 471  1915.519
 472  2033.442
 473  2194.952
 474  1866.136
 475  1835.561
 476  2098.986
 477  2133.468
 478  2053.423
 479  1720.016
 480  1256.529
 481  1245.94
 482  1385.291
 483  2086.157
 484  1970.602
 485  1887.381
 486  1575.119
 487  1716.015
 488  1586.432
 489  1621.025
 490  1427.188
 491  1633.239
 492  2050.416
 493  1891.551
 494  1550.329
 495  1679.588
 496  2118.627
 497  2543.019
 498  2412.192
 499  2387.865
 500  2592.505
 501  2502.584
 502  2485.995
 503  2653.913
 504  2699.232
 505  2737.419
 506  2387.022
 507  2373.059
 508  2362.402
 509  2279.646
 510  2134.07
 511  2084.358
