# Input file       =  1181097647.101202_cleaned.dat
# Candidate        =  PSR_0332+5434
# Telescope        =  AR
# Epoch_topo       =  57914.111876171322
# Epoch_bary       =  N/A
# T_sample         =  0.002
# Data Folded      =  7208960
# Data Avg         =  0.295967586652841
# Data StdDev      =  5.4639267430251  
# Profile Bins     =  1024
# Profile Avg      =  2083.82914045044 
# Profile StdDev   =  458.449177107059 
# Reduced chi-sqr  =  0.406
# Prob(Noise)      <  1   (~0.0 sigma)
# P_topo (ms)      =  714.507806655237  +/- 0.000105
# P'_topo (s/s)    =  -0                +/- 5.63e-11
# P''_topo (s/s^2) =  0                 +/- 2.53e-14
# P_bary (ms)      =  N/A
# P'_bary (s/s)    =  N/A
# P''_bary (s/s^2) =  N/A
# P_orb (s)        =  N/A
# asin(i)/c (s)    =  N/A
# eccentricity     =  N/A
# w (rad)          =  N/A
# T_peri           =  N/A
######################################################
   0  1978.009
   1  1943.776
   2  2006.096
   3  2001.769
   4  1800.679
   5  1874.282
   6  1953.56
   7  2142.364
   8  2145.999
   9  2248.55
  10  2073.545
  11  2112.01
  12  2148.902
  13  2299.612
  14  2133.402
  15  2235.283
  16  2349.246
  17  2321.062
  18  2031.139
  19  1925.771
  20  2058.943
  21  2217.211
  22  2251.896
  23  2078.293
  24  2086.36
  25  2004.019
  26  2075.01
  27  2120.612
  28  2071.055
  29  2195.434
  30  2221.837
  31  2168.398
  32  2088.481
  33  2234.529
  34  2408.104
  35  2387.606
  36  2293.484
  37  2277.105
  38  2238.702
  39  2214.548
  40  2206.814
  41  2156.131
  42  2099.81
  43  2094.954
  44  2109.585
  45  2142.266
  46  2132.925
  47  2176.403
  48  2179.226
  49  2244.488
  50  2116.949
  51  2208.887
  52  2194.756
  53  2277.754
  54  2189.951
  55  1953.551
  56  2079.801
  57  2173.993
  58  2361.52
  59  2245.178
  60  2110.618
  61  1976.733
  62  1914.108
  63  2052.738
  64  2122.359
  65  2189.515
  66  2095.47
  67  2074.39
  68  1957.133
  69  1912.763
  70  1998.705
  71  2021.16
  72  2114.831
  73  2094.2
  74  2103.075
  75  2100.693
  76  2081.47
  77  2209.105
  78  2324.246
  79  2287.148
  80  2131.6
  81  2050.144
  82  2078.023
  83  2127.308
  84  2127.75
  85  2140.927
  86  2118.812
  87  2042.828
  88  2051.797
  89  2123.441
  90  2213.595
  91  2155.23
  92  2190.806
  93  2208.208
  94  2264.371
  95  2210.034
  96  2066.826
  97  2051.776
  98  1844.024
  99  1769.459
 100  1818.693
 101  1870.151
 102  2108.076
 103  2074.24
 104  2061.96
 105  1906.737
 106  1954.472
 107  2149.56
 108  2244.778
 109  2162.322
 110  1912.093
 111  1925.171
 112  2042.414
 113  2270.804
 114  2171.7
 115  2112.134
 116  1937.404
 117  1986.781
 118  2028.474
 119  2066.912
 120  1959.034
 121  1976.606
 122  1920.484
 123  2010.685
 124  2195.704
 125  2232.373
 126  2185.669
 127  2155.443
 128  2127.353
 129  2096.937
 130  2117.176
 131  2168.647
 132  2165.708
 133  2061.444
 134  1905.245
 135  1891.005
 136  1845.127
 137  1975.738
 138  2102.881
 139  2164.169
 140  2229.469
 141  2111.099
 142  2147.789
 143  2071.509
 144  2241.617
 145  2411.462
 146  2466.159
 147  2239.793
 148  2103.878
 149  1909.409
 150  2031.341
 151  1965.583
 152  1986.176
 153  2122.821
 154  2278.919
 155  2335.323
 156  2221.843
 157  2232.652
 158  2104.403
 159  1998.04
 160  2151.265
 161  2114.25
 162  2125.009
 163  1991.563
 164  2096.286
 165  2086.441
 166  2089.954
 167  2237.471
 168  2252.457
 169  2107.344
 170  2031.575
 171  2046.803
 172  2189.661
 173  2207.385
 174  2222.824
 175  2235.329
 176  2115.345
 177  2044.296
 178  2123.666
 179  2286.631
 180  2377.975
 181  2414.055
 182  2370.473
 183  2264.864
 184  2191.737
 185  2205.279
 186  2242.721
 187  2248.639
 188  2234.235
 189  2298.198
 190  2123.774
 191  2042.662
 192  1909.28
 193  1827.891
 194  1849.491
 195  2002.201
 196  2133.162
 197  2046.439
 198  1930.495
 199  1896.451
 200  1882.368
 201  1774.474
 202  1916.068
 203  2085.691
 204  2227.636
 205  2231.567
 206  2257.999
 207  2227.25
 208  2103.835
 209  1990.76
 210  1988.977
 211  1954.513
 212  1962.943
 213  2015.125
 214  2083.52
 215  2010.137
 216  1891.579
 217  1857.527
 218  2065.04
 219  2100.707
 220  2033.106
 221  1845.911
 222  1815.316
 223  2015.457
 224  2082.809
 225  1971.603
 226  1854.446
 227  1989
 228  2130.583
 229  2129.235
 230  2132.209
 231  1987.369
 232  1884.904
 233  1727.64
 234  1705.889
 235  1810.794
 236  1943.489
 237  2082.043
 238  1990.507
 239  1923.648
 240  1828.286
 241  1912.173
 242  1957.914
 243  2043.874
 244  1974.563
 245  2094.167
 246  2064.944
 247  1879.647
 248  1898.118
 249  2043.195
 250  2175.481
 251  2103.866
 252  1973.803
 253  1937.543
 254  1926.745
 255  2015.414
 256  2183.36
 257  2177.445
 258  2010.505
 259  1991.453
 260  2011.887
 261  1972.951
 262  1856.715
 263  1839.438
 264  1906.231
 265  1793.448
 266  1705.473
 267  1781.029
 268  1967.035
 269  2156.211
 270  2266.262
 271  2283.097
 272  2264.481
 273  2132.092
 274  2075.969
 275  2042.578
 276  1975.903
 277  2048.047
 278  2210.226
 279  2313.377
 280  2142.829
 281  2122.737
 282  1978.966
 283  1929.244
 284  1784.343
 285  1838.251
 286  1963.384
 287  2035.347
 288  2159.995
 289  2199.179
 290  2118.628
 291  1987.19
 292  1936.851
 293  2025.465
 294  1968.224
 295  1918.517
 296  2042.928
 297  2248.999
 298  2253.999
 299  2037.75
 300  1892.784
 301  1820.987
 302  2063.801
 303  2050.945
 304  2033.061
 305  2074.596
 306  2210.91
 307  2190.402
 308  2013.171
 309  2025.339
 310  2052.323
 311  2109.603
 312  2106.244
 313  2300.377
 314  2210.122
 315  2246.663
 316  2264.535
 317  2337.216
 318  2247.896
 319  2095.625
 320  2153.27
 321  2124.341
 322  2079.098
 323  1991.713
 324  1959.614
 325  1933.369
 326  1847.879
 327  1858.864
 328  1732.019
 329  1874.661
 330  1900.645
 331  1907.739
 332  1881.906
 333  2015.225
 334  2083.067
 335  2097.653
 336  2092.732
 337  2159.486
 338  2085.8
 339  2140.342
 340  2119.08
 341  2050.383
 342  1855.407
 343  1847.747
 344  1910.481
 345  1995.33
 346  2048.454
 347  2079.456
 348  2121.424
 349  2074.584
 350  1894.458
 351  1955.594
 352  1975.137
 353  2139.67
 354  2137.515
 355  2078.453
 356  2010.972
 357  2003.641
 358  1931.558
 359  1863.779
 360  1841.638
 361  2028.904
 362  2122.357
 363  2052.378
 364  1949.548
 365  1896.028
 366  1963.297
 367  1796.445
 368  1716.251
 369  1676.003
 370  1901.302
 371  2045.807
 372  2239.665
 373  2185.158
 374  2143.653
 375  2205.504
 376  2374.545
 377  2334.271
 378  2286.599
 379  2109.009
 380  2071.365
 381  1918.967
 382  1805.732
 383  1801.815
 384  1759.972
 385  1794.093
 386  1881.369
 387  1982.442
 388  2017.87
 389  1983.271
 390  2072.872
 391  1994.174
 392  1885.851
 393  1868.503
 394  2144.357
 395  2182.764
 396  2014.956
 397  2029.32
 398  1911.912
 399  1837.33
 400  1884.755
 401  1945.011
 402  2095.481
 403  2016.61
 404  2093.567
 405  2056.846
 406  1907.806
 407  1893.276
 408  2057.189
 409  2117.56
 410  2039.372
 411  2042.761
 412  2225.648
 413  2264.314
 414  2180.569
 415  2078.586
 416  2125.535
 417  2160.604
 418  2173.454
 419  2241.521
 420  2221.455
 421  2327.588
 422  2171.823
 423  2057.819
 424  1984.066
 425  1982.662
 426  2136.268
 427  2106.723
 428  1937.068
 429  1788.446
 430  1866.646
 431  1884.025
 432  1798.41
 433  1781.449
 434  1782.559
 435  1854.542
 436  1930.444
 437  2046.311
 438  1990.866
 439  2045.478
 440  2183.96
 441  2184.714
 442  2089.26
 443  1962.24
 444  2153.787
 445  2275.128
 446  2246.721
 447  1920.4
 448  1857.497
 449  1786.75
 450  1990.54
 451  2045.628
 452  2062.644
 453  2079.762
 454  2053.803
 455  2182.502
 456  2030.536
 457  1971.415
 458  1919.51
 459  2008.053
 460  2060.401
 461  1997.924
 462  2070.62
 463  2142.181
 464  2137.77
 465  1970.504
 466  1937.17
 467  2012.151
 468  2100.235
 469  2173.694
 470  2270.903
 471  2194.864
 472  2241.064
 473  2148.007
 474  2050.819
 475  1911.89
 476  2026.413
 477  2146.985
 478  2277.833
 479  2252.689
 480  2327.238
 481  2265.571
 482  2326.348
 483  2358.752
 484  2540.767
 485  2445.87
 486  2439.581
 487  2287.531
 488  2199.407
 489  2103.39
 490  1968.938
 491  2010.956
 492  2027.49
 493  2058.673
 494  2105.488
 495  2059.908
 496  1985.146
 497  1850.143
 498  1771.308
 499  1989.882
 500  2016.83
 501  2080.315
 502  2107.202
 503  2253.545
 504  2272.703
 505  2232.483
 506  2072.866
 507  1992.485
 508  1976.086
 509  2124.733
 510  2213.335
 511  2164.065
 512  2074.769
 513  2084.759
 514  2155.063
 515  2075.472
 516  2077.626
 517  2120.405
 518  2361.128
 519  2318.646
 520  2250.632
 521  2062.686
 522  1873.329
 523  1927.047
 524  2073.132
 525  2037.014
 526  1941.609
 527  2003.373
 528  2159.993
 529  2122.338
 530  1998.492
 531  1888.347
 532  1957.691
 533  1896.394
 534  1975.204
 535  2104.487
 536  2205.529
 537  2198.094
 538  2148.067
 539  2151.853
 540  2082.062
 541  2100.933
 542  2183.814
 543  2304.063
 544  2204.495
 545  2232.314
 546  2161.348
 547  2107.371
 548  2046.472
 549  1989.048
 550  2114.193
 551  2191.935
 552  2262.332
 553  2306.059
 554  2421.208
 555  2249.343
 556  2097.435
 557  2114.069
 558  2132.006
 559  2210.818
 560  2175.447
 561  2190.102
 562  2083.36
 563  1941.136
 564  1919.443
 565  1814.917
 566  1865.473
 567  1980.347
 568  2027.249
 569  2159.475
 570  2201.334
 571  2317.074
 572  2333.29
 573  2351.957
 574  2316.301
 575  2244.114
 576  2157.455
 577  2154.32
 578  2257.198
 579  2183.4
 580  1969.75
 581  1925.76
 582  1961.938
 583  2163.609
 584  2188.618
 585  2147.38
 586  2261.206
 587  2193.252
 588  2146.575
 589  1885.94
 590  1873.492
 591  1977.103
 592  2080.162
 593  2151.081
 594  1999.68
 595  1879.152
 596  1884.803
 597  2111.99
 598  2056.364
 599  1948.343
 600  1838.911
 601  1842.956
 602  1943.509
 603  2048.546
 604  2079.759
 605  2190.793
 606  2259.172
 607  2274.697
 608  2193.26
 609  2166.425
 610  2284.138
 611  2386.248
 612  2442.329
 613  2502.253
 614  2363.647
 615  2249.895
 616  2075.771
 617  2006.604
 618  1987.951
 619  1879.736
 620  1894.049
 621  1898.816
 622  2048.432
 623  2064.161
 624  2174.534
 625  2145.177
 626  2106.629
 627  2093.381
 628  1954.669
 629  2003.18
 630  2020.258
 631  2121.904
 632  2245.383
 633  2310.473
 634  2405.109
 635  2370.169
 636  2365.475
 637  2172.572
 638  2012.311
 639  1889.666
 640  1998.638
 641  2017.685
 642  2188.072
 643  2177.622
 644  2172.09
 645  2153.179
 646  2135.693
 647  2370.239
 648  2400.603
 649  2479.747
 650  2361.793
 651  2346.083
 652  2198.847
 653  2000.998
 654  1930.948
 655  1803.721
 656  1832.4
 657  1864.034
 658  1851.439
 659  1916.147
 660  1957.619
 661  2029.341
 662  2043.66
 663  1946.95
 664  1839.603
 665  1773.392
 666  1858.896
 667  1978.796
 668  1987.654
 669  2061.865
 670  2062.493
 671  1978.651
 672  1927.923
 673  1948.918
 674  2030.805
 675  2193.576
 676  2366.642
 677  2285.633
 678  2164.666
 679  1898.603
 680  1965.21
 681  1996.263
 682  1938.111
 683  2069.002
 684  1966.537
 685  2041.794
 686  1973.902
 687  1958.067
 688  1775.847
 689  1677.816
 690  1737.913
 691  1693.053
 692  1808.519
 693  1855.63
 694  1965.9
 695  1875.978
 696  1829.848
 697  1962.276
 698  1945.495
 699  2015.031
 700  2032.686
 701  2147.821
 702  2190.038
 703  2093.655
 704  2107.976
 705  2156.076
 706  2226.747
 707  2214.048
 708  2307.909
 709  2290.038
 710  2304.643
 711  2149.057
 712  2005.434
 713  1952.226
 714  2028.776
 715  2141.626
 716  2168.681
 717  2153.167
 718  2237.281
 719  2409.823
 720  2402.865
 721  2510.226
 722  2272.989
 723  2192.846
 724  2042.855
 725  2088.484
 726  2076.065
 727  2011.763
 728  1790.695
 729  1726.83
 730  1721.62
 731  1781.753
 732  1803.394
 733  1890.472
 734  2077.725
 735  2145.442
 736  2207.371
 737  2280.995
 738  2316.454
 739  2504.472
 740  2561.825
 741  2533.335
 742  2291.898
 743  2270.118
 744  2264.833
 745  2246.184
 746  2182.381
 747  2076.26
 748  2075.211
 749  2043.389
 750  2350.161
 751  2546.292
 752  2539.779
 753  2580.746
 754  2722.229
 755  2865.552
 756  2770.444
 757  2650.259
 758  2587.203
 759  2619.533
 760  2614.042
 761  2346.382
 762  2110.461
 763  1991.896
 764  2044.96
 765  2054.323
 766  1851.688
 767  1799.755
 768  1823.061
 769  2094.496
 770  2136.416
 771  1999.279
 772  1965.907
 773  1973.37
 774  2070.239
 775  2201.459
 776  2159.856
 777  2182.254
 778  2137.321
 779  2243.25
 780  2267.657
 781  2261.982
 782  2144.01
 783  2096.687
 784  2065.28
 785  1989.836
 786  1968.181
 787  1974.23
 788  1811.058
 789  1824.019
 790  1811.167
 791  1981.658
 792  1948.439
 793  1892.142
 794  1948.292
 795  1942.83
 796  2000.792
 797  1890.055
 798  1850.273
 799  1984.896
 800  2085.323
 801  2171.588
 802  2088.119
 803  1954.282
 804  1972.708
 805  2122.149
 806  2231.918
 807  2148.303
 808  2021.821
 809  2083.716
 810  2163.39
 811  2253.194
 812  2161.945
 813  2184.208
 814  2069.544
 815  2083.813
 816  2070.547
 817  2095.244
 818  2194.581
 819  2159.619
 820  2010.628
 821  1926.148
 822  1744.639
 823  1968.842
 824  2041.153
 825  2039.006
 826  1955.354
 827  2032.33
 828  2130.575
 829  2150.018
 830  2076.167
 831  2109.116
 832  2108.852
 833  2141.277
 834  2074.69
 835  1970.326
 836  1908.239
 837  1903.937
 838  1918.717
 839  1992.08
 840  2044.197
 841  2078.406
 842  2151.491
 843  2198.355
 844  2083.079
 845  2061.428
 846  2048.651
 847  2054.063
 848  2154.52
 849  2187.801
 850  2242.492
 851  2156.283
 852  2091
 853  2037.135
 854  2091.667
 855  2049.257
 856  1957.832
 857  1855.845
 858  1762.894
 859  1791.249
 860  1825.306
 861  1725.141
 862  1683.904
 863  1694.029
 864  1857.618
 865  1824.015
 866  1979.689
 867  2113.609
 868  2291.534
 869  2260.841
 870  2187.931
 871  2056.876
 872  2145.428
 873  2276.64
 874  2262.949
 875  2129.586
 876  1926.736
 877  1942.849
 878  1990.279
 879  1933.303
 880  1892.069
 881  1991.149
 882  2114.803
 883  2167.082
 884  2189.961
 885  2058.79
 886  2044.202
 887  2056.132
 888  2125.602
 889  2044.374
 890  1952.531
 891  2127.204
 892  2134.14
 893  2189.915
 894  2052.124
 895  1917.915
 896  1741.482
 897  1794.094
 898  1924.463
 899  2125.183
 900  2021.156
 901  2019.126
 902  2195.329
 903  2159.332
 904  2116.048
 905  2150.76
 906  2481.828
 907  2488.533
 908  2393.003
 909  2324.437
 910  2390.513
 911  2328.188
 912  2201.386
 913  2132.698
 914  2039.824
 915  2096.217
 916  2145.886
 917  2135.357
 918  2038.656
 919  1912.322
 920  2108.524
 921  2066.339
 922  2100.231
 923  2020.642
 924  2179.473
 925  2208.828
 926  2114.327
 927  2210.421
 928  2126.376
 929  2204.933
 930  2071.041
 931  2184.416
 932  2232.402
 933  2150.334
 934  2147.817
 935  1969.367
 936  1973.296
 937  1936.256
 938  2030.703
 939  2011.72
 940  2096.846
 941  2024.524
 942  2084.492
 943  2054.635
 944  2077.626
 945  2074.381
 946  2031.764
 947  2196.367
 948  2150.052
 949  2052.554
 950  1969.366
 951  2095.28
 952  2072.777
 953  2030.439
 954  2013.432
 955  2016.729
 956  2020.834
 957  2026.226
 958  2086.549
 959  2058.416
 960  1955.905
 961  1873.571
 962  1876.887
 963  1888.251
 964  1959.923
 965  1968.741
 966  2095.402
 967  2134.505
 968  2098.609
 969  1981.31
 970  2023.59
 971  2116.92
 972  2313.923
 973  2361.854
 974  2334.152
 975  2314.654
 976  2266.737
 977  2184.78
 978  2043.106
 979  1950.39
 980  2073.632
 981  2202.34
 982  1969.507
 983  2023.564
 984  2024.774
 985  2227.759
 986  2125.257
 987  2091.935
 988  2199.046
 989  2165.443
 990  2106.41
 991  1925.295
 992  1959.853
 993  2097.805
 994  2214.092
 995  2152.745
 996  2151.702
 997  2253.468
 998  2319.397
 999  2243.355
1000  2140.939
1001  2068.896
1002  2200.589
1003  2306.877
1004  2376.743
1005  2275.156
1006  2246.274
1007  2287.639
1008  2283.686
1009  1970.599
1010  1888.729
1011  1948.296
1012  2125.213
1013  2070.987
1014  2067.761
1015  2213.867
1016  2264.369
1017  2205.416
1018  2140.111
1019  2150.499
1020  2150.373
1021  2267.013
1022  2298.535
1023  2156.662
