# Input file       =  1181385701.112891_cleaned.dat
# Candidate        =  PSR_0332+5434
# Telescope        =  AR
# Epoch_topo       =  57917.445834639941
# Epoch_bary       =  N/A
# T_sample         =  0.002
# Data Folded      =  7340032
# Data Avg         =  0.139684385625255
# Data StdDev      =  3.65148413644988 
# Profile Bins     =  512
# Profile Avg      =  2002.53681175704 
# Profile StdDev   =  437.203282938737 
# Reduced chi-sqr  =  0.696
# Prob(Noise)      <  1   (~0.0 sigma)
# P_topo (ms)      =  714.505020834762  +/- 0.000737
# P'_topo (s/s)    =  -0                +/- 3.89e-10
# P''_topo (s/s^2) =  0                 +/- 1.72e-13
# P_bary (ms)      =  N/A
# P'_bary (s/s)    =  N/A
# P''_bary (s/s^2) =  N/A
# P_orb (s)        =  N/A
# asin(i)/c (s)    =  N/A
# eccentricity     =  N/A
# w (rad)          =  N/A
# T_peri           =  N/A
######################################################
   0  1693.713
   1  2037.684
   2  2054.722
   3  2312.723
   4  2225.771
   5  1735.873
   6  1696.043
   7  1901.322
   8  2103.968
   9  1717.221
  10  1663.13
  11  2129.68
  12  2220.76
  13  2283.485
  14  2363.797
  15  2354.901
  16  2486.641
  17  2394.687
  18  2419.931
  19  2385.823
  20  2289.472
  21  2187.255
  22  2237.286
  23  2398.588
  24  2380.12
  25  2089.469
  26  2331.103
  27  2136.873
  28  2295.047
  29  2847.624
  30  2504.875
  31  2296.231
  32  2111.564
  33  2094.05
  34  2107.389
  35  2244.696
  36  2367.88
  37  2178.337
  38  2200.52
  39  2455.444
  40  2247.481
  41  1887.327
  42  2129.711
  43  2225.611
  44  2097.139
  45  2230.7
  46  2331.045
  47  1751.343
  48  1867.08
  49  1974.72
  50  2058.732
  51  2484.593
  52  2226.534
  53  1919.149
  54  1818.53
  55  2162.461
  56  2083.112
  57  1996.67
  58  1851.374
  59  1990.82
  60  1764.371
  61  1588.851
  62  1904.326
  63  1880.511
  64  2268.875
  65  2269.606
  66  2022.277
  67  1994.666
  68  2345.369
  69  2364.658
  70  1970.723
  71  1752.914
  72  2022.938
  73  2135.236
  74  2131.19
  75  2194.804
  76  2068.024
  77  1920.294
  78  2103.353
  79  2373.9
  80  2086.594
  81  1952.705
  82  1863.859
  83  2048.149
  84  2209.587
  85  2132.068
  86  2432.161
  87  2254.247
  88  1936.829
  89  1953.157
  90  1919.038
  91  1982.51
  92  1916.263
  93  2279.267
  94  2029.89
  95  1933.303
  96  2031.557
  97  2042.112
  98  1992.308
  99  1930.429
 100  2097.791
 101  2069.06
 102  1963.708
 103  1757.932
 104  2074.516
 105  1871.999
 106  1958.726
 107  1745.364
 108  2167.866
 109  1805.83
 110  1470.935
 111  1711.05
 112  2108.776
 113  1998.271
 114  1678.099
 115  1919.626
 116  1744.748
 117  1693.888
 118  1642.828
 119  1934.834
 120  1732.341
 121  1594.143
 122  1969.668
 123  2133.381
 124  1704.83
 125  1748.996
 126  1470.539
 127  1885.086
 128  1765.57
 129  1539.225
 130  1918.138
 131  2102.669
 132  2023.43
 133  1851.967
 134  1975.289
 135  2197.113
 136  1799.763
 137  2243.037
 138  2368.434
 139  2177.779
 140  1954.767
 141  1824.46
 142  2102.065
 143  1940.658
 144  2103.109
 145  2685.884
 146  2459.612
 147  2167.013
 148  2054.058
 149  2264.371
 150  2369.616
 151  2155.121
 152  1660.154
 153  1493.283
 154  1819.909
 155  1503.562
 156  1546.306
 157  1447.135
 158  1750.709
 159  1766.865
 160  1790.502
 161  1838.647
 162  1729.601
 163  1705.812
 164  1813.359
 165  1800.397
 166  1495.662
 167  1862.7
 168  1687.885
 169  1710.228
 170  1900.542
 171  1895.744
 172  2006.113
 173  2075.853
 174  1889.792
 175  1504.797
 176  1520.581
 177  1585.832
 178  1840.329
 179  1802.864
 180  1913.591
 181  1891.36
 182  1889.164
 183  1901.003
 184  1882.889
 185  2132.568
 186  2166.05
 187  1898.047
 188  1978.731
 189  2304.019
 190  2083.386
 191  1765.232
 192  1416.34
 193  1473.452
 194  1750.31
 195  2075.09
 196  1666.847
 197  1816.085
 198  1707.163
 199  1686.33
 200  1797.947
 201  1989.382
 202  1960.597
 203  1805.711
 204  1793.822
 205  1978.429
 206  1731.762
 207  1701.881
 208  1875.997
 209  2012.758
 210  1962.94
 211  2098.635
 212  2080.112
 213  1856.761
 214  1965.312
 215  2056.816
 216  2009.624
 217  1972.74
 218  1671.773
 219  1502.817
 220  1647.426
 221  1459.478
 222  1955.719
 223  2217.026
 224  2023.439
 225  1848.884
 226  1656.666
 227  1942.986
 228  2365.76
 229  2512.997
 230  2081.895
 231  2083.981
 232  2105.563
 233  2095.252
 234  2111.066
 235  1919.691
 236  1929.4
 237  2229.268
 238  2439.425
 239  2281.569
 240  2240.246
 241  1932.188
 242  1994.495
 243  1880.05
 244  1814.446
 245  1529.231
 246  1646.508
 247  1902.258
 248  1868.563
 249  1976.436
 250  1645.601
 251  1664.869
 252  1701.656
 253  1950.464
 254  2105.733
 255  2229.614
 256  1903.76
 257  1652.892
 258  1501.473
 259  1850.99
 260  1917.565
 261  2066.232
 262  2254.574
 263  1721.82
 264  1717.578
 265  2092.397
 266  2184.149
 267  2126.433
 268  1996.559
 269  1956.195
 270  2128.463
 271  2183.42
 272  2386.708
 273  2455.202
 274  2487.028
 275  2549.686
 276  2242.985
 277  2428.495
 278  2433.191
 279  2502.699
 280  2793.63
 281  2383.71
 282  2205.116
 283  2260.824
 284  2278.446
 285  1984.395
 286  1845.987
 287  1982.468
 288  2206.065
 289  2290.683
 290  2369.049
 291  2436.186
 292  2036.932
 293  1715.671
 294  1377.256
 295  1415.103
 296  1827.499
 297  2215.374
 298  1880.23
 299  2051.771
 300  1963.456
 301  1439.005
 302  1665.227
 303  2027.325
 304  1911.444
 305  1595.762
 306  1554.517
 307  1950.85
 308  1957.792
 309  1667.338
 310  2022.011
 311  2045.774
 312  2312.887
 313  1758.145
 314  2130.597
 315  2451.85
 316  2024.421
 317  2111.474
 318  2002.238
 319  1844.234
 320  1817.859
 321  1861.971
 322  1970.643
 323  2077.655
 324  2199.833
 325  2255.467
 326  2379.361
 327  2462.655
 328  2130.566
 329  2153.605
 330  1932.015
 331  1727.262
 332  1395.195
 333  1909.429
 334  1941.058
 335  2013.223
 336  1778.113
 337  1788.253
 338  2019.215
 339  1730.265
 340  1691.714
 341  1987.439
 342  1692.303
 343  1476.769
 344  1605.42
 345  1622.611
 346  1616.514
 347  1751.918
 348  1974.494
 349  2070.248
 350  2207.297
 351  2058.649
 352  2237.546
 353  1826.858
 354  1969.67
 355  1848.453
 356  1763.895
 357  2016.047
 358  2101.372
 359  2171.478
 360  1767.87
 361  1991.492
 362  2220.131
 363  2362.74
 364  2041.624
 365  2142.138
 366  2206.813
 367  2090.24
 368  2078.861
 369  1927.338
 370  1833.608
 371  2067.865
 372  2102.148
 373  2187.816
 374  2176.779
 375  2036.322
 376  1624.923
 377  1893.458
 378  2032.403
 379  2195.01
 380  1922.868
 381  1997.827
 382  2221.35
 383  2442.149
 384  2048.958
 385  2248.59
 386  2163.385
 387  2166.867
 388  1728.268
 389  1677.791
 390  1756.519
 391  1915.456
 392  2140.375
 393  2308.768
 394  2284.272
 395  2472.877
 396  2310.716
 397  2004.891
 398  2005.898
 399  2238.286
 400  2255.948
 401  2380.45
 402  1878.79
 403  1919.529
 404  1777.269
 405  1541.542
 406  1809.53
 407  2168.444
 408  2465.093
 409  1993.839
 410  1918.558
 411  1676.859
 412  1738.564
 413  1656.371
 414  1982.091
 415  2220.432
 416  1980.707
 417  1924.922
 418  2340.413
 419  2149.376
 420  1809.385
 421  1731.443
 422  1772.92
 423  1484.26
 424  1847.089
 425  1861.164
 426  1707.616
 427  1810.545
 428  1936.109
 429  1956.807
 430  2263.535
 431  2288.824
 432  1626.396
 433  1539.165
 434  1846.295
 435  1952.81
 436  1826.879
 437  2057.742
 438  2437.243
 439  1957.12
 440  2019.095
 441  2376.949
 442  2273.611
 443  2113.751
 444  2271.688
 445  1824.291
 446  1821.907
 447  2131.106
 448  2277.739
 449  2107.261
 450  2025.841
 451  2100.662
 452  1797.967
 453  1547.417
 454  1900.546
 455  1831.427
 456  1718.276
 457  1826.44
 458  1658.133
 459  1681.247
 460  2134.372
 461  2428.029
 462  2574.417
 463  2781.523
 464  3022.722
 465  3097.49
 466  2754.324
 467  2334.954
 468  1793.931
 469  1473.752
 470  1822.559
 471  1943.664
 472  2137.463
 473  2246.055
 474  2216.025
 475  2497.191
 476  2229.609
 477  1962.876
 478  1876.463
 479  2295.66
 480  2280.361
 481  2223.864
 482  1792.48
 483  1918.299
 484  1853.295
 485  2194.292
 486  2284.781
 487  1886.595
 488  1916.901
 489  1875.178
 490  1992.702
 491  1959.11
 492  1991.364
 493  2241.808
 494  1999.9
 495  2012.339
 496  2053.227
 497  1852.339
 498  1878.943
 499  2105.636
 500  2317.24
 501  2124.066
 502  1976.242
 503  2125.091
 504  1807.573
 505  1849.973
 506  2007.404
 507  1975.739
 508  1923.465
 509  2000.047
 510  1891.021
 511  1934.583
