# Input file       =  1181198473.10547_cleaned.dat
# Candidate        =  PSR_0332+5434
# Telescope        =  AR
# Epoch_topo       =  57915.278843813307
# Epoch_bary       =  N/A
# T_sample         =  0.002
# Data Folded      =  7340032
# Data Avg         =  0.0859990921089775
# Data StdDev      =  2.70390791021691 
# Profile Bins     =  1024
# Profile Avg      =  616.389913476986 
# Profile StdDev   =  228.923772750538 
# Reduced chi-sqr  =  1.077
# Prob(Noise)      <  0.0436   (~1.7 sigma)
# P_topo (ms)      =  714.506716789846  +/- 0.000227
# P'_topo (s/s)    =  -0                +/- 1.2e-10
# P''_topo (s/s^2) =  0                 +/- 5.3e-14
# P_bary (ms)      =  N/A
# P'_bary (s/s)    =  N/A
# P''_bary (s/s^2) =  N/A
# P_orb (s)        =  N/A
# asin(i)/c (s)    =  N/A
# eccentricity     =  N/A
# w (rad)          =  N/A
# T_peri           =  N/A
######################################################
   0  413.5452
   1  380.9712
   2  409.615
   3  372.0415
   4  404.1119
   5  346.6813
   6  491.6002
   7  494.0615
   8  549.3927
   9  464.8221
  10  518.9282
  11  528.7854
  12  553.5898
  13  447.977
  14  412.7763
  15  393.5846
  16  421.9576
  17  392.7967
  18  429.416
  19  497.8974
  20  517.6302
  21  428.1542
  22  386.3036
  23  337.8405
  24  424.9505
  25  451.1108
  26  532.0353
  27  545.145
  28  549.4195
  29  507.3518
  30  395.2402
  31  413.6938
  32  441.8847
  33  476.4019
  34  514.216
  35  514.801
  36  577.8919
  37  525.1364
  38  524.4186
  39  587.2668
  40  591.5826
  41  616.4896
  42  580.147
  43  741.2744
  44  700.7441
  45  679.3821
  46  591.4714
  47  600.5602
  48  580.0001
  49  553.6415
  50  570.5654
  51  540.4873
  52  497.8373
  53  514.7593
  54  517.3395
  55  549.0137
  56  573.3544
  57  728.4417
  58  757.3513
  59  756.4377
  60  587.2812
  61  468.2014
  62  446.8952
  63  575.8777
  64  575.7222
  65  542.3771
  66  483.6425
  67  558.2614
  68  560.2193
  69  560.1982
  70  578.6807
  71  677.4828
  72  686.6184
  73  761.5316
  74  825.824
  75  729.9589
  76  578.4528
  77  404.1657
  78  502.3174
  79  584.7628
  80  704.329
  81  730.1426
  82  758.9127
  83  642.3058
  84  585.0732
  85  562.2486
  86  631.0105
  87  571.7404
  88  557.5429
  89  562.3644
  90  600.2842
  91  600.4187
  92  534.1082
  93  462.9075
  94  451.1178
  95  512.929
  96  653.1187
  97  663.2922
  98  606.2822
  99  529.0972
 100  498.507
 101  501.6728
 102  552.6281
 103  654.5242
 104  753.3622
 105  656.8923
 106  610.1801
 107  573.0547
 108  529.1038
 109  615.8474
 110  674.0523
 111  752.6521
 112  624.3142
 113  634.9758
 114  719.3504
 115  823.2627
 116  718.6271
 117  579.3246
 118  551.5257
 119  498.2012
 120  582.962
 121  558.2716
 122  536.9357
 123  525.372
 124  534.9457
 125  614.4022
 126  514.1247
 127  489.4442
 128  564.6763
 129  665.2966
 130  759.6259
 131  688.3604
 132  664.5013
 133  532.2818
 134  472.8441
 135  482.8368
 136  611.9501
 137  678.3618
 138  728.5872
 139  635.7392
 140  615.7706
 141  550.6122
 142  670.0809
 143  701.1947
 144  708.4183
 145  699.5822
 146  672.9559
 147  691.1866
 148  586.5449
 149  593.6138
 150  566.6347
 151  589.0095
 152  554.843
 153  582.0419
 154  626.6667
 155  724.1829
 156  728.1146
 157  757.9048
 158  766.6247
 159  782.5021
 160  793.7313
 161  737.6555
 162  621.3594
 163  627.0886
 164  701.3876
 165  728.5603
 166  658.472
 167  650.4948
 168  644.2966
 169  704.2288
 170  736.8384
 171  786.9887
 172  755.5028
 173  704.3488
 174  625.8322
 175  481.7434
 176  457.9011
 177  449.2402
 178  503.0021
 179  520.4247
 180  508.9418
 181  468.7276
 182  405.7345
 183  423.302
 184  495.073
 185  514.66
 186  520.5096
 187  569.9656
 188  614.8836
 189  603.6392
 190  638.9169
 191  671.3343
 192  670.3713
 193  575.3748
 194  383.1553
 195  353.5439
 196  481.68
 197  610.2017
 198  625.2138
 199  442.4145
 200  389.9124
 201  327.3872
 202  443.1696
 203  544.8994
 204  572.2601
 205  563.768
 206  560.7132
 207  585.7822
 208  493.3178
 209  513.5071
 210  599.5826
 211  643.6558
 212  560.9698
 213  532.8023
 214  570.4126
 215  610.459
 216  745.1882
 217  764.1082
 218  852.7694
 219  726.085
 220  720.1974
 221  614.7675
 222  717.1964
 223  742.2619
 224  782.5039
 225  758.1
 226  727.9182
 227  714.2134
 228  710.7429
 229  792.5831
 230  835.9172
 231  740.0786
 232  686.3307
 233  685.8293
 234  737.8273
 235  718.8114
 236  639.9027
 237  609.9504
 238  623.7393
 239  687.9921
 240  733.6877
 241  760.5117
 242  673.5654
 243  588.7772
 244  516.7231
 245  527.8812
 246  545.9541
 247  583.152
 248  675.838
 249  670.5189
 250  674.2731
 251  655.577
 252  700.2124
 253  635.4302
 254  640.4986
 255  678.4409
 256  705.4993
 257  769.1092
 258  757.5248
 259  735.5637
 260  696.9172
 261  611.7241
 262  698.1028
 263  791.8744
 264  910.3323
 265  791.5967
 266  714.2892
 267  575.7332
 268  593.123
 269  580.2164
 270  599.0403
 271  658.4485
 272  723.5825
 273  796.8877
 274  812.738
 275  785.3927
 276  688.0325
 277  625.2775
 278  638.8732
 279  689.6083
 280  658.9122
 281  662.1036
 282  702.426
 283  751.3075
 284  780.5782
 285  748.8474
 286  756.3707
 287  693.0927
 288  664.9966
 289  608.7805
 290  631.1885
 291  565.7896
 292  552.0123
 293  555.5101
 294  625.4101
 295  691.7125
 296  749.8948
 297  772.3138
 298  769.9913
 299  736.426
 300  701.082
 301  685.7384
 302  737.5912
 303  697.252
 304  616.0524
 305  622.831
 306  658.0286
 307  694.2778
 308  637.8223
 309  596.1476
 310  509.1292
 311  604.103
 312  699.2178
 313  741.6226
 314  708.4767
 315  743.0624
 316  752.6312
 317  804.2012
 318  859.166
 319  847.019
 320  850.9263
 321  842.0352
 322  843.4403
 323  850.1147
 324  786.2308
 325  722.8213
 326  694.0193
 327  714.4216
 328  698.735
 329  639.8243
 330  622.8506
 331  523.0585
 332  460.9541
 333  498.4575
 334  539.9872
 335  588.9936
 336  616.1149
 337  583.1638
 338  565.3406
 339  540.3915
 340  598.173
 341  575.9919
 342  502.9812
 343  506.981
 344  571.6808
 345  582.5566
 346  440.2175
 347  392.7928
 348  435.4958
 349  419.0537
 350  361.8588
 351  366.99
 352  476.9121
 353  621.7859
 354  552.7642
 355  552.8142
 356  510.3908
 357  542.1816
 358  616.0105
 359  666.9681
 360  712.265
 361  633.1575
 362  652.5527
 363  615.4454
 364  556.2017
 365  512.6498
 366  464.709
 367  480.6089
 368  467.673
 369  528.5043
 370  560.1118
 371  508.9765
 372  492.9058
 373  494.7085
 374  427.7056
 375  342.1427
 376  323.6779
 377  495.8104
 378  666.5471
 379  769.8245
 380  732.5156
 381  558.7435
 382  488.1235
 383  560.5288
 384  649.0446
 385  697.1116
 386  640.9616
 387  644.28
 388  615.2332
 389  635.416
 390  566.8078
 391  554.1709
 392  613.9165
 393  772.1189
 394  818.4764
 395  849.7081
 396  863.5457
 397  754.9528
 398  665.1856
 399  562.1167
 400  516.5978
 401  612.5781
 402  661.1787
 403  883.5068
 404  881.6652
 405  961.552
 406  883.1679
 407  907.1589
 408  808.4214
 409  758.6362
 410  692.6667
 411  685.7266
 412  600.0352
 413  600.9725
 414  565.5156
 415  548.8206
 416  521.3629
 417  521.2288
 418  643.1367
 419  724.756
 420  887.8555
 421  848.2756
 422  788.6122
 423  677.4014
 424  619.6171
 425  601.9783
 426  643.6506
 427  781.7489
 428  794.6053
 429  714.2408
 430  685.9432
 431  648.1697
 432  613.9218
 433  482.9498
 434  461.0484
 435  549.7188
 436  675.7438
 437  840.2671
 438  808.3745
 439  700.9433
 440  603.887
 441  607.8297
 442  587.9947
 443  627.9542
 444  753.0493
 445  833.522
 446  770.4175
 447  633.2939
 448  604.3421
 449  647.1412
 450  693.712
 451  640.0655
 452  641.8849
 453  681.5151
 454  775.9607
 455  736.0425
 456  721.4246
 457  634.9122
 458  604.2396
 459  622.7056
 460  689.296
 461  811.1374
 462  830.7012
 463  810.9153
 464  628.4922
 465  559.1472
 466  504.6544
 467  584.1903
 468  764.4186
 469  803.8937
 470  734.2637
 471  667.8506
 472  807.6951
 473  909.9056
 474  867.5423
 475  729.1752
 476  676.9608
 477  571.3878
 478  569.6926
 479  555.8152
 480  665.6183
 481  650.9373
 482  658.8535
 483  636.0547
 484  731.3768
 485  735.2454
 486  687.7871
 487  559.9797
 488  542.9351
 489  564.2156
 490  602.6142
 491  655.9019
 492  709.5068
 493  717.2805
 494  704.4874
 495  606.6208
 496  565.3114
 497  593.3107
 498  648.2855
 499  607.5956
 500  621.874
 501  656.7382
 502  828.1439
 503  850.9879
 504  850.9963
 505  679.3024
 506  579.037
 507  517.1428
 508  535.6996
 509  607.1588
 510  727.3678
 511  737.7213
 512  804.4987
 513  744.7497
 514  674.938
 515  572.8416
 516  596.0038
 517  630.298
 518  502.5848
 519  449.0037
 520  444.7285
 521  594.2227
 522  658.3876
 523  685.6126
 524  660.691
 525  640.8113
 526  573.8905
 527  528.7609
 528  488.1024
 529  589.415
 530  601.5218
 531  588.0851
 532  599.3395
 533  696.3634
 534  779.3777
 535  759.6314
 536  743.394
 537  667.5429
 538  653.9891
 539  673.8766
 540  646.2977
 541  613.2032
 542  561.9328
 543  663.9032
 544  575.4637
 545  516.9761
 546  528.0104
 547  653.5953
 548  807.1388
 549  750.1345
 550  668.4488
 551  622.4722
 552  538.2043
 553  569.3471
 554  631.0635
 555  724.3515
 556  812.7163
 557  801.8078
 558  711.1868
 559  598.398
 560  556.1728
 561  590.4957
 562  533.2642
 563  534.7845
 564  612.8782
 565  578.7617
 566  540.6385
 567  492.2007
 568  582.0104
 569  639.7651
 570  709.1867
 571  702.0338
 572  837.4
 573  849.8723
 574  870.351
 575  752.3322
 576  760.9081
 577  785.6642
 578  778.951
 579  712.1864
 580  600.1535
 581  609.5833
 582  569.8493
 583  565.2256
 584  584.1855
 585  631.7643
 586  632.0899
 587  605.4061
 588  687.4296
 589  722.3276
 590  662.5887
 591  494.1201
 592  417.7376
 593  484.8704
 594  599.5945
 595  613.6384
 596  534.1168
 597  506.8118
 598  527.996
 599  561.4093
 600  494.3448
 601  443.1418
 602  517.5038
 603  613.2939
 604  738.4123
 605  759.2202
 606  753.1224
 607  632.8968
 608  555.9649
 609  577.3506
 610  611.6022
 611  561.366
 612  511.8366
 613  484.591
 614  580.2867
 615  555.4778
 616  642.1824
 617  625.6541
 618  663.2352
 619  619.8537
 620  621.4669
 621  648.0709
 622  697.1523
 623  683.3745
 624  639.4868
 625  624.3077
 626  647.0891
 627  656.4993
 628  636.3315
 629  526.9191
 630  487.0693
 631  471.6404
 632  463.555
 633  522.6261
 634  686.089
 635  867.0773
 636  788.7332
 637  649.5956
 638  572.4736
 639  585.0273
 640  533.2846
 641  568.2708
 642  629.2058
 643  682.7169
 644  678.5112
 645  636.4374
 646  631.7991
 647  728.3552
 648  827.843
 649  867.3648
 650  809.6367
 651  829.0327
 652  762.5179
 653  707.0169
 654  627.1209
 655  708.2239
 656  703.66
 657  734.7096
 658  711.1252
 659  683.0449
 660  533.302
 661  528.7288
 662  497.9057
 663  558.7284
 664  602.8958
 665  637.0015
 666  623.9926
 667  597.1436
 668  633.953
 669  612.3964
 670  615.1479
 671  539.2885
 672  488.3139
 673  527.3026
 674  580.7378
 675  633.1877
 676  620.5033
 677  720.5373
 678  768.0508
 679  780.1841
 680  719.4022
 681  763.5372
 682  837.0636
 683  801.5301
 684  794.6375
 685  840.2579
 686  830.6375
 687  681.9224
 688  615.9532
 689  620.0718
 690  614.9738
 691  513.4117
 692  615.9645
 693  705.6741
 694  681.6164
 695  527.187
 696  473.1401
 697  561.631
 698  602.2316
 699  617.1725
 700  670.9291
 701  649.3507
 702  553.111
 703  461.0685
 704  566.1456
 705  671.2617
 706  620.3611
 707  565.2964
 708  606.9049
 709  682.6347
 710  624.5994
 711  600.5447
 712  616.8935
 713  727.6475
 714  692.8048
 715  693.4858
 716  581.669
 717  562.1563
 718  585.5061
 719  650.7438
 720  725.8373
 721  651.6021
 722  612.8984
 723  573.4911
 724  722.5932
 725  748.089
 726  763.6849
 727  636.0414
 728  586.1401
 729  463.3281
 730  465.859
 731  543.6919
 732  687.3116
 733  705.5802
 734  800.6302
 735  785.4569
 736  860.1512
 737  813.2203
 738  855.4371
 739  777.2087
 740  704.7652
 741  625.4264
 742  648.1461
 743  629.0859
 744  688.2791
 745  719.2356
 746  765.2145
 747  816.865
 748  874.2091
 749  975.5141
 750  1083.621
 751  1136.03
 752  1159.683
 753  1139.032
 754  1259.426
 755  1302.108
 756  1311.29
 757  1344.563
 758  1238.926
 759  1119.556
 760  887.764
 761  767.9916
 762  660.1291
 763  577.4444
 764  595.6321
 765  676.644
 766  640.9983
 767  594.5237
 768  547.7114
 769  498.2773
 770  424.0055
 771  447.9216
 772  569.6976
 773  511.4268
 774  423.0236
 775  511.8094
 776  696.2481
 777  794.0741
 778  733.1577
 779  674.1748
 780  657.0391
 781  586.2516
 782  554.3827
 783  576.3565
 784  642.3655
 785  666.8242
 786  677.3981
 787  592.1234
 788  518.5754
 789  521.4174
 790  607.676
 791  653.4653
 792  631.6171
 793  557.4891
 794  470.7058
 795  462.5356
 796  436.3624
 797  444.6465
 798  519.8196
 799  600.0902
 800  705.2388
 801  723.851
 802  718.6464
 803  614.0558
 804  554.1351
 805  480.5928
 806  511.3325
 807  477.0787
 808  508.3961
 809  542.2741
 810  584.7248
 811  629.8831
 812  686.342
 813  725.3193
 814  730.676
 815  741.1754
 816  674.4725
 817  707.5448
 818  723.6387
 819  765.2612
 820  741.6237
 821  748.2114
 822  746.7968
 823  737.418
 824  682.6122
 825  747.0034
 826  735.3867
 827  690.3091
 828  625.3346
 829  605.4006
 830  600.6867
 831  637.7753
 832  589.9399
 833  584.7678
 834  538.557
 835  644.4672
 836  696.6947
 837  673.9087
 838  606.1769
 839  640.4224
 840  656.0685
 841  645.0598
 842  590.9017
 843  585.223
 844  572.308
 845  616.2186
 846  554.818
 847  471.6061
 848  499.2724
 849  561.5513
 850  512.0668
 851  494.1126
 852  484.0688
 853  494.7943
 854  456.4147
 855  400.5603
 856  451.5548
 857  383.9102
 858  450.166
 859  399.7439
 860  316.1012
 861  276.2153
 862  314.3799
 863  364.9275
 864  302.319
 865  306.3848
 866  375.2472
 867  540.3481
 868  583.8848
 869  573.7889
 870  637.6016
 871  655.8614
 872  685.6823
 873  581.8105
 874  578.8248
 875  519.8804
 876  524.4214
 877  622.8344
 878  635.6782
 879  578.5603
 880  496.275
 881  491.8197
 882  474.2285
 883  502.09
 884  601.9306
 885  662.2161
 886  653.2475
 887  631.5705
 888  624.5711
 889  600.4892
 890  566.5285
 891  610.1985
 892  682.3579
 893  637.0234
 894  494.5382
 895  465.0468
 896  464.3615
 897  515.4684
 898  529.806
 899  506.6356
 900  577.9882
 901  558.297
 902  665.1374
 903  712.0462
 904  718.2776
 905  706.9351
 906  734.7426
 907  680.1425
 908  588.4937
 909  565.1573
 910  616.5921
 911  563.2404
 912  506.7233
 913  504.767
 914  520.8272
 915  573.6843
 916  609.6393
 917  685.126
 918  625.4357
 919  596.1752
 920  506.1189
 921  501.1212
 922  542.0293
 923  551.2543
 924  497.7617
 925  504.3308
 926  507.6747
 927  574.7504
 928  592.3887
 929  665.2029
 930  607.1808
 931  583.4669
 932  559.6591
 933  547.6589
 934  505.1239
 935  541.5829
 936  497.3073
 937  467.5507
 938  421.2588
 939  507.0075
 940  539.8239
 941  447.6886
 942  328.4951
 943  272.1343
 944  274.2378
 945  379.2975
 946  361.1458
 947  391.2498
 948  348.001
 949  393.4114
 950  349.7115
 951  391.6604
 952  428.4604
 953  529.6519
 954  582.0629
 955  533.6492
 956  452.0313
 957  439.4275
 958  540.0454
 959  628.9078
 960  547.321
 961  518.3948
 962  476.2702
 963  514.8469
 964  387.4048
 965  394.8182
 966  328.8219
 967  416.623
 968  431.8879
 969  536.3701
 970  451.143
 971  384.0573
 972  330.3264
 973  353.9379
 974  352.8173
 975  438.1112
 976  481.7292
 977  481.9855
 978  426.3852
 979  459.2561
 980  602.7451
 981  716.9296
 982  750.8685
 983  673.858
 984  562.5511
 985  548.2219
 986  507.7461
 987  559.0905
 988  542.2329
 989  551.0947
 990  629.0076
 991  634.5837
 992  646.6442
 993  614.6937
 994  580.8085
 995  588.008
 996  618.8365
 997  726.348
 998  686.3953
 999  621.9917
1000  531.6076
1001  522.9345
1002  424.1595
1003  385.3264
1004  416.5001
1005  487.8242
1006  605.342
1007  586.0097
1008  669.47
1009  589.7025
1010  540.3365
1011  400.7691
1012  420.7845
1013  445.1284
1014  486.5766
1015  462.7457
1016  514.4337
1017  578.9979
1018  627.8406
1019  637.5689
1020  567.0592
1021  476.9018
1022  417.8558
1023  395.6758
