# Input file       =  1181370785.111264_cleaned.dat
# Candidate        =  PSR_0332+5434
# Telescope        =  AR
# Epoch_topo       =  57917.273195732225
# Epoch_bary       =  N/A
# T_sample         =  0.002
# Data Folded      =  7340032
# Data Avg         =  0.0364742281703262
# Data StdDev      =  2.44888522871373 
# Profile Bins     =  512
# Profile Avg      =  522.859679883335 
# Profile StdDev   =  293.212464172106 
# Reduced chi-sqr  =  1.075
# Prob(Noise)      <  0.118   (~1.2 sigma)
# P_topo (ms)      =  714.504848045352  +/- 0.000467
# P'_topo (s/s)    =  -0                +/- 2.47e-10
# P''_topo (s/s^2) =  0                 +/- 1.09e-13
# P_bary (ms)      =  N/A
# P'_bary (s/s)    =  N/A
# P''_bary (s/s^2) =  N/A
# P_orb (s)        =  N/A
# asin(i)/c (s)    =  N/A
# eccentricity     =  N/A
# w (rad)          =  N/A
# T_peri           =  N/A
######################################################
   0  486.9726
   1  284.4808
   2  220.782
   3  541.8998
   4  442.8566
   5  406.8356
   6  491.528
   7  404.8688
   8  350.4244
   9  449.5632
  10  689.4513
  11  341.9975
  12  227.2719
  13  497.3158
  14  376.8911
  15  428.2396
  16  495.3856
  17  492.118
  18  443.3769
  19  560.0635
  20  415.0725
  21  324.3729
  22  299.3346
  23  586.481
  24  454.9391
  25  625.9179
  26  506.5558
  27  314.531
  28  168.655
  29  455.4724
  30  431.1412
  31  533.5633
  32  667.2576
  33  752.7264
  34  889.0236
  35  861.1352
  36  716.8981
  37  706.033
  38  792.7411
  39  720.3726
  40  532.2294
  41  434.778
  42  302.8891
  43  402.9427
  44  410.5313
  45  470.2854
  46  582.1019
  47  666.4052
  48  720.4929
  49  508.1916
  50  394.3138
  51  603.5673
  52  270.3601
  53  335.6441
  54  655.5456
  55  590.0543
  56  447.4081
  57  245.0279
  58  492.2548
  59  541.1343
  60  335.7739
  61  523.1074
  62  479.0968
  63  237.3228
  64  349.2824
  65  338.8923
  66  275.6526
  67  64.22656
  68  162.6256
  69  286.1942
  70  232.3477
  71  375.2183
  72  127.3622
  73  423.7294
  74  796.9077
  75  745.1287
  76  689.9451
  77  513.1461
  78  392.4207
  79  469.8073
  80  579.3772
  81  639.6082
  82  513.1341
  83  547.9014
  84  684.9364
  85  459.079
  86  149.9706
  87  378.0844
  88  666.0014
  89  656.7589
  90  746.2355
  91  413.2184
  92  372.0917
  93  610.2076
  94  648.2243
  95  347.7025
  96  610.9484
  97  845.9592
  98  540.0424
  99  681.9508
 100  509.101
 101  377.5848
 102  686.4403
 103  705.3101
 104  440.8235
 105  578.84
 106  716.9756
 107  746.7311
 108  598.2837
 109  620.3802
 110  693.7587
 111  604.6029
 112  738.5453
 113  666.9382
 114  454.5763
 115  486.8812
 116  743.3629
 117  708.1135
 118  687.8597
 119  574.7824
 120  191.4485
 121  486.5068
 122  450.0121
 123  608.6361
 124  691.726
 125  621.2679
 126  799.2624
 127  868.7934
 128  766.7808
 129  741.9446
 130  837.2573
 131  780.9854
 132  787.7239
 133  865.0168
 134  688.446
 135  581.7106
 136  799.8842
 137  720.7554
 138  533.0399
 139  585.3594
 140  458.0354
 141  386.7855
 142  550.8632
 143  705.572
 144  670.0405
 145  434.7761
 146  442.7917
 147  369.3865
 148  271.9727
 149  196.3146
 150  327.5634
 151  677.2499
 152  685.9016
 153  553.3328
 154  660.8597
 155  311.0322
 156  508.2873
 157  592.6002
 158  500.8676
 159  597.8525
 160  399.4479
 161  663.6847
 162  301.2033
 163  201.0598
 164  427.2515
 165  683.0284
 166  640.874
 167  696.6976
 168  289.0048
 169  306.8039
 170  424.2645
 171  707.8499
 172  876.1865
 173  471.7872
 174  342.1435
 175  557.476
 176  765.5684
 177  646.1426
 178  672.5145
 179  709.9213
 180  651.926
 181  592.9313
 182  681.1695
 183  734.2263
 184  686.9453
 185  614.2334
 186  479.066
 187  537.5468
 188  316.5902
 189  343.91
 190  660.8924
 191  660.2415
 192  554.8596
 193  585.2837
 194  742.4868
 195  595.8143
 196  527.588
 197  551.1627
 198  654.8047
 199  634.973
 200  649.1514
 201  768.1592
 202  687.4053
 203  489.4555
 204  273.6255
 205  418.8085
 206  616.1942
 207  647.3519
 208  545.5856
 209  676.8692
 210  515.0974
 211  424.638
 212  872.8335
 213  806.8436
 214  708.8395
 215  797.3732
 216  784.163
 217  707.6208
 218  434.586
 219  544.9297
 220  366.9215
 221  404.6448
 222  452.8981
 223  535.3574
 224  744.9158
 225  579.1514
 226  437.1516
 227  501.4987
 228  643.4835
 229  596.634
 230  486.8528
 231  737.3878
 232  734.6953
 233  584.632
 234  342.6042
 235  -67.28201
 236  104.3387
 237  418.148
 238  592.4523
 239  527.2612
 240  531.0744
 241  379.4817
 242  101.3418
 243  106.7414
 244  236.5535
 245  378.1246
 246  384.3498
 247  119.7722
 248  564.7389
 249  556.2606
 250  479.1411
 251  460.5844
 252  618.3582
 253  814.3727
 254  748.0624
 255  406.2953
 256  408.6603
 257  407.2949
 258  311.3073
 259  426.1033
 260  455.9303
 261  512.6362
 262  314.568
 263  155.5777
 264  260.2526
 265  155.487
 266  395.5915
 267  517.0408
 268  527.9022
 269  525.7562
 270  293.8375
 271  274.8877
 272  658.8416
 273  472.3936
 274  306.5133
 275  547.5577
 276  870.5717
 277  775.4319
 278  230.0921
 279  526.9791
 280  687.4964
 281  701.7584
 282  683.2287
 283  873.2632
 284  717.2607
 285  555.4528
 286  549.9669
 287  510.4514
 288  674.9236
 289  626.4965
 290  965.4074
 291  968.5729
 292  797.7859
 293  940.3137
 294  1039.349
 295  687.1352
 296  590.39
 297  761.2043
 298  935.5675
 299  582.652
 300  809.9738
 301  594.8068
 302  557.9063
 303  569.3685
 304  437.6771
 305  682.2605
 306  516.7017
 307  498.3274
 308  769.2089
 309  806.0292
 310  712.1505
 311  681.4532
 312  712.9432
 313  586.8105
 314  560.1467
 315  559.4323
 316  549.4688
 317  508.6314
 318  312.6386
 319  502.7794
 320  540.4235
 321  805.1592
 322  863.7831
 323  971.5247
 324  949.7641
 325  1206.51
 326  1322.049
 327  1513.939
 328  1541.547
 329  1473.596
 330  1543.613
 331  1217.232
 332  1143.738
 333  997.3903
 334  567.0863
 335  606.2428
 336  444.0445
 337  677.1202
 338  730.4478
 339  552.4907
 340  246.9082
 341  607.0078
 342  626.4136
 343  662.2546
 344  417.7172
 345  279.3301
 346  160.4691
 347  489.2328
 348  462.1145
 349  533.5734
 350  128.2174
 351  17.66221
 352  204.9267
 353  456.2084
 354  458.3196
 355  409.7405
 356  243.1975
 357  345.5945
 358  274.3298
 359  203.6979
 360  428.2255
 361  132.2046
 362  231.5098
 363  411.2436
 364  238.9798
 365  333.593
 366  448.8168
 367  601.0311
 368  369.3376
 369  418.4095
 370  171.9865
 371  177.8298
 372  311.5349
 373  421.7487
 374  288.9754
 375  181.6958
 376  243.5909
 377  231.8422
 378  55.41806
 379  488.0686
 380  377.8255
 381  354.4975
 382  249.5622
 383  340.5957
 384  383.3184
 385  777.833
 386  717.4906
 387  639.4683
 388  408.9891
 389  598.725
 390  511.0518
 391  684.2984
 392  624.9389
 393  494.0985
 394  433.2229
 395  527.0941
 396  378.636
 397  331.5882
 398  352.9553
 399  54.01614
 400  105.8037
 401  416.5065
 402  417.6054
 403  308.6371
 404  424.9161
 405  166.1297
 406  57.54217
 407  204.4581
 408  241.4164
 409  299.3803
 410  548.1301
 411  435.3058
 412  251.684
 413  249.2773
 414  538.5486
 415  519.2394
 416  510.8051
 417  443.8457
 418  329.7541
 419  470.6086
 420  332.287
 421  15.86542
 422  36.37816
 423  520.238
 424  611.546
 425  670.2938
 426  500.0205
 427  309.1772
 428  324.4525
 429  599.5503
 430  383.8129
 431  418.641
 432  349.4999
 433  511.4359
 434  792.0663
 435  724.6721
 436  638.7154
 437  588.6898
 438  558.3554
 439  525.586
 440  428.0801
 441  544.8806
 442  788.587
 443  516.6676
 444  505.9706
 445  539.3109
 446  545.5565
 447  547.2661
 448  396.049
 449  561.1652
 450  615.8685
 451  602.2432
 452  453.5621
 453  481.6333
 454  447.0336
 455  66.35405
 456  290.6272
 457  595.6003
 458  539.0889
 459  398.2769
 460  382.1249
 461  426.8222
 462  448.963
 463  351.7005
 464  340.2078
 465  603.3168
 466  744.9667
 467  806.4495
 468  735.1201
 469  689.663
 470  817.348
 471  720.891
 472  597.595
 473  633.5067
 474  257.1522
 475  262.0889
 476  620.4313
 477  661.3307
 478  680.9866
 479  565.8289
 480  374.258
 481  629.3224
 482  816.14
 483  686.6398
 484  707.0177
 485  631.5449
 486  498.5601
 487  731.2273
 488  579.4763
 489  154.3643
 490  267.7287
 491  518.4281
 492  326.2527
 493  297.9276
 494  386.2836
 495  259.7383
 496  581.7077
 497  826.2714
 498  527.3953
 499  462.0593
 500  598.5959
 501  385.2422
 502  387.5668
 503  537.4795
 504  608.209
 505  429.8802
 506  142.5885
 507  323.4203
 508  487.316
 509  329.2578
 510  237.5368
 511  397.1022
