# Input file       =  1182505911.106921_cleaned.dat
# Candidate        =  PSR_0332+5434
# Telescope        =  AR
# Epoch_topo       =  57930.411228089361
# Epoch_bary       =  N/A
# T_sample         =  0.002
# Data Folded      =  7340032
# Data Avg         =  0.046950646079737
# Data StdDev      =  1.00010899225741 
# Profile Bins     =  512
# Profile Avg      =  673.033365420639 
# Profile StdDev   =  119.746086350687 
# Reduced chi-sqr  =  0.964
# Prob(Noise)      <  0.713   (~0.0 sigma)
# P_topo (ms)      =  714.493375690315  +/- 7.59e-05
# P'_topo (s/s)    =  -0                +/- 4.01e-11
# P''_topo (s/s^2) =  0                 +/- 1.77e-14
# P_bary (ms)      =  N/A
# P'_bary (s/s)    =  N/A
# P''_bary (s/s^2) =  N/A
# P_orb (s)        =  N/A
# asin(i)/c (s)    =  N/A
# eccentricity     =  N/A
# w (rad)          =  N/A
# T_peri           =  N/A
######################################################
   0  642.354
   1  612.543
   2  578.9448
   3  598.4075
   4  676.8461
   5  714.9299
   6  709.4149
   7  633.4044
   8  612.8097
   9  668.6329
  10  738.5197
  11  748.3102
  12  618.8318
  13  580.4016
  14  682.9446
  15  666.5593
  16  604.2095
  17  547.7581
  18  542.7569
  19  634.7537
  20  601.8088
  21  640.2469
  22  701.1148
  23  616.7343
  24  637.0536
  25  662.4271
  26  574.7048
  27  686.4945
  28  724.3672
  29  735.3129
  30  723.0742
  31  697.613
  32  649.483
  33  636.8913
  34  678.6709
  35  638.6587
  36  562.2849
  37  615.569
  38  697.165
  39  652.8128
  40  650.6304
  41  598.274
  42  569.0278
  43  675.0655
  44  651.4005
  45  494.5902
  46  488.8409
  47  613.9764
  48  526.2126
  49  535.1115
  50  520.9716
  51  569.5746
  52  675.1729
  53  654.1925
  54  633.3724
  55  546.2268
  56  653.5134
  57  668.2545
  58  652.5751
  59  701.9839
  60  625.1561
  61  582.8364
  62  671.9406
  63  756.9493
  64  688.1296
  65  614.764
  66  627.3665
  67  616.5157
  68  649.0649
  69  615.5998
  70  637.3539
  71  644.6559
  72  615.1562
  73  637.8464
  74  571.8586
  75  550.9743
  76  499.1501
  77  587.1976
  78  593.0848
  79  612.8477
  80  610.0584
  81  699.5916
  82  661.995
  83  615.9835
  84  639.7826
  85  654.0449
  86  664.3721
  87  670.8448
  88  654.7676
  89  635.7328
  90  638.0861
  91  655.9979
  92  616.3271
  93  729.5078
  94  783.2042
  95  760.415
  96  828.5901
  97  765.7029
  98  704.2924
  99  687.6552
 100  668.4542
 101  640.4614
 102  642.8815
 103  695.4053
 104  707.0945
 105  686.3171
 106  722.5584
 107  640.567
 108  730.0454
 109  741.3763
 110  670.1879
 111  718.2302
 112  693.8895
 113  664.2996
 114  740.6035
 115  713.1324
 116  745.3128
 117  794.6674
 118  640.2222
 119  646.7238
 120  880.2289
 121  813.6677
 122  680.2427
 123  649.3054
 124  772.5885
 125  782.8958
 126  982.2996
 127  1137.581
 128  1178.281
 129  1179.884
 130  1127.541
 131  853.8555
 132  614.7651
 133  596.41
 134  605.5422
 135  652.8242
 136  678.4159
 137  658.0219
 138  757.319
 139  659.263
 140  657.5879
 141  574.3212
 142  669.985
 143  690.7861
 144  702.6241
 145  638.326
 146  609.784
 147  659.7607
 148  630.8912
 149  741.2375
 150  694.3047
 151  608.0052
 152  687.4051
 153  739.8021
 154  719.9556
 155  628.8636
 156  614.854
 157  690.0422
 158  666.528
 159  663.6566
 160  690.6048
 161  683.652
 162  718.7231
 163  714.8759
 164  721.1716
 165  795.4086
 166  823.5529
 167  805.1823
 168  698.521
 169  708.4954
 170  580.5978
 171  564.0274
 172  651.4466
 173  643.8315
 174  701.8969
 175  709.2222
 176  727.8023
 177  732.6832
 178  706.6127
 179  489.4203
 180  463.6342
 181  632.1634
 182  669.6743
 183  704.3239
 184  705.27
 185  783.8576
 186  786.8087
 187  762.46
 188  740.1874
 189  687.3145
 190  568.9719
 191  638.3122
 192  642.0298
 193  599.1841
 194  633.7516
 195  776.3066
 196  711.0614
 197  658.234
 198  667.2643
 199  786.8451
 200  757.5338
 201  779.2502
 202  857.0522
 203  761.8179
 204  783.9825
 205  787.2018
 206  760.15
 207  820.1817
 208  809.6296
 209  575.3236
 210  706.6224
 211  802.5872
 212  794.1658
 213  637.042
 214  626.489
 215  583.5107
 216  651.7259
 217  826.6619
 218  806.5168
 219  686.0648
 220  795.2427
 221  733.4042
 222  626.8204
 223  601.7758
 224  669.0948
 225  643.1677
 226  673.3178
 227  649.0819
 228  662.6054
 229  641.0861
 230  670.188
 231  600.9955
 232  564.6843
 233  513.9788
 234  584.9124
 235  643.5627
 236  593.1294
 237  600.9886
 238  691.858
 239  740.7849
 240  747.2781
 241  542.2887
 242  470.0351
 243  554.8798
 244  702.2114
 245  757.9855
 246  612.3014
 247  608.414
 248  730.8744
 249  652.3018
 250  725.0675
 251  751.3472
 252  781.3245
 253  762.5237
 254  648.5388
 255  643.8997
 256  592.0428
 257  550.8401
 258  709.3876
 259  681.0757
 260  694.6815
 261  584.4789
 262  533.9505
 263  524.4415
 264  517.0842
 265  494.1559
 266  568.0482
 267  624.1207
 268  568.0155
 269  612.0597
 270  710.375
 271  691.068
 272  601.2598
 273  656.4429
 274  587.5394
 275  514.6689
 276  557.8438
 277  718.6679
 278  637.3322
 279  700.8396
 280  526.4642
 281  605.3547
 282  524.9011
 283  696.956
 284  711.2109
 285  635.2338
 286  673.7589
 287  735.3658
 288  706.873
 289  767.7985
 290  668.2938
 291  570.8171
 292  623.2831
 293  682.8574
 294  720.4279
 295  713.6628
 296  747.4989
 297  765.6844
 298  678.6445
 299  764.1739
 300  824.7548
 301  810.1477
 302  707.3162
 303  718.5707
 304  624.8613
 305  542.3215
 306  698.7495
 307  744.1091
 308  679.124
 309  688.5163
 310  674.0149
 311  626.4388
 312  674.0089
 313  665.9778
 314  638.5503
 315  579.2234
 316  606.3652
 317  574.6353
 318  636.3984
 319  706.759
 320  684.6109
 321  627.2545
 322  638.3871
 323  586.1611
 324  598.5169
 325  622.4367
 326  616.1829
 327  609.6926
 328  622.6771
 329  670.9321
 330  655.9537
 331  677.7017
 332  678.0886
 333  630.7524
 334  623.7269
 335  774.1082
 336  769.7001
 337  669.6774
 338  693.6037
 339  674.5867
 340  641.496
 341  684.019
 342  737.0327
 343  679.8792
 344  700.1812
 345  617.2208
 346  548.5043
 347  659.1399
 348  648.6618
 349  674.9347
 350  749.7189
 351  708.7029
 352  643.0154
 353  619.488
 354  659.4556
 355  746.5638
 356  640.2966
 357  605.1924
 358  596.674
 359  619.0084
 360  666.8901
 361  727.0353
 362  616.7604
 363  711.6167
 364  773.3219
 365  733.481
 366  688.887
 367  688.7878
 368  660.6744
 369  798.4355
 370  764.8589
 371  733.5045
 372  676.6594
 373  670.3732
 374  701.5002
 375  698.4299
 376  703.4895
 377  731.7846
 378  753.3829
 379  732.7822
 380  652.4332
 381  560.4853
 382  581.3936
 383  677.2866
 384  690.214
 385  624.9905
 386  517.6434
 387  547.3717
 388  599.6469
 389  618.387
 390  586.5277
 391  595.1617
 392  653.7739
 393  663.0441
 394  579.9887
 395  588.7764
 396  718.013
 397  731.3248
 398  736.2133
 399  633.7404
 400  578.5081
 401  623.6587
 402  641.0902
 403  583.6898
 404  629.8409
 405  581.6815
 406  597.9257
 407  656.4376
 408  685.9765
 409  697.4307
 410  725.861
 411  814.2972
 412  776.2023
 413  672.805
 414  674.8845
 415  702.0496
 416  557.7125
 417  644.1616
 418  724.4841
 419  557.1627
 420  655.7286
 421  851.3177
 422  833.514
 423  686.6168
 424  617.7003
 425  670.7381
 426  734.9913
 427  620.6204
 428  587.9951
 429  682.4024
 430  742.3428
 431  684.3125
 432  641.2686
 433  718.2247
 434  660.8047
 435  787.2372
 436  782.4207
 437  725.9357
 438  702.8724
 439  857.4736
 440  880.7569
 441  793.4413
 442  685.6118
 443  707.667
 444  694.631
 445  680.7265
 446  895.2958
 447  750.5567
 448  605.3572
 449  698.7578
 450  777.0665
 451  715.8936
 452  662.7432
 453  754.3337
 454  746.3154
 455  657.9091
 456  638.7864
 457  715.2872
 458  601.0516
 459  649.1602
 460  704.5724
 461  669.7474
 462  740.3606
 463  802.8343
 464  803.3506
 465  736.1259
 466  623.1782
 467  651.3615
 468  706.5065
 469  671.4733
 470  574.8437
 471  624.6387
 472  726.486
 473  647.6312
 474  655.6204
 475  689.7181
 476  676.751
 477  564.765
 478  623.9158
 479  614.0164
 480  551.9075
 481  507.6816
 482  650.9203
 483  635.782
 484  721.4562
 485  725.3799
 486  644.7338
 487  696.3469
 488  725.6102
 489  737.4888
 490  693.0873
 491  687.0443
 492  656.105
 493  686.1717
 494  675.8621
 495  626.7726
 496  608.1552
 497  628.269
 498  679.7459
 499  690.2452
 500  682.0671
 501  666.3342
 502  703.326
 503  664.3975
 504  673.6962
 505  619.2846
 506  594.2901
 507  713.2878
 508  748.3149
 509  722.4311
 510  616.6751
 511  663.9411
