# Input file       =  1182835593.123291_cleaned.dat
# Candidate        =  PSR_0332+5434
# Telescope        =  AR
# Epoch_topo       =  57934.226992167722
# Epoch_bary       =  N/A
# T_sample         =  0.002
# Data Folded      =  7340032
# Data Avg         =  0.136588568905219
# Data StdDev      =  3.18272513555898 
# Profile Bins     =  512
# Profile Avg      =  1958.21894460114 
# Profile StdDev   =  381.077344433132 
# Reduced chi-sqr  =  1.010
# Prob(Noise)      <  0.426   (~0.2 sigma)
# P_topo (ms)      =  714.489859732503  +/- 0.000559
# P'_topo (s/s)    =  -0                +/- 2.95e-10
# P''_topo (s/s^2) =  0                 +/- 1.3e-13
# P_bary (ms)      =  N/A
# P'_bary (s/s)    =  N/A
# P''_bary (s/s^2) =  N/A
# P_orb (s)        =  N/A
# asin(i)/c (s)    =  N/A
# eccentricity     =  N/A
# w (rad)          =  N/A
# T_peri           =  N/A
######################################################
   0  1883.947
   1  1979.207
   2  2075.71
   3  1726.977
   4  1787.228
   5  1518.312
   6  1561.01
   7  1313.224
   8  1405.833
   9  1356.242
  10  1618.03
  11  1885.032
  12  1809.002
  13  1567.763
  14  1605.406
  15  1685.925
  16  1646.548
  17  2007.786
  18  2008.736
  19  1860.447
  20  1861.847
  21  1991.988
  22  2118.616
  23  2078.829
  24  2058.586
  25  1756.33
  26  1712.13
  27  1648.229
  28  1917.062
  29  2180.54
  30  2032.794
  31  1793.035
  32  1997.829
  33  1864.098
  34  1862.405
  35  1733.948
  36  1744.372
  37  1985.543
  38  1734.109
  39  1589.502
  40  1304.952
  41  1879.948
  42  1725.799
  43  1661.837
  44  1498.935
  45  1637.226
  46  1696.547
  47  1880.365
  48  1818.585
  49  1648.76
  50  1644.138
  51  1891.418
  52  1530.932
  53  1692.443
  54  1911.343
  55  1779.414
  56  1808.697
  57  2000.601
  58  2055.959
  59  2259.248
  60  2146.929
  61  1988.598
  62  2238.566
  63  2274.021
  64  1928.166
  65  1739.629
  66  1965.547
  67  1806.311
  68  1908.159
  69  1869.075
  70  1896.308
  71  1598.736
  72  1743.356
  73  1929.351
  74  1580.542
  75  1945.229
  76  2233.76
  77  1901.094
  78  1776.482
  79  1972.425
  80  1990.228
  81  1984.479
  82  2015.076
  83  1868.819
  84  1695.234
  85  1566.962
  86  1892.448
  87  2051.024
  88  2091.711
  89  2205.415
  90  2109.575
  91  1930.818
  92  2068.227
  93  2352.231
  94  2091.191
  95  2186.587
  96  2291.28
  97  2158.771
  98  2179.629
  99  2340.465
 100  2017.895
 101  1766.877
 102  1790.284
 103  1979.63
 104  2100.528
 105  2327.564
 106  2087.294
 107  2065.746
 108  2018.956
 109  2172.063
 110  2005.818
 111  1898.529
 112  1980.789
 113  2101.533
 114  2282.685
 115  2312.081
 116  2016.289
 117  2084.411
 118  2139.701
 119  1962.195
 120  2015.14
 121  2044.671
 122  2166.561
 123  2115.383
 124  2137.545
 125  2219.185
 126  2315.837
 127  2538.082
 128  2449.373
 129  2293.016
 130  2338.188
 131  2387.925
 132  2333.771
 133  2356.867
 134  2053.452
 135  2058.602
 136  2260.841
 137  2419.458
 138  2219.44
 139  2086.241
 140  2309.717
 141  2361.632
 142  2330.136
 143  2161.767
 144  2290.468
 145  2262.325
 146  2187.085
 147  2057.908
 148  2494.167
 149  2690.438
 150  2874.906
 151  2369.015
 152  2270.202
 153  2150.688
 154  2022.974
 155  2080.842
 156  2035.364
 157  2021.619
 158  1802.773
 159  2038.129
 160  2115.318
 161  2156.196
 162  1881.375
 163  1830.196
 164  2085.24
 165  1777.187
 166  1460.314
 167  1456.337
 168  1615.522
 169  1742.494
 170  1915.897
 171  1815.08
 172  1850.377
 173  2122.79
 174  2004.888
 175  1721.974
 176  1822.23
 177  1840.542
 178  1914.113
 179  1895.305
 180  1877.429
 181  2179.505
 182  2037.489
 183  2062.459
 184  1847.221
 185  2155.126
 186  2400.894
 187  2195.745
 188  2109.03
 189  2251.453
 190  2053.919
 191  1928.221
 192  1928.19
 193  2067.235
 194  1943.042
 195  2184.59
 196  1883.321
 197  1931.856
 198  1954.776
 199  2047.496
 200  1852.117
 201  1844.673
 202  1833.951
 203  1935.48
 204  2084.14
 205  1733.931
 206  1956.197
 207  2150.942
 208  2187.529
 209  1818.724
 210  1884.02
 211  2090.629
 212  2005.824
 213  2016.701
 214  2065.668
 215  2100.208
 216  1980.911
 217  1810.726
 218  1816.193
 219  1920.589
 220  1884.611
 221  1883.649
 222  1732.867
 223  1909.272
 224  1856.868
 225  2032.415
 226  1985.157
 227  2097.743
 228  2139.686
 229  2028.593
 230  1863.303
 231  1817.482
 232  2047.606
 233  2121.927
 234  2138.175
 235  2161.367
 236  1949.438
 237  2042.098
 238  1894.357
 239  1895.576
 240  1808.329
 241  1790.955
 242  1597.929
 243  1832.55
 244  1761.031
 245  1726.013
 246  1913.508
 247  1767.032
 248  1897.737
 249  1988.216
 250  2001.941
 251  2001.497
 252  1844.018
 253  1704.624
 254  1459.706
 255  1619.674
 256  1542.485
 257  1624.226
 258  1812.517
 259  2138.831
 260  1956.884
 261  1895.48
 262  1879.049
 263  2216.875
 264  2162.809
 265  2202.496
 266  1964.691
 267  1995.52
 268  2185.787
 269  2077.189
 270  1922.088
 271  2226.148
 272  2126.195
 273  1949.347
 274  2078.717
 275  2252.971
 276  2183.578
 277  1934.252
 278  1851.873
 279  1620.632
 280  1672.727
 281  1866.17
 282  2240.986
 283  2210.112
 284  2379.415
 285  2173.197
 286  1954.179
 287  1894.024
 288  2039.715
 289  2360.494
 290  2097.567
 291  2119.851
 292  2003.105
 293  2273.802
 294  2352.309
 295  2051.752
 296  1985.132
 297  2180.434
 298  2143.355
 299  1873.181
 300  2088.523
 301  2295.709
 302  2407.654
 303  2169.8
 304  2221.772
 305  2072.017
 306  2209.442
 307  2035.416
 308  2243.347
 309  2275.177
 310  1898.783
 311  1867.536
 312  1901.693
 313  1993.462
 314  2075.59
 315  2055.481
 316  2198.691
 317  2332.355
 318  2363.555
 319  2343.785
 320  2263.973
 321  2103.037
 322  2522.115
 323  2354.799
 324  2461.976
 325  3276.244
 326  3644.466
 327  3528.848
 328  3185.047
 329  2783.9
 330  2441.719
 331  2117.354
 332  1970.269
 333  1977.795
 334  1765.765
 335  1814.296
 336  2202.876
 337  2187.244
 338  1659.024
 339  1787.155
 340  1928.673
 341  1955.037
 342  1993.496
 343  1912.266
 344  1434.898
 345  1474.021
 346  1623.587
 347  1929.505
 348  1672.843
 349  1521.277
 350  1410.602
 351  1419.495
 352  1743.834
 353  1453.422
 354  1332.209
 355  1652.192
 356  1772.637
 357  1772.75
 358  1975.196
 359  1892.792
 360  1805.58
 361  1888.926
 362  1607.034
 363  1629.991
 364  1896.923
 365  1913.879
 366  1655
 367  1680.654
 368  1696.674
 369  1681.785
 370  1629.74
 371  1522.5
 372  1640.735
 373  1843.849
 374  1928.152
 375  1984.148
 376  1838.803
 377  2164.079
 378  2171.714
 379  2042.018
 380  1898.109
 381  1896.997
 382  2083.578
 383  2440.171
 384  2223.421
 385  2232.454
 386  1970.842
 387  1886.449
 388  2274.778
 389  2197.15
 390  2186.281
 391  2370.279
 392  1962.171
 393  1858.518
 394  1977.462
 395  1897.516
 396  1888.462
 397  2020.05
 398  2322.191
 399  2243.108
 400  2379.458
 401  2251.649
 402  1958.267
 403  2070.676
 404  2287.252
 405  2289.833
 406  1839.33
 407  1856.303
 408  2176.396
 409  2176.725
 410  2097.447
 411  2106.331
 412  1818.643
 413  1438.432
 414  1603.006
 415  2133.156
 416  2347.506
 417  2348.342
 418  1994.432
 419  1429.598
 420  1483.948
 421  1333.432
 422  1426.863
 423  1580.54
 424  1675.13
 425  1805.602
 426  1524.688
 427  1538.748
 428  1745.217
 429  1484.537
 430  1642.236
 431  1785.79
 432  1643.683
 433  1783.065
 434  1900.642
 435  1642.108
 436  1676.21
 437  1725.926
 438  1627.918
 439  1723.083
 440  1951.759
 441  2164.173
 442  1797.911
 443  1590.821
 444  1781.064
 445  1889.441
 446  2017.401
 447  2001.683
 448  1755.558
 449  1743.588
 450  1686.407
 451  1737.032
 452  1775.897
 453  1545.18
 454  1472.273
 455  1548.122
 456  1689.673
 457  1799.826
 458  1820.926
 459  1778.084
 460  1769.124
 461  1708.035
 462  2088.345
 463  2107.8
 464  2070.859
 465  2066.655
 466  1821.998
 467  1790.516
 468  1836.868
 469  1897.064
 470  2064.998
 471  1936.037
 472  1778.174
 473  1740.158
 474  1790.31
 475  2014.251
 476  1958.089
 477  1882.668
 478  1745.859
 479  2049.275
 480  2008.972
 481  1874.63
 482  2020.177
 483  2045.787
 484  2084.414
 485  2102.198
 486  1606.599
 487  1732.402
 488  1987.734
 489  1860.624
 490  1770.35
 491  1922.144
 492  1953.097
 493  1985.223
 494  2168.711
 495  1591.579
 496  1562.987
 497  1873.4
 498  2081.91
 499  2180.428
 500  1774.264
 501  2089.104
 502  1934.618
 503  1631.931
 504  1718.464
 505  1775.628
 506  1825.698
 507  2018.783
 508  1999.698
 509  1694.77
 510  1537.576
 511  1600.561
