# Input file       =  1182505911.106921_cleaned.dat
# Candidate        =  PSR_0332+5434
# Telescope        =  AR
# Epoch_topo       =  57930.411228089361
# Epoch_bary       =  N/A
# T_sample         =  0.002
# Data Folded      =  7340032
# Data Avg         =  0.85694223657213 
# Data StdDev      =  23.7780321192383 
# Profile Bins     =  512
# Profile Avg      =  12285.0114709792 
# Profile StdDev   =  2847.01598470067 
# Reduced chi-sqr  =  0.871
# Prob(Noise)      <  0.984   (~0.0 sigma)
# P_topo (ms)      =  714.493375616262  +/- 0.000578
# P'_topo (s/s)    =  -0                +/- 3.05e-10
# P''_topo (s/s^2) =  0                 +/- 1.35e-13
# P_bary (ms)      =  N/A
# P'_bary (s/s)    =  N/A
# P''_bary (s/s^2) =  N/A
# P_orb (s)        =  N/A
# asin(i)/c (s)    =  N/A
# eccentricity     =  N/A
# w (rad)          =  N/A
# T_peri           =  N/A
######################################################
   0  12349.65
   1  12336.38
   2  12041.7
   3  10368.44
   4  9598.085
   5  10506.43
   6  10757
   7  10895.48
   8  10414.75
   9  9194.064
  10  9354.15
  11  9572.575
  12  9230.394
  13  9103.764
  14  9827.009
  15  9880.874
  16  10124.35
  17  10204.29
  18  10466.84
  19  10744.1
  20  10367.02
  21  9717.683
  22  9219.488
  23  9635.285
  24  9128.365
  25  9239.041
  26  9422.505
  27  8576.203
  28  8724.065
  29  9675.511
  30  9620.955
  31  10456.24
  32  10203
  33  9589.495
  34  9738.762
  35  10092.54
  36  10165.87
  37  9794.398
  38  10171.6
  39  11016.41
  40  10830.78
  41  11925.66
  42  12377.31
  43  12357.65
  44  11392.67
  45  10754.58
  46  11897.16
  47  11660.96
  48  11828.85
  49  11191.05
  50  11246.65
  51  11462.97
  52  11735.61
  53  9798.741
  54  8330.368
  55  8504.952
  56  8775.403
  57  8515.513
  58  8716.9
  59  8087.546
  60  8612.372
  61  9540.717
  62  9876.997
  63  10177.34
  64  10375
  65  10580.62
  66  10926.56
  67  11721.05
  68  11571.48
  69  11845.13
  70  12427.46
  71  11179.99
  72  11079.05
  73  10166.42
  74  10819.86
  75  10756.37
  76  10263.28
  77  10082.87
  78  10543.29
  79  11483.3
  80  11024.49
  81  12103.15
  82  12873.24
  83  12787.42
  84  13840.7
  85  12875.92
  86  12344.75
  87  11179.22
  88  11130.5
  89  11113.62
  90  10500.99
  91  11230.96
  92  10922.96
  93  9972.343
  94  10800.59
  95  11637.4
  96  12115.54
  97  13982.42
  98  12860.32
  99  12351.13
 100  12046.99
 101  11669.46
 102  12273.25
 103  13278.03
 104  15774.79
 105  16162.14
 106  14877.94
 107  14327.72
 108  14866.49
 109  14923.46
 110  14260.98
 111  13649.5
 112  12961.27
 113  12832.42
 114  10245.6
 115  9944.386
 116  11238.69
 117  12005.05
 118  12964.02
 119  11851.51
 120  11675.63
 121  12631.34
 122  13397.33
 123  14894.33
 124  15490.78
 125  13881.58
 126  15233.19
 127  16588.07
 128  15207.46
 129  14175.34
 130  14662.51
 131  14137.05
 132  15053.15
 133  17205.78
 134  16969.18
 135  16306.22
 136  16204.06
 137  15492.24
 138  15137.21
 139  15331.12
 140  14228.48
 141  14407.78
 142  12913.39
 143  10302.49
 144  10536.17
 145  11115.33
 146  11057.87
 147  12399.13
 148  12809.28
 149  13036.99
 150  14671.35
 151  15874.24
 152  14878.02
 153  15531.33
 154  15770.12
 155  14249.57
 156  13719.6
 157  12881.1
 158  13255.74
 159  12596.48
 160  11660.9
 161  11537.02
 162  11818.14
 163  11526.95
 164  10638.87
 165  12423.63
 166  12792.04
 167  12501.16
 168  11239.69
 169  12212.2
 170  13133.19
 171  13679
 172  13168.27
 173  13094.98
 174  13217.38
 175  12637.1
 176  12711.45
 177  12351.8
 178  12165.96
 179  12191.3
 180  12381.13
 181  12869.19
 182  13337.17
 183  13736.51
 184  12991.34
 185  12837.68
 186  12827.98
 187  12352.6
 188  12069.28
 189  11378.72
 190  9965.442
 191  9238.152
 192  9023.739
 193  9798.816
 194  11213.3
 195  11776.25
 196  11648.75
 197  11060.15
 198  11529.25
 199  12305.96
 200  13078.43
 201  13089.55
 202  13504.37
 203  14312.65
 204  13518.86
 205  13289.34
 206  13277.83
 207  12819.2
 208  12704.35
 209  12644.14
 210  12882.76
 211  13426.03
 212  12363.69
 213  12313.54
 214  12750.41
 215  12997.41
 216  12235.93
 217  12636.13
 218  14561.53
 219  14182.38
 220  12954.63
 221  11391.12
 222  10229.72
 223  11227.27
 224  13445.91
 225  14157.95
 226  14299.56
 227  14442.58
 228  15617.11
 229  15047.8
 230  14766.29
 231  14590.12
 232  15201.01
 233  14962.65
 234  13660.49
 235  12172.27
 236  12268.78
 237  14552.81
 238  13309.94
 239  12547.08
 240  12492.37
 241  10656.96
 242  11446.49
 243  11517.81
 244  10649.78
 245  11259.84
 246  12325.48
 247  10389.86
 248  9017.111
 249  9183.312
 250  10128.82
 251  11248.1
 252  11459.89
 253  11281.1
 254  12368.47
 255  13578.17
 256  14398.88
 257  13848.73
 258  13679.31
 259  13638.4
 260  13362.33
 261  13348.69
 262  12825.26
 263  13868.27
 264  13602.74
 265  12593.98
 266  13074.33
 267  12516.25
 268  13240.88
 269  14586.63
 270  13757.58
 271  13438.96
 272  14718.43
 273  13155.47
 274  13103.1
 275  13152.63
 276  11841.68
 277  12343.03
 278  12768.15
 279  12589.36
 280  12191.73
 281  11452.95
 282  11010.63
 283  12127.88
 284  14604.61
 285  15942.06
 286  15174.52
 287  13171.15
 288  12614.59
 289  12510.42
 290  13153.85
 291  13192.64
 292  13951.85
 293  14397.49
 294  14622.61
 295  15302.93
 296  15394.91
 297  14672.1
 298  14650.51
 299  14061.58
 300  14562.57
 301  14920.51
 302  15009.84
 303  14364.51
 304  13837.15
 305  14806.65
 306  15671.47
 307  14637.39
 308  14766.88
 309  13082.47
 310  13109.91
 311  13597.89
 312  13340.08
 313  13379.08
 314  13074.63
 315  14810.83
 316  16703.96
 317  14785.4
 318  13682.12
 319  13861.96
 320  14613.67
 321  14188.58
 322  14028.19
 323  13420.05
 324  14101.54
 325  15111.12
 326  15628.08
 327  14872.9
 328  14692.14
 329  12796.07
 330  10653.84
 331  9647.983
 332  10660.56
 333  11155.26
 334  10901.81
 335  11861.13
 336  11599.28
 337  12159.31
 338  12393.5
 339  12031.53
 340  11701.52
 341  11770.28
 342  11391.17
 343  12943.51
 344  12230.86
 345  10928.81
 346  10910.16
 347  10356.71
 348  11500.33
 349  12456.81
 350  11774.36
 351  11294.8
 352  11496.9
 353  10713
 354  10616.93
 355  10914.38
 356  11606.31
 357  11797.11
 358  12114.08
 359  12474.51
 360  10992.33
 361  11657.31
 362  12814.15
 363  13339.91
 364  13752.58
 365  13934.86
 366  12531.77
 367  11868.31
 368  11998.54
 369  11326.39
 370  11205.78
 371  12295.23
 372  12030.52
 373  11642.25
 374  11343.72
 375  10630.63
 376  10710.84
 377  11603.6
 378  10911.8
 379  10536.88
 380  12308.36
 381  12785.72
 382  12688.64
 383  13853.28
 384  15252.77
 385  15871.09
 386  15273.97
 387  14839.09
 388  14200.22
 389  13152.96
 390  12910.62
 391  13029.02
 392  13009.25
 393  13549.51
 394  13782.97
 395  13962.51
 396  13855.64
 397  14077.46
 398  15443.28
 399  16297.59
 400  16205.04
 401  16816.62
 402  16027.84
 403  15284.06
 404  16098.54
 405  16809.4
 406  17310.98
 407  16497.44
 408  17789.87
 409  18244.66
 410  17771.84
 411  17734.29
 412  15798.12
 413  13854.54
 414  13786.38
 415  14235.1
 416  14107.15
 417  14491.14
 418  13256.98
 419  13394.86
 420  12494.89
 421  11717.32
 422  11073.35
 423  10971.45
 424  10033.78
 425  9540.492
 426  10130.23
 427  11194.54
 428  11295.81
 429  11413.63
 430  11212.65
 431  10876.01
 432  10838.99
 433  10918.84
 434  10607.05
 435  11026.71
 436  11812.66
 437  11985.95
 438  12390.62
 439  12410.66
 440  10293.1
 441  9523.262
 442  10518.67
 443  11445.47
 444  11252.93
 445  10058.5
 446  9470.513
 447  10406.54
 448  9831.012
 449  10507
 450  10910.61
 451  11519.14
 452  11814.18
 453  11466.19
 454  12123.91
 455  11468.14
 456  11667.67
 457  10999.96
 458  11151.06
 459  12038.02
 460  9847.261
 461  9285.277
 462  8858.648
 463  9114.994
 464  9638.303
 465  9948.819
 466  10209.14
 467  10261.65
 468  11085.08
 469  11089.84
 470  10428.09
 471  11480.62
 472  12561.99
 473  12745.34
 474  12690.8
 475  11999.22
 476  12267.27
 477  12069
 478  12919.76
 479  12181.18
 480  12370.7
 481  11384.95
 482  11614.17
 483  10911.25
 484  10096.74
 485  9402.711
 486  9191.447
 487  9136.478
 488  9497.887
 489  9085.702
 490  8880.866
 491  9774.524
 492  10227.54
 493  11024.08
 494  10493.32
 495  10456.7
 496  10155.15
 497  10196.56
 498  11515.83
 499  11538.95
 500  11857.16
 501  10382.2
 502  9580.614
 503  9670.665
 504  9893.506
 505  10216.28
 506  11373.26
 507  11878.77
 508  12138
 509  12444.12
 510  12507.44
 511  11845.61
