# Input file       =  1182835593.123291_cleaned.dat
# Candidate        =  PSR_0332+5434
# Telescope        =  AR
# Epoch_topo       =  57934.226992167722
# Epoch_bary       =  N/A
# T_sample         =  0.002
# Data Folded      =  7340032
# Data Avg         =  0.136588568905219
# Data StdDev      =  3.18272513555898 
# Profile Bins     =  1024
# Profile Avg      =  979.109472288764 
# Profile StdDev   =  269.462374405229 
# Reduced chi-sqr  =  0.933
# Prob(Noise)      <  0.938   (~0.0 sigma)
# P_topo (ms)      =  714.489859908728  +/- 0.000557
# P'_topo (s/s)    =  -0                +/- 2.94e-10
# P''_topo (s/s^2) =  0                 +/- 1.3e-13
# P_bary (ms)      =  N/A
# P'_bary (s/s)    =  N/A
# P''_bary (s/s^2) =  N/A
# P_orb (s)        =  N/A
# asin(i)/c (s)    =  N/A
# eccentricity     =  N/A
# w (rad)          =  N/A
# T_peri           =  N/A
######################################################
   0  924.4568
   1  977.7907
   2  986.1387
   3  1066.651
   4  1035.016
   5  930.2856
   6  849.8232
   7  869.4066
   8  940.147
   9  808.2114
  10  773.7189
  11  731.4449
  12  790.2054
  13  728.134
  14  641.6473
  15  632.8376
  16  709.6746
  17  741.0572
  18  650.5121
  19  707.9944
  20  782.5154
  21  935.1207
  22  939.788
  23  962.0227
  24  907.7639
  25  818.8289
  26  778.0814
  27  789.8082
  28  817.1971
  29  814.5535
  30  880.0428
  31  781.0365
  32  855.5773
  33  834.06
  34  1051.963
  35  1011.944
  36  1020.287
  37  952.1044
  38  930.7876
  39  894.7657
  40  931.9412
  41  1016.565
  42  965.1786
  43  1052.523
  44  1026.462
  45  1092.516
  46  1019.125
  47  1065.613
  48  1026.598
  49  972.7972
  50  894.04
  51  792.6912
  52  903.0994
  53  804.9517
  54  858.2243
  55  783.4542
  56  990.8705
  57  1054.878
  58  1103.481
  59  1091.159
  60  1012.271
  61  923.2117
  62  870.1838
  63  990.3833
  64  978.6738
  65  1030.127
  66  870.3376
  67  954.6362
  68  907.8864
  69  928.2414
  70  882.4061
  71  796.9286
  72  889.2512
  73  926.5635
  74  1026.888
  75  946.1149
  76  859.2336
  77  808.017
  78  826.7556
  79  652.7984
  80  655.689
  81  768.0721
  82  965.8995
  83  970.1196
  84  833.2006
  85  864.3642
  86  814.8104
  87  819.1948
  88  710.3467
  89  804.8088
  90  804.0908
  91  846.5278
  92  835.921
  93  879.6676
  94  973.564
  95  921.1982
  96  930.9867
  97  832.0859
  98  830.9335
  99  772.9647
 100  833.7396
 101  878.4513
 102  984.0948
 103  887.6526
 104  743.9033
 105  740.3211
 106  830.4258
 107  987.4432
 108  937.3206
 109  950.095
 110  870.5127
 111  905.9853
 112  907.4152
 113  920.0081
 114  1035.029
 115  1004.966
 116  1047.269
 117  1010.408
 118  1180.111
 119  1107.364
 120  1096.519
 121  971.1481
 122  1003.163
 123  1020.519
 124  1134.384
 125  1166.63
 126  1134.611
 127  1086.486
 128  937.087
 129  933.1082
 130  818.9167
 131  956.9166
 132  975.9948
 133  967.6581
 134  887.905
 135  896.8505
 136  989.6292
 137  934.3203
 138  943.52
 139  917.6827
 140  1005.843
 141  857.8734
 142  784.0933
 143  765.5837
 144  877.2742
 145  976.0536
 146  973.2562
 147  874.6865
 148  767.1044
 149  833.921
 150  958.8492
 151  1162.904
 152  1077.943
 153  1093.407
 154  924.7863
 155  892.8112
 156  872.0742
 157  922.2506
 158  1022.623
 159  975.4535
 160  1010.904
 161  952.4891
 162  1023.553
 163  970.2922
 164  1027.717
 165  966.6396
 166  938.0927
 167  892.6917
 168  839.717
 169  798.2951
 170  767.3217
 171  865.8792
 172  937.7003
 173  1024.564
 174  1026.756
 175  1026.059
 176  1046.581
 177  1069.575
 178  1110.388
 179  1106.436
 180  1082.516
 181  961.4089
 182  988.0214
 183  913.5722
 184  1066.542
 185  1102.98
 186  1239.947
 187  1077.018
 188  1044.749
 189  1044.635
 190  1074.75
 191  1185.61
 192  1133.113
 193  1131.674
 194  1047.948
 195  1104.204
 196  1066.522
 197  1129.414
 198  1194.496
 199  1119.167
 200  1023.066
 201  899.3463
 202  900.3032
 203  823.2165
 204  931.8727
 205  911.4285
 206  1024.094
 207  974.2284
 208  1070.568
 209  1110.101
 210  1180.557
 211  1150.453
 212  1013.539
 213  1029.015
 214  1001.698
 215  1075.171
 216  956.4224
 217  1053.95
 218  1081.898
 219  1106.847
 220  1004.243
 221  958.2299
 222  953.4922
 223  921.0266
 224  1014.292
 225  981.1012
 226  1105.029
 227  1013.825
 228  1196.282
 229  1168.448
 230  1171.325
 231  1090.728
 232  972.7015
 233  1011.045
 234  1027.731
 235  1108.944
 236  1075.66
 237  1014.684
 238  978.6779
 239  983.0421
 240  1015.817
 241  1000.561
 242  1027.081
 243  1063.246
 244  1094.613
 245  1037.387
 246  1079.352
 247  1027.971
 248  1096.748
 249  1060.613
 250  1120.176
 251  1103.064
 252  1160.141
 253  1248.149
 254  1246.202
 255  1285.652
 256  1223.695
 257  1194.361
 258  1130.931
 259  1182.191
 260  1152.799
 261  1196.033
 262  1188.277
 263  1185.533
 264  1167.194
 265  1165.166
 266  1200.508
 267  1079.738
 268  1055.31
 269  933.0929
 270  1052.623
 271  1058.924
 272  1156.177
 273  1151.182
 274  1236.915
 275  1225.418
 276  1086.072
 277  1050.862
 278  994.5327
 279  1162.253
 280  1101.302
 281  1247.917
 282  1143.953
 283  1191.374
 284  1163.969
 285  1116.514
 286  1090.627
 287  1067.971
 288  1178.594
 289  1113.613
 290  1162.173
 291  1109.813
 292  1104.009
 293  988.4562
 294  1012.543
 295  1153.871
 296  1247.33
 297  1324.745
 298  1321.659
 299  1467.452
 300  1447.106
 301  1309.121
 302  1166.402
 303  1160.787
 304  1125.017
 305  1115.446
 306  1075.564
 307  1041.005
 308  990.347
 309  1042.724
 310  1043.741
 311  992.3802
 312  1017.107
 313  1065.971
 314  1003.568
 315  929.8368
 316  857.8684
 317  983.0062
 318  989.0228
 319  1061.95
 320  1052.55
 321  1124.577
 322  1086.848
 323  982.507
 324  943.5193
 325  933.1514
 326  914.8055
 327  935.2912
 328  1072.119
 329  1038.848
 330  903.3232
 331  708.7069
 332  759.3669
 333  669.6588
 334  755.1989
 335  735.4646
 336  833.4869
 337  806.64
 338  870.2403
 339  974.4766
 340  951.4424
 341  939.9391
 342  873.9984
 343  951.5349
 344  890.0791
 345  997.1582
 346  1047.31
 347  1141.508
 348  988.8804
 349  876.6907
 350  875.0469
 351  871.1738
 352  954.5405
 353  822.5265
 354  967.0462
 355  931.504
 356  979.8328
 357  904.0507
 358  955.4728
 359  947.7661
 360  915.6672
 361  1026.663
 362  1094.841
 363  1130.703
 364  958.1381
 365  1060.445
 366  1019.051
 367  1000.413
 368  914.3961
 369  921.8259
 370  1096.443
 371  1181.789
 372  1231.998
 373  1101.373
 374  1104.901
 375  1059.816
 376  1087.112
 377  1038.859
 378  1137.182
 379  1137.986
 380  997.7424
 381  994.1386
 382  942.6855
 383  962.1129
 384  939.0984
 385  1080.935
 386  1028.601
 387  942.6997
 388  917.7778
 389  1135.79
 390  1119.114
 391  979.4973
 392  954.9155
 393  926.226
 394  1000.831
 395  926.2366
 396  1001.318
 397  968.8453
 398  1065.087
 399  943.3472
 400  942.9886
 401  887.1976
 402  922.1832
 403  932.0224
 404  888.7198
 405  969.405
 406  938.1976
 407  1088.171
 408  1022.967
 409  981.4435
 410  816.8216
 411  915.2269
 412  993.1285
 413  996.9342
 414  1100.13
 415  1113.457
 416  1117.294
 417  942.111
 418  921.5903
 419  880.7219
 420  949.8314
 421  997.5737
 422  1066.957
 423  1032.253
 424  990.4075
 425  1014.758
 426  989.7862
 427  1041.48
 428  1034.468
 429  1045.062
 430  1066.848
 431  1017.251
 432  1006.848
 433  944.8407
 434  905.2098
 435  862.1935
 436  907.9257
 437  949.2659
 438  992.2469
 439  893.7357
 440  955.3467
 441  966.309
 442  954.544
 443  845.7098
 444  853.1026
 445  931.2157
 446  954.0125
 447  974.3094
 448  892.1457
 449  1017.713
 450  986.7179
 451  1065.505
 452  976.4604
 453  969.0437
 454  1069.871
 455  1084.229
 456  1081.445
 457  1002.688
 458  1015.428
 459  990.4846
 460  939.8374
 461  877.5493
 462  903.7019
 463  965.2253
 464  1014.731
 465  1080.76
 466  1047.968
 467  1057.19
 468  1063.429
 469  1112.373
 470  1096.95
 471  1008.838
 472  962.1575
 473  1005.12
 474  1039.956
 475  968.5275
 476  949.0706
 477  945.1855
 478  976.2947
 479  876.0412
 480  909.4263
 481  950.2227
 482  895.7657
 483  801.0583
 484  785.5485
 485  822.6568
 486  936.2798
 487  932.4901
 488  874.1281
 489  848.1268
 490  829.8394
 491  955.841
 492  950.3628
 493  952.1885
 494  851.1546
 495  919.085
 496  929.3086
 497  1033.292
 498  984.787
 499  978.6453
 500  998.1755
 501  1027.729
 502  1022.945
 503  905.5858
 504  916.4833
 505  905.3743
 506  886.2334
 507  754.3738
 508  713.2198
 509  771.0573
 510  798.6318
 511  856.0717
 512  730.5667
 513  784.5017
 514  789.997
 515  900.748
 516  867.4752
 517  1015.243
 518  1064.19
 519  1103.217
 520  934.1685
 521  944.0179
 522  960.2509
 523  907.0338
 524  940.2062
 525  1005.061
 526  1145.838
 527  1084.557
 528  1082.65
 529  1082.822
 530  1113.286
 531  1073.859
 532  979.2707
 533  936.0172
 534  968.9727
 535  1111.6
 536  1059.191
 537  1141.433
 538  1014.268
 539  994.2303
 540  947.7489
 541  1035.864
 542  1124.782
 543  1101.44
 544  1056.183
 545  997.9631
 546  981.704
 547  945.8763
 548  1058.226
 549  1110.069
 550  1127.837
 551  1117.959
 552  1078.14
 553  1067.99
 554  923.2789
 555  979.1548
 556  919.0201
 557  887.6074
 558  778.7527
 559  831.1293
 560  827.4435
 561  834.8397
 562  942.5499
 563  1043.293
 564  1148.956
 565  1091.068
 566  1115.217
 567  1129.927
 568  1201.1
 569  1154.282
 570  1097.694
 571  1013.13
 572  957.5055
 573  1008.572
 574  913.7888
 575  987.6481
 576  973.0101
 577  1165.053
 578  1195.713
 579  1113.658
 580  1020.727
 581  1087.446
 582  1069.218
 583  1011.968
 584  987.6302
 585  1030.547
 586  1171.304
 587  1171.739
 588  1202.891
 589  1095.1
 590  1017.819
 591  945.8533
 592  994.2219
 593  1032.633
 594  1105.716
 595  1130.263
 596  1071.145
 597  984.4084
 598  910.5704
 599  989.3582
 600  1047.196
 601  1107.58
 602  1140.944
 603  1204.144
 604  1220.315
 605  1142.812
 606  1070.372
 607  1091.247
 608  1143.533
 609  1024.798
 610  1059.952
 611  1014.539
 612  1141.417
 613  1070.742
 614  1012.315
 615  999.7493
 616  1116.763
 617  1241.436
 618  1155.562
 619  996.0854
 620  935.6495
 621  965.7186
 622  942.6951
 623  898.084
 624  955.5336
 625  961.7613
 626  1015.843
 627  989.0212
 628  1069.537
 629  1025.405
 630  1021.246
 631  1044.054
 632  1114.401
 633  1126.008
 634  1193.112
 635  1151.199
 636  1171.531
 637  1223.954
 638  1128.925
 639  1185.401
 640  1098.672
 641  1129.937
 642  1027.774
 643  1141.135
 644  1292.1
 645  1257.243
 646  1193.296
 647  1075.527
 648  1253.196
 649  1384.21
 650  1659.916
 651  1797.984
 652  1833.093
 653  1818.866
 654  1758.138
 655  1695.562
 656  1597.891
 657  1464.682
 658  1395.482
 659  1323.497
 660  1225.637
 661  1135.914
 662  1015.604
 663  1057.019
 664  970.5294
 665  996.937
 666  981.2961
 667  964.7329
 668  883.9225
 669  818.6012
 670  900.2756
 671  1011.178
 672  1125.937
 673  1139.353
 674  1122.688
 675  951.5339
 676  841.0608
 677  743.5906
 678  906.3976
 679  938.1588
 680  968.6568
 681  969.5599
 682  971.4548
 683  1016.135
 684  950.067
 685  1068.073
 686  949.251
 687  817.571
 688  710.0339
 689  727.9786
 690  756.7975
 691  728.4489
 692  813.1846
 693  889.0331
 694  1004.509
 695  887.9122
 696  853.6551
 697  746.6857
 698  771.71
 699  753.8257
 700  705.4039
 701  672.3378
 702  685.033
 703  852.2474
 704  852.0989
 705  854.3691
 706  707.3255
 707  679.705
 708  654.474
 709  722.9437
 710  847.5888
 711  877.9494
 712  895.4778
 713  844.0037
 714  910.7102
 715  911.2789
 716  1007.45
 717  969.4214
 718  959.9615
 719  875.9443
 720  888.9086
 721  988.5083
 722  929.205
 723  877.5785
 724  769.1895
 725  825.8087
 726  790.7943
 727  874.4771
 728  932.298
 729  1038.868
 730  946.9295
 731  904.3906
 732  810.4149
 733  794.5508
 734  869.2844
 735  833.2728
 736  900.2562
 737  775.4431
 738  883.6743
 739  814.0376
 740  813.2315
 741  754.4146
 742  777.7067
 743  779.3735
 744  818.0734
 745  896.0137
 746  886.1173
 747  1011.001
 748  936.7078
 749  974.4418
 750  995.9307
 751  993.0312
 752  891.5117
 753  948.7164
 754  1083.512
 755  1135.71
 756  1093.229
 757  1018.703
 758  1062.241
 759  947.1226
 760  960.5033
 761  915.0092
 762  965.3926
 763  944.9793
 764  1051.534
 765  1163.219
 766  1245.351
 767  1193.248
 768  1069.757
 769  1132.622
 770  1064.476
 771  1161.359
 772  957.2369
 773  931.3825
 774  904.2068
 775  1079.963
 776  1149.193
 777  1113.063
 778  1111.887
 779  1076.977
 780  1090.798
 781  1102.561
 782  1227.202
 783  1105.299
 784  993.291
 785  863.7864
 786  939.3952
 787  1000.579
 788  980.3153
 789  979.4905
 790  924.5667
 791  986.3892
 792  931.8613
 793  963.0519
 794  981.4099
 795  1141.596
 796  1159.533
 797  1132.976
 798  1129.917
 799  1111.553
 800  1208.988
 801  1191.149
 802  1133.669
 803  999.9929
 804  985.1282
 805  964.8839
 806  1038.125
 807  1137.526
 808  1128.794
 809  1173.178
 810  1132.287
 811  1103.711
 812  897.2277
 813  843.3569
 814  904.0452
 815  1082.569
 816  1083.911
 817  1069.094
 818  1079.644
 819  1096.713
 820  1076.222
 821  980.0011
 822  1106.918
 823  991.6108
 824  944.8287
 825  752.7141
 826  724.0032
 827  693.4997
 828  773.8205
 829  958.47
 830  1080.484
 831  1160.282
 832  1151.915
 833  1211.848
 834  1170.219
 835  1139.973
 836  996.7253
 837  824.7711
 838  704.6445
 839  695.887
 840  761.8363
 841  694.6219
 842  670.7881
 843  649.5757
 844  719.1715
 845  765.7519
 846  777.6764
 847  835.5262
 848  798.8121
 849  913.0309
 850  893.6389
 851  877.7353
 852  758.3352
 853  713.9371
 854  767.6414
 855  849.5704
 856  880.3945
 857  842.7573
 858  729.5768
 859  718.2393
 860  828.3286
 861  895.8059
 862  903.0078
 863  846.0236
 864  809.3002
 865  833.6354
 866  888.7982
 867  942.7814
 868  968.7557
 869  905.6415
 870  810.351
 871  760.7429
 872  850.1267
 873  876.1946
 874  860.8719
 875  882.8229
 876  797.2283
 877  811.9337
 878  824.3365
 879  978.0916
 880  960.4713
 881  1015.342
 882  1085.742
 883  1085.315
 884  897.9409
 885  729.8027
 886  815.1437
 887  838.3521
 888  902.4566
 889  870.7628
 890  969.2073
 891  992.2482
 892  999.2661
 893  1054.949
 894  992.8577
 895  912.5125
 896  854.843
 897  931.4124
 898  870.2019
 899  821.2292
 900  846.7607
 901  903.544
 902  859.6487
 903  837.9638
 904  906.9288
 905  850.6746
 906  778.7665
 907  698.4399
 908  756.17
 909  732.4263
 910  759.4965
 911  816.1088
 912  858.533
 913  860.6758
 914  907.6068
 915  923.9987
 916  900.8951
 917  922.1605
 918  865.4219
 919  928.7054
 920  873.0115
 921  854.0768
 922  838.6357
 923  926.1655
 924  1064.725
 925  1089.924
 926  1060.839
 927  1004.662
 928  1061.457
 929  1012.104
 930  1072.283
 931  917.1611
 932  921.0406
 933  864.0815
 934  914.4465
 935  947.8809
 936  901.6551
 937  931.2905
 938  897.3675
 939  1063.68
 940  1017.872
 941  1018.967
 942  930.8647
 943  960.364
 944  878.9752
 945  867.4393
 946  880.6266
 947  872.8051
 948  901.9968
 949  919.8337
 950  1039.034
 951  969.4288
 952  1004.253
 953  967.8849
 954  952.4765
 955  863.0826
 956  847.9425
 957  974.4843
 958  1014.212
 959  1055.636
 960  974.7818
 961  1011.479
 962  908.7828
 963  964.4852
 964  987.3531
 965  1081.621
 966  1003.922
 967  997.79
 968  1054.294
 969  1109.211
 970  1081.434
 971  888.8448
 972  797.743
 973  745.1964
 974  880.9187
 975  926.676
 976  1021.186
 977  960.8653
 978  966.4033
 979  872.7158
 980  890.2064
 981  937.2723
 982  930.8847
 983  1043.608
 984  930.0685
 985  985.7169
 986  954.2116
 987  1088.755
 988  1118.735
 989  961.6819
 990  804.0453
 991  645.0503
 992  804.7448
 993  879.7289
 994  970.5674
 995  900.6816
 996  1075.707
 997  1124.133
 998  1109.653
 999  966.4236
1000  871.187
1001  911.7109
1002  1067.575
1003  1087.976
1004  963.8453
1005  865.2718
1006  807.6981
1007  826.8056
1008  865.1731
1009  875.3428
1010  907.9996
1011  881.8829
1012  910.5056
1013  941.0116
1014  1003.093
1015  1042.682
1016  1024.956
1017  890.0646
1018  858.29
1019  773.4334
1020  764.1906
1021  753.4722
1022  807.6594
1023  913.6553
