# Input file       =  1182243875.12681_cleaned.dat
# Candidate        =  PSR_0332+5434
# Telescope        =  AR
# Epoch_topo       =  57927.378404245486
# Epoch_bary       =  N/A
# T_sample         =  0.002
# Data Folded      =  7340032
# Data Avg         =  0.695360355132182
# Data StdDev      =  13.340318844968  
# Profile Bins     =  1024
# Profile Avg      =  4984.33417140436 
# Profile StdDev   =  1129.445314371   
# Reduced chi-sqr  =  0.571
# Prob(Noise)      <  1   (~0.0 sigma)
# P_topo (ms)      =  714.495908519743  +/- 0.000933
# P'_topo (s/s)    =  -0                +/- 4.92e-10
# P''_topo (s/s^2) =  0                 +/- 2.17e-13
# P_bary (ms)      =  N/A
# P'_bary (s/s)    =  N/A
# P''_bary (s/s^2) =  N/A
# P_orb (s)        =  N/A
# asin(i)/c (s)    =  N/A
# eccentricity     =  N/A
# w (rad)          =  N/A
# T_peri           =  N/A
######################################################
   0  4875.656
   1  4639.102
   2  4621.658
   3  4585.132
   4  4403.44
   5  4143.872
   6  4212.623
   7  4290.654
   8  4578.83
   9  4639.688
  10  4739.783
  11  4598.797
  12  4507.14
  13  4419.709
  14  4532.596
  15  4799.289
  16  4821.939
  17  4723.05
  18  4595.942
  19  4947.34
  20  5142.962
  21  4941.083
  22  4735.457
  23  4562.886
  24  4772.254
  25  4730.036
  26  4657.128
  27  4663.459
  28  4713.542
  29  5070.957
  30  5148.89
  31  5056.089
  32  4763.064
  33  4690.851
  34  4757.904
  35  4867.181
  36  5133.963
  37  5288.413
  38  5582.415
  39  5656.592
  40  5740.208
  41  5593.7
  42  5571.304
  43  5572.525
  44  5515.184
  45  5405.791
  46  5258.325
  47  5241.459
  48  5241.773
  49  5217.316
  50  5171.472
  51  5107.891
  52  5106.021
  53  5039.205
  54  5111.545
  55  5145.915
  56  5215.821
  57  5222.619
  58  5326.633
  59  5358.753
  60  5377.683
  61  5289.976
  62  5255.302
  63  5161.06
  64  5032.469
  65  5452.195
  66  5589.121
  67  5660.236
  68  5306.012
  69  5453.364
  70  5703.294
  71  5666.756
  72  5289.941
  73  5024.004
  74  5195.857
  75  5405.224
  76  5281.724
  77  5296.829
  78  5172.879
  79  5173.368
  80  5080.768
  81  5075.117
  82  5069.832
  83  4985.659
  84  5135.28
  85  5337.564
  86  5413.828
  87  5195.48
  88  5078.232
  89  5000.827
  90  4677.768
  91  4580.629
  92  4629.902
  93  4689.705
  94  4849.986
  95  4987.683
  96  5125.384
  97  4922.434
  98  4862.749
  99  4857.1
 100  4676.541
 101  4587.554
 102  4688.853
 103  4827.586
 104  5078.711
 105  5344.269
 106  5251.715
 107  5249.859
 108  5299.057
 109  5311.784
 110  5214.145
 111  5015.448
 112  4814.962
 113  4747.166
 114  5005.755
 115  5272.94
 116  5440.132
 117  5354.122
 118  5180.87
 119  5099.83
 120  5004.867
 121  5134.978
 122  4930.933
 123  4919.465
 124  4873.668
 125  4907.768
 126  5122.296
 127  5304.573
 128  5249.423
 129  5250.892
 130  5392.11
 131  5496.413
 132  5515.282
 133  5743.246
 134  5973.459
 135  6132.399
 136  6015.819
 137  6035.568
 138  6029.293
 139  6028.085
 140  6189.861
 141  6431.266
 142  6590.346
 143  6547.998
 144  6350.673
 145  6248.377
 146  6059.501
 147  5946.26
 148  5783.388
 149  5651.035
 150  5612.891
 151  5834.291
 152  6021.851
 153  5969.706
 154  5821.257
 155  5811.526
 156  5695.553
 157  5657.569
 158  5632.397
 159  5588.37
 160  5501.173
 161  5265.094
 162  5096.039
 163  5514.038
 164  5615.415
 165  5594.001
 166  5733.005
 167  5877.555
 168  5920.949
 169  5429.653
 170  5390.521
 171  5557.244
 172  5660.294
 173  5486.14
 174  5287.742
 175  5419.445
 176  5262.546
 177  4931.179
 178  4853.075
 179  5120.448
 180  5363.095
 181  5282.408
 182  5387.249
 183  5365.745
 184  5248.832
 185  4940.433
 186  4910.452
 187  4867.823
 188  4774.747
 189  4712.606
 190  4960.39
 191  5375.797
 192  5426.21
 193  5273.181
 194  5136.71
 195  5053.422
 196  5047.652
 197  5033.856
 198  4895.857
 199  4902.234
 200  5146.043
 201  5354.218
 202  5076.538
 203  4865.251
 204  4708.872
 205  4595.304
 206  4539.096
 207  4561.382
 208  4651.683
 209  4685.366
 210  4966.316
 211  5054.785
 212  5048.51
 213  4919.9
 214  4919.312
 215  4865.889
 216  4760.139
 217  4738.692
 218  4755.883
 219  4454.317
 220  4365.639
 221  4349.7
 222  4458.292
 223  4475.888
 224  4462.56
 225  4360.504
 226  4284.32
 227  4435.511
 228  4818.475
 229  5013.555
 230  5064.001
 231  5170.902
 232  5104.748
 233  4931.696
 234  4670.088
 235  4350.319
 236  4403.75
 237  4429.281
 238  4566.171
 239  4893.722
 240  4993.649
 241  4662.548
 242  4418.958
 243  4222.775
 244  4372.149
 245  4191.87
 246  4278.433
 247  4290.726
 248  4669.65
 249  4662.881
 250  4725.765
 251  4581.437
 252  4295.39
 253  4114.582
 254  4059.468
 255  4416.887
 256  4498.547
 257  4391.808
 258  4263.48
 259  4136.465
 260  4201.868
 261  4246.648
 262  4413.1
 263  4415.367
 264  4142.891
 265  3965.37
 266  4065.846
 267  4180.457
 268  4323.733
 269  4464.654
 270  4721.445
 271  4674.689
 272  4571.625
 273  4422.493
 274  4367.45
 275  4311.673
 276  4337.477
 277  4202.731
 278  4332.176
 279  4455.999
 280  4715.505
 281  4652.556
 282  4758.32
 283  4748.031
 284  4826.22
 285  4690.024
 286  4688.517
 287  5005.846
 288  5026.939
 289  4777.64
 290  4734.185
 291  4676.174
 292  4704.354
 293  4516.61
 294  4251.148
 295  4421.555
 296  4681.695
 297  4472.892
 298  4538.424
 299  4571.599
 300  4465.679
 301  4418.649
 302  4270.733
 303  4532.489
 304  4620.062
 305  4757.284
 306  5137.868
 307  5161.847
 308  5350.886
 309  5368.812
 310  5270.57
 311  5140.562
 312  4954.208
 313  4967.084
 314  5074.606
 315  5180.834
 316  5301.804
 317  5282.342
 318  5241.35
 319  5214.966
 320  4861.214
 321  4507.243
 322  4430.94
 323  4408.421
 324  4295.152
 325  4312.961
 326  4440.619
 327  4489.261
 328  4783.001
 329  5077.846
 330  5192.879
 331  5049.36
 332  5071.27
 333  5027.257
 334  5153.31
 335  5048.977
 336  4935.832
 337  4783.624
 338  4669.961
 339  4479.174
 340  4379.308
 341  4560.598
 342  4904.243
 343  5093.176
 344  5090.3
 345  4956.348
 346  5019.495
 347  5094.038
 348  4980.394
 349  5034.417
 350  4887.441
 351  4881.887
 352  4943.369
 353  4924.217
 354  5205.503
 355  5313.749
 356  5221.006
 357  4991.36
 358  4991.2
 359  4916.967
 360  5062.84
 361  4933.784
 362  5276.822
 363  5248.324
 364  5165.631
 365  5073.91
 366  5140.108
 367  4893.443
 368  4694.627
 369  4565.243
 370  4822.438
 371  5088.243
 372  5281.348
 373  5080.548
 374  4936.399
 375  4573.052
 376  4453.292
 377  4318.282
 378  4319.553
 379  4169.166
 380  4010.025
 381  4150.642
 382  4138.38
 383  3840.744
 384  3951.913
 385  4255.924
 386  4371.608
 387  4324.553
 388  4144.039
 389  4174.033
 390  4396.47
 391  4650.237
 392  4923.839
 393  4862.888
 394  4564.347
 395  4531.504
 396  4438.096
 397  4173.753
 398  4098.754
 399  4108.081
 400  4465.69
 401  4664.199
 402  5013.771
 403  5155.97
 404  5039.9
 405  4800.337
 406  4713.824
 407  4641.002
 408  4526.266
 409  4428.962
 410  4411.179
 411  4556.504
 412  4641.659
 413  4799.88
 414  4608.554
 415  4560.696
 416  4476.915
 417  4546.395
 418  4523.79
 419  4609.907
 420  4604.357
 421  4712.864
 422  4821.432
 423  4671.742
 424  4821.502
 425  4759.206
 426  4732.33
 427  4657.127
 428  4678.124
 429  4559.822
 430  4754.523
 431  4882.563
 432  4764.888
 433  4858.196
 434  4904.54
 435  4876.718
 436  4853.704
 437  4953.326
 438  5174.743
 439  5298.826
 440  5424.654
 441  5567.959
 442  5660.077
 443  5636.095
 444  5642.586
 445  5505.111
 446  5627.249
 447  5731.648
 448  5955.546
 449  5821.696
 450  5691.691
 451  5673.022
 452  5619.884
 453  5467.603
 454  5485.921
 455  5447.373
 456  5560.479
 457  5673.629
 458  5819.14
 459  5780.308
 460  5861.205
 461  6199.805
 462  6425.403
 463  6451.64
 464  6330.62
 465  6394
 466  6248.667
 467  6022.75
 468  5954.637
 469  5680.134
 470  5785.354
 471  5842.482
 472  6092.429
 473  6135.755
 474  5870.343
 475  5891.085
 476  5591.596
 477  5604.251
 478  5724.866
 479  5840.493
 480  5890.755
 481  6026.289
 482  5977.619
 483  5801.839
 484  5668.245
 485  5564.443
 486  5428.625
 487  5253.202
 488  5183.459
 489  5245.758
 490  5262.058
 491  5310.618
 492  5283.071
 493  5197.263
 494  5297.99
 495  5372.868
 496  5469.562
 497  5416.752
 498  5291.731
 499  5256.505
 500  5362.585
 501  5356.569
 502  5235.399
 503  5239.555
 504  5193.264
 505  5191.027
 506  5446.388
 507  5860.859
 508  6019.115
 509  6030.955
 510  5825.809
 511  5692.594
 512  5416.534
 513  5529.08
 514  5528.284
 515  5710.604
 516  5822.738
 517  5986.582
 518  5758.617
 519  5469.649
 520  5463.753
 521  5424.96
 522  5288.718
 523  5209.299
 524  5163.519
 525  5380.979
 526  5081.946
 527  5200.288
 528  5319.881
 529  5531.595
 530  5561.469
 531  5540.79
 532  5564.662
 533  5401.961
 534  5335.615
 535  5219.973
 536  5029.891
 537  5163.812
 538  5195.186
 539  5393.386
 540  5588.773
 541  5792.668
 542  6011.883
 543  6024.731
 544  5967.125
 545  6009.549
 546  5846.221
 547  5778.231
 548  5525.388
 549  5516.556
 550  5741.224
 551  5931.02
 552  5916.484
 553  5781.797
 554  5932.131
 555  5863.463
 556  5851.439
 557  5608.803
 558  5769.631
 559  5578.721
 560  5321.811
 561  4939.29
 562  4837.516
 563  4847.425
 564  5063.171
 565  5258.762
 566  5202.74
 567  5300.818
 568  5252.665
 569  5154.23
 570  4915.985
 571  4697.316
 572  4694.063
 573  4744.345
 574  4902.958
 575  5165.609
 576  5096.073
 577  4939.054
 578  4785.377
 579  4787.739
 580  4766.672
 581  4620.455
 582  4562.587
 583  4589.957
 584  4679.065
 585  4540.401
 586  4675.545
 587  4716.587
 588  4916.8
 589  5205.773
 590  5475.902
 591  5401.499
 592  4956.895
 593  4573.01
 594  4589.064
 595  4910.177
 596  5079.604
 597  4985.939
 598  4923.659
 599  4685.053
 600  4507.998
 601  4668.425
 602  4744.151
 603  4616.193
 604  4136.546
 605  4098.774
 606  4277.651
 607  4313.969
 608  4456.007
 609  4385.491
 610  4477.232
 611  4446.743
 612  4700.354
 613  4872.68
 614  4799.178
 615  4745.466
 616  4874.708
 617  4780.41
 618  4816.386
 619  4582.552
 620  4848.203
 621  4930.116
 622  5175.234
 623  5191.364
 624  5342.302
 625  5267.786
 626  5175.401
 627  5215.725
 628  5246.859
 629  5257.799
 630  5303.916
 631  5455.309
 632  5462.682
 633  5257.612
 634  5102.213
 635  5056.287
 636  5207.95
 637  5052.962
 638  5023.003
 639  4802.928
 640  4954.022
 641  4959.439
 642  4888.077
 643  4683.636
 644  4617.634
 645  4652.964
 646  4992.232
 647  4989.321
 648  4944.483
 649  4947.624
 650  4975.14
 651  4998.176
 652  5117.293
 653  5539.488
 654  5769.07
 655  5690.699
 656  5604.25
 657  5370.928
 658  5381.278
 659  5263.853
 660  5606.046
 661  5521.685
 662  5540.594
 663  5435.565
 664  5107.392
 665  4890.641
 666  4716.384
 667  4684.685
 668  4634.776
 669  4876.892
 670  5067.303
 671  5443.385
 672  5301.79
 673  5155.206
 674  5021.178
 675  4973.084
 676  4947.783
 677  4806.965
 678  4979.517
 679  5064.111
 680  4933.257
 681  4855.905
 682  5019.542
 683  4962.068
 684  4906.904
 685  4871.651
 686  5028.981
 687  5138.473
 688  5424.587
 689  5514.502
 690  5546.087
 691  5329.52
 692  5283.849
 693  5372.759
 694  5379.365
 695  5335.129
 696  5382.869
 697  5457.158
 698  5436.069
 699  5455.247
 700  5464.279
 701  5263.859
 702  4928.483
 703  4852.496
 704  4985.305
 705  5104.08
 706  5069.592
 707  5179.185
 708  5375.125
 709  5426.333
 710  5442.77
 711  5304.791
 712  5209.277
 713  4889.169
 714  5017.285
 715  5098.275
 716  5064.8
 717  4968.43
 718  5041.576
 719  4929.817
 720  4830.467
 721  4539.255
 722  4349.232
 723  4295.029
 724  4440.035
 725  4536.799
 726  4636.522
 727  4791.158
 728  4750.921
 729  4765.204
 730  4789.476
 731  4727.27
 732  4648.893
 733  4569.016
 734  4523.778
 735  4558.669
 736  4576.097
 737  4407.483
 738  4317.312
 739  4570.999
 740  4623.575
 741  4596.446
 742  4458.813
 743  4465.633
 744  4541.381
 745  4379.062
 746  4333.218
 747  4333.708
 748  4446.879
 749  4330.125
 750  4200.522
 751  4052.01
 752  4139.738
 753  4354.262
 754  4353.115
 755  4373.37
 756  4548.315
 757  4891.779
 758  4815.641
 759  4638.034
 760  4482.329
 761  4574.896
 762  4694.001
 763  4499.447
 764  4371.113
 765  4228.407
 766  4594.607
 767  4606.785
 768  4643.066
 769  4464.919
 770  4446.123
 771  4261.035
 772  4376.383
 773  4561.237
 774  4782.896
 775  4790.476
 776  5088.738
 777  5124.648
 778  5380.376
 779  5178.862
 780  4975.593
 781  4674.216
 782  4653.393
 783  4739.211
 784  4792.809
 785  4955.366
 786  5088.321
 787  4954.842
 788  4887.914
 789  4792.339
 790  4669.197
 791  4629.917
 792  4805.678
 793  4857.855
 794  4754.529
 795  4604.451
 796  4724.176
 797  4632.771
 798  4342.857
 799  4256.608
 800  4073.539
 801  4224.483
 802  4280.164
 803  4523.375
 804  4705.336
 805  4763.504
 806  4677.107
 807  4693
 808  4841.48
 809  4658.148
 810  4560.471
 811  4582.011
 812  4787.878
 813  4718.294
 814  4894.745
 815  5231.388
 816  5198.607
 817  5120.198
 818  4777.297
 819  4701.895
 820  4525.517
 821  4356.539
 822  4419.734
 823  4654.774
 824  4934.617
 825  4971.989
 826  4827.26
 827  4898.918
 828  4714.931
 829  4617.438
 830  4710.655
 831  4746.434
 832  4846.144
 833  4636.191
 834  4622.14
 835  4466.215
 836  4529.032
 837  4533.329
 838  4671.875
 839  4755.99
 840  4758.488
 841  4749.526
 842  4763.614
 843  4748.085
 844  4910.012
 845  4842.496
 846  4798.281
 847  4389.382
 848  4202.283
 849  4070.27
 850  4216.848
 851  4399.143
 852  4414.724
 853  4537.084
 854  4449.072
 855  4430.118
 856  4299.427
 857  4359.565
 858  4503.985
 859  4604.77
 860  4677.451
 861  4734.898
 862  4765.883
 863  4662.46
 864  4501.684
 865  4450.874
 866  4374.622
 867  4369.351
 868  4529.74
 869  4665.669
 870  4698.691
 871  4700.765
 872  4746.435
 873  4894.915
 874  4788.248
 875  4559.636
 876  4600.116
 877  4763.162
 878  4635.61
 879  4344.324
 880  4391.665
 881  4526.636
 882  4653.292
 883  4865.701
 884  5223.07
 885  5172.091
 886  5153.703
 887  5130.187
 888  5233.72
 889  4925.271
 890  4892.766
 891  5016.131
 892  4991.953
 893  4674.626
 894  4633.607
 895  4711.533
 896  4645.946
 897  4642.713
 898  5039.944
 899  5170.451
 900  5196.425
 901  5158.227
 902  5177.065
 903  4991.234
 904  4773.013
 905  4734.958
 906  4692.532
 907  4509.064
 908  4510.716
 909  4618.527
 910  4880.05
 911  5060.551
 912  5252.712
 913  4969.094
 914  4777.285
 915  4642.732
 916  4706.714
 917  4571.689
 918  4633.814
 919  4869.609
 920  4768.22
 921  4572.774
 922  4320.589
 923  4167.583
 924  4217.61
 925  4291.114
 926  4470.577
 927  4654.868
 928  4748.042
 929  4708.556
 930  4826.687
 931  4993.667
 932  4980.925
 933  4866.719
 934  4813.912
 935  4962.479
 936  5180.954
 937  5396.518
 938  5561.106
 939  5594.29
 940  5541.683
 941  5640.52
 942  5471.812
 943  5119.869
 944  4886.6
 945  4729.637
 946  5196.713
 947  5151.088
 948  5326.711
 949  5246.15
 950  5493.102
 951  5744.451
 952  5751.293
 953  5666.01
 954  5652.775
 955  5628.467
 956  5729.705
 957  5627.757
 958  5564.853
 959  5414.121
 960  5488.182
 961  5269.494
 962  5466.498
 963  5468.433
 964  5600.825
 965  5365.812
 966  5356.767
 967  5175.704
 968  5121.17
 969  5057.867
 970  5011.837
 971  4951.607
 972  4808.862
 973  4807.914
 974  4929.625
 975  5081.622
 976  5069.736
 977  5039.88
 978  5239.798
 979  5268.469
 980  5217.161
 981  5171.347
 982  5286.673
 983  5453.038
 984  5731.998
 985  5692.523
 986  5578.842
 987  5212.373
 988  5027.337
 989  4694.262
 990  4689.427
 991  4896.597
 992  5057.414
 993  5052.682
 994  5097.997
 995  5194.165
 996  5420.356
 997  5594.106
 998  5519.964
 999  5373.792
1000  5127.169
1001  4883.469
1002  4757.733
1003  4684.454
1004  4526.238
1005  4388.506
1006  4735.96
1007  5057.949
1008  5134.789
1009  4884.814
1010  4693.364
1011  4319.403
1012  4301.521
1013  4542.074
1014  4576.588
1015  4410.876
1016  4428.827
1017  4439.657
1018  4411.443
1019  4338.736
1020  4153.913
1021  4297.476
1022  4530.15
1023  4749.229
