# Input file       =  1182936363.103926_cleaned.dat
# Candidate        =  PSR_0332+5434
# Telescope        =  AR
# Epoch_topo       =  57935.393311388034
# Epoch_bary       =  N/A
# T_sample         =  0.002
# Data Folded      =  7340032
# Data Avg         =  0.110700938574155
# Data StdDev      =  3.25134318637724 
# Profile Bins     =  512
# Profile Avg      =  1586.80647935283 
# Profile StdDev   =  389.293192007857 
# Reduced chi-sqr  =  1.154
# Prob(Noise)      <  0.00905   (~2.4 sigma)
# P_topo (ms)      =  714.489241778468  +/- 0.000411
# P'_topo (s/s)    =  -0                +/- 2.17e-10
# P''_topo (s/s^2) =  0                 +/- 9.58e-14
# P_bary (ms)      =  N/A
# P'_bary (s/s)    =  N/A
# P''_bary (s/s^2) =  N/A
# P_orb (s)        =  N/A
# asin(i)/c (s)    =  N/A
# eccentricity     =  N/A
# w (rad)          =  N/A
# T_peri           =  N/A
######################################################
   0  1543.849
   1  1621.013
   2  1303.929
   3  1583.366
   4  1547.891
   5  1461.887
   6  1542.302
   7  1661.021
   8  1618.656
   9  1387.351
  10  1305.081
  11  1468.854
  12  1597.257
  13  1677.914
  14  1472.606
  15  1693.433
  16  1752.072
  17  1625.277
  18  1707.149
  19  1571.586
  20  1557.422
  21  1565.11
  22  1736.26
  23  1518.743
  24  1393.172
  25  1560.855
  26  1909.327
  27  1837.454
  28  1566.343
  29  1340.949
  30  1375.455
  31  1239.503
  32  1151.794
  33  1181.348
  34  1227.624
  35  1366.993
  36  1201.224
  37  1139.854
  38  1211.092
  39  1021.524
  40  976.7643
  41  1115.846
  42  1067.416
  43  969.3818
  44  1172.212
  45  1300.487
  46  1508.501
  47  1370.115
  48  1093.342
  49  1176.497
  50  1692.479
  51  1858.586
  52  1332.094
  53  1127.732
  54  1427.583
  55  1462.145
  56  1337.269
  57  1472.357
  58  1515.128
  59  1589.082
  60  1508.472
  61  1495.386
  62  1328.745
  63  1160.516
  64  1547.193
  65  1355.605
  66  1081.879
  67  1331.744
  68  1326.824
  69  1422.546
  70  1443.454
  71  1546.954
  72  1202.867
  73  1078.415
  74  1388.567
  75  1417.76
  76  1495.448
  77  1516.211
  78  1521.057
  79  1327.271
  80  1347.272
  81  1442.587
  82  1364.473
  83  1198.845
  84  1133.141
  85  1092.786
  86  1217.833
  87  1235.663
  88  964.4686
  89  1025.784
  90  1525.54
  91  1687.447
  92  1470.487
  93  1680.062
  94  1686.687
  95  1436.316
  96  1350.979
  97  1376.859
  98  1476.104
  99  1776.842
 100  1810.295
 101  1302.61
 102  1555.231
 103  1517.394
 104  1672.859
 105  1446.74
 106  1496.831
 107  1670.165
 108  1643.947
 109  1963.195
 110  1714.875
 111  1757.97
 112  1760.863
 113  2001.266
 114  1635.894
 115  1277.638
 116  1253.438
 117  1165.297
 118  1267.935
 119  1198.209
 120  1319.233
 121  1376.366
 122  1258.211
 123  1425.31
 124  1512.716
 125  1463.523
 126  1518.877
 127  1674.277
 128  1534.362
 129  1618.767
 130  1467.198
 131  1520.536
 132  1490.276
 133  1515.777
 134  1560.247
 135  1522.459
 136  1466.566
 137  1576.09
 138  1291.389
 139  1155.567
 140  1346.61
 141  1440.389
 142  1139.979
 143  1259.636
 144  1396.47
 145  1418.193
 146  1065.124
 147  1234.925
 148  1017.11
 149  967.3207
 150  1032.414
 151  1132.76
 152  1147.181
 153  1457.23
 154  1422.078
 155  1403.646
 156  1579.522
 157  1325.095
 158  934.9354
 159  1042.934
 160  1127.728
 161  1518.717
 162  1510.521
 163  1281.352
 164  1493.348
 165  1549.288
 166  1716.043
 167  1709.317
 168  1839.84
 169  1592.095
 170  1670.93
 171  1428.349
 172  1321.911
 173  1295.78
 174  1234.456
 175  1494.911
 176  1523.427
 177  1537.081
 178  1590.549
 179  1888.868
 180  2002.985
 181  1798.731
 182  1733.514
 183  1476.398
 184  1602.736
 185  1772.348
 186  1903.304
 187  1762.178
 188  1702.905
 189  1869.034
 190  1834.882
 191  1857.044
 192  1768.238
 193  1553.95
 194  1097.406
 195  1219.654
 196  1559.799
 197  1677.07
 198  1922.685
 199  1816.002
 200  1424.037
 201  1611.012
 202  1536.996
 203  1783.754
 204  1437.605
 205  1481.358
 206  1578.525
 207  1158.598
 208  1462.593
 209  1544.189
 210  1309.715
 211  1553.993
 212  1457.086
 213  1516.987
 214  1836.515
 215  1915.284
 216  1505.577
 217  1421.292
 218  1751.002
 219  1465.066
 220  1583.758
 221  1761.819
 222  1923.119
 223  1854.724
 224  1961.144
 225  1833.422
 226  1769.602
 227  1820.114
 228  1611.494
 229  1694.739
 230  1647.518
 231  1888.191
 232  1851.566
 233  1809.561
 234  1979.976
 235  1829.851
 236  1683.385
 237  1714.319
 238  1628.415
 239  1668.864
 240  1720.183
 241  1449.577
 242  1439.954
 243  1352.727
 244  1180.734
 245  1406.273
 246  1706.747
 247  1803.539
 248  1456.384
 249  1602.087
 250  1491.179
 251  1313.265
 252  1378.351
 253  1799.123
 254  1807.381
 255  1473.284
 256  1872.489
 257  1894.706
 258  1559.58
 259  1490.965
 260  1578.618
 261  1841.035
 262  1675.018
 263  1736.946
 264  2159.463
 265  2025.591
 266  2146.188
 267  1988.87
 268  1640.159
 269  1792.202
 270  1858.196
 271  1750.863
 272  1790.244
 273  1840.496
 274  1803.333
 275  1940.67
 276  1959.942
 277  2054.991
 278  1878.144
 279  2245.86
 280  2226.176
 281  1910.309
 282  2010.01
 283  2239.692
 284  2138.824
 285  2235.462
 286  1934.241
 287  2033.423
 288  1958.63
 289  1825.883
 290  1705.665
 291  1490.607
 292  1738.802
 293  1484.328
 294  1526.214
 295  1722.985
 296  2133.788
 297  1844.782
 298  1818.577
 299  1705.456
 300  1693.555
 301  1544.672
 302  1444.023
 303  1479.655
 304  1542.288
 305  1600.009
 306  1883.34
 307  1941.535
 308  1873.619
 309  1551.34
 310  1409.837
 311  1506.028
 312  1685.873
 313  1815.337
 314  1901.037
 315  1619.178
 316  1670.999
 317  1760.366
 318  1474.644
 319  1633.57
 320  1968.648
 321  2074.617
 322  1985.011
 323  2015.084
 324  1958.711
 325  1548.449
 326  1467.095
 327  1565.183
 328  1757.732
 329  1372.646
 330  1489.632
 331  1241.247
 332  1181.901
 333  1402.461
 334  1648.164
 335  1613.195
 336  1471.79
 337  1508.52
 338  1380.149
 339  1197.123
 340  1349.666
 341  1181.966
 342  1119.639
 343  1163.8
 344  1547.356
 345  1636.846
 346  1310.542
 347  1356.359
 348  1554.42
 349  1317.15
 350  1283.911
 351  1595.801
 352  1527.405
 353  1167.365
 354  1277.247
 355  1499.354
 356  1684.29
 357  1766.905
 358  1488.574
 359  1567.86
 360  1817.783
 361  1979.494
 362  2032.239
 363  1935.379
 364  1992.324
 365  2239.076
 366  2242.056
 367  1975.925
 368  1623.8
 369  1505.327
 370  1516.295
 371  1676.784
 372  1505.609
 373  1379.002
 374  1555.354
 375  1683.286
 376  1981.797
 377  2099.997
 378  1859.438
 379  1254.376
 380  1398.73
 381  1635.37
 382  1790.422
 383  1724.166
 384  1676.401
 385  1543.166
 386  1408.803
 387  1377.756
 388  1542.519
 389  1486.564
 390  1470.872
 391  1509.434
 392  1685.426
 393  1617.256
 394  1709.057
 395  2043.732
 396  1811.072
 397  2052.708
 398  1745.377
 399  1908.223
 400  1917.566
 401  1895.163
 402  1938.251
 403  2194.416
 404  1776.39
 405  1787.027
 406  1707.447
 407  1618.742
 408  1465.731
 409  1357.818
 410  1720.76
 411  1851.403
 412  1943.886
 413  2050.583
 414  2003.385
 415  1932.732
 416  2025.418
 417  2195.096
 418  2561.094
 419  3007.278
 420  3084.304
 421  3025.29
 422  3105.512
 423  2794.356
 424  1905.872
 425  1642.641
 426  1432.947
 427  1637.109
 428  1673.994
 429  1464.303
 430  1315.224
 431  1310.014
 432  1678.04
 433  1772.184
 434  1744.895
 435  1707.818
 436  1995.471
 437  1964.037
 438  1909.142
 439  1699.224
 440  1788.192
 441  1768.361
 442  1738.744
 443  1839.317
 444  2025.215
 445  1830.41
 446  1762.153
 447  1809.702
 448  1753.737
 449  1492.192
 450  1444.239
 451  1385.705
 452  1383.643
 453  1734.873
 454  1694.681
 455  1418.097
 456  1486.418
 457  1637.037
 458  1679.859
 459  1433.953
 460  1270.851
 461  1550.692
 462  1587.102
 463  1619.01
 464  1581.261
 465  1486.567
 466  1276.496
 467  1078.588
 468  1065.161
 469  1373.662
 470  1440.023
 471  1358.053
 472  1542.854
 473  1173.317
 474  1345.403
 475  1199.865
 476  1468.329
 477  1546.098
 478  1599.594
 479  1938.836
 480  1493.682
 481  1168.106
 482  1337.781
 483  1644.929
 484  1718.796
 485  1820.694
 486  2002.646
 487  1503.099
 488  1511.095
 489  1580.998
 490  1335.137
 491  1343.745
 492  1848.877
 493  1744.096
 494  1638.1
 495  1763.748
 496  1951.082
 497  1701.821
 498  1518.167
 499  1507.057
 500  1393.63
 501  1382.269
 502  1542.567
 503  1598.196
 504  1220.181
 505  1283.165
 506  1374.533
 507  1003.787
 508  1209.265
 509  1089.806
 510  1243.168
 511  1230.788
