# Input file       =  1182678199.116364_cleaned.dat
# Candidate        =  PSR_0332+5434
# Telescope        =  AR
# Epoch_topo       =  57932.405302272731
# Epoch_bary       =  N/A
# T_sample         =  0.002
# Data Folded      =  7340032
# Data Avg         =  0.583308657721709
# Data StdDev      =  11.4736415927906 
# Profile Bins     =  512
# Profile Avg      =  8362.17239944811 
# Profile StdDev   =  1373.77394620358 
# Reduced chi-sqr  =  0.906
# Prob(Noise)      <  0.938   (~0.0 sigma)
# P_topo (ms)      =  714.491694478885  +/- 0.000358
# P'_topo (s/s)    =  -0                +/- 1.89e-10
# P''_topo (s/s^2) =  0                 +/- 8.33e-14
# P_bary (ms)      =  N/A
# P'_bary (s/s)    =  N/A
# P''_bary (s/s^2) =  N/A
# P_orb (s)        =  N/A
# asin(i)/c (s)    =  N/A
# eccentricity     =  N/A
# w (rad)          =  N/A
# T_peri           =  N/A
######################################################
   0  6951.964
   1  6670.143
   2  6702.47
   3  6608.6
   4  6363.351
   5  6473.866
   6  6864.384
   7  6875.021
   8  7003.948
   9  6900.236
  10  7145.08
  11  7293.113
  12  7593.279
  13  7571.163
  14  7472.247
  15  7245.24
  16  7325.493
  17  7269.985
  18  7306.822
  19  7361.462
  20  7376.653
  21  7451.426
  22  7511.358
  23  7608.105
  24  8103.488
  25  8239.82
  26  8703.46
  27  8486.642
  28  8125.595
  29  7941.458
  30  7999.683
  31  7960.314
  32  7844.99
  33  7532.953
  34  7709.101
  35  7557.165
  36  7665.11
  37  7186.803
  38  7289.654
  39  7112.847
  40  7269.405
  41  7388.891
  42  7912.357
  43  7934.449
  44  8284.857
  45  8393.167
  46  8634.947
  47  8895.558
  48  8807.736
  49  9391.599
  50  10197.92
  51  9541.115
  52  9007.074
  53  8737.46
  54  8875.818
  55  9055.716
  56  8677.662
  57  8109.81
  58  8326.409
  59  8312.711
  60  8414.084
  61  7818.868
  62  7551.519
  63  8051.603
  64  8157.586
  65  8356.56
  66  8478.017
  67  8245.906
  68  7861.108
  69  7890.516
  70  8298.455
  71  8061.227
  72  7934.493
  73  8429.934
  74  8302.105
  75  8328.759
  76  8271.815
  77  8428.025
  78  8596.038
  79  8407.808
  80  8339.735
  81  8663.566
  82  9096.363
  83  9601.696
  84  9556.186
  85  8866.898
  86  8125.277
  87  8201.697
  88  8529.384
  89  8665.105
  90  8200.183
  91  8017.469
  92  8365.858
  93  8610.547
  94  8669.542
  95  8365.098
  96  8653.735
  97  8417.846
  98  9178.312
  99  9463.232
 100  9649.648
 101  9387.068
 102  9318.919
 103  8643.549
 104  8320.024
 105  8420.982
 106  8941.463
 107  9338.399
 108  9399.425
 109  9497.181
 110  9396.657
 111  9579.172
 112  9786.352
 113  10267.68
 114  9721.823
 115  9804.374
 116  9962.455
 117  10204.29
 118  10232.53
 119  9649.716
 120  9246.49
 121  8899.868
 122  9092.684
 123  9618.932
 124  9028.752
 125  8796.91
 126  8937.877
 127  8979.96
 128  9050.165
 129  9397.215
 130  9333.473
 131  9021.323
 132  9062.585
 133  9308.57
 134  9371.322
 135  9465.013
 136  9314.655
 137  8894.751
 138  9085.961
 139  9059.582
 140  9365.824
 141  9462.011
 142  9342.269
 143  8935.186
 144  8676.316
 145  8779.66
 146  8604.428
 147  8748.275
 148  8801.526
 149  8805.533
 150  8710.522
 151  8881.714
 152  8719.762
 153  8578.161
 154  8856.972
 155  8912.964
 156  9052.244
 157  9124.073
 158  9219.324
 159  9149.79
 160  9113.623
 161  9560.812
 162  9025.581
 163  8705.979
 164  8622.201
 165  8974.427
 166  9178.341
 167  8975.668
 168  8832.288
 169  8939.651
 170  8698.807
 171  8521.903
 172  8199.854
 173  8551.662
 174  9154.588
 175  9597.867
 176  9349.017
 177  8760.849
 178  8336.893
 179  8669.884
 180  8677.614
 181  8581.301
 182  8733.795
 183  8483.626
 184  8481.528
 185  8414.1
 186  8377.605
 187  8582.663
 188  8699.627
 189  8758.655
 190  8930.936
 191  8847.602
 192  8554.215
 193  9346.827
 194  9742.928
 195  9695.689
 196  9985.164
 197  10677.49
 198  10764.99
 199  10360.21
 200  9853.621
 201  9440.623
 202  9288.585
 203  9100.545
 204  9186.145
 205  8891.158
 206  8621.897
 207  8659.357
 208  8821.464
 209  8771.138
 210  8471.234
 211  7984.09
 212  7754.848
 213  7638.431
 214  7762.613
 215  8273.83
 216  8532.241
 217  8559.543
 218  7784.371
 219  7841.804
 220  7624.534
 221  7670.015
 222  7999.424
 223  7980.847
 224  7901.163
 225  7715.858
 226  7912.363
 227  8387.389
 228  8164.422
 229  8042.967
 230  8557.63
 231  9198.268
 232  9509.83
 233  9004.779
 234  8440.935
 235  8545.29
 236  8698.864
 237  9218.781
 238  9638.92
 239  9379.332
 240  9383.171
 241  8890.699
 242  8760.225
 243  8953.916
 244  8866.377
 245  8774.382
 246  8983.819
 247  9163.374
 248  8415.023
 249  7760.032
 250  7523.557
 251  8050.429
 252  8241.233
 253  7530.556
 254  7064.586
 255  7657.36
 256  8033.137
 257  7406.201
 258  7307.803
 259  7605.905
 260  7964.561
 261  8021.475
 262  7966.076
 263  7521.323
 264  7472.813
 265  8260.608
 266  8366.991
 267  8231.575
 268  7849.855
 269  8030.709
 270  7907.599
 271  7736.619
 272  7561.102
 273  7818.808
 274  7736.701
 275  8278.774
 276  8111.461
 277  8200.202
 278  8112.28
 279  8458.149
 280  8632.429
 281  8690.313
 282  9068.329
 283  8836.043
 284  9093.095
 285  9115.288
 286  9316.025
 287  9378.888
 288  9005.206
 289  8638.252
 290  8160.753
 291  7704.888
 292  7602.855
 293  7974.112
 294  7777.359
 295  7791.225
 296  7368.298
 297  7480.541
 298  7992.446
 299  8122.451
 300  8178.354
 301  7790.255
 302  8094.296
 303  8247.695
 304  8234.7
 305  8491.324
 306  8380.466
 307  8278.591
 308  8319.559
 309  8435.085
 310  7982.506
 311  8065.238
 312  8358.953
 313  8729.015
 314  8774.92
 315  8932.587
 316  9149.682
 317  9501.574
 318  9784.88
 319  9689.128
 320  9810.461
 321  9947.074
 322  11002.23
 323  11193.22
 324  10747.33
 325  11223.03
 326  12022.7
 327  12237.07
 328  11935.69
 329  11304.63
 330  10519.53
 331  10160.75
 332  9615.832
 333  8626.233
 334  8550.683
 335  8169.397
 336  7935.99
 337  7988.338
 338  8300.73
 339  8089.707
 340  7767.173
 341  7827.939
 342  8032.171
 343  8473.038
 344  8651.144
 345  8266.315
 346  8411.187
 347  8572.273
 348  8230.953
 349  7890.227
 350  7928.357
 351  7730.409
 352  8490.289
 353  8323.882
 354  8185.095
 355  7970.594
 356  8142.985
 357  8142.793
 358  8082.744
 359  7889.652
 360  8077.171
 361  8227.569
 362  8641.813
 363  8559.888
 364  8388.378
 365  8435.879
 366  8985.385
 367  8871.418
 368  8563.73
 369  8555.569
 370  8641.482
 371  8784.43
 372  8944.346
 373  8269.027
 374  7820.241
 375  7149.878
 376  7253.682
 377  7279.414
 378  7873.022
 379  7811.685
 380  7340.842
 381  7086.195
 382  6672.555
 383  6195.049
 384  5862.735
 385  6441.025
 386  5762.534
 387  5524.191
 388  5411.756
 389  5876.756
 390  5609.285
 391  5780.521
 392  6004.823
 393  6027.374
 394  6475.867
 395  6397.035
 396  6463.386
 397  6339.468
 398  6154.073
 399  6523.568
 400  6370.451
 401  6001.284
 402  6655.204
 403  6987.868
 404  6582.821
 405  6245.56
 406  6303.438
 407  6510.3
 408  6981.044
 409  7707.855
 410  7950.346
 411  7196.519
 412  7536.593
 413  8325.082
 414  8908.831
 415  9072.981
 416  9037.042
 417  8801.925
 418  8345.855
 419  8745.998
 420  8920.493
 421  8840.02
 422  8191.953
 423  8112.608
 424  8044.066
 425  8128.099
 426  8299.094
 427  7775.658
 428  7789.759
 429  7671.065
 430  7550.623
 431  7254.876
 432  7527.845
 433  7934.562
 434  7562.003
 435  7653.793
 436  8162.286
 437  8233.383
 438  8548.119
 439  8614.041
 440  8798.836
 441  8392.909
 442  8050.715
 443  8017.855
 444  8470.427
 445  8786.283
 446  8662.181
 447  9043.219
 448  9190.78
 449  8438.739
 450  8664.107
 451  8849.598
 452  9088.658
 453  8416.74
 454  8303.099
 455  8220.318
 456  8860.489
 457  8733.033
 458  8338.906
 459  8394.783
 460  8382.647
 461  8575.766
 462  8865.074
 463  8443.392
 464  8078.264
 465  8541.131
 466  8746.5
 467  8685.193
 468  7781.308
 469  7598.546
 470  7616.706
 471  7605.536
 472  7343.805
 473  7390.233
 474  7307.197
 475  7411.99
 476  7569.678
 477  7443.679
 478  7641.593
 479  7626.284
 480  7983.237
 481  7908.862
 482  7487.703
 483  7228.126
 484  7875.601
 485  8066.114
 486  7594.207
 487  7560.62
 488  7545.085
 489  8343.406
 490  8981.758
 491  9069.619
 492  8582.564
 493  8579.482
 494  8925.618
 495  8899.019
 496  9046.199
 497  9248.778
 498  9399.479
 499  9152.956
 500  9420.131
 501  9288.354
 502  8690.629
 503  8349.206
 504  8398.93
 505  8535.46
 506  8135.821
 507  7908.522
 508  7844.635
 509  7828.893
 510  7707.587
 511  7626.905
