# Input file       =  1182304229.116146_cleaned.dat
# Candidate        =  PSR_0332+5434
# Telescope        =  AR
# Epoch_topo       =  57928.076945788729
# Epoch_bary       =  N/A
# T_sample         =  0.002
# Data Folded      =  7405568
# Data Avg         =  0.115334230215512
# Data StdDev      =  4.0773005051232  
# Profile Bins     =  512
# Profile Avg      =  1668.45323248859 
# Profile StdDev   =  490.362135337653 
# Reduced chi-sqr  =  0.819
# Prob(Noise)      <  0.999   (~0.0 sigma)
# P_topo (ms)      =  714.495039942779  +/- 6.13e-05
# P'_topo (s/s)    =  -0                +/- 3.2e-11
# P''_topo (s/s^2) =  0                 +/- 1.4e-14
# P_bary (ms)      =  N/A
# P'_bary (s/s)    =  N/A
# P''_bary (s/s^2) =  N/A
# P_orb (s)        =  N/A
# asin(i)/c (s)    =  N/A
# eccentricity     =  N/A
# w (rad)          =  N/A
# T_peri           =  N/A
######################################################
   0  1891.588
   1  1664.587
   2  1476.721
   3  1667.538
   4  1801.746
   5  1996.101
   6  2104.275
   7  1943.773
   8  1513.638
   9  1544.307
  10  1119.956
  11  1473.689
  12  1468.02
  13  1439.287
  14  1556.876
  15  1761.198
  16  2058.599
  17  1631.861
  18  1375.668
  19  1239.056
  20  1614.206
  21  1676.984
  22  1770.754
  23  2163.695
  24  2229.615
  25  2317.088
  26  2068.59
  27  1798.745
  28  1900.525
  29  1327.281
  30  1616.541
  31  1502.624
  32  1732.955
  33  1781.31
  34  1499.3
  35  1750.244
  36  1460.946
  37  1692.087
  38  1192.491
  39  1156.794
  40  1349.451
  41  1534.992
  42  1772.863
  43  1314.406
  44  1891.165
  45  2035.09
  46  1783.47
  47  1497.171
  48  1579.028
  49  1357.096
  50  1253.653
  51  1357.734
  52  1610.33
  53  1844.326
  54  1320.691
  55  1377.725
  56  1447.666
  57  1960.717
  58  1915.179
  59  1418.328
  60  1922.709
  61  1804.439
  62  2037.447
  63  1850.132
  64  1561.83
  65  1780.664
  66  1603.317
  67  2060.59
  68  1506.952
  69  1749.424
  70  1554.037
  71  1455.952
  72  1546.836
  73  1554.238
  74  1833.199
  75  1554.325
  76  1890.908
  77  2094.535
  78  2124.595
  79  1820.05
  80  1581.151
  81  1617.425
  82  1427.051
  83  1331.092
  84  1109.393
  85  1277.601
  86  1601.4
  87  1473.187
  88  1493.682
  89  1520.494
  90  1578.793
  91  1466.857
  92  1620.148
  93  1272.188
  94  1293.903
  95  1532.518
  96  1524.883
  97  1532.865
  98  1433.835
  99  1256.42
 100  1289.719
 101  1565.247
 102  1741.386
 103  1568.008
 104  1592.806
 105  1114.893
 106  1455.749
 107  1590.765
 108  1406.342
 109  1549.393
 110  1528.163
 111  1715.088
 112  1161.443
 113  1317.294
 114  1516.344
 115  1530.751
 116  1477.03
 117  1015.53
 118  1495.708
 119  1937.998
 120  1631.092
 121  1307.216
 122  1410.573
 123  1404.686
 124  1474.301
 125  1539.107
 126  1599.335
 127  2232.469
 128  1677.45
 129  1082.444
 130  1251.985
 131  1435.677
 132  1430.779
 133  1437.18
 134  1799.015
 135  1809.483
 136  1647.732
 137  1674.314
 138  1427.12
 139  1335.076
 140  1721.012
 141  1898.889
 142  1933.765
 143  2282.493
 144  2085.782
 145  1531.552
 146  1269.608
 147  1400.15
 148  1950.947
 149  1437.049
 150  1308
 151  1499.134
 152  1512
 153  1540.988
 154  1212.378
 155  1282.747
 156  1465.768
 157  1873.124
 158  1613.341
 159  1714.071
 160  2036.329
 161  1676.703
 162  1618.001
 163  1643.379
 164  1852.098
 165  1515.719
 166  1637.092
 167  1161.538
 168  1346.029
 169  1537.582
 170  1607.714
 171  1550.703
 172  1171.162
 173  1624.692
 174  1745.826
 175  1776.944
 176  1905.478
 177  1818.385
 178  1636.025
 179  1306.623
 180  1167.292
 181  1569.736
 182  1611.143
 183  1623.297
 184  1353.569
 185  1424.224
 186  1372.952
 187  1453.828
 188  1313.794
 189  1583.947
 190  1686.974
 191  1356.6
 192  1354.749
 193  1507.085
 194  1512.894
 195  1501.463
 196  1626.997
 197  1731.191
 198  1990.72
 199  1488.596
 200  1243.633
 201  1928.771
 202  1937.726
 203  1646.529
 204  1670.356
 205  1910.327
 206  1914.607
 207  1453.52
 208  1558.456
 209  2007.689
 210  2209.748
 211  1769.756
 212  1619.795
 213  1641.401
 214  1575.3
 215  1405.128
 216  1404.167
 217  2103.652
 218  2002.701
 219  2012.036
 220  1288.5
 221  1014.577
 222  1708.698
 223  1696.84
 224  1493.868
 225  1888.731
 226  2104.74
 227  1993.982
 228  1456.399
 229  1352.534
 230  1359.751
 231  1586.712
 232  1731.157
 233  1693.728
 234  1593.296
 235  1806.15
 236  1598.117
 237  1381.283
 238  1522.502
 239  1482.385
 240  1558.115
 241  1427.231
 242  1942.411
 243  2149.82
 244  2085.2
 245  1582.503
 246  1183.085
 247  1425.088
 248  1199.73
 249  1894.542
 250  1830.411
 251  2012.229
 252  1692.536
 253  1460.891
 254  1492.157
 255  1449.784
 256  1491.79
 257  1556.989
 258  1309.407
 259  1945.323
 260  1960.85
 261  1449.851
 262  1206.941
 263  1331.795
 264  1831.545
 265  1722.636
 266  1486.796
 267  1340.796
 268  1381.914
 269  1335.972
 270  1193.777
 271  1487.63
 272  1978.579
 273  2184.573
 274  1736.065
 275  1646.384
 276  1759.005
 277  1807.838
 278  1661.931
 279  1649.031
 280  1950.719
 281  2045.331
 282  1889.973
 283  1545.361
 284  1885.097
 285  1657.38
 286  1367.881
 287  1175.984
 288  1611.105
 289  2095.998
 290  2008.599
 291  2180.789
 292  2300.984
 293  2394.385
 294  1732.391
 295  1258.421
 296  1573.752
 297  1573.215
 298  1653.702
 299  2020.413
 300  2051.939
 301  2099.87
 302  2054.079
 303  1593.705
 304  2005.971
 305  2437.29
 306  2751.414
 307  3103.579
 308  3178.286
 309  3659.422
 310  3327.489
 311  2879.375
 312  2280.525
 313  1940.677
 314  1841.88
 315  1348.033
 316  1659.383
 317  1801.749
 318  2287.297
 319  2235.025
 320  1902.829
 321  1797.756
 322  1723.779
 323  1775.991
 324  1589.028
 325  1766.128
 326  1835.833
 327  1857.422
 328  1740.23
 329  1929.789
 330  1495.253
 331  1172.077
 332  1274.794
 333  1416.843
 334  1656.049
 335  1820.62
 336  1441.142
 337  1674.739
 338  1898.962
 339  1639.926
 340  1443.839
 341  1743.445
 342  2041.94
 343  1736.731
 344  1421.737
 345  1550.039
 346  1961.142
 347  2096.56
 348  1506.6
 349  1226.623
 350  1572.985
 351  1796.237
 352  1353.797
 353  1866.947
 354  2080.897
 355  2084.192
 356  1680.611
 357  2200.154
 358  2088.256
 359  1730.733
 360  1623.949
 361  1459.616
 362  1416.578
 363  1838.722
 364  1988.954
 365  1792.8
 366  2164.565
 367  2561.084
 368  1966.624
 369  1631.669
 370  1333.22
 371  1573.338
 372  1458.411
 373  1858.558
 374  2277.251
 375  1860.217
 376  1902.248
 377  1555.008
 378  1048.368
 379  1543.596
 380  1639.7
 381  1530.645
 382  1622
 383  1987.735
 384  2117.817
 385  1726.213
 386  1316.758
 387  1118.074
 388  1252.558
 389  1451.775
 390  1771.053
 391  1980.027
 392  1971.192
 393  1468.316
 394  1510.499
 395  1234.509
 396  1025.393
 397  1221.808
 398  1272.084
 399  1692.136
 400  1803.015
 401  2015.565
 402  1758.123
 403  1363.196
 404  1477.098
 405  1166.889
 406  1380.936
 407  1590.792
 408  1808.641
 409  1599.684
 410  1592.449
 411  1559.768
 412  1478.452
 413  1376.969
 414  1374.124
 415  1121.979
 416  1443.959
 417  1697.468
 418  2077.054
 419  1926.434
 420  2101.054
 421  1874.806
 422  1311.147
 423  1274.616
 424  1676.351
 425  1866.772
 426  1556.47
 427  2009.789
 428  1858.499
 429  1499.655
 430  1619.093
 431  1454.516
 432  1508.417
 433  1883.497
 434  2100.394
 435  1863.509
 436  1532.649
 437  1500.932
 438  1922.138
 439  1888.974
 440  1847.295
 441  2159.407
 442  1603.952
 443  1330.669
 444  1042.572
 445  1355.494
 446  1650.086
 447  1546.034
 448  1702.681
 449  1921.172
 450  1802.085
 451  1455.217
 452  1346.3
 453  1773.101
 454  1811.448
 455  1618.988
 456  1927.847
 457  1857.03
 458  1800.105
 459  1708.803
 460  1879.194
 461  1727.604
 462  1670.505
 463  1410.199
 464  1609.426
 465  1874.612
 466  2054.76
 467  1550.288
 468  1491.373
 469  1545.988
 470  1431.977
 471  1748.351
 472  1645.543
 473  1954.279
 474  1762.049
 475  1888.076
 476  1646.596
 477  1244.04
 478  1348.443
 479  1439.741
 480  1605.013
 481  1526.491
 482  1861.649
 483  1895.115
 484  2183.881
 485  1814.428
 486  1402.617
 487  1637.344
 488  1273.015
 489  1191.694
 490  1328.012
 491  1754.78
 492  1879.709
 493  1431.934
 494  1481.682
 495  1934.394
 496  1853.982
 497  1574.407
 498  2072.788
 499  1751.883
 500  1691.245
 501  2018.168
 502  1799.134
 503  2306.477
 504  1613.405
 505  1668.247
 506  1610.369
 507  1991.706
 508  2180.639
 509  2032.168
 510  1738.907
 511  1653.004
