# Input file       =  1182319293.117347_cleaned.dat
# Candidate        =  PSR_0332+5434
# Telescope        =  AR
# Epoch_topo       =  57928.251297654482
# Epoch_bary       =  N/A
# T_sample         =  0.002
# Data Folded      =  7340032
# Data Avg         =  0.180167996231051
# Data StdDev      =  5.45732997015465 
# Profile Bins     =  1024
# Profile Avg      =  1291.54150878361 
# Profile StdDev   =  462.03961355036  
# Reduced chi-sqr  =  1.133
# Prob(Noise)      <  0.00182   (~2.9 sigma)
# P_topo (ms)      =  714.49491222902   +/- 0.000308
# P'_topo (s/s)    =  -0                +/- 1.63e-10
# P''_topo (s/s^2) =  0                 +/- 7.18e-14
# P_bary (ms)      =  N/A
# P'_bary (s/s)    =  N/A
# P''_bary (s/s^2) =  N/A
# P_orb (s)        =  N/A
# asin(i)/c (s)    =  N/A
# eccentricity     =  N/A
# w (rad)          =  N/A
# T_peri           =  N/A
######################################################
   0  1732.639
   1  1646.845
   2  1487.682
   3  1609.096
   4  1777.354
   5  1850.637
   6  1808.774
   7  1721.416
   8  1616.667
   9  1575.554
  10  1632.031
  11  1795.011
  12  1822.394
  13  1822.373
  14  1520.134
  15  1317.833
  16  1137.115
  17  1248.863
  18  1230.142
  19  1161.292
  20  1253.949
  21  1326.682
  22  1424.47
  23  1353.437
  24  1383.99
  25  1503.19
  26  1502.671
  27  1586.924
  28  1573.584
  29  1596.207
  30  1211.604
  31  1009.755
  32  1021.806
  33  1090.443
  34  1028.176
  35  960.2415
  36  1033.518
  37  1182.368
  38  1239.694
  39  1138.104
  40  1068.842
  41  1034.873
  42  1081.013
  43  992.3378
  44  1016.348
  45  1146.333
  46  1224.907
  47  1336.323
  48  1347.956
  49  1331.937
  50  1306.314
  51  1341.969
  52  1351.505
  53  1361.856
  54  1344.646
  55  1531.622
  56  1437.467
  57  1302.365
  58  1135.324
  59  1039.156
  60  1161.005
  61  1430.541
  62  1621.753
  63  1561.461
  64  1250.866
  65  1167.144
  66  1236.89
  67  1338.69
  68  1322.142
  69  1226.125
  70  1304.431
  71  1305.075
  72  1339.466
  73  1436.262
  74  1503.191
  75  1684.955
  76  1764.223
  77  1793.263
  78  1663.205
  79  1672.555
  80  1510.87
  81  1371.161
  82  1344.998
  83  1392.577
  84  1416.631
  85  1377.962
  86  1378.041
  87  1314.876
  88  1258.857
  89  1242.682
  90  1245.24
  91  1416.553
  92  1482.661
  93  1488.3
  94  1512.468
  95  1544.618
  96  1537.559
  97  1594.405
  98  1703.751
  99  1644.278
 100  1559.494
 101  1292.058
 102  1239.468
 103  1044.945
 104  1216.342
 105  1168.379
 106  1057.773
 107  826.8992
 108  762.6974
 109  979.622
 110  1124.685
 111  1175.45
 112  913.1692
 113  683.8804
 114  574.1605
 115  600.4406
 116  630.2007
 117  595.4888
 118  596.4354
 119  686.569
 120  788.5953
 121  959.2256
 122  986.1598
 123  1057.435
 124  967.9635
 125  885.0587
 126  775.4276
 127  825.4383
 128  970.7102
 129  1017.267
 130  1055.827
 131  1156.254
 132  1217.442
 133  1339.663
 134  1319.817
 135  1375.024
 136  1271.479
 137  1214.4
 138  1215.566
 139  1157.465
 140  1074.952
 141  1039.935
 142  1209.812
 143  1277.801
 144  1161.627
 145  993.1276
 146  1135.851
 147  1245.376
 148  1180.297
 149  1222.866
 150  1243.68
 151  1445.794
 152  1547.116
 153  1740.697
 154  1730.202
 155  1621.371
 156  1464.958
 157  1416.802
 158  1388.933
 159  1493.925
 160  1541.969
 161  1672.429
 162  1764.238
 163  1685.397
 164  1747.397
 165  1701.471
 166  1520.454
 167  1516.655
 168  1507.602
 169  1678.324
 170  1708.954
 171  1777.532
 172  1673.637
 173  1478.731
 174  1369.568
 175  1419.606
 176  1447.589
 177  1467.318
 178  1454.689
 179  1396.283
 180  1364.26
 181  1292.406
 182  1267.189
 183  1350.828
 184  1368.788
 185  1364.884
 186  1321.937
 187  1420.515
 188  1351.639
 189  1198.744
 190  1058.734
 191  1036.206
 192  1061.865
 193  932.9042
 194  839.0381
 195  831.1019
 196  892.3113
 197  999.7492
 198  1152.525
 199  1364.736
 200  1384.341
 201  1339.972
 202  1191.026
 203  1163.378
 204  1306.028
 205  1280.203
 206  1129.958
 207  1130.137
 208  1242.385
 209  1338.894
 210  1113.375
 211  1083.526
 212  1107.676
 213  1220.553
 214  1170.442
 215  1196.315
 216  1257.898
 217  1360.928
 218  1407.266
 219  1431.373
 220  1359.119
 221  1225.57
 222  1119.837
 223  1036.964
 224  962.804
 225  1073.002
 226  1205.325
 227  1301.646
 228  1375.805
 229  1345.595
 230  1324.774
 231  1330.652
 232  1410.63
 233  1564.641
 234  1521.28
 235  1521.051
 236  1461.332
 237  1278.687
 238  1087.756
 239  931.8213
 240  1086.576
 241  1242.356
 242  1352.189
 243  1361.781
 244  1283.276
 245  1199.406
 246  1136.678
 247  1073.732
 248  1066.311
 249  1082.755
 250  1193.438
 251  1216.837
 252  1183.511
 253  1210.276
 254  1414.954
 255  1527.352
 256  1524.099
 257  1583.699
 258  1568.751
 259  1338.341
 260  1295.112
 261  1331.5
 262  1358.449
 263  1190.387
 264  1264.605
 265  1522.186
 266  1501.408
 267  1488.894
 268  1350.867
 269  1405.724
 270  1400.622
 271  1295.204
 272  1184.067
 273  1110.064
 274  1190.97
 275  1268.333
 276  1219.076
 277  1082.354
 278  1008.19
 279  1091.353
 280  1074.469
 281  1057.119
 282  1079.02
 283  1074.812
 284  1019.36
 285  1054.569
 286  1102.135
 287  1046.66
 288  1111.665
 289  1235.139
 290  1322.987
 291  1348.921
 292  1337.955
 293  1313.201
 294  1242.967
 295  1168.259
 296  1225.056
 297  1218.39
 298  1133.594
 299  1180.02
 300  1142.017
 301  1238.541
 302  1158.696
 303  1269.896
 304  1235.653
 305  1334.457
 306  1269.373
 307  1149.958
 308  1133.385
 309  1308.496
 310  1312.163
 311  1235.837
 312  1211.035
 313  1279.101
 314  1220.123
 315  1208.233
 316  1203.286
 317  1201.239
 318  1216.769
 319  1198.521
 320  1182.327
 321  1180.989
 322  1199.571
 323  1191.356
 324  1153.259
 325  1168.806
 326  1299.224
 327  1389.588
 328  1366.44
 329  1204.021
 330  1090.981
 331  1074.033
 332  1239.644
 333  1376.545
 334  1446.003
 335  1412.018
 336  1296.935
 337  1181.801
 338  1092.457
 339  1097.253
 340  1272.722
 341  1154.949
 342  1101.981
 343  964.6096
 344  1006.69
 345  1191.383
 346  1245.289
 347  1138.745
 348  1178.389
 349  1173.025
 350  1240.803
 351  1046.176
 352  1015.04
 353  986.8619
 354  914.6768
 355  928.7242
 356  846.0253
 357  819.5784
 358  766.5389
 359  805.0782
 360  745.0728
 361  672.8062
 362  503.4948
 363  466.8241
 364  617.4756
 365  734.4827
 366  655.094
 367  702.569
 368  744.9666
 369  727.026
 370  841.914
 371  972.9841
 372  1019.632
 373  842.5906
 374  774.8971
 375  946.4468
 376  835.0713
 377  732.3101
 378  674.4288
 379  652.0056
 380  565.0804
 381  536.6297
 382  811.786
 383  923.2501
 384  921.1746
 385  785.6205
 386  900.4704
 387  992.918
 388  1116.869
 389  1207.669
 390  1267.371
 391  1167.995
 392  1173.336
 393  990.3529
 394  997.7088
 395  982.1509
 396  1228.681
 397  1292.969
 398  1116.214
 399  865.2595
 400  794.5895
 401  995.9036
 402  1161.484
 403  1321.227
 404  1390.207
 405  1303.814
 406  1228.367
 407  1288.463
 408  1509.406
 409  1406.747
 410  1275.626
 411  1070.269
 412  1089.254
 413  997.5537
 414  893.4913
 415  856.9036
 416  777.6688
 417  709.3501
 418  631.2631
 419  813.6038
 420  978.6028
 421  927.3228
 422  682.4301
 423  619.9314
 424  652.0452
 425  882.639
 426  974.8655
 427  1030.967
 428  964.3839
 429  1063.005
 430  1099.383
 431  1249.217
 432  1312.397
 433  1283.97
 434  1108.587
 435  1268.339
 436  1484.009
 437  1375.046
 438  1273.611
 439  988.6888
 440  922.2275
 441  920.1013
 442  1311.748
 443  1257.297
 444  1127.713
 445  795.7184
 446  778.4388
 447  777.785
 448  827.816
 449  735.6032
 450  790.783
 451  984.0813
 452  1082.76
 453  991.8726
 454  855.7267
 455  908.0415
 456  970.3926
 457  952.6779
 458  934.6766
 459  1032.073
 460  1103.543
 461  1222.151
 462  1265.376
 463  1236.166
 464  971.2936
 465  810.0757
 466  835.1724
 467  953.8961
 468  979.6132
 469  1026.874
 470  978.5657
 471  845.0608
 472  853.2322
 473  946.8661
 474  939.3231
 475  832.48
 476  682.8831
 477  639.2251
 478  665.7568
 479  820.4547
 480  768.0222
 481  808.0012
 482  780.2383
 483  783.0961
 484  793.6536
 485  750.3577
 486  824.1783
 487  977.6373
 488  1036.68
 489  1080.551
 490  1156.35
 491  1225.261
 492  1130.294
 493  1196.549
 494  1408.082
 495  1425.737
 496  1364.344
 497  1365.394
 498  1414.414
 499  1389.5
 500  1341.525
 501  1237.443
 502  1269.774
 503  1272.326
 504  1355.088
 505  1262.954
 506  1358.067
 507  1432.357
 508  1460.793
 509  1377.686
 510  1474.942
 511  1436.952
 512  1546.842
 513  1552.684
 514  1535.802
 515  1496.849
 516  1522.972
 517  1620.361
 518  1511.558
 519  1387.985
 520  1319.936
 521  1305.534
 522  1429.811
 523  1524.747
 524  1642.998
 525  1523.197
 526  1472.669
 527  1244.62
 528  1128.742
 529  1128.07
 530  1098.432
 531  1092.181
 532  1099.897
 533  1229.928
 534  1253.708
 535  1234.333
 536  1238.849
 537  1277.392
 538  1202.636
 539  1201.78
 540  1233.937
 541  1427.962
 542  1466.827
 543  1424.593
 544  1430.698
 545  1424.757
 546  1457.941
 547  1451.687
 548  1384.898
 549  1347.156
 550  1375.547
 551  1556.866
 552  1555.03
 553  1621.082
 554  1495.492
 555  1542.641
 556  1509.055
 557  1545.991
 558  1406.837
 559  1300.307
 560  1208.807
 561  1298.246
 562  1466.344
 563  1490.548
 564  1376.294
 565  1311.112
 566  1303.25
 567  1290.19
 568  1358.314
 569  1372.574
 570  1532.748
 571  1670.288
 572  1838.709
 573  1768.305
 574  1726.085
 575  1658.068
 576  1616.828
 577  1518.801
 578  1456.942
 579  1372.907
 580  1337.859
 581  1261.328
 582  1151.808
 583  1076.426
 584  1237.957
 585  1317.234
 586  1319.124
 587  1238.438
 588  1212.312
 589  1264.029
 590  1454.608
 591  1595.867
 592  1691.541
 593  1437.694
 594  1370.481
 595  1529.534
 596  1782.243
 597  1690.578
 598  1414.843
 599  1374.883
 600  1465.631
 601  1574.649
 602  1624.774
 603  1567.026
 604  1449.423
 605  1494.18
 606  1591.471
 607  1461.377
 608  1279.79
 609  1247.718
 610  1225.111
 611  1220.335
 612  1351.955
 613  1401.529
 614  1608.082
 615  1589.617
 616  1503.201
 617  1308.857
 618  1395.8
 619  1588.702
 620  1599.513
 621  1421.233
 622  1454.183
 623  1368.295
 624  1204.246
 625  1179.739
 626  1322.448
 627  1364.565
 628  1386.142
 629  1424.202
 630  1494.755
 631  1483.007
 632  1364.28
 633  1374.268
 634  1461.07
 635  1673.002
 636  1730.763
 637  1590.034
 638  1396.278
 639  1294.928
 640  1316.229
 641  1448.894
 642  1562.691
 643  1586.435
 644  1646.677
 645  1682.935
 646  1515.765
 647  1348.905
 648  1376.222
 649  1439.183
 650  1712.289
 651  1739.955
 652  1920.725
 653  1881.109
 654  1842.356
 655  1820.602
 656  1893.363
 657  1915.444
 658  1899.252
 659  1640.579
 660  1510.571
 661  1314.534
 662  1304.803
 663  1278.389
 664  1303.839
 665  1402.139
 666  1568.478
 667  1660.145
 668  1726.307
 669  1847.248
 670  1955.001
 671  1978.833
 672  1886.821
 673  1858.865
 674  1786.484
 675  1752.419
 676  1680.05
 677  1708.308
 678  1641.793
 679  1642.67
 680  1631.918
 681  1834.679
 682  1832.418
 683  1878.334
 684  1820.234
 685  1900.437
 686  1961.053
 687  1795.516
 688  1675.888
 689  1607.34
 690  1762.851
 691  1665.425
 692  1620.101
 693  1419.664
 694  1428.684
 695  1540.363
 696  1687.519
 697  1578.279
 698  1276.448
 699  1306.522
 700  1304.756
 701  1437.65
 702  1330.441
 703  1176.63
 704  1041.912
 705  1097.743
 706  1246.986
 707  1305.85
 708  1326.549
 709  1164.609
 710  1101.102
 711  1200.136
 712  1466.096
 713  1434.917
 714  1316.21
 715  1330.353
 716  1359.024
 717  1267.866
 718  1053.182
 719  1067.733
 720  1426.759
 721  1509.329
 722  1472.507
 723  1376.561
 724  1187.246
 725  1134.088
 726  1009.312
 727  1133.286
 728  950.8647
 729  900.3687
 730  1010.106
 731  945.2892
 732  1136.937
 733  1249.641
 734  1222.139
 735  1034.646
 736  917.2741
 737  934.7128
 738  784.3596
 739  788.3344
 740  836.333
 741  1025.836
 742  1080.841
 743  1177.537
 744  1191.632
 745  1264.87
 746  1280.666
 747  1139.244
 748  1082.151
 749  1101.892
 750  1155.954
 751  1292.677
 752  1441.763
 753  1448.057
 754  1436.25
 755  1585.22
 756  1708.655
 757  1704.606
 758  1529.885
 759  1537.458
 760  1474.742
 761  1636.268
 762  1584.523
 763  1508.523
 764  1334.122
 765  1442.039
 766  1422.036
 767  1392.286
 768  1319.973
 769  1179.658
 770  1213.09
 771  1274.983
 772  1355.309
 773  1471.805
 774  1515.233
 775  1453.761
 776  1353.277
 777  1206.807
 778  1261.257
 779  1409.24
 780  1495.107
 781  1518.99
 782  1407.177
 783  1295.377
 784  1070.95
 785  942.3854
 786  828.1052
 787  899.0608
 788  1029.334
 789  1081.897
 790  997.4681
 791  902.8439
 792  1019.703
 793  1092.599
 794  1163.235
 795  1119.88
 796  1093.177
 797  1134.944
 798  1075.875
 799  988.8507
 800  976.5132
 801  1008.814
 802  1000.66
 803  974.532
 804  1117.324
 805  1024.043
 806  1049.038
 807  1012.839
 808  1164.705
 809  1175.759
 810  1167.289
 811  1219.335
 812  1396.905
 813  1348.739
 814  1310.323
 815  1005.499
 816  1083.223
 817  1116.099
 818  1223.899
 819  1197.841
 820  1302.457
 821  1366.055
 822  1284.122
 823  1182.093
 824  1152.244
 825  1038.853
 826  916.5941
 827  938.7621
 828  1036.25
 829  1054.252
 830  1111.935
 831  1217.362
 832  1280.195
 833  1163.55
 834  1017.698
 835  969.7358
 836  1212.378
 837  1265.541
 838  1209.544
 839  1248.539
 840  1369.698
 841  1333.135
 842  1264.851
 843  1317.018
 844  1360.266
 845  1391.002
 846  1496.409
 847  1614.784
 848  1583.973
 849  1703.459
 850  1719.695
 851  1780.594
 852  1617.615
 853  1662.712
 854  1714.92
 855  1619.661
 856  1490.482
 857  1481.685
 858  1648.957
 859  1779.226
 860  1621.281
 861  1522.791
 862  1647.498
 863  1626.156
 864  1612.212
 865  1597.93
 866  1665.11
 867  1723.017
 868  1750.121
 869  1891.321
 870  2067.761
 871  1995.727
 872  1769.926
 873  1628.562
 874  1565.795
 875  1501.266
 876  1530.065
 877  1544.357
 878  1626.717
 879  1394.372
 880  1389.122
 881  1413.811
 882  1587.122
 883  1616.175
 884  1593.913
 885  1570.538
 886  1581.613
 887  1567.226
 888  1577.255
 889  1496.321
 890  1421.703
 891  1330.041
 892  1558.769
 893  1485.9
 894  1387.472
 895  1092.966
 896  1054.361
 897  1128.53
 898  1219.381
 899  1310.68
 900  1366.265
 901  1274.983
 902  1276.725
 903  1081.018
 904  1069.4
 905  1110.34
 906  1223.057
 907  1323.235
 908  1241.61
 909  1166.076
 910  1153.921
 911  1210.407
 912  1452.766
 913  1518.829
 914  1655.76
 915  1742.14
 916  1771.889
 917  1598.962
 918  1428.243
 919  1528.659
 920  1554.439
 921  1622.573
 922  1692.486
 923  1761.918
 924  1533.37
 925  1247.95
 926  1203.732
 927  1314.68
 928  1525.674
 929  1663.039
 930  1598.641
 931  1481.988
 932  1486.226
 933  1479.438
 934  1540.661
 935  1502.722
 936  1479.065
 937  1538.704
 938  1557.981
 939  1725.555
 940  1661.725
 941  1683.841
 942  1656.12
 943  1628.399
 944  1579.682
 945  1461.063
 946  1399.665
 947  1475.776
 948  1495.726
 949  1443.031
 950  1468.874
 951  1465.331
 952  1652.424
 953  1590.891
 954  1679.132
 955  1583.27
 956  1556.67
 957  1610.167
 958  1585.938
 959  1519.77
 960  1437.515
 961  1346.667
 962  1342.031
 963  1304.157
 964  1328.307
 965  1304.917
 966  1320.483
 967  1349.573
 968  1503.235
 969  1451.492
 970  1418.039
 971  1393.74
 972  1384.465
 973  1348.74
 974  1137.812
 975  1172.621
 976  1377.769
 977  1465.925
 978  1509.516
 979  1304.955
 980  1419.831
 981  1462.999
 982  1349.746
 983  1125.383
 984  1076.214
 985  1168.207
 986  1125.835
 987  1044.563
 988  1010.177
 989  1014.295
 990  940.5218
 991  972.1216
 992  1094.127
 993  1231.286
 994  1285.565
 995  1323.022
 996  1153.03
 997  1119.432
 998  1077.28
 999  1150.003
1000  1087.424
1001  930.7027
1002  922.0256
1003  1052.069
1004  1192.929
1005  1327.411
1006  1185.481
1007  1096.517
1008  1137.716
1009  1145.8
1010  1202.625
1011  1381.299
1012  1520.775
1013  1506.118
1014  1469.31
1015  1473.846
1016  1485.926
1017  1449.606
1018  1471.884
1019  1539.52
1020  1516.115
1021  1669.752
1022  1603.326
1023  1763.026
