# Input file       =  1182764375.119632_cleaned.dat
# Candidate        =  PSR_0332+5434
# Telescope        =  AR
# Epoch_topo       =  57933.402709717964
# Epoch_bary       =  N/A
# T_sample         =  0.002
# Data Folded      =  7340032
# Data Avg         =  0.143492149733772
# Data StdDev      =  4.62611464735983 
# Profile Bins     =  1024
# Profile Avg      =  1028.60693147963 
# Profile StdDev   =  391.665564588396 
# Reduced chi-sqr  =  0.973
# Prob(Noise)      <  0.726   (~0.0 sigma)
# P_topo (ms)      =  714.490869371576  +/- 1.76e-05
# P'_topo (s/s)    =  -0                +/- 9.28e-12
# P''_topo (s/s^2) =  0                 +/- 4.1e-15
# P_bary (ms)      =  N/A
# P'_bary (s/s)    =  N/A
# P''_bary (s/s^2) =  N/A
# P_orb (s)        =  N/A
# asin(i)/c (s)    =  N/A
# eccentricity     =  N/A
# w (rad)          =  N/A
# T_peri           =  N/A
######################################################
   0  767.5986
   1  771.9528
   2  921.41
   3  1113.974
   4  1155.276
   5  1123.411
   6  1056.002
   7  894.1891
   8  803.5397
   9  743.4566
  10  709.2234
  11  740.1053
  12  975.3307
  13  1229.508
  14  1304.637
  15  1268.176
  16  1203.191
  17  953.3876
  18  827.9476
  19  677.1309
  20  743.9515
  21  791.0672
  22  861.328
  23  1091.783
  24  1277.748
  25  1389.614
  26  1256.97
  27  1006.402
  28  867.5651
  29  693.4683
  30  813.4496
  31  798.4305
  32  891.3862
  33  933.8267
  34  1119.913
  35  1186.111
  36  1145.495
  37  1028.845
  38  767.5116
  39  745.2297
  40  768.2304
  41  857.2634
  42  813.9836
  43  779.631
  44  901.5894
  45  944.0863
  46  811.7845
  47  530.1352
  48  304.7021
  49  371.0818
  50  584.5286
  51  770.6203
  52  998.0318
  53  1116.778
  54  1118.816
  55  990.8783
  56  1007.503
  57  981.4009
  58  923.4947
  59  730.6784
  60  742.8065
  61  891.2921
  62  1045.193
  63  1098.495
  64  993.8484
  65  1058.107
  66  1144.742
  67  1048.596
  68  896.2855
  69  789.5762
  70  869.0076
  71  991.7109
  72  1145.545
  73  1168.562
  74  1108.031
  75  1101.243
  76  983.5397
  77  885.691
  78  756.2825
  79  835.2735
  80  914.7081
  81  976.6672
  82  948.8565
  83  924.7831
  84  875.23
  85  933.6925
  86  1022.795
  87  946.4732
  88  934.3591
  89  911.0411
  90  1028.634
  91  990.9565
  92  1054.735
  93  1116.869
  94  1072.793
  95  948.4294
  96  837.9348
  97  907.5683
  98  921.5311
  99  910.18
 100  1129.729
 101  1218.007
 102  1226.215
 103  1022.902
 104  881.1135
 105  793.9382
 106  760.8075
 107  927.6212
 108  988.7911
 109  1076.914
 110  1256.741
 111  1329.85
 112  1127.437
 113  860.7515
 114  780.8944
 115  832.9783
 116  906.085
 117  892.9045
 118  1051.162
 119  1144.926
 120  1153.092
 121  1131.372
 122  972.822
 123  886.2878
 124  705.5137
 125  664.2305
 126  767.1905
 127  874.9844
 128  1134.006
 129  1160.563
 130  1168.583
 131  974.1304
 132  861.6801
 133  647.5668
 134  604.6147
 135  681.0666
 136  857.2149
 137  902.3007
 138  1015.763
 139  1085.283
 140  1218.668
 141  1198.991
 142  1120.412
 143  993.5462
 144  793.9855
 145  834.3231
 146  1000.767
 147  1233.625
 148  1274.062
 149  1244.863
 150  1084.218
 151  1080.593
 152  1022.675
 153  896.0303
 154  901.7253
 155  968.2538
 156  1221.927
 157  1276.661
 158  1331.341
 159  1244.286
 160  1186.182
 161  1092.188
 162  989.9964
 163  930.9417
 164  929.964
 165  1017.306
 166  1088.775
 167  1215.428
 168  1332.041
 169  1339.714
 170  1073.834
 171  890.3238
 172  757.5069
 173  724.8349
 174  743.6786
 175  917.9756
 176  1049.758
 177  1022.464
 178  1099.445
 179  1236.227
 180  1202.364
 181  1121.565
 182  956.9055
 183  978.3409
 184  959.163
 185  949.652
 186  941.6292
 187  911.8558
 188  817.3398
 189  752.6747
 190  708.2294
 191  648.2994
 192  560.4326
 193  693.6319
 194  823.8292
 195  801.0052
 196  669.2689
 197  695.704
 198  888.6593
 199  823.9344
 200  731.0371
 201  597.2861
 202  582.6681
 203  560.6625
 204  510.4714
 205  627.2001
 206  804.7755
 207  843.2259
 208  748.5428
 209  603.145
 210  442.2457
 211  392.164
 212  474.4365
 213  686.7548
 214  875.0933
 215  1016.581
 216  1059.278
 217  978.6128
 218  786.6708
 219  633.4528
 220  555.0206
 221  387.0963
 222  425.2741
 223  688.1299
 224  955.0703
 225  1141.302
 226  1035.418
 227  974.4579
 228  816.7076
 229  678.5307
 230  551.7197
 231  675.8162
 232  801.6377
 233  934.8733
 234  928.9652
 235  1036.902
 236  1026.475
 237  1106.248
 238  951.3216
 239  878.6337
 240  656.8049
 241  796.8837
 242  923.98
 243  1104.419
 244  1246.242
 245  1247.632
 246  1195.291
 247  1029.059
 248  931.9967
 249  783.6219
 250  617.1403
 251  712.0619
 252  1056.026
 253  1161.45
 254  1093.33
 255  1002.885
 256  952.4879
 257  850.8898
 258  632.6387
 259  555.0443
 260  640.3099
 261  758.5576
 262  1101.888
 263  1111.775
 264  1218.302
 265  1180.146
 266  1079.438
 267  905.119
 268  704.8972
 269  781.7932
 270  785.9492
 271  962.8146
 272  1027.108
 273  1088.235
 274  1105.364
 275  1127.363
 276  1121.312
 277  955.1394
 278  871.4192
 279  871.5585
 280  934.1388
 281  1010.06
 282  983.6113
 283  931.3027
 284  908.6771
 285  858.3616
 286  805.2695
 287  684.0644
 288  508.4737
 289  536.5555
 290  715.6047
 291  814.8008
 292  820.4378
 293  893.4089
 294  927.1891
 295  898.5239
 296  789.6253
 297  824.5685
 298  787.1989
 299  834.074
 300  875.7807
 301  998.5297
 302  1146.466
 303  1175.159
 304  949.9043
 305  851.1357
 306  814.5187
 307  826.8645
 308  770.1417
 309  772.2305
 310  1024.315
 311  1202.844
 312  1348.478
 313  1293.764
 314  1157.493
 315  1038.31
 316  945.3458
 317  894.7644
 318  838.8291
 319  829.9453
 320  840.8245
 321  964.9714
 322  940.8744
 323  953.188
 324  968.5964
 325  956.7369
 326  944.0417
 327  878.3893
 328  991.896
 329  1088.981
 330  1159.172
 331  1114.823
 332  1003.667
 333  911.3519
 334  740.5593
 335  736.2469
 336  638.8193
 337  642.1858
 338  845.9286
 339  1090.849
 340  1134.617
 341  1151.72
 342  1017.748
 343  1010.127
 344  885.6599
 345  875.4732
 346  954.0568
 347  1083.621
 348  1305.451
 349  1278.801
 350  1407.814
 351  1464.901
 352  1430.26
 353  1297.999
 354  1163.361
 355  1189.965
 356  1204.824
 357  1418.715
 358  1550.129
 359  1561.3
 360  1479.819
 361  1394.717
 362  1292.227
 363  1104.397
 364  920.6077
 365  832.5565
 366  929.7039
 367  1010.687
 368  1205.4
 369  1207.101
 370  1268.814
 371  1130.662
 372  1121.246
 373  993.5983
 374  946.5975
 375  983.6166
 376  1008.125
 377  1244.521
 378  1436.21
 379  1457.098
 380  1239.456
 381  976.3436
 382  934.121
 383  1024.256
 384  1146.667
 385  1332.973
 386  1516.523
 387  1618.425
 388  1496.535
 389  1344.372
 390  1246.207
 391  1058.993
 392  1004.853
 393  882.2687
 394  905.6149
 395  957.4274
 396  1126.872
 397  1237.424
 398  1275.928
 399  1350.811
 400  1366.979
 401  1236.576
 402  1112.35
 403  1073.672
 404  1125.51
 405  1101.582
 406  1050.523
 407  1233.617
 408  1477.075
 409  1489.642
 410  1200.772
 411  927.6165
 412  909.6961
 413  1050.333
 414  1013.139
 415  1072.702
 416  1218.751
 417  1431.013
 418  1406.813
 419  1203.545
 420  1086.677
 421  947.4866
 422  850.0324
 423  833.3218
 424  973.2449
 425  1211.705
 426  1363.359
 427  1474.696
 428  1490.285
 429  1428.234
 430  1222.572
 431  1133.745
 432  1088.472
 433  994.2669
 434  999.9141
 435  1084.358
 436  1252.557
 437  1311.403
 438  1213.147
 439  990.1221
 440  890.7209
 441  930.1315
 442  973.2775
 443  1082.599
 444  1305.24
 445  1461.134
 446  1333.781
 447  1250.964
 448  1358.315
 449  1381.214
 450  1301.233
 451  1181.489
 452  1240.854
 453  1357.858
 454  1501.543
 455  1593.297
 456  1457.827
 457  1214.034
 458  1183.03
 459  1200.323
 460  1326.805
 461  1358.003
 462  1479.717
 463  1388.428
 464  1413.834
 465  1312.873
 466  1191.822
 467  1078.675
 468  983.4191
 469  1138.557
 470  1135.081
 471  1167.258
 472  1078.657
 473  1089.046
 474  1175.822
 475  1211.481
 476  1212.094
 477  1031.98
 478  909.6707
 479  908.7228
 480  986.1462
 481  1076.16
 482  1174.155
 483  1408.064
 484  1415.076
 485  1219.547
 486  1134.745
 487  1071.185
 488  1004.131
 489  952.8911
 490  1088.959
 491  1328.904
 492  1465.548
 493  1478.135
 494  1469.934
 495  1330.024
 496  1291.369
 497  1102.498
 498  906.4909
 499  828.9297
 500  931.9105
 501  1077.394
 502  1151.838
 503  1216.962
 504  1277.903
 505  1103.568
 506  1047.008
 507  838.0306
 508  821.1262
 509  805.2805
 510  834.5312
 511  988.7335
 512  929.4101
 513  1088.343
 514  1203.658
 515  1225.691
 516  969.6423
 517  716.0666
 518  670.7668
 519  811.0492
 520  1004.774
 521  1059.626
 522  1088.825
 523  1013.19
 524  1034.349
 525  956.5176
 526  961.4207
 527  923.5333
 528  997.5081
 529  1002.999
 530  1159.172
 531  1176.387
 532  1096.662
 533  1034.105
 534  1034.166
 535  977.3047
 536  926.9658
 537  1014.653
 538  1093.473
 539  1054.238
 540  1113.682
 541  1150.521
 542  1049.056
 543  828.4122
 544  740.4748
 545  613.3553
 546  603.0293
 547  795.921
 548  894.6648
 549  979.2869
 550  1106.724
 551  1337.184
 552  1306.553
 553  1136.191
 554  1002.634
 555  941.3704
 556  917.3614
 557  1039.448
 558  1271.919
 559  1367.131
 560  1324.749
 561  1243.319
 562  1217.032
 563  1126.526
 564  1037.042
 565  807.2545
 566  674.3184
 567  712.0435
 568  1034.027
 569  1271.39
 570  1256.897
 571  1083.244
 572  1054.279
 573  972.6982
 574  925.3054
 575  818.0618
 576  841.0485
 577  1012.206
 578  1104.726
 579  1132.166
 580  1084.649
 581  985.5524
 582  906.4482
 583  758.8014
 584  771.6052
 585  707.0673
 586  812.3602
 587  982.014
 588  1183.712
 589  1155.38
 590  1082.849
 591  1039.042
 592  1009.449
 593  982.9974
 594  925.402
 595  1097.011
 596  1221.573
 597  1435.271
 598  1286.862
 599  1181.286
 600  1124.943
 601  1076.601
 602  1070.468
 603  994.088
 604  1035.226
 605  1040.429
 606  1207.025
 607  1244.661
 608  1456.805
 609  1434.08
 610  1353.115
 611  1089.909
 612  982.4741
 613  875.2236
 614  876.5621
 615  1027.236
 616  1125.305
 617  1235.377
 618  1212.616
 619  1257.811
 620  1108.625
 621  978.7944
 622  915.2206
 623  913.7203
 624  839.2818
 625  864.4757
 626  1004.519
 627  1329.076
 628  1370.865
 629  1217.052
 630  1031.08
 631  855.3098
 632  801.5861
 633  989.6351
 634  1217.366
 635  1344.231
 636  1319.581
 637  1232.724
 638  1139.629
 639  1097.234
 640  1006.692
 641  1046.887
 642  1107.82
 643  1147.441
 644  1079.315
 645  1155.528
 646  1285.069
 647  1462.827
 648  1471.963
 649  1334.394
 650  1163.343
 651  1257.836
 652  1339.864
 653  1515.26
 654  1654.422
 655  1814.666
 656  1793.692
 657  1786.365
 658  1729.731
 659  1419.185
 660  1066.57
 661  933.5425
 662  1019.904
 663  1127.954
 664  1062.085
 665  1282.956
 666  1269.191
 667  1227.36
 668  972.9135
 669  978.4099
 670  985.8121
 671  931.7171
 672  1005.548
 673  1077.741
 674  1173.271
 675  1105.111
 676  1043.972
 677  1112.301
 678  1099.254
 679  999.6571
 680  814.3858
 681  759.5204
 682  767.8077
 683  1006.202
 684  1254.677
 685  1422.981
 686  1451.957
 687  1402.37
 688  1195.284
 689  1058.604
 690  986.7063
 691  1004.406
 692  1111.295
 693  1217.393
 694  1202.501
 695  1058.627
 696  995.002
 697  955.17
 698  952.1465
 699  1007.826
 700  992.8647
 701  1020.662
 702  1059.485
 703  1197.221
 704  1201.404
 705  1085.005
 706  883.0442
 707  745.6506
 708  723.822
 709  671.5694
 710  682.2611
 711  638.5477
 712  806.3954
 713  963.1165
 714  1038.104
 715  934.3597
 716  876.7213
 717  768.1641
 718  695.6976
 719  734.8541
 720  904.7191
 721  1010.231
 722  936.1866
 723  947.8403
 724  1041.338
 725  1120.221
 726  1130.364
 727  1023.492
 728  847.9658
 729  793.7503
 730  780.8853
 731  999.2939
 732  1099.065
 733  1215.034
 734  1174.27
 735  1018.059
 736  870.7527
 737  755.544
 738  927.1592
 739  1039.024
 740  1119.791
 741  1057.221
 742  1109.323
 743  1198.192
 744  1147.207
 745  1055.97
 746  806.3077
 747  690.6887
 748  756.2462
 749  934.6175
 750  1172.965
 751  1235.369
 752  1196.006
 753  1112.621
 754  1039.225
 755  989.8978
 756  940.6013
 757  843.8933
 758  788.0021
 759  932.9733
 760  1139.992
 761  1212.645
 762  1166.716
 763  1088.696
 764  920.3157
 765  838.1559
 766  737.288
 767  825.5417
 768  937.1518
 769  1238.542
 770  1388.094
 771  1469.221
 772  1512.528
 773  1326.486
 774  1082.195
 775  825.1171
 776  797.0728
 777  817.8441
 778  891.8387
 779  948.0845
 780  1167.578
 781  1417.604
 782  1528.098
 783  1385.033
 784  1128.106
 785  1034.719
 786  931.8062
 787  1061.143
 788  1056.797
 789  1189.142
 790  1089.137
 791  1083.078
 792  952.9164
 793  841.461
 794  835.0457
 795  882.2081
 796  953.7764
 797  1015.703
 798  1181.992
 799  1270.32
 800  1299.605
 801  1285.482
 802  1238.191
 803  1128.105
 804  965.9921
 805  1027.117
 806  1103.596
 807  1074.779
 808  1165.533
 809  1150.419
 810  1187.259
 811  1095.452
 812  1062.964
 813  996.0318
 814  1032.72
 815  964.9885
 816  1084.576
 817  1285.049
 818  1466.287
 819  1512.812
 820  1354.214
 821  1278.975
 822  1193.221
 823  1118.046
 824  993.5945
 825  1017.238
 826  1201.542
 827  1256.204
 828  1178.29
 829  997.9919
 830  998.9212
 831  1074.971
 832  1106.198
 833  975.7874
 834  717.6846
 835  728.1643
 836  952.3112
 837  1215.295
 838  1261.86
 839  1150.437
 840  1050.47
 841  854.2991
 842  631.364
 843  623.6301
 844  909.7294
 845  1187.02
 846  1253.903
 847  1222.568
 848  1241.92
 849  1167.271
 850  1112.176
 851  1044.862
 852  1040.403
 853  974.1165
 854  962.9086
 855  1088.417
 856  1034.691
 857  991.8134
 858  864.426
 859  837.9528
 860  721.4413
 861  620.9612
 862  842.301
 863  964.6357
 864  957.6027
 865  854.1819
 866  939.2929
 867  942.1896
 868  996.8093
 869  989.7054
 870  938.0358
 871  819.2684
 872  617.7615
 873  736.1846
 874  896.6736
 875  1037.858
 876  1122.253
 877  1068.053
 878  1132.56
 879  1040.75
 880  994.5503
 881  890.9313
 882  797.4247
 883  802.0667
 884  1015.869
 885  1081.126
 886  1164.912
 887  993.9753
 888  1069.391
 889  988.9906
 890  913.5363
 891  725.6402
 892  831.5461
 893  940.5129
 894  1086.794
 895  1014.692
 896  905.8982
 897  770.3694
 898  751.4014
 899  782.2102
 900  800.881
 901  692.9462
 902  768.6058
 903  837.7186
 904  1132.242
 905  1206.925
 906  1287.205
 907  1160.554
 908  1099.095
 909  1060.355
 910  1039.872
 911  906.4785
 912  722.3126
 913  807.7929
 914  980.5597
 915  1086.752
 916  1049.263
 917  979.129
 918  911.3245
 919  863.5807
 920  810.2923
 921  999.3508
 922  1099.818
 923  1220.724
 924  1194.504
 925  1117.422
 926  1055.663
 927  969.3998
 928  846.09
 929  823.3516
 930  864.7457
 931  973.7758
 932  1104.038
 933  1164.906
 934  1264.76
 935  1308.959
 936  1180.119
 937  969.3392
 938  764.3365
 939  787.9441
 940  937.1372
 941  1160.596
 942  1265.717
 943  1242.695
 944  1287.369
 945  1433.054
 946  1405.178
 947  1027.104
 948  818.4176
 949  908.0052
 950  1239.526
 951  1365.621
 952  1332.468
 953  1319.251
 954  1362.942
 955  1336.178
 956  1224.67
 957  1138.519
 958  1077.61
 959  1057.783
 960  1092.385
 961  1226.559
 962  1326.576
 963  1224.871
 964  1146.764
 965  1076.357
 966  1062.18
 967  1032.99
 968  879.598
 969  891.7756
 970  955.4977
 971  1064.758
 972  1137.614
 973  1102.418
 974  1110.406
 975  1147.824
 976  1105.362
 977  1041.621
 978  974.2787
 979  1063.211
 980  1152.059
 981  1229.762
 982  1137.938
 983  1045.907
 984  877.9083
 985  824.6379
 986  817.6884
 987  899.6806
 988  986.1669
 989  1008.908
 990  1253.573
 991  1340.652
 992  1384.794
 993  1206.611
 994  1056.145
 995  821.5794
 996  644.6376
 997  713.4299
 998  917.1422
 999  1085.779
1000  1146.233
1001  1137.681
1002  1112.472
1003  1027.127
1004  857.7238
1005  739.1599
1006  739.9603
1007  796.4687
1008  914.894
1009  1007.17
1010  1086.243
1011  1134.097
1012  1010.86
1013  821.7645
1014  750.5952
1015  809.1351
1016  879.9345
1017  865.7681
1018  1010.77
1019  1108.287
1020  1159.775
1021  1120.279
1022  1095.689
1023  984.4332
