# Input file       =  1182749466.114012_cleaned.dat
# Candidate        =  PSR_0332+5434
# Telescope        =  AR
# Epoch_topo       =  57933.230151782547
# Epoch_bary       =  N/A
# T_sample         =  0.002
# Data Folded      =  7340032
# Data Avg         =  0.100345832946394
# Data StdDev      =  3.30892217151675 
# Profile Bins     =  1024
# Profile Avg      =  719.176291832977 
# Profile StdDev   =  280.146725552036 
# Reduced chi-sqr  =  0.893
# Prob(Noise)      <  0.994   (~0.0 sigma)
# P_topo (ms)      =  714.490677237552  +/- 2.92e-05
# P'_topo (s/s)    =  -0                +/- 1.54e-11
# P''_topo (s/s^2) =  0                 +/- 6.8e-15
# P_bary (ms)      =  N/A
# P'_bary (s/s)    =  N/A
# P''_bary (s/s^2) =  N/A
# P_orb (s)        =  N/A
# asin(i)/c (s)    =  N/A
# eccentricity     =  N/A
# w (rad)          =  N/A
# T_peri           =  N/A
######################################################
   0  720.859
   1  530.583
   2  592.2384
   3  608.189
   4  668.128
   5  614.1367
   6  724.147
   7  797.9266
   8  822.7311
   9  782.5925
  10  820.0864
  11  868.2041
  12  875.7529
  13  795.2094
  14  700.9318
  15  782.335
  16  971.0262
  17  916.9052
  18  865.6764
  19  763.55
  20  744.9082
  21  608.0032
  22  613.6013
  23  667.1258
  24  791.6446
  25  759.3268
  26  739.7176
  27  762.2622
  28  807.9951
  29  868.1423
  30  762.8646
  31  769.5226
  32  598.1107
  33  480.8272
  34  353.1255
  35  428.4205
  36  557.0195
  37  622.4841
  38  638.191
  39  632.2993
  40  581.5563
  41  606.0694
  42  575.7155
  43  699.4016
  44  804.343
  45  856.3002
  46  928.6273
  47  935.7753
  48  879.1512
  49  653.0494
  50  545.1046
  51  494.5215
  52  497.0786
  53  630.1984
  54  747.1583
  55  811.518
  56  775.7278
  57  751.9507
  58  651.2472
  59  686.3676
  60  743.7494
  61  792.6328
  62  641.5497
  63  439.7472
  64  545.6754
  65  648.0301
  66  841.8057
  67  764.6975
  68  722.473
  69  702.4439
  70  767.2953
  71  823.6846
  72  845.5735
  73  860.695
  74  886.9413
  75  931.0636
  76  797.3377
  77  714.3146
  78  574.3824
  79  460.672
  80  390.1139
  81  506.1314
  82  559.2476
  83  701.6312
  84  797.0532
  85  863.7744
  86  852.1743
  87  790.0271
  88  791.0776
  89  704.701
  90  658.3516
  91  742.1457
  92  770.2655
  93  894.4092
  94  881.2032
  95  961.6179
  96  906.88
  97  764.0414
  98  629.6891
  99  606.6979
 100  717.6962
 101  855.2675
 102  937.3082
 103  860.2979
 104  731.6989
 105  611.6736
 106  539.9169
 107  592.609
 108  679.4233
 109  752.1917
 110  799.4922
 111  822.4996
 112  847.3508
 113  861.1252
 114  882.1451
 115  861.8387
 116  775.5597
 117  668.9565
 118  563.6654
 119  563.0153
 120  687.8036
 121  755.4752
 122  762.4282
 123  696.6424
 124  649.1032
 125  651.7629
 126  686.9594
 127  638.9277
 128  601.3336
 129  628.1178
 130  742.5651
 131  804.9294
 132  753.594
 133  656.3503
 134  578.9579
 135  566.8804
 136  570.506
 137  631.0753
 138  525.2761
 139  470.499
 140  480.18
 141  634.0302
 142  654.1884
 143  624.7286
 144  659.4851
 145  698.6083
 146  675.6468
 147  640.7515
 148  661.9525
 149  599.7256
 150  618.1331
 151  592.8245
 152  670.1906
 153  685.3615
 154  672.5829
 155  654.8715
 156  631.2479
 157  720.0717
 158  683.0258
 159  660.9906
 160  544.5641
 161  589.0538
 162  727.2597
 163  778.3936
 164  720.6111
 165  608.9874
 166  612.1155
 167  690.2786
 168  750.3151
 169  725.2565
 170  670.2819
 171  730.4946
 172  879.3372
 173  816.5664
 174  618.4572
 175  415.4301
 176  467.4887
 177  594.7299
 178  615.8564
 179  659.0868
 180  718.384
 181  869.178
 182  844.6102
 183  626.9456
 184  354.8289
 185  323.5751
 186  410.5567
 187  613.5455
 188  689.5063
 189  757.7409
 190  814.6732
 191  786.6145
 192  693.5994
 193  628.248
 194  609.2689
 195  596.4673
 196  744.5252
 197  848.3904
 198  929.4974
 199  717.0919
 200  688.0237
 201  756.8904
 202  861.126
 203  714.5236
 204  631.5085
 205  651.5918
 206  703.5969
 207  723.9289
 208  789.1794
 209  864.225
 210  890.7666
 211  793.9655
 212  661.7081
 213  544.8897
 214  614.9564
 215  604.2273
 216  767.6532
 217  752.6907
 218  834.8189
 219  733.0788
 220  796.3657
 221  669.8914
 222  717.8923
 223  647.6346
 224  642.556
 225  576.0646
 226  665.7402
 227  689.0474
 228  709.3149
 229  686.5961
 230  759.6024
 231  631.935
 232  610.4831
 233  607.7144
 234  773.9285
 235  847.562
 236  920.9476
 237  841.8049
 238  710.9963
 239  558.805
 240  527.9359
 241  553.926
 242  635.1854
 243  644.7621
 244  623.8745
 245  646.9742
 246  703.3635
 247  818.1415
 248  773.0792
 249  695.8483
 250  524.9522
 251  401.9764
 252  460.9343
 253  608.4923
 254  754.7954
 255  893.0253
 256  928.6801
 257  912.8782
 258  870.0078
 259  801.6661
 260  742.556
 261  592.0702
 262  569.2038
 263  676.2043
 264  761.2605
 265  804.4369
 266  772.8658
 267  881.2977
 268  1064.312
 269  1167.776
 270  1034.231
 271  848.7781
 272  820.0331
 273  950.1144
 274  1003.404
 275  981.223
 276  1019.738
 277  924.5849
 278  911.0599
 279  814.0655
 280  882.405
 281  921.3391
 282  926.711
 283  1010.679
 284  1017.285
 285  990.2444
 286  918.1119
 287  893.4642
 288  838.4986
 289  725.4556
 290  707.7883
 291  746.1746
 292  851.1826
 293  869.6183
 294  791.0201
 295  801.8458
 296  793.9142
 297  842.2496
 298  844.5865
 299  748.7976
 300  666.6224
 301  668.2959
 302  833.3519
 303  906.9351
 304  941.4688
 305  928.3488
 306  945.7684
 307  957.9713
 308  863.3826
 309  836.9796
 310  744.5443
 311  805.8036
 312  804.6786
 313  832.4689
 314  809.4008
 315  813.9648
 316  830.559
 317  805.2924
 318  725.5936
 319  599.2855
 320  624.1965
 321  675.374
 322  740.8625
 323  825.8927
 324  872.0579
 325  905.4236
 326  759.1597
 327  715.0171
 328  717.1147
 329  702.4957
 330  656.7065
 331  565.0765
 332  650.1111
 333  769.7418
 334  866.046
 335  819.8779
 336  787.0174
 337  747.9528
 338  667.4433
 339  622.9621
 340  729.9394
 341  822.9993
 342  926.3297
 343  898.1109
 344  973.783
 345  803.4175
 346  804.5961
 347  668.8433
 348  717.4675
 349  664.6852
 350  777.2058
 351  902.335
 352  972.2247
 353  1000.364
 354  964.1624
 355  896.5111
 356  740.6005
 357  692.9066
 358  689.0053
 359  686.2838
 360  769.1216
 361  807.9608
 362  916.3908
 363  877.0475
 364  872.7057
 365  767.6114
 366  777.4929
 367  826.6103
 368  929.2285
 369  921.6622
 370  993.347
 371  969.527
 372  1000.095
 373  844.4572
 374  700.7168
 375  590.1401
 376  599.4994
 377  675.9205
 378  806.3983
 379  895.4173
 380  767.2578
 381  787.8766
 382  862.5162
 383  890.9442
 384  679.0016
 385  590.9822
 386  625.7571
 387  752.3197
 388  715.8865
 389  694.3921
 390  737.497
 391  739.8529
 392  759.9597
 393  777.7929
 394  797.5281
 395  794.0391
 396  805.115
 397  846.7336
 398  934.6903
 399  857.4214
 400  807.6663
 401  809.4117
 402  897.3747
 403  887.508
 404  805.9941
 405  786.9004
 406  816.6099
 407  783.7115
 408  856.3831
 409  884.954
 410  901.6672
 411  887.6333
 412  873.1018
 413  805.726
 414  832.6329
 415  711.7639
 416  819.808
 417  906.2451
 418  1000.988
 419  1013.223
 420  904.8544
 421  862.2545
 422  793.3065
 423  812.2108
 424  784.8021
 425  766.9279
 426  836.7172
 427  772.5208
 428  713.4654
 429  627.2105
 430  713.8013
 431  767.5415
 432  799.8578
 433  718.7302
 434  687.3408
 435  727.4572
 436  785.6162
 437  806.1183
 438  803.5949
 439  906.8276
 440  970.0717
 441  835.3549
 442  714.1465
 443  565.0575
 444  662.1887
 445  627.8419
 446  800.2122
 447  883.519
 448  879.5267
 449  767.3513
 450  728.5436
 451  725.4026
 452  701.7173
 453  649.3723
 454  746.7496
 455  736.9655
 456  710.0772
 457  755.8959
 458  894.5953
 459  967.4294
 460  787.1455
 461  569.9338
 462  519.7821
 463  544.6027
 464  644.467
 465  584.8824
 466  627.6652
 467  642.9517
 468  703.2607
 469  616.1382
 470  518.353
 471  533.3518
 472  568.5973
 473  637.9163
 474  768.7396
 475  867.2396
 476  833.5718
 477  733.6678
 478  744.4374
 479  794.7739
 480  770.8262
 481  741.1722
 482  728.3134
 483  669.2885
 484  718.4164
 485  807.6918
 486  819.6614
 487  780.815
 488  715.1949
 489  778.5671
 490  795.673
 491  713.438
 492  653.9034
 493  525.1135
 494  576.5438
 495  629.8313
 496  683.0924
 497  728.479
 498  709.9119
 499  816.4453
 500  780.8737
 501  727.1068
 502  606.3723
 503  583.6345
 504  660.1682
 505  743.1032
 506  787.7253
 507  706.8181
 508  610.7409
 509  564.5265
 510  664.8423
 511  733.5471
 512  778.4606
 513  802.8989
 514  820.8457
 515  811.3578
 516  844.2744
 517  771.9705
 518  876.452
 519  799.1457
 520  803.9464
 521  653.0238
 522  636.0142
 523  732.023
 524  784.85
 525  829.0828
 526  742.3447
 527  741.2697
 528  717.0169
 529  685.7758
 530  535.3884
 531  433.4465
 532  451.653
 533  561.2492
 534  672.0393
 535  793.7895
 536  859.4422
 537  839.4338
 538  731.6949
 539  689.5809
 540  719.5449
 541  768.1019
 542  751.5134
 543  760.0126
 544  732.076
 545  656.0889
 546  663.3851
 547  711.5312
 548  739.3034
 549  792.1673
 550  841.4769
 551  907.3665
 552  886.0986
 553  804.4906
 554  796.5583
 555  862.5989
 556  971.8128
 557  793.1085
 558  654.3224
 559  636.3859
 560  683.0939
 561  534.7781
 562  518.6915
 563  622.5155
 564  776.6702
 565  760.0152
 566  617.7817
 567  474.2771
 568  481.9838
 569  587.3168
 570  636.2927
 571  576.0948
 572  669.5335
 573  880.7878
 574  861.1837
 575  629.2186
 576  479.4711
 577  501.0878
 578  557.0178
 579  520.2255
 580  572.5013
 581  567.7645
 582  586.9435
 583  584.227
 584  550.3346
 585  556.5391
 586  504.402
 587  433.5441
 588  385.9688
 589  440.8437
 590  480.0829
 591  609.5148
 592  720.5192
 593  651.5588
 594  495.0719
 595  388.8541
 596  417.9814
 597  426.1852
 598  432.9788
 599  544.0198
 600  628.6637
 601  746.5084
 602  762.6344
 603  700.7565
 604  608.7944
 605  628.7363
 606  634.7565
 607  660.2735
 608  767.8312
 609  795.0829
 610  830.8571
 611  742.7845
 612  784.3876
 613  890.5555
 614  925.66
 615  874.8568
 616  740.929
 617  615.7565
 618  504.9632
 619  479.5875
 620  683.5097
 621  835.6009
 622  888.4316
 623  803.4581
 624  752.3892
 625  730.9351
 626  752.6619
 627  720.8903
 628  749.0085
 629  805.7175
 630  843.8441
 631  793.2079
 632  683.1202
 633  642.4884
 634  588.6721
 635  607.0992
 636  634.4074
 637  785.2505
 638  756.053
 639  823.9057
 640  747.5944
 641  811.5954
 642  819.3085
 643  796.3304
 644  725.915
 645  788.164
 646  901.773
 647  930.1486
 648  1102.84
 649  1296.224
 650  1455.746
 651  1356.887
 652  1295.627
 653  1284.171
 654  1329.76
 655  1409.72
 656  1487.453
 657  1446.631
 658  1294.951
 659  1065.766
 660  998.9855
 661  954.4827
 662  923.859
 663  845.1485
 664  687.3278
 665  616.611
 666  606.4469
 667  785.1406
 668  866.2194
 669  850.7203
 670  894.1732
 671  795.231
 672  783.4962
 673  589.695
 674  659.5464
 675  655.0995
 676  760.8548
 677  845.2958
 678  918.9811
 679  817.926
 680  689.4312
 681  561.5951
 682  507.3668
 683  452.3002
 684  562.3813
 685  779.0244
 686  916.6508
 687  1020.741
 688  903.9041
 689  798.9268
 690  649.7996
 691  599.9748
 692  541.7341
 693  543.887
 694  592.7917
 695  727.8318
 696  787.1021
 697  839.6371
 698  860.7621
 699  861.4075
 700  750.2726
 701  755.2902
 702  873.6139
 703  862.9972
 704  743.1948
 705  663.3743
 706  755.6979
 707  856.6298
 708  828.6001
 709  803.946
 710  718.8728
 711  619.2416
 712  618.202
 713  512.5508
 714  606.4872
 715  604.4072
 716  794.3196
 717  863.2664
 718  935.171
 719  833.5843
 720  678.2039
 721  639.2868
 722  668.2116
 723  729.0497
 724  686.9597
 725  746.0781
 726  751.1635
 727  723.5364
 728  721.1543
 729  699.5742
 730  668.6012
 731  589.1884
 732  642.7863
 733  740.2045
 734  776.4111
 735  754.314
 736  708.0498
 737  714.3909
 738  559.7111
 739  495.8235
 740  516.7481
 741  685.6873
 742  588.469
 743  584.6464
 744  659.5865
 745  782.7088
 746  821.219
 747  743.6002
 748  678.8483
 749  506.8948
 750  348.1647
 751  436.189
 752  612.3407
 753  784.387
 754  767.5765
 755  790.8818
 756  744.6874
 757  730.9247
 758  718.8088
 759  828.7776
 760  816.306
 761  841.3696
 762  729.1747
 763  695.9334
 764  674.0509
 765  669.1907
 766  735.7766
 767  759.647
 768  822.9639
 769  777.7036
 770  717.0679
 771  731.3062
 772  750.5198
 773  789.3814
 774  807.5963
 775  830.7111
 776  864.7076
 777  769.4839
 778  646.7025
 779  607.2534
 780  578.1917
 781  655.6967
 782  656.5588
 783  767.1312
 784  782.439
 785  802.4038
 786  666.369
 787  590.4886
 788  524.1826
 789  589.2137
 790  683.0177
 791  728.9776
 792  698.8936
 793  678.961
 794  619.4772
 795  509.6509
 796  414.3242
 797  512.1187
 798  585.4838
 799  608.9869
 800  611.1691
 801  636.2084
 802  773.142
 803  796.9877
 804  754.8242
 805  626.1431
 806  467.2599
 807  381.9942
 808  314.8815
 809  379.6524
 810  430.267
 811  587.3409
 812  842.945
 813  816.7734
 814  791.42
 815  620.1946
 816  601.7449
 817  533.3422
 818  540.2437
 819  652.7033
 820  717.9027
 821  804.0571
 822  790.9856
 823  830.7098
 824  625.702
 825  556.6436
 826  425.8868
 827  448.7774
 828  443.8998
 829  561.9719
 830  721.8517
 831  720.8915
 832  730.314
 833  629.5428
 834  601.4255
 835  492.6823
 836  555.2061
 837  570.5884
 838  643.9943
 839  637.4432
 840  673.5934
 841  672.5659
 842  584.0927
 843  504.9405
 844  491.5682
 845  469.8092
 846  441.9789
 847  598.3318
 848  689.8408
 849  822.2637
 850  777.9948
 851  832.8549
 852  847.9944
 853  811.5362
 854  797.0824
 855  722.2491
 856  570.8293
 857  515.5543
 858  462.1503
 859  630.1746
 860  731.7934
 861  715.0272
 862  729.3183
 863  723.9576
 864  780.232
 865  715.9366
 866  686.0072
 867  732.8865
 868  770.776
 869  854.5479
 870  906.9263
 871  967.3145
 872  892.5037
 873  822.6765
 874  737.6453
 875  684.7288
 876  642.1985
 877  632.4413
 878  739.4282
 879  779.2215
 880  763.8736
 881  655.6699
 882  532.4778
 883  575.5887
 884  589.9144
 885  681.1119
 886  579.5757
 887  672.5538
 888  793.3553
 889  918.3558
 890  762.7472
 891  543.9902
 892  459.6873
 893  475.328
 894  494.2057
 895  559.5783
 896  512.6298
 897  538.4762
 898  539.2334
 899  657.002
 900  754.1662
 901  699.8217
 902  685.3996
 903  657.3771
 904  606.2244
 905  610.2841
 906  666.173
 907  776.4263
 908  674.8977
 909  553.1339
 910  566.4055
 911  559.1948
 912  579.4691
 913  563.0018
 914  640.7413
 915  656.2184
 916  684.68
 917  635.9152
 918  588.6431
 919  515.656
 920  562.8044
 921  503.9875
 922  500.4806
 923  448.798
 924  434.6259
 925  399.3804
 926  481.9636
 927  568.045
 928  650.4376
 929  659.3757
 930  559.1754
 931  390.2696
 932  392.6057
 933  457.7743
 934  529.3901
 935  600.2489
 936  620.8339
 937  726.7076
 938  758.7784
 939  759.0849
 940  617.2894
 941  503.9543
 942  480.2984
 943  579.5421
 944  568.7371
 945  701.6575
 946  714.4846
 947  809.5787
 948  751.5353
 949  746.8957
 950  749.1089
 951  785.7719
 952  729.9285
 953  732.6671
 954  653.1216
 955  622.1345
 956  705.6526
 957  784.5328
 958  672.8256
 959  618.6724
 960  601.1597
 961  656.7767
 962  695.4616
 963  707.3061
 964  819.9349
 965  884.769
 966  829.318
 967  786.3515
 968  742.9891
 969  788.2219
 970  697.8926
 971  619.6608
 972  700.1725
 973  756.1285
 974  882.7369
 975  843.4084
 976  715.2412
 977  594.1646
 978  557.9
 979  579.8958
 980  645.8626
 981  607.0863
 982  636.8108
 983  666.8574
 984  768.3073
 985  725.181
 986  574.3204
 987  498.9897
 988  546.7471
 989  628.4796
 990  630.1868
 991  668.8444
 992  720.6402
 993  680.2274
 994  640.8444
 995  575.4862
 996  459.0523
 997  474.3229
 998  557.0991
 999  739.5242
1000  776.374
1001  730.6003
1002  701.3477
1003  640.3725
1004  773.6769
1005  758.1639
1006  726.7001
1007  562.9482
1008  598.485
1009  641.8306
1010  684.0439
1011  724.9157
1012  772.329
1013  798.9853
1014  767.7667
1015  760.4975
1016  717.7339
1017  669.6827
1018  702.8054
1019  782.1806
1020  833.8204
1021  920.1149
1022  928.0361
1023  858.3043
