# Input file       =  1182835593.123291_cleaned.dat
# Candidate        =  PSR_0332+5434
# Telescope        =  AR
# Epoch_topo       =  57934.226992167722
# Epoch_bary       =  N/A
# T_sample         =  0.002
# Data Folded      =  7340032
# Data Avg         =  0.136588568905219
# Data StdDev      =  3.18272513555898 
# Profile Bins     =  512
# Profile Avg      =  1958.21894457753 
# Profile StdDev   =  381.077344433132 
# Reduced chi-sqr  =  1.014
# Prob(Noise)      <  0.403   (~0.2 sigma)
# P_topo (ms)      =  714.489859908728  +/- 0.000559
# P'_topo (s/s)    =  -0                +/- 2.95e-10
# P''_topo (s/s^2) =  0                 +/- 1.3e-13
# P_bary (ms)      =  N/A
# P'_bary (s/s)    =  N/A
# P''_bary (s/s^2) =  N/A
# P_orb (s)        =  N/A
# asin(i)/c (s)    =  N/A
# eccentricity     =  N/A
# w (rad)          =  N/A
# T_peri           =  N/A
######################################################
   0  2205.108
   1  2194.285
   2  1976.418
   3  2170.456
   4  2293.465
   5  2005.482
   6  1748.144
   7  1944.037
   8  1842.475
   9  1896.641
  10  1871.915
  11  1925.824
  12  1630.582
  13  1657.474
  14  1949.07
  15  1623.189
  16  1819.885
  17  2244.314
  18  1999.32
  19  1765.447
  20  1951.12
  21  1984.447
  22  1979.786
  23  2003.107
  24  1897.427
  25  1727.838
  26  1565.946
  27  1816.611
  28  2050.434
  29  2077.111
  30  2182.743
  31  2181.615
  32  1943.266
  33  1990.776
  34  2351.108
  35  2113.265
  36  2124.611
  37  2318.257
  38  2175.323
  39  2170.578
  40  2331.355
  41  2119.169
  42  1795.658
  43  1760.446
  44  1944.116
  45  2052.808
  46  2298.41
  47  2145.752
  48  2037.965
  49  2027.388
  50  2143.705
  51  2093.959
  52  1911.144
  53  1940.03
  54  2095.53
  55  2220.645
  56  2337.616
  57  2050.915
  58  2042.551
  59  2179.146
  60  1987.647
  61  2004.722
  62  2028.936
  63  2161.615
  64  2112.669
  65  2131.09
  66  2183.339
  67  2270.515
  68  2506.309
  69  2497.729
  70  2321.056
  71  2330.884
  72  2387.823
  73  2352.461
  74  2366.458
  75  2116.546
  76  1999.154
  77  2221.811
  78  2395.877
  79  2292.313
  80  2048.911
  81  2273.477
  82  2389.819
  83  2350.02
  84  2199.415
  85  2255.106
  86  2273.861
  87  2213.283
  88  2002.536
  89  2419.786
  90  2648.243
  91  2914.899
  92  2457.223
  93  2279.982
  94  2184.625
  95  2028.959
  96  2088.186
  97  2014.623
  98  2062.194
  99  1786.684
 100  1983.218
 101  2114.628
 102  2205.999
 103  1918.475
 104  1840.597
 105  2025.299
 106  1918.206
 107  1463.608
 108  1433.548
 109  1570.182
 110  1687.103
 111  1928.193
 112  1813.161
 113  1835.612
 114  2058.416
 115  2118.478
 116  1742.655
 117  1828.175
 118  1796.117
 119  1914.146
 120  1864.055
 121  1863.175
 122  2126.924
 123  2079.958
 124  2084.028
 125  1900.445
 126  2040.745
 127  2415.562
 128  2200.66
 129  2146.23
 130  2183.697
 131  2123.534
 132  1934.627
 133  1903.337
 134  2104.892
 135  1869.955
 136  2247.182
 137  1927.388
 138  1929.583
 139  1933.373
 140  2036.397
 141  1879.082
 142  1815.632
 143  1818.717
 144  1910.562
 145  2107.815
 146  1784.531
 147  1919.594
 148  2109.847
 149  2223.389
 150  1854.831
 151  1839.375
 152  2071.008
 153  2016.904
 154  2004.56
 155  2076.205
 156  2113.75
 157  2011.938
 158  1848.344
 159  1774.559
 160  1938.464
 161  1855.952
 162  1914.624
 163  1705.449
 164  1884.539
 165  1861.607
 166  2012.891
 167  2033.551
 168  2046.047
 169  2163.315
 170  2023.945
 171  1918.518
 172  1780.521
 173  1995.687
 174  2125.741
 175  2124.973
 176  2202.357
 177  1963.483
 178  2051.413
 179  1907.58
 180  1920.549
 181  1784.751
 182  1844.903
 183  1587.278
 184  1769.84
 185  1797.406
 186  1683.05
 187  1910.303
 188  1790.705
 189  1859.092
 190  2018.834
 191  1976.041
 192  2048.21
 193  1824.369
 194  1782.723
 195  1458.752
 196  1579.325
 197  1575.701
 198  1587.209
 199  1769.017
 200  2090.589
 201  2028.054
 202  1900.421
 203  1854.104
 204  2166.319
 205  2161.971
 206  2197.885
 207  2043.09
 208  1911.011
 209  2177.436
 210  2142.281
 211  1940.421
 212  2169.239
 213  2150.946
 214  1978.071
 215  2015.278
 216  2241.715
 217  2193.661
 218  1979.834
 219  1890.859
 220  1659.169
 221  1663.583
 222  1789.233
 223  2198.778
 224  2208.022
 225  2341.822
 226  2242.56
 227  1960.811
 228  1921.673
 229  1967.23
 230  2365.629
 231  2124.418
 232  2153.33
 233  2000.584
 234  2212.292
 235  2377.204
 236  2098.242
 237  1947.808
 238  2149.25
 239  2189.962
 240  1882.008
 241  2052.321
 242  2255.833
 243  2422.129
 244  2206.529
 245  2234.994
 246  2081.803
 247  2166.513
 248  2073.107
 249  2134.468
 250  2382.461
 251  1917.775
 252  1905.03
 253  1862.14
 254  1980.964
 255  2063.024
 256  2044.68
 257  2167.486
 258  2322.344
 259  2326.435
 260  2350.73
 261  2281.955
 262  2143.458
 263  2453.56
 264  2437.317
 265  2345.112
 266  3081.494
 267  3635.226
 268  3570.801
 269  3279.431
 270  2846.54
 271  2530.041
 272  2140.809
 273  2022.479
 274  1975.343
 275  1834.184
 276  1735.461
 277  2147.143
 278  2253.579
 279  1773.351
 280  1673.339
 281  1906.227
 282  1946.961
 283  1966.214
 284  2004.127
 285  1507.893
 286  1481.976
 287  1556.656
 288  1900.059
 289  1731.291
 290  1519.373
 291  1451.289
 292  1364.853
 293  1710.801
 294  1543.924
 295  1332.1
 296  1585.908
 297  1771.958
 298  1760.438
 299  1927.59
 300  1924.928
 301  1767.755
 302  1918.542
 303  1637.896
 304  1618.462
 305  1815.856
 306  1981.025
 307  1705.87
 308  1662.724
 309  1729.405
 310  1662.544
 311  1628.386
 312  1528.587
 313  1605.782
 314  1789.874
 315  1942.745
 316  1974.401
 317  1874.866
 318  2055.958
 319  2224.11
 320  2076.777
 321  1902.316
 322  1886.685
 323  2002.984
 324  2418.269
 325  2256.723
 326  2198.973
 327  2095.824
 328  1838.966
 329  2239.159
 330  2225.174
 331  2170.695
 332  2340.065
 333  2072.753
 334  1808.361
 335  1984.422
 336  1902.675
 337  1909.723
 338  1952.812
 339  2306.427
 340  2262.715
 341  2331.941
 342  2316.655
 343  1977.391
 344  2013.687
 345  2263.986
 346  2306.934
 347  1975.064
 348  1759.325
 349  2173.633
 350  2153.2
 351  2164.944
 352  2087.639
 353  1916.809
 354  1472.24
 355  1482.558
 356  2057.702
 357  2318.864
 358  2377.175
 359  2114.193
 360  1514.35
 361  1460.545
 362  1359.414
 363  1378.427
 364  1547.299
 365  1638.251
 366  1814.007
 367  1617.32
 368  1486.934
 369  1733.569
 370  1557.642
 371  1560.627
 372  1797.607
 373  1652.684
 374  1731.854
 375  1913.958
 376  1703.986
 377  1618.216
 378  1735.56
 379  1670.2
 380  1646.12
 381  1945.025
 382  2111.522
 383  1958.48
 384  1551.91
 385  1747.375
 386  1844.431
 387  1995.632
 388  2039.688
 389  1764.653
 390  1796.141
 391  1666.722
 392  1760.216
 393  1752.989
 394  1613.843
 395  1461.715
 396  1496.446
 397  1676.646
 398  1774.131
 399  1825.471
 400  1781.372
 401  1799.361
 402  1696.637
 403  2007.064
 404  2142.321
 405  2069.19
 406  2087.027
 407  1829.868
 408  1778.816
 409  1848.441
 410  1839.285
 411  2077.734
 412  1952.594
 413  1826.522
 414  1747.407
 415  1776.136
 416  1969.075
 417  1967.87
 418  1918.761
 419  1711.479
 420  1999.272
 421  2027.578
 422  1912.307
 423  1959.664
 424  2082.957
 425  2056.711
 426  2180.906
 427  1670.415
 428  1644.712
 429  1955.934
 430  1915.849
 431  1758.859
 432  1878.067
 433  1972.118
 434  1944.37
 435  2206.283
 436  1739.123
 437  1464.028
 438  1854.552
 439  1995.131
 440  2228.72
 441  1817.627
 442  2002.17
 443  2029.948
 444  1668.893
 445  1695.971
 446  1778.714
 447  1799.988
 448  1956.545
 449  2063.498
 450  1733.815
 451  1539.906
 452  1566.838
 453  1846.998
 454  1958.404
 455  2102.562
 456  1772.46
 457  1806.528
 458  1567.691
 459  1529.037
 460  1363.531
 461  1349.847
 462  1384.525
 463  1508.985
 464  1879.556
 465  1865.812
 466  1585.309
 467  1606.772
 468  1701.391
 469  1633.925
 470  1905.654
 471  2031.313
 472  1875.405
 473  1832.084
 474  1983.243
 475  2082.303
 476  2109.764
 477  2085.831
 478  1852.388
 479  1696.451
 480  1663.247
 481  1795.263
 482  2165.141
 483  2087.854
 484  1786.929
 485  1974.732
 486  1896.229
 487  1865.111
 488  1803.155
 489  1694.472
 490  1957.552
 491  1795.119
 492  1630.809
 493  1299.181
 494  1762.098
 495  1788.054
 496  1677.462
 497  1516.709
 498  1620.873
 499  1686.421
 500  1854.316
 501  1850.442
 502  1659.191
 503  1613.354
 504  1868.88
 505  1613.297
 506  1586.62
 507  1923.079
 508  1815.298
 509  1808.592
 510  1964.967
 511  2052.96
