# Input file       =  1182243875.12681_cleaned.dat
# Candidate        =  PSR_0332+5434
# Telescope        =  AR
# Epoch_topo       =  57927.378404245486
# Epoch_bary       =  N/A
# T_sample         =  0.002
# Data Folded      =  7340032
# Data Avg         =  0.0512280115635396
# Data StdDev      =  1.00013269412147 
# Profile Bins     =  512
# Profile Avg      =  734.398032039949 
# Profile StdDev   =  119.748924246839 
# Reduced chi-sqr  =  0.928
# Prob(Noise)      <  0.878   (~0.0 sigma)
# P_topo (ms)      =  714.495908060739  +/- 0.000149
# P'_topo (s/s)    =  -0                +/- 7.85e-11
# P''_topo (s/s^2) =  0                 +/- 3.47e-14
# P_bary (ms)      =  N/A
# P'_bary (s/s)    =  N/A
# P''_bary (s/s^2) =  N/A
# P_orb (s)        =  N/A
# asin(i)/c (s)    =  N/A
# eccentricity     =  N/A
# w (rad)          =  N/A
# T_peri           =  N/A
######################################################
   0  1135.256
   1  1056.122
   2  902.5451
   3  868.3627
   4  906.7513
   5  716.2979
   6  672.4859
   7  735.1769
   8  840.57
   9  838.3723
  10  806.0891
  11  834.061
  12  826.7245
  13  789.5212
  14  834.1944
  15  683.0867
  16  715.8744
  17  865.959
  18  800.2733
  19  793.9576
  20  779.7269
  21  817.9296
  22  783.5936
  23  691.0734
  24  664.227
  25  745.3837
  26  651.4809
  27  772.5787
  28  765.309
  29  749.8332
  30  752.2537
  31  758.4296
  32  694.2855
  33  610.9862
  34  638.8921
  35  742.4023
  36  717.8481
  37  723.0743
  38  661.0061
  39  604.1049
  40  660.873
  41  660.7698
  42  724.5109
  43  738.3389
  44  711.4795
  45  648.3879
  46  657.2252
  47  632.6194
  48  611.3564
  49  717.2253
  50  718.086
  51  738.8576
  52  684.8914
  53  734.7479
  54  639.9965
  55  679.0303
  56  713.9406
  57  723.3005
  58  666.4624
  59  716.2477
  60  753.3076
  61  809.6685
  62  768.9787
  63  667.5275
  64  701.303
  65  819.0615
  66  777.1116
  67  746.0877
  68  704.9299
  69  705.1206
  70  685.0649
  71  687.1199
  72  591.8956
  73  625.6571
  74  633.0432
  75  596.505
  76  657.4281
  77  640.6059
  78  564.2403
  79  601.3447
  80  678.7614
  81  684.2483
  82  607.7633
  83  585.7451
  84  692.9319
  85  798.9826
  86  742.233
  87  635.1505
  88  656.7054
  89  699.2689
  90  657.3507
  91  630.7631
  92  695.301
  93  748.8956
  94  739.0757
  95  806.1516
  96  641.6458
  97  666.903
  98  711.6927
  99  678.9489
 100  709.6982
 101  744.8066
 102  757.3882
 103  804.9883
 104  749.7467
 105  718.5784
 106  685.7391
 107  731.4305
 108  716.2255
 109  716.2053
 110  701.4815
 111  754.8077
 112  599.0969
 113  656.8439
 114  728.3877
 115  781.3593
 116  719.2114
 117  713.4334
 118  712.8649
 119  617.8108
 120  637.4965
 121  631.5791
 122  802.6787
 123  812.0888
 124  715.5466
 125  683.5143
 126  636.4363
 127  616.934
 128  709.9492
 129  715.5573
 130  640.511
 131  660.4987
 132  673.9877
 133  685.1683
 134  588.487
 135  559.3796
 136  658.6019
 137  638.5129
 138  684.6306
 139  727.7374
 140  720.3124
 141  811.3741
 142  863.9268
 143  854.8033
 144  672.1341
 145  718.7823
 146  772.835
 147  766.5375
 148  837.1662
 149  804.8635
 150  797.9963
 151  811.1976
 152  763.0802
 153  797.125
 154  844.0552
 155  818.4016
 156  690.3491
 157  705.8423
 158  753.5905
 159  758.6448
 160  757.6065
 161  735.0728
 162  816.1772
 163  760.6783
 164  859.895
 165  907.7242
 166  842.1427
 167  666.538
 168  802.0432
 169  816.3896
 170  782.1906
 171  816.5875
 172  841.884
 173  784.7357
 174  713.3057
 175  667.1723
 176  777.8476
 177  703.9122
 178  661.9172
 179  726.9744
 180  677.1998
 181  715.7288
 182  639.897
 183  622.3868
 184  720.6163
 185  748.2603
 186  745.1356
 187  597.1008
 188  681.2856
 189  746.6933
 190  656.587
 191  658.3393
 192  826.0886
 193  787.1815
 194  777.4695
 195  735.8817
 196  724.2187
 197  761.8514
 198  693.7092
 199  760.2586
 200  748.7674
 201  633.0706
 202  660.5933
 203  675.6492
 204  788.6669
 205  749.2745
 206  741.4216
 207  716.2683
 208  712.4421
 209  629.1794
 210  669.2141
 211  687.2358
 212  754.5839
 213  767.3982
 214  785.6515
 215  788.2599
 216  674.6748
 217  749.6483
 218  755.5434
 219  717.0488
 220  691.1252
 221  631.0834
 222  749.1199
 223  723.5862
 224  688.777
 225  672.502
 226  662.1989
 227  832.8683
 228  785.105
 229  750.6254
 230  619.1306
 231  559.5772
 232  728.5779
 233  629.6774
 234  565.2991
 235  632.3993
 236  702.2556
 237  724.7894
 238  684.1618
 239  737.889
 240  670.2625
 241  536.3988
 242  643.6872
 243  749.14
 244  716.142
 245  721.7321
 246  722.3073
 247  695.7866
 248  704.8799
 249  673.1146
 250  728.6735
 251  755.7977
 252  740.8972
 253  701.8347
 254  812.4211
 255  905.1521
 256  918.3487
 257  800.6951
 258  707.1317
 259  766.8813
 260  835.1575
 261  862.9886
 262  786.4018
 263  716.2277
 264  742.6396
 265  696.6293
 266  782.2287
 267  814.1756
 268  873.1507
 269  707.7188
 270  686.5537
 271  776.6303
 272  777.3524
 273  650.4365
 274  778.6523
 275  780.0086
 276  828.1727
 277  713.746
 278  709.2985
 279  671.4739
 280  841.321
 281  770.158
 282  715.63
 283  706.4449
 284  670.8017
 285  743.8474
 286  626.3899
 287  551.2072
 288  655.0319
 289  677.691
 290  714.6931
 291  666.618
 292  684.816
 293  678.8215
 294  644.0731
 295  613.1047
 296  642.4869
 297  575.0363
 298  611.1084
 299  721.8287
 300  798.2783
 301  749.1399
 302  667.9657
 303  710.994
 304  781.0704
 305  781.6042
 306  652.2377
 307  678.6337
 308  820.1028
 309  844.3536
 310  775.5482
 311  674.3676
 312  768.4413
 313  747.9772
 314  695.4721
 315  680.1869
 316  710.5212
 317  669.6255
 318  637.861
 319  670.1176
 320  775.9323
 321  720.367
 322  682.3161
 323  674.8598
 324  748.7655
 325  799.0112
 326  779.6973
 327  700.1502
 328  805.255
 329  786.4684
 330  750.3629
 331  676.387
 332  734.4768
 333  747.6885
 334  735.385
 335  681.1699
 336  674.3745
 337  694.1812
 338  756.2501
 339  721.7953
 340  708.3376
 341  706.8419
 342  751.5437
 343  723.7248
 344  674.4609
 345  669.5477
 346  665.7182
 347  611.8876
 348  716.1728
 349  815.1147
 350  723.6309
 351  663.1845
 352  681.3496
 353  699.6011
 354  627.1419
 355  650.9836
 356  786.5948
 357  709.3112
 358  726.2811
 359  779.8584
 360  859.0184
 361  953.2733
 362  813.3795
 363  761.1715
 364  805.4111
 365  813.5266
 366  839.424
 367  815.7261
 368  762.0131
 369  736.2513
 370  883.7081
 371  850.1448
 372  741.4921
 373  727.2231
 374  696.8552
 375  699.7908
 376  693.0784
 377  733.5374
 378  623.7328
 379  633.7546
 380  768.0577
 381  759.3608
 382  680.1437
 383  638.1093
 384  673.5465
 385  743.7806
 386  806.543
 387  731.815
 388  680.1345
 389  694.5287
 390  767.4467
 391  768.6382
 392  736.1456
 393  707.1284
 394  690.4261
 395  736.6111
 396  781.6
 397  762.5439
 398  779.2631
 399  747.9868
 400  742.1755
 401  743.0082
 402  770.4458
 403  790.0879
 404  806.2964
 405  833.8232
 406  798.4551
 407  800.7377
 408  851.865
 409  925.7887
 410  909.8676
 411  934.5807
 412  823.9489
 413  831.3169
 414  883.1207
 415  883.8022
 416  915.0452
 417  961.7453
 418  985.6122
 419  856.3089
 420  908.0925
 421  935.8141
 422  797.1899
 423  773.8007
 424  895.032
 425  865.7534
 426  872.968
 427  865.6022
 428  784.5743
 429  750.7403
 430  791.4143
 431  809.6469
 432  829.8297
 433  821.1586
 434  852.77
 435  833.9568
 436  691.6454
 437  711.8212
 438  796.2303
 439  817.7009
 440  807.5404
 441  747.4563
 442  802.1045
 443  842.8633
 444  843.6039
 445  805.2596
 446  831.3007
 447  861.4926
 448  826.5263
 449  862.4036
 450  789.9861
 451  819.2769
 452  732.8732
 453  718.6115
 454  690.2429
 455  774.3737
 456  725.7097
 457  711.5127
 458  720.0817
 459  690.2831
 460  707.1608
 461  629.5823
 462  668.3185
 463  683.1599
 464  659.346
 465  602.3636
 466  620.6643
 467  665.9355
 468  690.8698
 469  664.9051
 470  575.7617
 471  617.6379
 472  727.7035
 473  651.9022
 474  579.9501
 475  562.9227
 476  536.0613
 477  582.0316
 478  665.6017
 479  759.5033
 480  793.952
 481  632.7398
 482  693.7952
 483  731.7263
 484  774.7925
 485  706.1214
 486  594.3541
 487  572.9788
 488  669.3043
 489  650.3303
 490  661.0852
 491  708.7099
 492  758.7593
 493  728.8195
 494  711.5734
 495  760.6861
 496  763.1598
 497  778.3137
 498  739.9982
 499  668.3865
 500  795.5041
 501  828.9561
 502  766.3276
 503  744.1902
 504  749.071
 505  748.1107
 506  655.1755
 507  637.2128
 508  793.6094
 509  943.2816
 510  1045.089
 511  1104.571
