# Input file       =  1182476385.100278_cleaned.dat
# Candidate        =  PSR_0332+5434
# Telescope        =  AR
# Epoch_topo       =  57930.069491901362
# Epoch_bary       =  N/A
# T_sample         =  0.002
# Data Folded      =  7143424
# Data Avg         =  0.104778329570513
# Data StdDev      =  4.0736739941685  
# Profile Bins     =  512
# Profile Avg      =  1461.82404775581 
# Profile StdDev   =  481.176605831778 
# Reduced chi-sqr  =  0.836
# Prob(Noise)      <  0.997   (~0.0 sigma)
# P_topo (ms)      =  714.493319752877  +/- 4.95e-05
# P'_topo (s/s)    =  -0                +/- 2.69e-11
# P''_topo (s/s^2) =  0                 +/- 1.22e-14
# P_bary (ms)      =  N/A
# P'_bary (s/s)    =  N/A
# P''_bary (s/s^2) =  N/A
# P_orb (s)        =  N/A
# asin(i)/c (s)    =  N/A
# eccentricity     =  N/A
# w (rad)          =  N/A
# T_peri           =  N/A
######################################################
   0  1949.068
   1  1627.106
   2  1087.391
   3  958.0031
   4  1017.133
   5  1051.058
   6  1205.731
   7  1338
   8  1550.655
   9  2050.841
  10  1113.275
  11  1038.5
  12  1413.906
  13  1230.435
  14  1243.571
  15  1760.126
  16  1143.024
  17  1336.084
  18  1254.233
  19  961.4106
  20  1043.911
  21  1267.161
  22  1586.525
  23  1508.775
  24  1719.118
  25  1478.842
  26  1337.247
  27  778.371
  28  1201.957
  29  1242.833
  30  1326.595
  31  1361.185
  32  1574.518
  33  1746.36
  34  1274.269
  35  1060.49
  36  1101.613
  37  1138.5
  38  1099.613
  39  1810.024
  40  1731.18
  41  1712.521
  42  1499.414
  43  1482.581
  44  1260.673
  45  1082.033
  46  1483.713
  47  1694.32
  48  1847.983
  49  1953.916
  50  1863.548
  51  1662.322
  52  1691.339
  53  1437.254
  54  1266.895
  55  1612.519
  56  1854.798
  57  1756.446
  58  1824.116
  59  1621.612
  60  1049.728
  61  1652.032
  62  1716.743
  63  1775.017
  64  1602.395
  65  1732.223
  66  1923.408
  67  1423.381
  68  1163.084
  69  1398.62
  70  1461.983
  71  1569.091
  72  1534.034
  73  1836.52
  74  2024.814
  75  1697.149
  76  1623.91
  77  1402.444
  78  1278.05
  79  1210.441
  80  1573.712
  81  1771.54
  82  1776.32
  83  1791.898
  84  1459.36
  85  1462.007
  86  1070.909
  87  1361.515
  88  1276.69
  89  911.7885
  90  1131.098
  91  1793.052
  92  1421.767
  93  1102.955
  94  1014.157
  95  1189.996
  96  1140.431
  97  1499.232
  98  1385.582
  99  1238.591
 100  1109.368
 101  866.1462
 102  1175.795
 103  1512.027
 104  1885.165
 105  1710.123
 106  1492.037
 107  1488.543
 108  1180.06
 109  1001.552
 110  1258.469
 111  1559.719
 112  1190.473
 113  1431.41
 114  1793.58
 115  2074.938
 116  1796.338
 117  1596.87
 118  1239.005
 119  1138.535
 120  936.8695
 121  1232.602
 122  1691.051
 123  1689.985
 124  1644.054
 125  1182.116
 126  889.3783
 127  1149.477
 128  1218.606
 129  1059.179
 130  1352.231
 131  1714.444
 132  1855.207
 133  1615.545
 134  1511.409
 135  1292.073
 136  1129.622
 137  1111.209
 138  1115.846
 139  1526.425
 140  1736.238
 141  1646.095
 142  1368.857
 143  1231.222
 144  1185.414
 145  1302.881
 146  1264.659
 147  1554.255
 148  1773.401
 149  1598.747
 150  1396.656
 151  1122.568
 152  1362.731
 153  958.3668
 154  1231.56
 155  1276.858
 156  1354.385
 157  1436.78
 158  1517.851
 159  1489.106
 160  1275.678
 161  1080
 162  1447.603
 163  1463.396
 164  1376.516
 165  1549.675
 166  1496.291
 167  1311.312
 168  1032.743
 169  1236.643
 170  879.1514
 171  792.769
 172  646.9278
 173  968.0585
 174  1381.085
 175  1392.841
 176  1473.361
 177  1448.761
 178  1742
 179  1521.653
 180  1554.246
 181  1578.733
 182  1419.669
 183  1276.942
 184  1422.68
 185  1354.791
 186  1114.323
 187  1243.194
 188  1632.794
 189  1650.067
 190  1181.126
 191  1397.755
 192  1102.958
 193  1377.096
 194  1578.402
 195  1267.991
 196  1745.736
 197  2010.914
 198  1915.462
 199  1926.568
 200  1400.515
 201  1104.626
 202  1335.417
 203  1337.225
 204  1498.755
 205  1639.37
 206  1898.117
 207  2006.203
 208  1390.929
 209  1024.92
 210  1234.575
 211  1409.967
 212  1709.784
 213  1761.249
 214  2065.834
 215  1757.259
 216  1063.721
 217  1381.791
 218  1084.714
 219  1252.289
 220  1145.984
 221  1655.79
 222  1720.122
 223  1626.776
 224  1586.615
 225  1063.284
 226  1422.8
 227  1050.914
 228  1021.118
 229  1161.155
 230  1606.157
 231  1708.394
 232  1560.507
 233  1192.953
 234  1141.592
 235  993.6606
 236  1121.703
 237  1407.493
 238  1765.91
 239  1805.284
 240  1417.18
 241  1760.577
 242  1493.581
 243  1490.542
 244  1102.801
 245  1215.838
 246  1288.055
 247  1694.343
 248  1464.624
 249  1184.975
 250  1415.332
 251  1778.526
 252  1658.358
 253  1351.772
 254  1226.212
 255  1161.414
 256  1449.399
 257  1135.498
 258  1204.09
 259  944.9333
 260  1167.209
 261  1531.721
 262  1806.59
 263  1696.193
 264  1598.646
 265  1629.367
 266  1531.106
 267  1671.64
 268  1345.686
 269  1467.445
 270  1551.503
 271  1808
 272  1736.871
 273  1540.098
 274  1415.925
 275  1090.771
 276  1279.72
 277  1277.134
 278  1433.089
 279  1589.896
 280  1526.261
 281  1287.577
 282  1198.14
 283  842.7719
 284  497.8206
 285  682.7068
 286  1271.823
 287  1426.772
 288  1496.4
 289  1522.651
 290  1363.503
 291  1473.302
 292  863.6467
 293  1218.011
 294  1197.457
 295  1329.736
 296  1382.194
 297  1460.731
 298  1587.049
 299  925.0229
 300  1269.245
 301  1241.259
 302  1144.538
 303  1109.816
 304  1509.347
 305  1576.044
 306  1482.165
 307  1178.877
 308  952.7379
 309  1161.614
 310  1348.65
 311  1347.939
 312  1501.467
 313  1772.05
 314  2037.378
 315  1668.837
 316  1407.061
 317  1468.622
 318  1335.455
 319  1567.872
 320  1728.479
 321  1537.635
 322  1368.866
 323  1506.085
 324  1146.606
 325  994.8707
 326  994.0621
 327  1523.895
 328  1760.109
 329  1873.21
 330  2171.948
 331  1900.88
 332  2223.427
 333  2466.974
 334  3011.659
 335  3070.469
 336  3015.838
 337  2298.053
 338  1921.802
 339  1687.638
 340  1220.721
 341  1359.565
 342  1559.136
 343  1513.888
 344  1705.701
 345  2043.885
 346  1904.806
 347  1696.572
 348  1592.927
 349  2012.976
 350  1568.038
 351  1306.89
 352  1393.244
 353  1626.279
 354  1683.352
 355  1327.52
 356  1698.899
 357  1308.985
 358  1480.059
 359  1412.184
 360  1606.161
 361  1305.77
 362  1649.031
 363  1805.46
 364  1329.184
 365  1208.777
 366  755.6209
 367  959.8028
 368  1285.258
 369  1579.141
 370  1577.574
 371  1747.39
 372  1287.119
 373  915.2852
 374  897.9418
 375  852.6188
 376  1337.23
 377  1348.938
 378  1127.898
 379  1533.065
 380  1644.554
 381  978.925
 382  765.3038
 383  1162.117
 384  1387.933
 385  1481.11
 386  1654.632
 387  1670.453
 388  1765.148
 389  1387.268
 390  1419.802
 391  1171.862
 392  1415.722
 393  1578.848
 394  1763.501
 395  1731.329
 396  1515.6
 397  1643.414
 398  1415.94
 399  1487.201
 400  1220.297
 401  1285.971
 402  1542.814
 403  1830.186
 404  1920.284
 405  1407.458
 406  1293.282
 407  1314.774
 408  1705.343
 409  1574.286
 410  1788.462
 411  1707.653
 412  1674.499
 413  1777.388
 414  1659.79
 415  1888.58
 416  1854.483
 417  1713.153
 418  1500.488
 419  1518.544
 420  1950.166
 421  1848.901
 422  1588.833
 423  1623.952
 424  1662.351
 425  1949.381
 426  1284.236
 427  1444.854
 428  1641.423
 429  1490.466
 430  1360.714
 431  1006.722
 432  1324.752
 433  1278.034
 434  1703.579
 435  1685.851
 436  1736.349
 437  1337.096
 438  1683.756
 439  1575.274
 440  1383.716
 441  1324.683
 442  1044.253
 443  1541.409
 444  1562.137
 445  1738.913
 446  1551.985
 447  1289.481
 448  1010.73
 449  797.2408
 450  802.0175
 451  1607.384
 452  1882.05
 453  1767.918
 454  1480.167
 455  1524.535
 456  1377.916
 457  969.6526
 458  842.5126
 459  1228.401
 460  1696.958
 461  1878.264
 462  2092.259
 463  1711.064
 464  1443.131
 465  1291.725
 466  1406.677
 467  1366.832
 468  1366.582
 469  1812.262
 470  2010.93
 471  2063.462
 472  1668.268
 473  1290.175
 474  1409.172
 475  1893.281
 476  1454.152
 477  1616.938
 478  1718.026
 479  1970.744
 480  1869.104
 481  1243.066
 482  1156.235
 483  1141.255
 484  1560.045
 485  1914.155
 486  1949.557
 487  1954.211
 488  1645.481
 489  1539.577
 490  1504.245
 491  1626.745
 492  1431.818
 493  1697.31
 494  1912.497
 495  1807.658
 496  1405.672
 497  1575.897
 498  1264.208
 499  1729.358
 500  1655.578
 501  1950.268
 502  1629.662
 503  1586.033
 504  1530.202
 505  1169.243
 506  1387.002
 507  1625.489
 508  1494.71
 509  1489.803
 510  1666.759
 511  1705.569
