# Input file       =  1182734782.112887_cleaned.dat
# Candidate        =  PSR_0332+5434
# Telescope        =  AR
# Epoch_topo       =  57933.060198065818
# Epoch_bary       =  N/A
# T_sample         =  0.002
# Data Folded      =  7208960
# Data Avg         =  0.117865479123694
# Data StdDev      =  4.43347546395522 
# Profile Bins     =  512
# Profile Avg      =  1659.58696296396 
# Profile StdDev   =  526.072544453767 
# Reduced chi-sqr  =  0.579
# Prob(Noise)      <  1   (~0.0 sigma)
# P_topo (ms)      =  714.490806030471  +/- 5.28e-05
# P'_topo (s/s)    =  -0                +/- 2.83e-11
# P''_topo (s/s^2) =  0                 +/- 1.27e-14
# P_bary (ms)      =  N/A
# P'_bary (s/s)    =  N/A
# P''_bary (s/s^2) =  N/A
# P_orb (s)        =  N/A
# asin(i)/c (s)    =  N/A
# eccentricity     =  N/A
# w (rad)          =  N/A
# T_peri           =  N/A
######################################################
   0  1472.446
   1  1830.229
   2  1758.872
   3  2005.448
   4  1869.914
   5  1686.399
   6  1161.02
   7  1375.801
   8  1282.988
   9  1122.738
  10  1559.835
  11  1363.273
  12  1438.048
  13  1150.552
  14  1596.875
  15  1654.953
  16  1503.282
  17  1792.862
  18  1956.206
  19  1922.995
  20  1545.114
  21  1622.599
  22  1639.157
  23  1544.542
  24  1926.569
  25  2107.894
  26  1725.227
  27  1904.034
  28  1803.451
  29  1520.384
  30  1239.342
  31  1458.292
  32  1928.379
  33  1583.674
  34  1539.463
  35  1667.366
  36  1732.348
  37  1554.111
  38  1625.569
  39  1400.322
  40  1598.312
  41  1665.273
  42  1494.688
  43  1099.318
  44  1563.425
  45  1546.962
  46  1157.251
  47  1452.227
  48  1655.277
  49  1450.275
  50  1259.264
  51  1424.614
  52  1688.199
  53  1401.558
  54  1833.45
  55  1981.099
  56  2067.375
  57  1821.227
  58  1595.553
  59  1723.58
  60  1516.738
  61  1340.193
  62  1764.701
  63  1711.234
  64  1863.076
  65  1413.133
  66  1624.624
  67  1527.139
  68  1844.196
  69  1478.482
  70  1403.439
  71  1569.923
  72  1225.763
  73  1385.357
  74  1707.96
  75  1547.647
  76  1652.153
  77  2013.772
  78  1568.159
  79  1868.117
  80  1693.024
  81  1575.594
  82  1494.202
  83  1584.288
  84  1910.664
  85  1780.688
  86  2128.094
  87  1704.857
  88  1795.664
  89  1643.173
  90  1236.062
  91  1366.698
  92  1564.845
  93  1490.769
  94  1489.445
  95  1799.554
  96  1592.368
  97  1457.823
  98  1826.865
  99  1474.304
 100  1717.082
 101  2013.718
 102  1538.858
 103  1704.432
 104  1419.559
 105  1420.801
 106  1950.595
 107  2027.462
 108  1737.181
 109  1581.379
 110  1647.074
 111  1209.575
 112  1533.082
 113  1460.935
 114  1087.656
 115  1080.543
 116  1699.385
 117  1833.768
 118  1528.775
 119  1185.03
 120  1476.912
 121  1605.812
 122  1608.505
 123  1594.72
 124  1280.479
 125  1529.079
 126  1393.942
 127  1250.955
 128  1435.608
 129  1645.599
 130  1582.626
 131  1636.643
 132  1716.427
 133  1715.753
 134  1315.908
 135  1985.554
 136  2177.429
 137  1853.95
 138  1912.193
 139  2159.194
 140  2166.389
 141  1391.988
 142  1415.091
 143  1195.434
 144  1242.293
 145  1499.242
 146  1453.977
 147  1570.74
 148  1611.681
 149  1376.503
 150  1795.827
 151  2022.808
 152  1740.966
 153  1960.794
 154  1710.203
 155  1577.826
 156  1574.019
 157  1499.899
 158  1464.85
 159  1532.478
 160  1713.015
 161  1809.181
 162  1837.688
 163  1757.701
 164  1461.981
 165  1637.682
 166  1704.738
 167  1319.551
 168  1062.827
 169  1616.608
 170  1824.245
 171  1438.266
 172  1685.914
 173  1499.682
 174  1387.985
 175  1507.23
 176  1543.667
 177  1829.101
 178  1781.34
 179  1290.244
 180  1262.383
 181  1403.66
 182  1582.309
 183  1623.287
 184  2048.148
 185  1982.058
 186  1476.353
 187  1354.342
 188  1128.438
 189  1070.642
 190  1976.786
 191  1940.088
 192  2164.404
 193  1621.602
 194  1822.312
 195  1760.167
 196  1349.939
 197  1411.251
 198  1273.607
 199  1818.568
 200  1404.038
 201  1629.065
 202  1800.196
 203  2070.993
 204  1889.164
 205  1570.805
 206  1848.012
 207  1516.909
 208  1249.964
 209  1563.105
 210  1580.78
 211  1574.375
 212  1847.641
 213  1817.852
 214  1966.479
 215  1460.188
 216  1515.884
 217  1752.288
 218  1996.605
 219  1665.624
 220  1828.478
 221  1890.319
 222  1768.202
 223  1479.689
 224  1571.327
 225  1444.1
 226  1290.063
 227  1634.721
 228  1562.254
 229  1722.225
 230  827.8505
 231  1378.978
 232  1373.733
 233  1282.125
 234  1648.062
 235  1486.718
 236  2219.766
 237  2000.286
 238  1800.715
 239  1644.745
 240  1272.154
 241  1384.338
 242  1713.902
 243  1852.305
 244  2206.831
 245  1614.249
 246  1688.189
 247  1137.618
 248  1241.999
 249  1761.441
 250  1941.952
 251  1872.489
 252  1700.169
 253  1893.148
 254  1630.529
 255  1791.755
 256  1857.123
 257  1883.683
 258  1947.397
 259  2222.939
 260  1972.131
 261  2215.688
 262  1636.92
 263  1388.22
 264  1602.219
 265  1718.964
 266  1967.401
 267  1670.391
 268  2093.168
 269  1570.118
 270  1694.489
 271  1287.463
 272  1475.972
 273  1943.624
 274  1307.137
 275  1687.486
 276  1826.888
 277  1561.232
 278  1850.357
 279  1920.722
 280  1841.544
 281  1767.733
 282  1410.368
 283  1796.273
 284  1578.129
 285  1816.216
 286  1880.658
 287  1984.949
 288  1761.315
 289  1480.134
 290  1754.993
 291  1696.698
 292  1676.746
 293  1708.114
 294  1803.28
 295  1561.915
 296  1490.72
 297  1610.143
 298  1880.529
 299  1589.093
 300  1482.979
 301  1714.503
 302  2182.767
 303  2383.447
 304  1823.022
 305  1851.07
 306  1740.785
 307  1501.432
 308  1525.376
 309  1928.781
 310  2303.384
 311  2475.49
 312  2402.552
 313  1802.057
 314  1584.309
 315  1686.364
 316  1509.033
 317  1803.509
 318  1827.278
 319  1877.399
 320  2233.997
 321  1567.556
 322  1998.259
 323  2411.319
 324  2593.079
 325  2879.871
 326  2739.676
 327  3150.704
 328  3139.016
 329  2243.137
 330  1839.254
 331  2053.794
 332  1942.273
 333  1927.665
 334  1639.09
 335  2010.405
 336  1569.633
 337  1692.788
 338  1741.483
 339  2054.532
 340  2072.082
 341  1876.795
 342  2377.565
 343  1568.825
 344  1311.186
 345  1454.596
 346  1376.854
 347  1553.737
 348  1555.393
 349  1881.223
 350  2013.93
 351  1457.115
 352  1512.735
 353  1734.451
 354  1707.711
 355  1393.563
 356  1508.537
 357  1777.082
 358  1598.365
 359  1707.181
 360  1644.323
 361  1657.196
 362  1642.083
 363  1651.165
 364  1795.959
 365  1767.824
 366  1667.392
 367  1424.09
 368  1703.705
 369  1787.009
 370  1610.144
 371  1548.517
 372  2207.819
 373  1761.871
 374  1551.005
 375  1936.046
 376  2025.714
 377  1625.567
 378  1422.27
 379  1638.73
 380  1612.675
 381  1376.796
 382  1249.45
 383  1665.689
 384  1909.769
 385  1755.195
 386  1853.823
 387  1806.807
 388  1327.227
 389  1259
 390  1118.393
 391  1348.282
 392  1178.402
 393  1226.971
 394  1952.278
 395  1769.005
 396  1644.524
 397  1493.279
 398  1742.144
 399  1707.476
 400  1442.98
 401  1618.796
 402  1881.671
 403  1671.611
 404  1607.718
 405  1737.88
 406  2074.777
 407  1762.758
 408  1730.754
 409  1946.063
 410  1753.266
 411  2149.312
 412  1725.685
 413  1438.409
 414  1681.052
 415  1713.874
 416  2185.978
 417  1828.219
 418  1846.833
 419  1683.38
 420  1351.188
 421  1138.128
 422  1140.542
 423  2103.466
 424  2076.916
 425  1511.887
 426  1533.267
 427  1363.66
 428  1692.165
 429  1479.347
 430  1416.995
 431  1863.114
 432  1465.344
 433  1721.205
 434  899.5633
 435  1472.727
 436  1486.914
 437  1387.152
 438  1738.939
 439  1807.144
 440  1982.447
 441  2342.221
 442  1677.841
 443  829.8807
 444  1348.768
 445  1999.067
 446  1979.85
 447  1545.702
 448  2001.514
 449  1705.958
 450  1693.763
 451  1302.295
 452  1426.529
 453  1800.663
 454  1369.791
 455  1615.725
 456  1740.049
 457  1445.298
 458  1322.958
 459  1487.926
 460  1807.426
 461  1584.083
 462  1474.964
 463  1619.017
 464  1417.734
 465  1896.24
 466  1445.32
 467  1738.134
 468  1957.415
 469  1574.101
 470  1619.117
 471  1520.157
 472  1747.539
 473  1431.357
 474  1421.068
 475  1608.141
 476  1367.456
 477  1494.334
 478  1546.834
 479  1288.678
 480  1730.093
 481  1604.73
 482  1471.761
 483  1838.195
 484  1445.977
 485  1700.658
 486  1692.499
 487  1590.506
 488  1591.672
 489  1746.149
 490  1926.506
 491  1623.4
 492  2238.26
 493  1845.182
 494  1501.749
 495  1208.188
 496  1297.651
 497  1646.972
 498  1586.45
 499  1620.729
 500  2020.188
 501  1768.384
 502  1594.131
 503  1307.962
 504  1547.993
 505  1606.893
 506  1381.031
 507  1813.268
 508  1337.731
 509  1291.007
 510  1215.222
 511  1080.614
