# Input file       =  1182476385.100278_cleaned.dat
# Candidate        =  PSR_0332+5434
# Telescope        =  AR
# Epoch_topo       =  57930.069491901362
# Epoch_bary       =  N/A
# T_sample         =  0.002
# Data Folded      =  7143424
# Data Avg         =  0.104778329570513
# Data StdDev      =  4.0736739941685  
# Profile Bins     =  1024
# Profile Avg      =  730.912023877903 
# Profile StdDev   =  340.243240931977 
# Reduced chi-sqr  =  0.785
# Prob(Noise)      <  1   (~0.0 sigma)
# P_topo (ms)      =  714.493319752877  +/- 4.04e-05
# P'_topo (s/s)    =  -0                +/- 2.19e-11
# P''_topo (s/s^2) =  0                 +/- 9.94e-15
# P_bary (ms)      =  N/A
# P'_bary (s/s)    =  N/A
# P''_bary (s/s^2) =  N/A
# P_orb (s)        =  N/A
# asin(i)/c (s)    =  N/A
# eccentricity     =  N/A
# w (rad)          =  N/A
# T_peri           =  N/A
######################################################
   0  687.3199
   1  667.3395
   2  848.4066
   3  1012.224
   4  1052.181
   5  732.9358
   6  455.4224
   7  418.6534
   8  574.3058
   9  693.0315
  10  713.3329
  11  689.0708
  12  563.205
  13  526.446
  14  677.1328
  15  913.6255
  16  856.0664
  17  642.2183
  18  525.4155
  19  690.7124
  20  630.3523
  21  645.2847
  22  630.2483
  23  577.6603
  24  418.7181
  25  400.7314
  26  596.5006
  27  621.1554
  28  642.2672
  29  702.0044
  30  862.9722
  31  791.3929
  32  718.5089
  33  863.7646
  34  852.947
  35  754.3083
  36  729.4815
  37  772.207
  38  608.2894
  39  395.817
  40  378.2929
  41  593.8872
  42  589.9305
  43  594.9797
  44  647.5638
  45  652.7224
  46  684.2236
  47  573.4146
  48  754.4945
  49  730.861
  50  830.7905
  51  899.8689
  52  853.0157
  53  777.0315
  54  534.9561
  55  590.2968
  56  489.0498
  57  549.9091
  58  527.9831
  59  627.8329
  60  528.3375
  61  499.1367
  62  577.1938
  63  816.3953
  64  952.8827
  65  871.7275
  66  866.8356
  67  877.5383
  68  847.2436
  69  742.3334
  70  759.1881
  71  778.0812
  72  713.0206
  73  674.3531
  74  607.819
  75  586.8831
  76  496.5805
  77  675.3799
  78  770.1031
  79  869.6234
  80  818.5335
  81  888.9266
  82  938.67
  83  968.5598
  84  980.4406
  85  979.1627
  86  902.6884
  87  882.3548
  88  790.2568
  89  873.5279
  90  818.4152
  91  811.9905
  92  651.7367
  93  652.2056
  94  615.6418
  95  687.1388
  96  877.0046
  97  972.9001
  98  901.3968
  99  822.1339
 100  921.9214
 101  961.6342
 102  871.9767
 103  861.0153
 104  791.6248
 105  588.0418
 106  479.9177
 107  661.4249
 108  932.2189
 109  921.0555
 110  815.8235
 111  846.6147
 112  910.2047
 113  848.4207
 114  769.0462
 115  798.8539
 116  911.3682
 117  945.2581
 118  972.7565
 119  850.8437
 120  651.6151
 121  497.0974
 122  631.7332
 123  722.8552
 124  689.3864
 125  651.3358
 126  780.6871
 127  849.5441
 128  738.8454
 129  708.3489
 130  802.1168
 131  905.8196
 132  910.0556
 133  991.3782
 134  1035.862
 135  911.2596
 136  805.6112
 137  807.3638
 138  818.098
 139  766.4633
 140  647.1041
 141  675.9673
 142  624.3003
 143  604.3946
 144  592.9385
 145  721.2548
 146  837.9053
 147  801.2455
 148  953.0374
 149  880.8978
 150  903.5507
 151  837.6588
 152  934.6868
 153  808.1544
 154  694.121
 155  690.7612
 156  761.3218
 157  619.0701
 158  471.2028
 159  606.4249
 160  734.8193
 161  707.0947
 162  606.4235
 163  506.6661
 164  429.5208
 165  433.0768
 166  624.4882
 167  905.8644
 168  899.0372
 169  737.2443
 170  685.3961
 171  645.936
 172  509.7889
 173  399.7997
 174  568.1108
 175  660.6437
 176  564.8399
 177  497.3504
 178  604.7534
 179  812.8915
 180  698.859
 181  715.3537
 182  664.1451
 183  703.1802
 184  559.7411
 185  567.0563
 186  548.4071
 187  453.3639
 188  413.6125
 189  538.2748
 190  602.2618
 191  694.3347
 192  788.0604
 193  921.8088
 194  962.5742
 195  893.863
 196  822.6533
 197  777.2173
 198  737.1708
 199  759.7228
 200  736.9255
 201  665.1635
 202  554.2267
 203  467.0808
 204  526.5626
 205  519.2364
 206  698.4276
 207  748.4153
 208  806.4911
 209  640.4276
 210  574.5961
 211  625.2861
 212  763.9719
 213  864.7358
 214  906.1562
 215  1037.184
 216  1038.457
 217  937.6592
 218  885.1776
 219  825.6519
 220  801.5041
 221  599.6088
 222  639.8773
 223  604.0509
 224  563.554
 225  423.9243
 226  504.9343
 227  546.7721
 228  662.318
 229  748.2372
 230  890.2812
 231  906.0571
 232  818.4602
 233  791.0932
 234  841.2122
 235  741.3187
 236  508.5818
 237  433.6884
 238  449.0751
 239  553.0996
 240  580.7047
 241  584.5276
 242  649.1694
 243  498.8241
 244  546.3057
 245  616.5939
 246  701.3929
 247  796.0151
 248  892.313
 249  1007.589
 250  872.8969
 251  807.2459
 252  804.7384
 253  805.6039
 254  735.372
 255  616.0288
 256  672.3506
 257  635.3011
 258  516.9282
 259  548.8445
 260  550.3989
 261  591.7819
 262  523.196
 263  669.5153
 264  821.9902
 265  842.3635
 266  893.8156
 267  860.9318
 268  792.0507
 269  701.9961
 270  676.783
 271  676.8689
 272  578.1694
 273  530.5928
 274  638.7071
 275  677.8396
 276  633.9813
 277  565.1673
 278  687.7823
 279  740.0355
 280  799.901
 281  840.0687
 282  913.2057
 283  881.0629
 284  755.0854
 285  746.6616
 286  655.5092
 287  615.7216
 288  519.6787
 289  662.1533
 290  678.5168
 291  570.8614
 292  423.6533
 293  511.0272
 294  673.7397
 295  669.6025
 296  628.966
 297  644.9349
 298  691.3496
 299  651.434
 300  770.7792
 301  770.1985
 302  756.4447
 303  680.6887
 304  794.7216
 305  777.5527
 306  556.3667
 307  478.4824
 308  566.1754
 309  741.2961
 310  708.6972
 311  727.3105
 312  722.2036
 313  737.1085
 314  647.2075
 315  726.7352
 316  795.0656
 317  797.3859
 318  723.1709
 319  704.5192
 320  633.2456
 321  506.2945
 322  523.2172
 323  664.5983
 324  584.1368
 325  468.7564
 326  430.8191
 327  471.4057
 328  340.7363
 329  281.7465
 330  340.6923
 331  475.7222
 332  468.6242
 333  631.5542
 334  723.4409
 335  770.4099
 336  633.8509
 337  714.7955
 338  751.0313
 339  751.8278
 340  687.2972
 341  825.9266
 342  897.423
 343  841.7722
 344  707.8861
 345  741.2947
 346  798.2462
 347  814.4633
 348  769.1303
 349  784.377
 350  649.0815
 351  656.0367
 352  613.8823
 353  749.2873
 354  688.5763
 355  729.7379
 356  643.4301
 357  593.9753
 358  520.9795
 359  540.9443
 360  677.9182
 361  758.923
 362  843.1185
 363  864.6345
 364  804.4798
 365  642.117
 366  559.231
 367  661.0193
 368  725.9899
 369  615.5762
 370  508.7725
 371  564.7847
 372  774.6071
 373  778.5856
 374  808.8683
 375  646.6688
 376  630.3517
 377  728.9565
 378  964.1329
 379  1063.067
 380  977.7725
 381  862.6884
 382  1022.474
 383  1031.062
 384  920.8844
 385  756.7836
 386  674.7845
 387  616.6879
 388  498.7207
 389  613.6367
 390  709.9304
 391  691.3467
 392  641.317
 393  689.8769
 394  786.5788
 395  812.3062
 396  817.9828
 397  936.9677
 398  959.4055
 399  991.1256
 400  1003.541
 401  850.1898
 402  619.1514
 403  431.6992
 404  563.1801
 405  618.4713
 406  615.8076
 407  653.1572
 408  732.9026
 409  843.4592
 410  856.684
 411  857.8088
 412  902.5407
 413  992.3962
 414  1038.968
 415  1075.457
 416  754.2282
 417  514.4274
 418  542.1721
 419  720.9993
 420  670.7101
 421  529.355
 422  543.131
 423  663.9387
 424  616.4674
 425  538.7875
 426  576.3332
 427  780.5862
 428  858.7703
 429  878.9659
 430  840.3022
 431  838.4483
 432  794.984
 433  859.7314
 434  750.7631
 435  562.7426
 436  508.4215
 437  629.0706
 438  774.465
 439  583.3992
 440  500.9037
 441  488.8829
 442  525.7192
 443  552.6211
 444  581.6583
 445  781.2961
 446  808.1778
 447  810.844
 448  885.7427
 449  828.5803
 450  780.8303
 451  564.5283
 452  622.0917
 453  600.3008
 454  573.1851
 455  441.3041
 456  530.9075
 457  605.341
 458  526.985
 459  578.8092
 460  772.807
 461  860.4604
 462  905.6945
 463  909.0112
 464  891.524
 465  729.3996
 466  716.4806
 467  816.1078
 468  916.1956
 469  783.9435
 470  739.858
 471  757.9057
 472  729.5635
 473  583.3846
 474  537.3359
 475  604.66
 476  615.7281
 477  575.0046
 478  675.3855
 479  833.9261
 480  862.7623
 481  774.8916
 482  715.4525
 483  631.9615
 484  567.1129
 485  604.2284
 486  762.5947
 487  890.2747
 488  881.522
 489  864.2426
 490  801.201
 491  687.0121
 492  696.5721
 493  609.6658
 494  618.7501
 495  528.5603
 496  624.7436
 497  746.7253
 498  706.5377
 499  585.3888
 500  561.7167
 501  610.1656
 502  609.9531
 503  437.3042
 504  510.0779
 505  527.4198
 506  613.9513
 507  660.5846
 508  822.2791
 509  950.9017
 510  870.9763
 511  815.7181
 512  864.5726
 513  910.4931
 514  718.3663
 515  741.7838
 516  857.5941
 517  855.8183
 518  710.9865
 519  805.5088
 520  844.3376
 521  745.4761
 522  644.2783
 523  664.7693
 524  771.9976
 525  723.9246
 526  821.7652
 527  844.6899
 528  941.9884
 529  837.5067
 530  900.5959
 531  884.6121
 532  696.0287
 533  662.6392
 534  740.3873
 535  688.1562
 536  458.4451
 537  507.1776
 538  719.9178
 539  733.4558
 540  571.3972
 541  609.5078
 542  776.7297
 543  816.1208
 544  780.546
 545  788.9294
 546  749.6077
 547  656.0717
 548  639.1233
 549  671.387
 550  560.9691
 551  395.1185
 552  451.368
 553  369.3176
 554  177.8676
 555  188.3902
 556  428.7533
 557  649.5014
 558  608.5366
 559  682.5908
 560  727.6878
 561  755.6292
 562  742.4385
 563  757.9473
 564  772.2851
 565  662.5986
 566  690.5607
 567  766.7572
 568  732.7639
 569  495.933
 570  379.9918
 571  555.9987
 572  628.5388
 573  638.5299
 574  581.9727
 575  606.7418
 576  699.704
 577  671.6479
 578  714.0261
 579  652.1514
 580  780.4128
 581  849.6289
 582  772.1965
 583  559.7676
 584  394.1283
 585  545.1512
 586  689.4447
 587  707.8807
 588  561.217
 589  541.1115
 590  591.2953
 591  593.7431
 592  510.2073
 593  649.8325
 594  819.756
 595  858.8508
 596  738.4338
 597  728.4757
 598  758.3416
 599  685.1151
 600  524.3366
 601  509.6923
 602  436.5012
 603  563.7946
 604  568.7685
 605  731.0883
 606  624.4571
 607  661.6731
 608  677.1093
 609  778.6467
 610  726.197
 611  799.2969
 612  929.3649
 613  1041.086
 614  996.8338
 615  917.7821
 616  794.4423
 617  724.3735
 618  679.0762
 619  761.1732
 620  718.9001
 621  658.3104
 622  664.9546
 623  728.3617
 624  818.7196
 625  851.4745
 626  877.011
 627  842.0605
 628  728.3301
 629  652.5704
 630  698.0485
 631  779.9323
 632  741.0988
 633  624.9036
 634  549.1431
 635  521.9969
 636  484.3586
 637  438.5493
 638  533.6987
 639  695.5341
 640  795.2352
 641  833.5995
 642  915.0139
 643  913.1826
 644  936.9731
 645  1054.463
 646  1113.312
 647  1021.627
 648  893.6392
 649  1005.906
 650  1178.984
 651  1215.527
 652  1230.732
 653  1400.246
 654  1576.095
 655  1568.237
 656  1513.799
 657  1554.536
 658  1491.947
 659  1283.937
 660  1064.737
 661  1053.965
 662  892.9069
 663  858.3491
 664  834.6686
 665  734.3035
 666  533.6969
 667  526.0522
 668  771.6022
 669  856.8078
 670  728.2776
 671  727.5739
 672  769.9517
 673  831.0525
 674  850.0329
 675  973.8329
 676  1062.057
 677  1001.481
 678  921.8834
 679  902.174
 680  814.1138
 681  736.3592
 682  821.2891
 683  1021.168
 684  1003.395
 685  835.2462
 686  762.5032
 687  697.6399
 688  640.0895
 689  602.1964
 690  758.9502
 691  753.5837
 692  849.9109
 693  844.9976
 694  845.2064
 695  674.7385
 696  666.1592
 697  803.866
 698  891.1833
 699  683.86
 700  636.4164
 701  732.3502
 702  758.7438
 703  625.9377
 704  745.6324
 705  851.1647
 706  795.2394
 707  597.4884
 708  685.0622
 709  768.7997
 710  871.5731
 711  874.147
 712  932.3363
 713  735.3073
 714  639.5056
 715  564.3027
 716  640.1701
 717  459.3249
 718  341.0976
 719  352.0896
 720  552.0847
 721  597.384
 722  681.6
 723  735.8284
 724  815.5535
 725  818.8604
 726  768.5245
 727  853.3365
 728  881.0339
 729  770.8021
 730  577.0563
 731  494.0298
 732  437.541
 733  439.7138
 734  443.2165
 735  444.1399
 736  416.8715
 737  503.5154
 738  760.3842
 739  771.1964
 740  633.2882
 741  477.9606
 742  611.8297
 743  748.4185
 744  787.236
 745  814.903
 746  824.5518
 747  665.2164
 748  390.5744
 749  315.9473
 750  417.0882
 751  513.8908
 752  630.278
 753  660.2068
 754  721.62
 755  644.2817
 756  809.433
 757  801.2412
 758  864.1231
 759  729.4031
 760  911.6418
 761  934.9973
 762  865.3164
 763  691.1919
 764  685.2453
 765  775.6323
 766  675.9725
 767  588.5052
 768  574.444
 769  663.1533
 770  736.6332
 771  734.4379
 772  814.9957
 773  871.0383
 774  901.5501
 775  900.6957
 776  845.177
 777  740.8441
 778  771.6415
 779  855.2321
 780  802.9705
 781  698.6833
 782  704.4132
 783  792.3865
 784  718.3093
 785  588.0075
 786  638.5422
 787  630.6617
 788  648.0201
 789  683.1742
 790  820.6514
 791  899.5057
 792  924.2581
 793  975.8093
 794  951.5204
 795  793.0856
 796  654.9646
 797  657.2841
 798  642.6786
 799  658.7231
 800  637.6243
 801  816.6193
 802  869.2457
 803  790.3195
 804  802.7029
 805  801.4343
 806  956.0917
 807  883.6828
 808  839.2046
 809  836.6763
 810  839.5242
 811  844.6713
 812  922.2013
 813  899.0737
 814  774.2668
 815  832.7903
 816  1025.585
 817  1026.209
 818  865.4846
 819  782.3292
 820  909.6439
 821  862.2988
 822  663.9346
 823  670.7731
 824  820.5917
 825  951.3922
 826  984.4203
 827  973.3483
 828  902.2833
 829  808.6147
 830  774.3745
 831  883.0863
 832  759.2982
 833  771.5165
 834  853.3741
 835  1063.246
 836  916.5949
 837  683.6465
 838  618.9342
 839  672.9322
 840  747.0562
 841  801.6029
 842  844.421
 843  785.1483
 844  715.3109
 845  732.9257
 846  647.8624
 847  550.849
 848  451.5642
 849  642.39
 850  682.3843
 851  621.0666
 852  639.8693
 853  811.4615
 854  877.2776
 855  797.1502
 856  871.5388
 857  925.4274
 858  848.0448
 859  647.4192
 860  684.1018
 861  774.3402
 862  894.4175
 863  789.4362
 864  804.7236
 865  701.5627
 866  689.975
 867  681.6309
 868  649.7351
 869  572.3083
 870  489.1709
 871  657.0676
 872  849.0853
 873  819.2808
 874  746.4384
 875  805.6812
 876  910.6226
 877  840.8533
 878  728.16
 879  695.9996
 880  624.2924
 881  527.0264
 882  493.5356
 883  459.2956
 884  365.4123
 885  301.2764
 886  443.7724
 887  737.0834
 888  836.0475
 889  917.9489
 890  943.9482
 891  1010.024
 892  808.8878
 893  707.5616
 894  764.7523
 895  798.4847
 896  739.3248
 897  623.8552
 898  751.3962
 899  578.2961
 900  433.1679
 901  358.7461
 902  454.8935
 903  593.3961
 904  619.4536
 905  810.7186
 906  869.8274
 907  881.0783
 908  968.842
 909  1081.314
 910  1031.244
 911  836.6495
 912  856.8947
 913  850.8542
 914  663.043
 915  557.4186
 916  709.3033
 917  735.673
 918  676.3994
 919  660.0338
 920  696.2579
 921  677.0914
 922  684.4498
 923  813.7042
 924  952.1459
 925  1013.823
 926  999.4515
 927  1034.556
 928  1036.695
 929  878.5073
 930  829.8768
 931  647.8781
 932  667.5373
 933  555.256
 934  806.3029
 935  933.7334
 936  953.2207
 937  779.3281
 938  684.9836
 939  827.9518
 940  793.7008
 941  812.3367
 942  880.5061
 943  997.8124
 944  973.8529
 945  946.8348
 946  933.0886
 947  739.3049
 948  570.2828
 949  527.947
 950  610.3798
 951  574.4799
 952  562.5541
 953  679.6052
 954  826.4065
 955  921.2894
 956  994.6144
 957  949.9644
 958  997.1917
 959  993.5283
 960  949.377
 961  907.9363
 962  775.8946
 963  773.7891
 964  769.0204
 965  762.1227
 966  751.33
 967  736.5247
 968  872.1486
 969  711.2546
 970  744.5229
 971  744.9811
 972  908.6913
 973  971.4919
 974  947.9041
 975  980.9227
 976  855.5847
 977  688.4373
 978  712.2599
 979  809.5825
 980  779.5833
 981  623.2738
 982  620.8021
 983  844.2107
 984  876.5838
 985  803.2552
 986  841.2566
 987  994.109
 988  958.7265
 989  839.9834
 990  803.0772
 991  814.2097
 992  776.3942
 993  775.453
 994  751.3829
 995  687.7108
 996  525.5365
 997  594.432
 998  747.8395
 999  801.2573
1000  824.3358
1001  761.7896
1002  741.2472
1003  689.6841
1004  788.4037
1005  834.5746
1006  834.6017
1007  788.0422
1008  893.9864
1009  990.9497
1010  959.2542
1011  868.3315
1012  789.9169
1013  658.8163
1014  492.1029
1015  411.8243
1016  520.8296
1017  506.4722
1018  508.912
1019  495.2122
1020  549.8342
1021  549.422
1022  649.9297
1023  635.0438
