# Input file       =  1182678199.116364_cleaned.dat
# Candidate        =  PSR_0332+5434
# Telescope        =  AR
# Epoch_topo       =  57932.405302272731
# Epoch_bary       =  N/A
# T_sample         =  0.002
# Data Folded      =  7340032
# Data Avg         =  0.583308657721709
# Data StdDev      =  11.4736415927906 
# Profile Bins     =  512
# Profile Avg      =  8362.17240015981 
# Profile StdDev   =  1373.77394620358 
# Reduced chi-sqr  =  0.906
# Prob(Noise)      <  0.936   (~0.0 sigma)
# P_topo (ms)      =  714.491694542112  +/- 0.000357
# P'_topo (s/s)    =  -0                +/- 1.88e-10
# P''_topo (s/s^2) =  0                 +/- 8.32e-14
# P_bary (ms)      =  N/A
# P'_bary (s/s)    =  N/A
# P''_bary (s/s^2) =  N/A
# P_orb (s)        =  N/A
# asin(i)/c (s)    =  N/A
# eccentricity     =  N/A
# w (rad)          =  N/A
# T_peri           =  N/A
######################################################
   0  6348.985
   1  6534.716
   2  7167.921
   3  7820.767
   4  7847.784
   5  7194.021
   6  7593.101
   7  8483.096
   8  8962.71
   9  9066.739
  10  9011.88
  11  8744.743
  12  8324.416
  13  8837.383
  14  8957.465
  15  8710.51
  16  8155.17
  17  8096.349
  18  8022.093
  19  8196.111
  20  8208.019
  21  7754.471
  22  7796.164
  23  7627.949
  24  7524.036
  25  7216.925
  26  7662.595
  27  7902.446
  28  7537.073
  29  7767.021
  30  8158.069
  31  8248.191
  32  8605.08
  33  8650.797
  34  8757.246
  35  8330.498
  36  8024.609
  37  8022.55
  38  8621.756
  39  8689.918
  40  8755.961
  41  9112.204
  42  9064.728
  43  8409.867
  44  8739.82
  45  8924.047
  46  8971.52
  47  8383.114
  48  8221.345
  49  8330.571
  50  8918.008
  51  8631.781
  52  8354.976
  53  8379.525
  54  8458.574
  55  8621.64
  56  8815.806
  57  8319.087
  58  8108.014
  59  8643.212
  60  8785.456
  61  8546.263
  62  7639.117
  63  7660.145
  64  7589.387
  65  7587.185
  66  7298.764
  67  7384.603
  68  7312.444
  69  7452.613
  70  7561.752
  71  7404.893
  72  7708.027
  73  7620.641
  74  8017.338
  75  7895.478
  76  7367.776
  77  7309.032
  78  7991.948
  79  7977.574
  80  7574.402
  81  7576.712
  82  7601.44
  83  8464.319
  84  9070.079
  85  8968.988
  86  8543.725
  87  8689.544
  88  8941.708
  89  8916.927
  90  9052.203
  91  9333.542
  92  9279.151
  93  9217.167
  94  9423.582
  95  9259.258
  96  8511.176
  97  8384.02
  98  8410.307
  99  8549.587
 100  8018.646
 101  7910.701
 102  7850.457
 103  7829.554
 104  7668.231
 105  7570.576
 106  6832.186
 107  6641.203
 108  6741.449
 109  6577.728
 110  6323.547
 111  6533.76
 112  6893.737
 113  6862.959
 114  7015.267
 115  6902.385
 116  7206.629
 117  7301.323
 118  7688.662
 119  7511.44
 120  7434.95
 121  7219.477
 122  7398.554
 123  7205.011
 124  7327.339
 125  7362.832
 126  7367.281
 127  7461.109
 128  7565.88
 129  7667.247
 130  8134.433
 131  8328.12
 132  8694.754
 133  8438.312
 134  8083.317
 135  7940.462
 136  8003.383
 137  7911.098
 138  7803.699
 139  7565.102
 140  7688.021
 141  7601.968
 142  7580.545
 143  7200.535
 144  7269.183
 145  7082.504
 146  7282.298
 147  7473.152
 148  7951.334
 149  7960.479
 150  8319.7
 151  8446.853
 152  8711.147
 153  8870.578
 154  8811.063
 155  9607.645
 156  10155.74
 157  9422.405
 158  8929.316
 159  8750.431
 160  8933.072
 161  8987.694
 162  8550.471
 163  8131.588
 164  8341.847
 165  8340.207
 166  8360.443
 167  7674.279
 168  7627.061
 169  8104.818
 170  8188.443
 171  8387.306
 172  8457.474
 173  8157.182
 174  7887.785
 175  7939.425
 176  8354.263
 177  7901.692
 178  8037.541
 179  8433.415
 180  8299.893
 181  8305.774
 182  8316.274
 183  8443.609
 184  8640.535
 185  8353.098
 186  8384.669
 187  8746.636
 188  9165.01
 189  9654.916
 190  9428.249
 191  8778.704
 192  8019.854
 193  8310.361
 194  8556.888
 195  8659.147
 196  8066.018
 197  8092.625
 198  8412.914
 199  8620.34
 200  8641.001
 201  8393.943
 202  8610.586
 203  8522.055
 204  9257.187
 205  9512.408
 206  9615.351
 207  9389.195
 208  9202.083
 209  8557.643
 210  8248.673
 211  8515.301
 212  9053.349
 213  9355.007
 214  9469.774
 215  9462.305
 216  9425.143
 217  9557.923
 218  9945.791
 219  10219.41
 220  9651.422
 221  9827.975
 222  10006.99
 223  10243.2
 224  10143.08
 225  9562.08
 226  9184.138
 227  8896.666
 228  9210.354
 229  9606.207
 230  8912.812
 231  8799.058
 232  8947.441
 233  8991.812
 234  9074.166
 235  9436.996
 236  9298.994
 237  8974.409
 238  9172.838
 239  9232.708
 240  9453.492
 241  9387.862
 242  9322.894
 243  8828.026
 244  9140.321
 245  9081.342
 246  9396.838
 247  9490.921
 248  9276.639
 249  8870.696
 250  8687.144
 251  8771.282
 252  8549.398
 253  8787.844
 254  8796.944
 255  8793.55
 256  8733.029
 257  8903.525
 258  8665.3
 259  8605.361
 260  8863.694
 261  8962.392
 262  9055.46
 263  9105.257
 264  9246.226
 265  9067.517
 266  9239.185
 267  9511.657
 268  8956.365
 269  8681.565
 270  8664.976
 271  9020.193
 272  9192.33
 273  8909.701
 274  8827.062
 275  8913.23
 276  8686.385
 277  8448.473
 278  8248.647
 279  8629.661
 280  9261.894
 281  9631.773
 282  9231.199
 283  8672.655
 284  8309.591
 285  8713.228
 286  8675.088
 287  8613.492
 288  8690.857
 289  8476.542
 290  8459.496
 291  8401.978
 292  8429.701
 293  8609.227
 294  8708.945
 295  8753.947
 296  8954.874
 297  8784.058
 298  8646.733
 299  9459.064
 300  9746.475
 301  9733.225
 302  10102.62
 303  10729.79
 304  10710.38
 305  10271.93
 306  9763.863
 307  9385.976
 308  9230.677
 309  9111.523
 310  9194.122
 311  8827.985
 312  8611.329
 313  8721.761
 314  8794.044
 315  8769.729
 316  8365.505
 317  7931.726
 318  7673.046
 319  7668.672
 320  7821.714
 321  8386.426
 322  8544.902
 323  8447.264
 324  7745.776
 325  7822.94
 326  7615.215
 327  7698.671
 328  8034.176
 329  7937.229
 330  7883.124
 331  7714.456
 332  8026.021
 333  8428.6
 334  8075.408
 335  8082.262
 336  8685.941
 337  9316.742
 338  9455.344
 339  8848.249
 340  8385.074
 341  8622.564
 342  8759.979
 343  9346.304
 344  9623.307
 345  9359.977
 346  9341.939
 347  8788.226
 348  8814.074
 349  8948.406
 350  8855.921
 351  8791.151
 352  9017.81
 353  9128.036
 354  8255.676
 355  7648.37
 356  7617.061
 357  8099.431
 358  8202.839
 359  7342.817
 360  7109.78
 361  7811.76
 362  7929.407
 363  7405.007
 364  7293.193
 365  7700.904
 366  7989.922
 367  8011.217
 368  7883.948
 369  7464.135
 370  7598.431
 371  8340.438
 372  8329.287
 373  8166.681
 374  7819.349
 375  8142.628
 376  7826.52
 377  7746.689
 378  7519.312
 379  7839.205
 380  7807.56
 381  8272.375
 382  8104.359
 383  8175.942
 384  8177.921
 385  8530.961
 386  8604.134
 387  8772.965
 388  9079.02
 389  8809.634
 390  9114.008
 391  9129.335
 392  9380.795
 393  9331.167
 394  8895.611
 395  8618.602
 396  8066.629
 397  7643.91
 398  7657.597
 399  7985.203
 400  7724.126
 401  7785.907
 402  7285.84
 403  7598.412
 404  7986.302
 405  8191.351
 406  8131.325
 407  7770.359
 408  8161.224
 409  8285.336
 410  8225.374
 411  8566.266
 412  8267.29
 413  8348.666
 414  8268.838
 415  8396.713
 416  7920.008
 417  8164.798
 418  8437.729
 419  8774.4
 420  8810.693
 421  8884.736
 422  9223.229
 423  9546.423
 424  9803.108
 425  9688.866
 426  9792.495
 427  10109.49
 428  11151.09
 429  11096.54
 430  10762.75
 431  11426.33
 432  12099.24
 433  12155.41
 434  11896.23
 435  11110.99
 436  10424.96
 437  10163.84
 438  9409.501
 439  8580.82
 440  8493.625
 441  8073.866
 442  7951.872
 443  8034.33
 444  8282.979
 445  8052.506
 446  7680.63
 447  7926.98
 448  8083.62
 449  8573.544
 450  8613.142
 451  8176.365
 452  8543.103
 453  8522.882
 454  8114.729
 455  7903.946
 456  7812.502
 457  7875.266
 458  8531.37
 459  8308.732
 460  8134.895
 461  7975.13
 462  8181.87
 463  8097.877
 464  8096.338
 465  7845.208
 466  8135.667
 467  8263.34
 468  8693.765
 469  8541.326
 470  8316.137
 471  8583.055
 472  8992.581
 473  8857.021
 474  8486.274
 475  8552.385
 476  8679.953
 477  8798.271
 478  8926.137
 479  8115.975
 480  7778.78
 481  7074.832
 482  7279.646
 483  7329.601
 484  7938.149
 485  7757.685
 486  7252.867
 487  7051.627
 488  6547.664
 489  6094.484
 490  5946.626
 491  6430.458
 492  5654.135
 493  5526.592
 494  5458.28
 495  5888.391
 496  5562.15
 497  5838.467
 498  6026.005
 499  6041.641
 500  6558.653
 501  6316.7
 502  6514.057
 503  6288.181
 504  6216.336
 505  6577.198
 506  6215.701
 507  6069.992
 508  6796.918
 509  6939.583
 510  6487.416
 511  6201.051
