# Input file       =  1182993473.111839_cleaned.dat
# Candidate        =  PSR_0332+5434
# Telescope        =  AR
# Epoch_topo       =  57936.054306849990
# Epoch_bary       =  N/A
# T_sample         =  0.002
# Data Folded      =  7405568
# Data Avg         =  0.128675344446468
# Data StdDev      =  4.55220936575635 
# Profile Bins     =  512
# Profile Avg      =  1861.13914222932 
# Profile StdDev   =  547.477700574561 
# Reduced chi-sqr  =  0.638
# Prob(Noise)      <  1   (~0.0 sigma)
# P_topo (ms)      =  714.488373951192  +/- 7.44e-05
# P'_topo (s/s)    =  -0                +/- 3.89e-11
# P''_topo (s/s^2) =  0                 +/- 1.7e-14
# P_bary (ms)      =  N/A
# P'_bary (s/s)    =  N/A
# P''_bary (s/s^2) =  N/A
# P_orb (s)        =  N/A
# asin(i)/c (s)    =  N/A
# eccentricity     =  N/A
# w (rad)          =  N/A
# T_peri           =  N/A
######################################################
   0  1700.189
   1  1543.882
   2  1369.822
   3  1785.943
   4  1707.679
   5  1390.534
   6  1454.025
   7  1865.05
   8  1917.029
   9  1905.073
  10  1554.666
  11  1635.201
  12  1410.537
  13  1182.741
  14  1588.002
  15  2264.784
  16  2173.626
  17  1722.478
  18  1784.69
  19  1479.594
  20  1811.837
  21  2075.737
  22  2147.32
  23  2250.46
  24  2103.664
  25  2422.365
  26  1935.52
  27  1665.222
  28  1789.598
  29  2192.453
  30  2270.027
  31  2250.712
  32  2054.402
  33  2089.754
  34  2023.613
  35  1629.481
  36  1733.405
  37  1762.776
  38  1535.18
  39  1853.478
  40  2061.583
  41  2006.049
  42  1721.921
  43  1288.582
  44  1409.476
  45  1658.689
  46  1897.936
  47  1953.771
  48  1875.924
  49  1530.513
  50  1787.335
  51  1655.64
  52  1984.395
  53  2245.15
  54  2056.172
  55  2173.423
  56  1446.16
  57  1459.54
  58  1398.598
  59  1516.271
  60  1804.207
  61  1806.669
  62  1810.857
  63  1968.907
  64  1533.58
  65  1593.458
  66  2034.177
  67  1927.737
  68  1839.03
  69  1620.198
  70  2018.782
  71  1889.75
  72  1820.301
  73  1698.055
  74  1943.522
  75  2031.903
  76  1917.875
  77  2007.826
  78  1705.364
  79  1499.582
  80  1319.318
  81  1614.843
  82  1701.435
  83  2041.639
  84  1824.541
  85  2075.8
  86  1855.272
  87  1753.97
  88  1628.876
  89  2125.469
  90  2122.189
  91  1847.212
  92  2205.284
  93  1976.78
  94  1454.907
  95  1400.643
  96  1803.656
  97  1908.807
  98  2175.624
  99  2103.786
 100  2184.48
 101  2264.931
 102  1943.307
 103  2256.485
 104  2353.21
 105  1997.529
 106  2037.304
 107  2285.734
 108  2380.227
 109  2185.814
 110  1893.246
 111  1610.96
 112  1811.193
 113  1907.714
 114  2179.577
 115  1904.93
 116  2110.722
 117  2146.499
 118  2004.649
 119  2250.843
 120  2137.68
 121  1661.448
 122  1599.802
 123  1822.572
 124  2314.969
 125  2092.949
 126  1735.198
 127  1761.28
 128  1641.55
 129  1467.18
 130  1753.699
 131  1897.347
 132  2226.864
 133  2082.572
 134  1711.961
 135  1727.651
 136  1997.66
 137  1911.766
 138  2133.83
 139  2056.941
 140  1662.167
 141  1631.981
 142  1639.991
 143  1763.472
 144  1808.126
 145  1913.256
 146  2368.547
 147  2002.52
 148  1625.926
 149  1896.256
 150  2317.638
 151  1956.82
 152  2217.406
 153  1907.934
 154  1758.667
 155  1829.686
 156  1727.749
 157  2072.513
 158  1733.367
 159  2008.991
 160  2113.199
 161  1798.329
 162  1590.932
 163  1671.348
 164  1741.776
 165  2032.834
 166  2093.545
 167  2088.516
 168  2271.86
 169  1894.912
 170  2092.949
 171  2192.61
 172  2140.721
 173  2390.075
 174  2047.736
 175  1772.527
 176  1939.55
 177  2037.418
 178  1721.488
 179  1828.009
 180  2428.159
 181  2240.679
 182  1803.79
 183  2028.028
 184  2068.552
 185  1808.009
 186  1724.151
 187  1825.722
 188  1760.24
 189  1902.048
 190  2052.008
 191  1823.182
 192  1845.098
 193  1559.096
 194  1298.211
 195  1451.619
 196  1920.161
 197  1658.885
 198  2073.067
 199  1874.473
 200  1955.626
 201  1535.772
 202  1680.915
 203  1979.881
 204  1340.804
 205  1816.726
 206  2106.575
 207  1959.838
 208  1212.438
 209  1000.857
 210  1382.881
 211  1268.984
 212  1944.236
 213  1948.666
 214  1895.987
 215  1988.426
 216  1617.796
 217  1434.036
 218  1363.228
 219  1602.421
 220  1918.355
 221  1777.094
 222  1882.984
 223  1518.77
 224  1301.137
 225  1271.005
 226  1085.584
 227  1473.379
 228  1675.084
 229  1690.639
 230  1679.582
 231  1341.949
 232  1876.09
 233  2043.834
 234  1946.814
 235  2311.035
 236  1980.852
 237  1853.883
 238  1299.578
 239  1344.332
 240  1667.796
 241  1849.084
 242  2515.923
 243  2247.788
 244  1950.127
 245  1748.375
 246  1630.433
 247  1676.921
 248  1769.447
 249  1931.918
 250  2035.265
 251  2190.794
 252  2079.74
 253  1715.465
 254  1868.472
 255  1830.141
 256  2028.942
 257  1691.014
 258  1645.201
 259  1943.677
 260  1602.636
 261  1915.744
 262  2006.345
 263  2128.011
 264  2291.822
 265  2229.899
 266  1726.149
 267  1782.488
 268  1496.575
 269  1631.473
 270  1869.546
 271  1674.829
 272  2111.103
 273  2132.201
 274  2037.267
 275  1658.664
 276  1526.547
 277  1436.835
 278  980.3096
 279  1710.158
 280  1859.241
 281  2204.725
 282  1752.303
 283  1799.394
 284  1654.853
 285  1619.78
 286  1937.876
 287  1715.627
 288  1880.764
 289  1904.284
 290  1856.49
 291  1642.871
 292  1341.699
 293  1693.979
 294  1838.132
 295  1695.269
 296  1876.84
 297  1746.013
 298  1679.585
 299  2029.042
 300  1656.936
 301  1315.331
 302  1397.504
 303  1881.499
 304  2395.368
 305  1742.565
 306  2089.812
 307  2004.781
 308  1898.703
 309  1964.515
 310  1786.361
 311  2028.555
 312  2028.16
 313  1847.027
 314  1530.282
 315  1992.377
 316  2214.017
 317  2115.526
 318  2385.813
 319  2190.31
 320  2180.119
 321  2250.465
 322  2351.523
 323  2592.878
 324  2868.259
 325  3305.267
 326  3750.21
 327  3745.67
 328  3546.208
 329  2545.808
 330  2006.759
 331  1907.078
 332  2110.004
 333  2221.515
 334  2094.043
 335  1879.826
 336  2149.987
 337  2094.787
 338  1963.446
 339  2259.059
 340  2148.776
 341  2105.41
 342  1958.331
 343  2086.116
 344  1874.476
 345  2010.931
 346  1862.02
 347  1834.055
 348  2398.319
 349  2207.606
 350  2117.509
 351  1969.721
 352  1809.518
 353  1715.406
 354  1579.697
 355  2271.27
 356  2003.572
 357  1922.904
 358  1595.962
 359  1475.41
 360  1799.768
 361  1675.533
 362  1768.162
 363  2003.698
 364  2061.353
 365  1846.035
 366  1863.4
 367  1934.162
 368  1933.082
 369  1782.539
 370  2262.002
 371  1986.198
 372  2144.174
 373  1942.442
 374  1595.523
 375  1686.122
 376  1572.004
 377  1834.458
 378  2014.045
 379  1866.328
 380  1679.334
 381  1411.137
 382  1509.243
 383  1797.904
 384  2110.729
 385  1975.481
 386  1810.955
 387  2044.235
 388  1679.073
 389  1952.29
 390  2050.106
 391  1873.28
 392  1902.443
 393  1963.544
 394  2269.812
 395  2308.343
 396  1678.711
 397  1770.382
 398  2392.148
 399  1910.572
 400  1953.353
 401  2588.017
 402  2549.749
 403  2014.606
 404  2188.901
 405  2064.958
 406  1809.546
 407  1794.859
 408  1958.19
 409  2080.123
 410  1676.521
 411  1770.11
 412  1668.567
 413  1654.583
 414  1903.203
 415  2443.274
 416  2196.347
 417  2060.938
 418  1140.179
 419  1395.382
 420  1675.648
 421  2013.192
 422  2165.912
 423  1861.262
 424  1865.354
 425  1465.44
 426  1211.381
 427  1284.809
 428  1673.263
 429  1687.649
 430  1481.476
 431  1855.452
 432  1794.606
 433  1702.079
 434  1732.489
 435  1769.216
 436  1875.251
 437  1817.449
 438  1851.727
 439  2078.362
 440  2053.973
 441  1773.362
 442  1674.394
 443  1727.701
 444  1830.365
 445  1701.642
 446  1860.878
 447  1665.829
 448  1476.733
 449  1539.123
 450  1635.712
 451  1716.164
 452  1902.783
 453  2047.785
 454  2010.247
 455  1660.849
 456  1613.493
 457  1747.13
 458  1614.012
 459  1749.322
 460  2032.431
 461  2245.872
 462  2122.074
 463  2035.309
 464  1878.627
 465  1666.531
 466  1451.215
 467  1828.593
 468  2014.539
 469  1947.879
 470  2149.545
 471  2063.749
 472  1603.532
 473  1761.321
 474  1731.328
 475  1550.366
 476  1752.749
 477  1557.301
 478  1783.756
 479  1669.798
 480  1425.708
 481  2019.769
 482  2109.54
 483  2005.052
 484  1986.25
 485  1531.086
 486  1687.542
 487  1584.933
 488  1617.055
 489  1677.794
 490  1489.542
 491  1756.858
 492  1565.599
 493  1760.167
 494  1511.774
 495  1569.937
 496  1780.967
 497  1593.383
 498  1985.648
 499  1721.299
 500  1647.532
 501  1113.366
 502  1340.526
 503  1820.52
 504  1696.845
 505  1373.84
 506  1804.185
 507  1871.133
 508  1671.281
 509  967.0948
 510  1296.418
 511  1936.781
