# Input file       =  1182850506.116156_cleaned.dat
# Candidate        =  PSR_0332+5434
# Telescope        =  AR
# Epoch_topo       =  57934.399596251809
# Epoch_bary       =  N/A
# T_sample         =  0.002
# Data Folded      =  7340032
# Data Avg         =  0.960655223559504
# Data StdDev      =  15.0031010789758 
# Profile Bins     =  512
# Profile Avg      =  13772.0190431163 
# Profile StdDev   =  1796.3668472533  
# Reduced chi-sqr  =  0.642
# Prob(Noise)      <  1   (~0.0 sigma)
# P_topo (ms)      =  714.490052933282  +/- 8.18e-05
# P'_topo (s/s)    =  -0                +/- 4.32e-11
# P''_topo (s/s^2) =  0                 +/- 1.91e-14
# P_bary (ms)      =  N/A
# P'_bary (s/s)    =  N/A
# P''_bary (s/s^2) =  N/A
# P_orb (s)        =  N/A
# asin(i)/c (s)    =  N/A
# eccentricity     =  N/A
# w (rad)          =  N/A
# T_peri           =  N/A
######################################################
   0  15227.93
   1  14799.89
   2  14089.17
   3  13515.61
   4  13722.14
   5  14407.86
   6  14699.65
   7  13850.62
   8  13918.28
   9  14569.52
  10  14249.82
  11  13715.74
  12  12382.77
  13  12392.72
  14  12901.51
  15  12582.24
  16  11967.92
  17  11630.88
  18  12316.8
  19  12604.72
  20  12794.95
  21  12058.06
  22  12106.45
  23  12487.49
  24  13038.19
  25  13168.21
  26  12732.07
  27  12058.78
  28  12072.49
  29  12231.68
  30  11931.33
  31  11272.14
  32  11217.53
  33  11909.95
  34  12446.85
  35  12183.68
  36  11695.73
  37  11185.75
  38  11407.72
  39  12353.56
  40  12747.14
  41  13097.99
  42  13585.82
  43  13663.14
  44  13071.98
  45  12974.56
  46  12898.62
  47  13842.71
  48  14451.34
  49  14892.35
  50  14757.89
  51  14794.36
  52  14765.18
  53  14925.46
  54  15113.72
  55  15174.7
  56  15637.87
  57  15691.04
  58  15914.48
  59  14994.09
  60  14762.08
  61  15289.71
  62  15688.63
  63  15788.46
  64  15373.95
  65  14719.3
  66  14793.52
  67  15048.9
  68  14492.25
  69  14078.75
  70  14674.85
  71  15976.8
  72  15722.28
  73  14767.12
  74  14197.6
  75  13645.58
  76  14121.61
  77  14105.2
  78  13265.18
  79  12920.84
  80  13270.06
  81  14042.63
  82  13542.5
  83  12904.11
  84  12693.34
  85  12898.91
  86  13402.04
  87  13681.64
  88  13316.89
  89  12189.26
  90  12434.51
  91  12768.27
  92  12693.31
  93  12720.65
  94  12980.11
  95  13013.3
  96  12809.76
  97  12444.21
  98  11932.79
  99  11594.72
 100  12587.14
 101  13784.09
 102  13673.11
 103  13559.61
 104  13717.55
 105  14072.15
 106  14303.2
 107  13803.07
 108  13639.63
 109  14325.65
 110  14344.29
 111  13981.9
 112  13815.34
 113  13150.44
 114  12962.7
 115  13041.55
 116  13108.74
 117  12674.17
 118  12394.35
 119  12558.7
 120  13399.49
 121  13805
 122  13067.73
 123  13205.81
 124  14104.97
 125  14620.35
 126  14230.43
 127  14084.11
 128  14563.77
 129  14247.78
 130  14021.26
 131  14035.04
 132  14138.63
 133  13997.51
 134  14081.09
 135  14188
 136  13931.26
 137  13373.7
 138  13853.88
 139  13960.12
 140  14154.81
 141  14139.64
 142  13909.22
 143  13754.78
 144  13881.22
 145  13343.18
 146  13268.29
 147  13151.18
 148  13424.62
 149  13425.22
 150  13169.12
 151  13000.76
 152  12840.83
 153  13857.66
 154  14646.33
 155  14686.31
 156  13901.41
 157  13503.5
 158  13717.66
 159  14112.48
 160  13676.08
 161  13494.8
 162  13837.26
 163  14817.03
 164  14543.8
 165  14063.84
 166  14049.93
 167  14620.98
 168  15374.17
 169  15802.15
 170  14886.95
 171  14029.84
 172  14465.13
 173  14925.19
 174  14782.53
 175  14078.05
 176  14124.78
 177  14585.96
 178  13963.24
 179  12809.03
 180  12315.94
 181  13184.83
 182  13657.21
 183  13598.45
 184  13402.11
 185  13232.03
 186  13408.7
 187  14142.57
 188  14110.92
 189  13537.72
 190  13967.15
 191  14984.93
 192  14985.66
 193  14652.16
 194  14311.5
 195  14390.22
 196  14404.34
 197  15112.8
 198  14469.99
 199  14116.25
 200  14558.3
 201  15122.22
 202  14435.29
 203  14258.46
 204  14100.75
 205  15011.15
 206  15756.63
 207  15795.75
 208  14908.32
 209  14618.08
 210  14988.58
 211  14487.45
 212  14419.91
 213  13785.85
 214  14517.05
 215  15479.59
 216  15452.21
 217  14718.33
 218  14229.38
 219  13656.9
 220  14171.42
 221  14445.84
 222  14113.02
 223  13628.39
 224  13150.96
 225  13936.09
 226  13779.95
 227  13137.87
 228  12684.37
 229  13758.77
 230  14103.7
 231  14297.57
 232  14065
 233  13781.67
 234  13991.69
 235  14775.45
 236  14642.83
 237  14088.65
 238  13878.21
 239  14367.18
 240  14737.07
 241  14226.17
 242  13742.39
 243  14072.9
 244  14147.48
 245  14090.36
 246  13897.39
 247  13957.52
 248  14227.63
 249  14189.93
 250  13883.32
 251  13622.14
 252  13186.3
 253  14087.82
 254  14989.17
 255  15187.89
 256  14830.82
 257  14428.25
 258  15019.18
 259  15327.42
 260  15208.58
 261  14680.41
 262  15056.85
 263  15166.78
 264  16176.83
 265  15959.13
 266  15654.21
 267  15395.97
 268  14675.67
 269  14292.29
 270  13524.67
 271  13531.65
 272  13657.46
 273  14440.61
 274  14246.87
 275  13580.44
 276  13430.69
 277  13455.39
 278  13860.26
 279  13582.9
 280  13328.53
 281  13563.03
 282  13525.41
 283  13654.15
 284  13056.12
 285  12976.19
 286  13417.03
 287  13883.38
 288  14425.84
 289  13732.75
 290  13305.7
 291  13549.56
 292  14337.79
 293  14465.88
 294  13750.29
 295  13504.24
 296  14157.9
 297  14306.84
 298  14284.31
 299  13772.86
 300  13969.92
 301  13903.56
 302  14053.42
 303  13840.54
 304  13350.87
 305  13725.29
 306  14021.31
 307  14149.05
 308  13686.08
 309  13239.9
 310  13696.75
 311  13990.78
 312  13679.87
 313  12651.31
 314  12163.59
 315  13114.63
 316  14433.27
 317  13927.24
 318  12861.85
 319  12396.57
 320  12277.43
 321  13208.49
 322  12584.77
 323  12494.27
 324  12634.61
 325  12475.69
 326  12841.56
 327  12508.16
 328  11612.96
 329  11346.3
 330  11982
 331  12459.42
 332  12439.16
 333  12512.4
 334  12097.04
 335  12326.83
 336  11796.2
 337  11436.36
 338  11144.61
 339  11196.05
 340  11707.88
 341  12125.78
 342  11828.16
 343  11505.69
 344  11957.1
 345  12344.16
 346  12233.11
 347  12264.08
 348  12671.81
 349  13536.83
 350  14020.95
 351  13263.25
 352  13078.43
 353  13192.81
 354  13414.59
 355  14286.1
 356  14814.32
 357  14592.32
 358  14454.75
 359  14671.2
 360  14404.31
 361  14108
 362  13022.46
 363  13297.33
 364  13413.49
 365  12945.49
 366  12863.57
 367  13275.03
 368  13808.97
 369  13382.73
 370  12752.21
 371  12461.58
 372  13472.5
 373  14560.47
 374  14136.46
 375  13574.84
 376  13263.49
 377  14380.59
 378  15232
 379  15278.48
 380  14735.41
 381  13818.78
 382  14299.93
 383  15583.84
 384  15351.43
 385  14313.17
 386  14214.92
 387  14842.34
 388  15288.85
 389  15321.09
 390  14478.28
 391  14105.15
 392  14714.27
 393  14233.73
 394  13622.76
 395  13077.82
 396  12948.34
 397  13323.1
 398  13681.56
 399  13235.28
 400  12437.36
 401  12922.1
 402  13093.89
 403  13030.43
 404  13121.04
 405  12789.24
 406  13435.08
 407  14436.94
 408  14408.41
 409  13576.09
 410  12875.43
 411  13068.22
 412  12790.26
 413  12691.5
 414  13182.97
 415  14129.17
 416  13941.29
 417  14077.48
 418  13515.3
 419  12947.12
 420  13010.76
 421  13517.38
 422  13516.8
 423  12818.67
 424  12601.89
 425  12758.72
 426  13057.32
 427  12687.27
 428  12282.81
 429  12253.71
 430  12742.94
 431  13034.54
 432  12402.62
 433  11513.44
 434  11406.25
 435  11956.43
 436  12105.2
 437  12272.12
 438  12492.95
 439  12093.77
 440  12259.96
 441  12496.03
 442  11820.25
 443  11751.33
 444  12780.15
 445  13390.84
 446  13201.72
 447  12932.66
 448  12910
 449  13386.57
 450  13421.58
 451  13456.46
 452  13186.68
 453  13300.93
 454  13686.73
 455  13880.71
 456  14073.12
 457  13934.92
 458  14044.71
 459  13705.53
 460  14245.23
 461  13756.2
 462  13767.63
 463  14480.7
 464  15149.41
 465  14862.63
 466  14143.95
 467  13460.54
 468  13713.27
 469  14370.33
 470  15152.23
 471  15332.93
 472  15254.21
 473  16019.31
 474  16342.25
 475  15805.24
 476  14783.08
 477  14241.55
 478  14706.68
 479  15523.69
 480  14967.57
 481  14205.69
 482  14200.37
 483  15063.28
 484  15459.44
 485  15148.05
 486  15112.74
 487  15404.98
 488  15581.28
 489  15912.39
 490  15524.52
 491  15227.66
 492  15938.51
 493  16723.5
 494  15885.97
 495  14847.59
 496  15063.92
 497  15644.8
 498  15743.96
 499  15548.65
 500  14752.7
 501  14605.77
 502  14850.34
 503  14588.47
 504  14344.02
 505  14190.68
 506  14095.53
 507  14151.03
 508  14447.76
 509  13994.74
 510  13168.78
 511  13739.07
