# Input file       =  1182404838.106733_cleaned.dat
# Candidate        =  PSR_0332+5434
# Telescope        =  AR
# Epoch_topo       =  57929.241401698302
# Epoch_bary       =  N/A
# T_sample         =  0.002
# Data Folded      =  7340032
# Data Avg         =  0.169421054758589
# Data StdDev      =  3.48451544850419 
# Profile Bins     =  1024
# Profile Avg      =  1214.3957363247  
# Profile StdDev   =  295.013162121753 
# Reduced chi-sqr  =  0.896
# Prob(Noise)      <  0.992   (~0.0 sigma)
# P_topo (ms)      =  714.494044424056  +/- 0.000215
# P'_topo (s/s)    =  -0                +/- 1.13e-10
# P''_topo (s/s^2) =  0                 +/- 5e-14
# P_bary (ms)      =  N/A
# P'_bary (s/s)    =  N/A
# P''_bary (s/s^2) =  N/A
# P_orb (s)        =  N/A
# asin(i)/c (s)    =  N/A
# eccentricity     =  N/A
# w (rad)          =  N/A
# T_peri           =  N/A
######################################################
   0  1315.437
   1  1308.137
   2  1415.559
   3  1503.937
   4  1571.935
   5  1549.454
   6  1537.704
   7  1553.984
   8  1542.833
   9  1502.563
  10  1523.914
  11  1461.502
  12  1449.032
  13  1471.678
  14  1519.238
  15  1437.157
  16  1309.676
  17  1227.565
  18  1313.735
  19  1267.565
  20  1253.223
  21  1204.575
  22  1234.685
  23  1202.486
  24  1330.347
  25  1414.744
  26  1378.674
  27  1253.687
  28  1263.132
  29  1218.661
  30  1178.242
  31  1126.2
  32  1163.05
  33  1202.785
  34  1233.431
  35  1283.057
  36  1338.143
  37  1299.284
  38  1281.873
  39  1224.888
  40  1228.979
  41  1217.194
  42  1191.03
  43  1166.641
  44  1285.592
  45  1409.627
  46  1365.883
  47  1305.462
  48  1242.115
  49  1273.224
  50  1244.636
  51  1225.31
  52  1220.676
  53  1258.615
  54  1274.199
  55  1262.73
  56  1170.542
  57  1214.813
  58  1216.765
  59  1269.398
  60  1190.398
  61  1120.792
  62  951.9691
  63  1046.964
  64  1016.066
  65  1161.445
  66  1110.372
  67  1203.276
  68  1343.755
  69  1413.979
  70  1352.153
  71  1259.269
  72  1339.733
  73  1520.069
  74  1548.91
  75  1579.18
  76  1413.085
  77  1347.282
  78  1306.608
  79  1297.684
  80  1270.988
  81  1312.515
  82  1369.82
  83  1415.055
  84  1357.483
  85  1196.156
  86  1255.331
  87  1249.905
  88  1364.099
  89  1316.858
  90  1326.856
  91  1298.85
  92  1254.898
  93  1293.676
  94  1258.142
  95  1206.595
  96  1286.222
  97  1409.417
  98  1521.973
  99  1573.14
 100  1570.872
 101  1398.406
 102  1182.899
 103  1094.779
 104  1218.927
 105  1274.431
 106  1251.588
 107  1128.588
 108  1147.289
 109  1131.051
 110  1077.945
 111  1007.531
 112  1065.105
 113  1149.058
 114  1223.018
 115  1200.12
 116  1248.472
 117  1212.875
 118  1183.276
 119  1230.842
 120  1164.41
 121  1074.787
 122  875.6046
 123  830.7417
 124  871.5161
 125  905.4247
 126  903.0201
 127  989.0646
 128  1081.235
 129  1116.139
 130  1123.597
 131  1205.634
 132  1255.387
 133  1338.356
 134  1257.41
 135  1153.873
 136  1047.168
 137  1013.329
 138  1076.071
 139  1189.281
 140  1265.405
 141  1287.468
 142  1247.249
 143  1184.803
 144  1174.552
 145  1197.505
 146  1279.343
 147  1298.483
 148  1242.777
 149  1239.158
 150  1158.99
 151  1148.743
 152  1121.983
 153  1090.221
 154  1086.812
 155  1061.162
 156  1109.293
 157  1118.584
 158  1268.417
 159  1377.279
 160  1370.717
 161  1331.552
 162  1360.024
 163  1432.782
 164  1432.341
 165  1412.19
 166  1384.905
 167  1276.041
 168  1281.786
 169  1381.39
 170  1437.442
 171  1378.068
 172  1248.534
 173  1338.082
 174  1354.488
 175  1405.477
 176  1350.009
 177  1354.568
 178  1329.094
 179  1332.575
 180  1252.649
 181  1258.227
 182  1277.013
 183  1315.11
 184  1346.412
 185  1327.656
 186  1399.497
 187  1348.714
 188  1479.431
 189  1442.834
 190  1412.507
 191  1275.772
 192  1231.284
 193  1246.81
 194  1317.257
 195  1334.391
 196  1237.966
 197  1060.259
 198  997.4836
 199  1040.622
 200  1089.428
 201  1221.207
 202  1168.749
 203  1308.172
 204  1285.415
 205  1298.964
 206  1088.105
 207  1028.805
 208  1038.549
 209  1202.126
 210  1152.908
 211  1143.032
 212  1093.429
 213  1114.844
 214  1086.809
 215  1078.805
 216  1144.788
 217  1067.21
 218  1013.858
 219  925.6848
 220  942.1899
 221  899.6767
 222  995.8544
 223  1149.753
 224  1217.923
 225  1211.556
 226  1314.372
 227  1315.932
 228  1167.117
 229  897.5319
 230  900.3471
 231  936.7043
 232  939.84
 233  1016.018
 234  1147.364
 235  1202.271
 236  1184.334
 237  1200.211
 238  1209.141
 239  1263.126
 240  1340.294
 241  1408.753
 242  1366.729
 243  1226.258
 244  1208.759
 245  1109.243
 246  1102.521
 247  1051.951
 248  1178.532
 249  1288.335
 250  1309.436
 251  1279.841
 252  1137.478
 253  1171.28
 254  1183.342
 255  1177.608
 256  1170.269
 257  1243.624
 258  1282.721
 259  1199.494
 260  1087.562
 261  1164.5
 262  1192.145
 263  1144.756
 264  1081.774
 265  1052.742
 266  1132.311
 267  1157.76
 268  1186.762
 269  1060.382
 270  999.4588
 271  1074.33
 272  1221.148
 273  1245.509
 274  1192.488
 275  1162.776
 276  1218.278
 277  1261.453
 278  1298.034
 279  1158.755
 280  1066.333
 281  1007.851
 282  953.6137
 283  999.369
 284  1173.299
 285  1265.064
 286  1144.269
 287  1114.436
 288  1096.204
 289  1111.365
 290  1048.37
 291  1112.759
 292  1137.87
 293  1093.24
 294  1067.45
 295  1178.692
 296  1203.85
 297  1264.664
 298  1171.39
 299  1181.998
 300  1093.079
 301  1185.718
 302  1186.058
 303  1106.552
 304  1059.667
 305  1176.067
 306  1258.372
 307  1264.584
 308  1215.429
 309  1212.071
 310  1179.412
 311  1121.444
 312  1233.404
 313  1320.971
 314  1336.94
 315  1302.65
 316  1319.892
 317  1423.405
 318  1384.335
 319  1296.606
 320  1223.217
 321  1298.507
 322  1372.768
 323  1409.937
 324  1313.79
 325  1369.448
 326  1375.409
 327  1401.066
 328  1324.563
 329  1299.739
 330  1323.538
 331  1310.751
 332  1365.95
 333  1379.8
 334  1437.595
 335  1347.732
 336  1288.017
 337  1352.393
 338  1405.206
 339  1530.792
 340  1532.313
 341  1496.448
 342  1469.237
 343  1501.543
 344  1538.478
 345  1448.11
 346  1298.057
 347  1223.967
 348  1195.537
 349  1274.295
 350  1249.606
 351  1273.958
 352  1257.67
 353  1253.615
 354  1222.873
 355  1249.939
 356  1274.212
 357  1300.538
 358  1306.385
 359  1347.334
 360  1376.827
 361  1382.325
 362  1353.64
 363  1294.044
 364  1355.411
 365  1350.918
 366  1369.681
 367  1281.161
 368  1236.598
 369  1069.604
 370  1024.781
 371  1044.162
 372  1196
 373  1221.096
 374  1161.163
 375  1249.342
 376  1261.213
 377  1275.172
 378  1112.516
 379  1107.032
 380  1157
 381  1143.418
 382  1010.251
 383  1078.536
 384  1095.432
 385  1089.243
 386  953.2379
 387  1059.088
 388  1172.868
 389  1215.74
 390  1186.44
 391  1088.824
 392  1051.326
 393  1019.589
 394  1039.931
 395  1096.819
 396  1180.873
 397  1252
 398  1108.674
 399  1202.667
 400  1233.249
 401  1384.169
 402  1339.335
 403  1350.876
 404  1399.835
 405  1302.915
 406  1342.588
 407  1279.328
 408  1247.544
 409  1212.909
 410  1273.568
 411  1346.497
 412  1300.181
 413  1234.091
 414  1220.421
 415  1433.463
 416  1622.461
 417  1721.563
 418  1710.554
 419  1714.138
 420  1670.126
 421  1573.203
 422  1480.464
 423  1547.768
 424  1511.678
 425  1411.131
 426  1375.006
 427  1340.107
 428  1294.322
 429  1193.464
 430  1271.273
 431  1341.904
 432  1394.733
 433  1450.491
 434  1410.841
 435  1353.979
 436  1186.051
 437  1157.172
 438  1223.804
 439  1238.266
 440  1187.316
 441  1134.249
 442  1143.155
 443  1234.177
 444  1243.744
 445  1235.805
 446  1135.36
 447  978.8553
 448  1004.832
 449  1024.641
 450  1151.319
 451  1123.897
 452  1238.707
 453  1359.192
 454  1360.496
 455  1322.412
 456  1179.795
 457  1217.519
 458  1123.867
 459  1113.499
 460  1043.604
 461  1049.097
 462  973.0143
 463  948.8001
 464  957.5685
 465  1071.195
 466  1085.202
 467  1139.647
 468  1078.902
 469  1125.5
 470  1141.102
 471  1167.213
 472  1158.372
 473  1199.141
 474  1239.183
 475  1300.472
 476  1265.896
 477  1276.635
 478  1282.292
 479  1212.836
 480  1169.77
 481  1095.434
 482  1060.248
 483  1104.171
 484  1146.721
 485  1207.65
 486  1158.108
 487  1212.095
 488  1201.681
 489  1186.246
 490  1122.88
 491  1112.343
 492  1154.156
 493  1163.651
 494  1190.933
 495  1256.117
 496  1294.784
 497  1374.125
 498  1327.811
 499  1357.874
 500  1280.386
 501  1296.848
 502  1226.176
 503  1184.549
 504  1142.129
 505  1237.199
 506  1337.985
 507  1430.514
 508  1292.567
 509  1223.295
 510  1174.79
 511  1234.336
 512  1261.959
 513  1192.128
 514  1282.646
 515  1228.369
 516  1338.796
 517  1157.156
 518  1118.72
 519  1102.452
 520  1261.179
 521  1398.271
 522  1400.065
 523  1362.882
 524  1266.253
 525  1250.067
 526  1328.174
 527  1241.728
 528  1151.584
 529  1034.467
 530  971.8403
 531  946.9003
 532  914.6627
 533  934.8857
 534  815.9554
 535  784.0702
 536  887.8859
 537  1025.917
 538  1085.136
 539  1068.683
 540  1120.402
 541  1052.604
 542  962.338
 543  874.2765
 544  953.7769
 545  1013.578
 546  1006.519
 547  977.2518
 548  1038.775
 549  1054.027
 550  1031.811
 551  910.6965
 552  896.219
 553  964.7849
 554  935.8127
 555  958.8944
 556  929.2815
 557  1030.841
 558  1044.846
 559  1088.975
 560  1096.657
 561  1038.762
 562  915.4755
 563  842.6429
 564  951.632
 565  1036.975
 566  1016.932
 567  1031.12
 568  1048.319
 569  1044.066
 570  960.8938
 571  919.044
 572  912.1365
 573  963.3439
 574  955.8994
 575  968.6198
 576  1065.471
 577  1183.081
 578  1297.981
 579  1335.443
 580  1278.56
 581  1238.075
 582  1203.59
 583  1220.309
 584  1156.033
 585  1131.737
 586  1191.659
 587  1312.78
 588  1334.942
 589  1297.179
 590  1236.171
 591  1267.898
 592  1253.285
 593  1303.059
 594  1343.501
 595  1302.648
 596  1163.363
 597  1050.957
 598  1044.479
 599  1179.969
 600  1284.92
 601  1323.743
 602  1233.844
 603  1177.181
 604  1133.912
 605  1167.849
 606  1153.11
 607  1132.558
 608  990.5979
 609  1067.972
 610  1183.661
 611  1237.754
 612  1215.747
 613  1222.76
 614  1299.271
 615  1277.354
 616  1187.203
 617  1110.483
 618  1064.008
 619  1148.076
 620  1178.97
 621  1196.627
 622  1060.008
 623  1054.788
 624  1082.044
 625  1104.01
 626  1142.166
 627  1125.67
 628  1133.779
 629  1099.144
 630  1108.913
 631  1005.826
 632  964.3239
 633  906.7864
 634  1048.231
 635  1048.653
 636  1062.918
 637  1002.9
 638  988.6885
 639  1078.577
 640  1058.983
 641  980.5507
 642  966.1279
 643  1055.127
 644  1150.53
 645  1136.947
 646  1245.823
 647  1297.147
 648  1401.907
 649  1418.989
 650  1588.742
 651  1681.363
 652  1942.259
 653  1974.009
 654  1985.315
 655  1821.537
 656  1821.518
 657  1744.556
 658  1755.613
 659  1766.255
 660  1619.399
 661  1399.501
 662  1117.877
 663  1025.009
 664  1040.701
 665  1179.751
 666  1200.41
 667  1214.009
 668  1144.323
 669  1192.286
 670  1152.351
 671  1133.336
 672  1188.198
 673  1138.42
 674  1348.883
 675  1369.174
 676  1458.914
 677  1361.413
 678  1395.348
 679  1323.026
 680  1270.679
 681  1298.237
 682  1533.952
 683  1551.32
 684  1495.348
 685  1404.478
 686  1425.794
 687  1359.159
 688  1329.229
 689  1256.254
 690  1311.859
 691  1193.779
 692  1209.618
 693  1206.878
 694  1218.636
 695  1182.515
 696  1143.125
 697  1186.05
 698  1260.745
 699  1356.853
 700  1411.224
 701  1320.547
 702  1181.149
 703  1101.943
 704  1107.419
 705  1112.455
 706  1064.741
 707  1117.957
 708  1201.861
 709  1196.402
 710  1030.353
 711  1041.654
 712  1072.779
 713  1215.377
 714  1262.609
 715  1212.421
 716  1042.954
 717  905.7661
 718  880.6271
 719  940.5713
 720  1041.965
 721  1097.752
 722  1098.435
 723  1013.761
 724  1073.173
 725  1125.209
 726  1137.237
 727  1107.303
 728  1089.018
 729  1136.676
 730  1091.664
 731  1090.43
 732  1061.725
 733  1185.274
 734  1231.402
 735  1298.164
 736  1135.959
 737  1104.196
 738  1132.265
 739  1105.512
 740  1070.365
 741  1026.294
 742  1040.401
 743  1064.759
 744  1117.762
 745  1203.903
 746  1207.328
 747  1183.554
 748  1154.081
 749  1214.143
 750  1273.605
 751  1316.848
 752  1244.242
 753  1249.495
 754  1231.12
 755  1270.359
 756  1153.187
 757  1212.349
 758  1267.925
 759  1386.819
 760  1342.36
 761  1471.897
 762  1488.308
 763  1429.071
 764  1189.368
 765  1136.176
 766  1209.744
 767  1274.591
 768  1169.108
 769  1135.336
 770  1207.206
 771  1219.788
 772  1139.001
 773  1090.219
 774  1088.692
 775  1090.103
 776  1093.621
 777  1170.618
 778  1153.939
 779  1193.906
 780  1226.979
 781  1330.339
 782  1326.829
 783  1282.549
 784  1092.878
 785  1002.491
 786  1126.61
 787  1252.542
 788  1276.183
 789  1152.238
 790  1148.365
 791  1082.209
 792  1129.711
 793  1097.625
 794  1165.968
 795  1181.888
 796  1160.431
 797  1180.494
 798  1223.995
 799  1324.545
 800  1308.967
 801  1263.508
 802  1201.567
 803  1099.565
 804  1076.481
 805  1081.62
 806  1234.765
 807  1137.874
 808  1058.207
 809  1036.566
 810  1135.078
 811  1129.464
 812  984.4713
 813  1051.843
 814  1099.59
 815  1160.347
 816  1073.541
 817  1071.733
 818  1006.323
 819  1109
 820  1078.049
 821  1097.707
 822  1046.061
 823  1112.272
 824  1159.61
 825  1149.161
 826  1186.884
 827  1173.699
 828  1145.434
 829  1077.985
 830  1056.078
 831  1063.713
 832  1105.156
 833  1097.44
 834  1111.343
 835  1077.626
 836  1074.003
 837  1047.977
 838  1053
 839  1121.492
 840  1143.394
 841  1318.541
 842  1417.931
 843  1408.873
 844  1293.372
 845  1295.497
 846  1359.702
 847  1285.64
 848  1273.528
 849  1308.61
 850  1306.006
 851  1169.071
 852  1258.851
 853  1386.836
 854  1468.155
 855  1388.853
 856  1373.168
 857  1304.671
 858  1340.524
 859  1315.197
 860  1288.399
 861  1273.46
 862  1283.85
 863  1334.229
 864  1344.54
 865  1353.543
 866  1306.684
 867  1214.981
 868  1214.762
 869  1047.155
 870  981.7529
 871  997.5048
 872  1069.027
 873  1048.666
 874  1049.94
 875  999.2354
 876  1035.92
 877  942.0726
 878  992.2628
 879  1036.91
 880  1175.198
 881  1125.975
 882  1074.712
 883  1079.261
 884  1175.497
 885  1235.972
 886  1200.006
 887  1194.026
 888  1210.695
 889  1393.269
 890  1356.649
 891  1290.359
 892  1239.428
 893  1309.453
 894  1277.416
 895  1232.749
 896  1274.023
 897  1280.986
 898  1273.895
 899  1245.884
 900  1286.545
 901  1167.389
 902  1108.425
 903  1021.76
 904  1086.704
 905  1047.447
 906  1106.862
 907  1032.29
 908  1028.161
 909  982.7369
 910  1003.109
 911  1032.599
 912  982.9652
 913  1075.097
 914  1155.934
 915  1228.13
 916  1202.809
 917  1144.128
 918  1150.449
 919  1117.658
 920  1188.545
 921  1272.26
 922  1330.709
 923  1391.089
 924  1332.932
 925  1331.15
 926  1303.726
 927  1317.116
 928  1269.397
 929  1228.063
 930  1284.871
 931  1302.644
 932  1393.488
 933  1356.104
 934  1363.351
 935  1296.059
 936  1345.63
 937  1242.29
 938  1203.65
 939  1127.585
 940  1146.878
 941  1222.564
 942  1309.071
 943  1374.348
 944  1372.849
 945  1294.766
 946  1398.732
 947  1396.984
 948  1368.923
 949  1188.499
 950  1168.871
 951  1165.795
 952  1272.886
 953  1223.955
 954  1279.008
 955  1207.053
 956  1231.299
 957  1300.199
 958  1383.633
 959  1314.173
 960  1303.852
 961  1330.873
 962  1418.387
 963  1408.91
 964  1356.142
 965  1294.202
 966  1305.41
 967  1327.834
 968  1377.702
 969  1323.591
 970  1178.011
 971  1122.041
 972  1127.368
 973  1242.653
 974  1242.015
 975  1114.792
 976  1035.69
 977  1036.033
 978  1068.716
 979  1133.901
 980  1049.418
 981  1016.737
 982  978.493
 983  1057.356
 984  1045.543
 985  1080.784
 986  1216.914
 987  1304.751
 988  1218.91
 989  1055.264
 990  1103.742
 991  1193.879
 992  1176.516
 993  1063.997
 994  1064.289
 995  1151.099
 996  1228.778
 997  1229.038
 998  1154.4
 999  1156.292
1000  1227.001
1001  1304.954
1002  1260.34
1003  1153.56
1004  1224.224
1005  1238.932
1006  1276.903
1007  1242.835
1008  1234.816
1009  1174.426
1010  1078.196
1011  1220.471
1012  1343.907
1013  1498.492
1014  1406.257
1015  1387.991
1016  1390.15
1017  1373.872
1018  1396.122
1019  1481.929
1020  1570.513
1021  1477.317
1022  1358.286
1023  1254.025
