# Input file       =  1182243875.12681_cleaned.dat
# Candidate        =  PSR_0332+5434
# Telescope        =  AR
# Epoch_topo       =  57927.378404245486
# Epoch_bary       =  N/A
# T_sample         =  0.002
# Data Folded      =  7340032
# Data Avg         =  0.0512280115635396
# Data StdDev      =  1.00013269412147 
# Profile Bins     =  512
# Profile Avg      =  734.398022700391 
# Profile StdDev   =  119.748924246839 
# Reduced chi-sqr  =  0.919
# Prob(Noise)      <  0.904   (~0.0 sigma)
# P_topo (ms)      =  714.495908519743  +/- 0.000144
# P'_topo (s/s)    =  -0                +/- 7.6e-11
# P''_topo (s/s^2) =  0                 +/- 3.36e-14
# P_bary (ms)      =  N/A
# P'_bary (s/s)    =  N/A
# P''_bary (s/s^2) =  N/A
# P_orb (s)        =  N/A
# asin(i)/c (s)    =  N/A
# eccentricity     =  N/A
# w (rad)          =  N/A
# T_peri           =  N/A
######################################################
   0  718.7274
   1  666.5898
   2  677.9564
   3  734.3788
   4  741.6832
   5  714.2134
   6  705.5291
   7  720.1147
   8  761.6002
   9  682.3831
  10  672.1332
  11  686.4534
  12  619.2111
  13  661.8701
  14  779.0849
  15  774.3542
  16  681.6368
  17  660.9496
  18  703.7313
  19  664.7361
  20  610.3638
  21  749.8809
  22  754.9067
  23  696.0779
  24  755.9071
  25  797.9973
  26  945.2
  27  900.4106
  28  759.9998
  29  781.9572
  30  792.1406
  31  838.0056
  32  832.1881
  33  809.1085
  34  712.9484
  35  821.9025
  36  879.625
  37  794.9368
  38  720.7609
  39  733.5739
  40  676.721
  41  699.5242
  42  710.1795
  43  698.2867
  44  592.8793
  45  713.4121
  46  789.9074
  47  707.7401
  48  653.0504
  49  645.5768
  50  709.9677
  51  797.8362
  52  767.6327
  53  710.0605
  54  650.3205
  55  757.7782
  56  759.914
  57  762.4164
  58  721.0807
  59  693.017
  60  703.3035
  61  770.8842
  62  758.3808
  63  786.9579
  64  750.7807
  65  769.812
  66  719.3376
  67  780.2429
  68  756.8706
  69  802.3301
  70  811.7059
  71  831.9985
  72  802.2972
  73  800.891
  74  907.0612
  75  911.9154
  76  927.8834
  77  890.5867
  78  803.3585
  79  873.7683
  80  876.9661
  81  895.3854
  82  941.4289
  83  987.65
  84  919.9443
  85  851.3375
  86  964.1531
  87  870.1519
  88  745.3171
  89  853.2753
  90  893.1923
  91  849.3025
  92  885.6584
  93  809.9915
  94  776.125
  95  751.7386
  96  815.6944
  97  815.0262
  98  828.4619
  99  834.103
 100  863.6769
 101  761.9134
 102  683.2539
 103  757.837
 104  802.8549
 105  826.8238
 106  765.0326
 107  774.9587
 108  819.6169
 109  850.267
 110  822.7078
 111  808.0844
 112  857.991
 113  843.3215
 114  846.2518
 115  832.6127
 116  789.7902
 117  792.8005
 118  702.5831
 119  703.0258
 120  724.3397
 121  781.9107
 122  689.6759
 123  731.7607
 124  696.2508
 125  714.8215
 126  666.3995
 127  634.1822
 128  683.1443
 129  682.5435
 130  617.032
 131  616.298
 132  631.5327
 133  693.707
 134  682.1539
 135  610.8551
 136  588.1409
 137  673.171
 138  723.709
 139  582.7017
 140  588.7711
 141  538.6621
 142  546.91
 143  627.6151
 144  703.3814
 145  827.7531
 146  680.707
 147  656.7557
 148  706.1911
 149  788.2582
 150  731.7798
 151  670.1868
 152  543.6619
 153  632.7828
 154  659.8965
 155  641.0994
 156  693.6887
 157  725.6797
 158  765.2961
 159  686.4891
 160  766.8731
 161  755.2129
 162  769.8984
 163  755.2465
 164  700.2959
 165  730.5487
 166  840.2827
 167  785.2739
 168  744.6702
 169  748.5264
 170  749.5579
 171  711.4845
 172  630.1161
 173  711.5187
 174  885.121
 175  993.9828
 176  1082.452
 177  1119.373
 178  1102.097
 179  975.3076
 180  861.5355
 181  919.991
 182  811.6116
 183  672.9869
 184  692.763
 185  799.9694
 186  838.5157
 187  822.5
 188  803.9069
 189  854.4914
 190  789.8195
 191  828.8666
 192  765.8561
 193  650.318
 194  823.9239
 195  850.8317
 196  776.7816
 197  790.6264
 198  787.0215
 199  833.0237
 200  733.9048
 201  654.4309
 202  711.9937
 203  697.0142
 204  685.7092
 205  809.1814
 206  740.9507
 207  758.4678
 208  753.3785
 209  735.8955
 210  650.3773
 211  598.4363
 212  711.8939
 213  713.7061
 214  732.772
 215  702.1041
 216  631.1923
 217  624.8435
 218  669.1286
 219  672.84
 220  746.6339
 221  721.5145
 222  678.6074
 223  648.3337
 224  655.6824
 225  602.0048
 226  678.5
 227  721.0289
 228  740.2657
 229  700.3754
 230  708.5728
 231  696.0193
 232  633.8112
 233  709.1848
 234  715.8223
 235  704.2089
 236  675.8337
 237  738.8214
 238  783.9711
 239  810.0874
 240  696.929
 241  669.1646
 242  762.1686
 243  830.7082
 244  747.3366
 245  720.0914
 246  712.1562
 247  684.3473
 248  712.4913
 249  613.834
 250  614.9975
 251  619.6789
 252  623.903
 253  601.7531
 254  696.4498
 255  578.7108
 256  578.8168
 257  640.5814
 258  695.8431
 259  644.071
 260  579.9171
 261  627.7683
 262  775.2151
 263  784.8823
 264  670.0623
 265  632.5598
 266  690.2155
 267  686.4724
 268  627.2378
 269  664.3405
 270  736.5713
 271  728.168
 272  781.3774
 273  732.6585
 274  619.2985
 275  723.3257
 276  686.6689
 277  690.4012
 278  740.6865
 279  740.8427
 280  781.1204
 281  797.1111
 282  715.244
 283  705.8849
 284  700.5593
 285  733.473
 286  717.0285
 287  689.3026
 288  746.0447
 289  679.2166
 290  616.1532
 291  691.5925
 292  764.549
 293  746.4229
 294  710.4047
 295  716.3865
 296  666.2281
 297  636.1508
 298  604.7418
 299  731.4841
 300  806.719
 301  793.2983
 302  674.5885
 303  671.0758
 304  607.6234
 305  655.1982
 306  751.9479
 307  655.1797
 308  653.5571
 309  672.5338
 310  672.5132
 311  650.8857
 312  546.0197
 313  621.5445
 314  664.6599
 315  631.0518
 316  730.2145
 317  708.1036
 318  769.6652
 319  838.0717
 320  884.0012
 321  755.6958
 322  654.5802
 323  781.2881
 324  750.9724
 325  822.5488
 326  819.4975
 327  781.8608
 328  817.7095
 329  775.5913
 330  780.6251
 331  828.069
 332  857.8909
 333  750.7952
 334  679.1736
 335  726.8344
 336  760.9808
 337  755.2148
 338  734.2309
 339  783.0733
 340  791.9275
 341  796.193
 342  897.5739
 343  905.4955
 344  732.9267
 345  707.3117
 346  841.9107
 347  779.1384
 348  808.1376
 349  826.4924
 350  815.5424
 351  752.0454
 352  672.4808
 353  743.443
 354  751.1485
 355  660.0095
 356  695.9414
 357  704.2391
 358  685.4836
 359  699.8829
 360  614.5228
 361  662.0475
 362  741.0122
 363  766.6716
 364  667.0565
 365  605.9042
 366  733.4653
 367  708.251
 368  641.7133
 369  748.7634
 370  830.4289
 371  759.5186
 372  771.9117
 373  713.3411
 374  761.5909
 375  726.6174
 376  707.1609
 377  792.8102
 378  667.2616
 379  653.6476
 380  647.3984
 381  739.0732
 382  776.4993
 383  746.0282
 384  723.6563
 385  717.3311
 386  673.1221
 387  636.4624
 388  684.5161
 389  711.8432
 390  775.2529
 391  771.9717
 392  807.46
 393  724.4999
 394  681.7277
 395  788.067
 396  710.2208
 397  729.1849
 398  642.3154
 399  700.9848
 400  741.1373
 401  691.1221
 402  689.0737
 403  644.5185
 404  757.4221
 405  821.3369
 406  769.4203
 407  695.3549
 408  551.3076
 409  647.8459
 410  708.9081
 411  577.066
 412  591.6202
 413  674.8055
 414  738.9224
 415  686.1927
 416  709.0731
 417  714.2269
 418  597.2635
 419  565.918
 420  734.6641
 421  719.665
 422  723.9311
 423  715.3972
 424  723.4183
 425  685.4474
 426  690.3007
 427  697.7742
 428  729.7572
 429  774.6198
 430  694.6431
 431  775.9967
 432  847.8083
 433  939.0263
 434  848.8135
 435  744.5125
 436  726.7317
 437  805.2469
 438  873.6913
 439  818.6679
 440  742.1704
 441  716.9373
 442  736.3083
 443  719.5085
 444  810.048
 445  843.6008
 446  813.2854
 447  667.5816
 448  727.1787
 449  800.171
 450  696.819
 451  707.2968
 452  791.0372
 453  825.7603
 454  760.902
 455  713.6276
 456  664.8945
 457  760.4216
 458  839.2506
 459  711.1609
 460  722.4144
 461  665.9675
 462  724.8799
 463  705.0472
 464  548.92
 465  616.1889
 466  663.1612
 467  709.4343
 468  682.4086
 469  688.863
 470  669.1528
 471  676.4371
 472  606.0876
 473  647.2043
 474  605.6462
 475  566.8329
 476  681.1551
 477  768.0213
 478  793.5724
 479  687.3241
 480  689.3902
 481  737.2366
 482  809.4673
 483  695.9268
 484  653.3015
 485  747.7814
 486  860.8786
 487  819.5466
 488  706.2213
 489  711.0927
 490  771.8283
 491  724.3485
 492  672.6797
 493  714.4961
 494  673.4067
 495  651.7107
 496  631.6495
 497  746.812
 498  765.5488
 499  681.7599
 500  676.9642
 501  693.2321
 502  797.9195
 503  797.9677
 504  732.4927
 505  745.8
 506  801.0807
 507  775.66
 508  716.2952
 509  685.4582
 510  763.3995
 511  731.8046
