# Input file       =  1182577136.109246_cleaned.dat
# Candidate        =  PSR_0332+5434
# Telescope        =  AR
# Epoch_topo       =  57931.235591542201
# Epoch_bary       =  N/A
# T_sample         =  0.002
# Data Folded      =  7340032
# Data Avg         =  0.0741595080876971
# Data StdDev      =  2.60229924733563 
# Profile Bins     =  1024
# Profile Avg      =  531.426836059261 
# Profile StdDev   =  220.32117265346  
# Reduced chi-sqr  =  1.056
# Prob(Noise)      <  0.106   (~1.3 sigma)
# P_topo (ms)      =  714.492341557464  +/- 0.000253
# P'_topo (s/s)    =  -0                +/- 1.34e-10
# P''_topo (s/s^2) =  0                 +/- 5.9e-14
# P_bary (ms)      =  N/A
# P'_bary (s/s)    =  N/A
# P''_bary (s/s^2) =  N/A
# P_orb (s)        =  N/A
# asin(i)/c (s)    =  N/A
# eccentricity     =  N/A
# w (rad)          =  N/A
# T_peri           =  N/A
######################################################
   0  554.3326
   1  514.483
   2  454.4775
   3  437.0588
   4  510.3963
   5  567.8954
   6  599.2512
   7  610.9311
   8  560.7768
   9  481.2279
  10  522.3528
  11  580.0687
  12  610.8158
  13  482.7915
  14  354.5534
  15  356.5798
  16  358.356
  17  355.9672
  18  337.3554
  19  386.722
  20  368.2386
  21  381.7388
  22  438.5617
  23  481.073
  24  457.265
  25  412.829
  26  372.6368
  27  401.1644
  28  395.2368
  29  377.4841
  30  410.4933
  31  415.067
  32  405.341
  33  408.246
  34  387.6348
  35  316.6585
  36  379.3218
  37  520.9177
  38  678.9702
  39  635.2065
  40  627.1933
  41  621.4439
  42  570.0765
  43  541.0237
  44  503.9727
  45  570.1882
  46  528.6267
  47  543.6297
  48  562.3832
  49  581.2242
  50  505.3945
  51  472.4403
  52  542.7239
  53  662.731
  54  577.3817
  55  533.0542
  56  598.1371
  57  739.4843
  58  742.4279
  59  637.9395
  60  653.2897
  61  568.8751
  62  518.2856
  63  495.4888
  64  527.3916
  65  641.3761
  66  609.1104
  67  627.958
  68  453.3558
  69  351.1039
  70  342.8242
  71  448.9737
  72  491.4769
  73  487.0442
  74  460.9398
  75  432.761
  76  395.0037
  77  372.945
  78  385.1877
  79  403.554
  80  398.3708
  81  410.1538
  82  452.059
  83  462.1769
  84  516.3079
  85  459.2264
  86  447.6469
  87  432.093
  88  539.9888
  89  567.8157
  90  647.2833
  91  629.1616
  92  734.4418
  93  686.9105
  94  594.7944
  95  571.3176
  96  597.2892
  97  556.2112
  98  527.7691
  99  406.611
 100  389.5247
 101  357.1074
 102  408.6887
 103  337.7858
 104  331.4954
 105  409.4204
 106  491.8143
 107  443.4122
 108  453.4566
 109  456.9724
 110  477.4207
 111  524.1873
 112  559.6404
 113  691.9875
 114  652.9319
 115  736.8716
 116  704.3165
 117  648.4498
 118  526.1078
 119  466.268
 120  415.543
 121  395.9408
 122  391.4074
 123  453.5936
 124  538.0644
 125  643.3434
 126  673.6417
 127  705.3095
 128  741.1937
 129  776.4695
 130  709.6103
 131  648.9407
 132  541.6605
 133  495.224
 134  490.9892
 135  558.1976
 136  564.6268
 137  619.7484
 138  649.0854
 139  604.2685
 140  429.6398
 141  444.3611
 142  508.9574
 143  710.4926
 144  653.157
 145  565.8837
 146  493.9087
 147  446.91
 148  377.9455
 149  337.8337
 150  330.9188
 151  402.199
 152  419.6867
 153  488.8116
 154  555.8755
 155  484.534
 156  477.912
 157  493.8715
 158  573.5497
 159  567.7175
 160  532.166
 161  472.6912
 162  482.401
 163  419.1053
 164  355.3129
 165  351.0113
 166  352.9808
 167  370.9133
 168  375.6219
 169  449.8073
 170  635.7105
 171  616.3572
 172  571.6924
 173  459.0103
 174  462.6295
 175  401.9985
 176  378.1831
 177  298.9972
 178  339.4632
 179  439.7294
 180  602.2978
 181  580.429
 182  473.3435
 183  437.9358
 184  488.6506
 185  463.9731
 186  443.6828
 187  428.3266
 188  400.4868
 189  500.0933
 190  629.6979
 191  739.3982
 192  626.7986
 193  485.6892
 194  425.4072
 195  495.9835
 196  566.3361
 197  587.7495
 198  573.7977
 199  493.226
 200  501.0291
 201  505.6965
 202  555.1089
 203  471.9354
 204  365.4121
 205  303.4605
 206  306.7
 207  383.5655
 208  438.6398
 209  548.7686
 210  660.8618
 211  593.9895
 212  466.8955
 213  285.6928
 214  247.6599
 215  217.0624
 216  357.8289
 217  413.9892
 218  444.1544
 219  469.7079
 220  538.9175
 221  501.7507
 222  461.5104
 223  465.7153
 224  509.5157
 225  474.2665
 226  529.4795
 227  576.8212
 228  503.0867
 229  468.7525
 230  541.9545
 231  595.6173
 232  502.9585
 233  477.2799
 234  605.2349
 235  611.3408
 236  526.1049
 237  461.1989
 238  513.6839
 239  453.1674
 240  432.3149
 241  367.3406
 242  458.7042
 243  444.1128
 244  516.2592
 245  530.0302
 246  524.6314
 247  539.5899
 248  532.47
 249  502.8075
 250  499.4909
 251  492.1545
 252  523.1981
 253  410.6861
 254  438.1138
 255  464.2803
 256  536.2848
 257  556.554
 258  534.148
 259  563.9734
 260  466.7912
 261  501.5299
 262  504.2735
 263  472.9897
 264  253.103
 265  291.4444
 266  382.6823
 267  569.8685
 268  504.6107
 269  456.643
 270  482.4556
 271  596.4333
 272  752.488
 273  747.3059
 274  648.8624
 275  504.5991
 276  453.9813
 277  490.7231
 278  444.578
 279  323.7454
 280  316.0265
 281  374.8709
 282  395.4966
 283  433.4755
 284  453.9349
 285  518.094
 286  532.933
 287  606.5532
 288  593.5632
 289  571.596
 290  556.1797
 291  559.4918
 292  551.9193
 293  479.4365
 294  487.639
 295  530.5394
 296  632.1622
 297  648.4253
 298  604.3405
 299  615.1696
 300  678.2988
 301  714.3932
 302  671.1116
 303  612.4766
 304  653.5782
 305  721.5818
 306  659.3651
 307  554.7903
 308  488.6743
 309  506.4422
 310  592.0624
 311  589.9465
 312  637.455
 313  584.4836
 314  637.9216
 315  709.6385
 316  676.4652
 317  538.0641
 318  487.7064
 319  498.1915
 320  596.3089
 321  586.5574
 322  542.2007
 323  576.6078
 324  639.9463
 325  722.5857
 326  668.4337
 327  618.8093
 328  518.4069
 329  498.2295
 330  507.1503
 331  566.5984
 332  641.8446
 333  770.6541
 334  735.5741
 335  743.9004
 336  727.1221
 337  756.5928
 338  673.5345
 339  621.2825
 340  612.7786
 341  614.4982
 342  580.5076
 343  479.5858
 344  467.1772
 345  505.1284
 346  520.3824
 347  512.2548
 348  485.0944
 349  517.9893
 350  491.1214
 351  459.472
 352  527.2601
 353  574.186
 354  523.484
 355  387.295
 356  425.8888
 357  419.7523
 358  450.2204
 359  397.6537
 360  381.0999
 361  424.4048
 362  386.686
 363  451.3387
 364  412.1272
 365  423.0957
 366  310.5347
 367  292.6002
 368  326.9418
 369  343.3742
 370  368.2738
 371  374.7955
 372  373.5421
 373  266.2792
 374  299.9187
 375  367.788
 376  414.3161
 377  480.9162
 378  465.5699
 379  413.1053
 380  413.048
 381  522.6453
 382  579.8439
 383  548.5587
 384  456.6534
 385  528.2046
 386  484.6198
 387  485.5556
 388  491.5138
 389  535.4401
 390  548.4052
 391  436.3903
 392  362.7214
 393  305.9847
 394  336.7458
 395  328.8204
 396  272.7429
 397  253.2446
 398  401.8891
 399  493.8308
 400  515.629
 401  483.3717
 402  472.496
 403  506.884
 404  504.697
 405  475.8603
 406  467.68
 407  462.8579
 408  435.3291
 409  487.9443
 410  395.2823
 411  287.8715
 412  305.4421
 413  456.6815
 414  619.2358
 415  508.9599
 416  458.0631
 417  474.9016
 418  558.0736
 419  574.012
 420  559.3331
 421  498.4279
 422  600.9124
 423  680.1877
 424  749.694
 425  694.6938
 426  735.6121
 427  698.3022
 428  609.3613
 429  461.2376
 430  374.001
 431  395.487
 432  491.3542
 433  607.2915
 434  600.2985
 435  532.3489
 436  574.8917
 437  554.494
 438  606.4295
 439  501.2957
 440  608.699
 441  632.7505
 442  634.4323
 443  540.6409
 444  448.2376
 445  420.1583
 446  456.5952
 447  582.3658
 448  565.6105
 449  487.3388
 450  435.7701
 451  405.548
 452  428.4312
 453  416.0328
 454  463.8601
 455  522.7546
 456  572.5562
 457  596.9037
 458  556.1437
 459  491.585
 460  504.7638
 461  525.1569
 462  490.5512
 463  475.7026
 464  458.2691
 465  503.109
 466  577.5034
 467  625.2559
 468  633.5862
 469  661.1582
 470  637.0026
 471  604.7806
 472  525.5972
 473  582.2484
 474  581.7154
 475  547.7064
 476  467.8102
 477  535.9253
 478  480.0969
 479  524.9
 480  505.0546
 481  502.8302
 482  417.402
 483  473.0706
 484  651.6256
 485  729.0336
 486  677.6196
 487  552.1332
 488  469.953
 489  452.0192
 490  568.3464
 491  639.6122
 492  640.037
 493  530.3251
 494  516.0282
 495  455.1328
 496  483.1804
 497  499.456
 498  448.6036
 499  352.0681
 500  255.4886
 501  314.458
 502  293.3798
 503  305.5897
 504  422.6187
 505  512.5535
 506  572.8627
 507  609.3605
 508  617.939
 509  641.8449
 510  613.0966
 511  585.0866
 512  488.9935
 513  439.7434
 514  510.8452
 515  649.9072
 516  688.4893
 517  553.2502
 518  482.1278
 519  477.9072
 520  451.9952
 521  395.0339
 522  410.9872
 523  560.2463
 524  575.2452
 525  570.7511
 526  467.5955
 527  396.9388
 528  337.1541
 529  388.0581
 530  478.6923
 531  505.5276
 532  463.491
 533  474.551
 534  584.5887
 535  660.1815
 536  514.0627
 537  462.2934
 538  472.7616
 539  577.4996
 540  581.3951
 541  575.3043
 542  513.095
 543  397.4504
 544  428.2604
 545  531.5798
 546  610.57
 547  524.6523
 548  423.5793
 549  430.3996
 550  451.5098
 551  437.134
 552  507.7618
 553  551.655
 554  582.8589
 555  573.567
 556  649.683
 557  766.3837
 558  673.6252
 559  631.8472
 560  573.5378
 561  513.6592
 562  509.0769
 563  472.7244
 564  638.7737
 565  583.5934
 566  505.2341
 567  409.0368
 568  495.6305
 569  513.8665
 570  510.1992
 571  461.8104
 572  471.3462
 573  428.6322
 574  504.2986
 575  552.2496
 576  627.1078
 577  618.6991
 578  534.0206
 579  506.8093
 580  476.7317
 581  537.7859
 582  560.8563
 583  588.582
 584  617.8777
 585  620.4985
 586  525.2128
 587  529.4983
 588  527.4742
 589  509.8403
 590  515.0668
 591  529.0072
 592  629.2828
 593  493.6735
 594  403.7126
 595  453.3494
 596  571.3467
 597  629.4965
 598  531.7292
 599  509.373
 600  483.3689
 601  453.723
 602  490.513
 603  501.5764
 604  506.7172
 605  519.6104
 606  561.277
 607  459.9472
 608  498.9742
 609  419.2624
 610  500.5394
 611  470.0675
 612  631.2726
 613  637.6477
 614  642.2549
 615  473.7123
 616  473.9008
 617  531.8367
 618  622.5927
 619  589.7015
 620  580.7687
 621  555.223
 622  607.393
 623  510.7439
 624  462.1134
 625  410.1295
 626  533.1073
 627  539.4119
 628  538.6743
 629  561.3755
 630  573.281
 631  531.5482
 632  407.3255
 633  386.4758
 634  368.8886
 635  425.1667
 636  476.6876
 637  596.8247
 638  684.0585
 639  703.7228
 640  650.2977
 641  562.6427
 642  571.5988
 643  668.2117
 644  811.4934
 645  957.5633
 646  972.7429
 647  912.6215
 648  850.4091
 649  925.2766
 650  959.0568
 651  1078.044
 652  1101.134
 653  1177.059
 654  1139.969
 655  1243.643
 656  1255.375
 657  1303.21
 658  1134.855
 659  995.3284
 660  904.6271
 661  819.9304
 662  738.1735
 663  650.3314
 664  610.6952
 665  614.9144
 666  664.999
 667  725.882
 668  598.9166
 669  528.6549
 670  471.7355
 671  589.9794
 672  615.9481
 673  630.8306
 674  518.2378
 675  513.8875
 676  412.478
 677  531.386
 678  601.4598
 679  711.3618
 680  579.978
 681  473.5024
 682  489.5823
 683  616.3129
 684  645.4701
 685  659.2028
 686  750.0776
 687  733.5067
 688  659.0518
 689  645.6905
 690  705.648
 691  699.9697
 692  630.5179
 693  550.4957
 694  590.2634
 695  551.9256
 696  531.9953
 697  430.9772
 698  383.6298
 699  478.2503
 700  551.0098
 701  544.532
 702  421.9965
 703  398.7172
 704  401.9678
 705  448.4484
 706  456.895
 707  535.3342
 708  615.0714
 709  628.3793
 710  564.7349
 711  505.6529
 712  550.8676
 713  627.2308
 714  622.3436
 715  488.4406
 716  486.2207
 717  531.9389
 718  645.2371
 719  712.8357
 720  700.5812
 721  740.3644
 722  560.8732
 723  440.7059
 724  390.9886
 725  492.2853
 726  470.9069
 727  387.8701
 728  324.9998
 729  348.1571
 730  411.53
 731  526.0362
 732  543.3485
 733  627.1049
 734  557.0696
 735  582.8285
 736  524.4859
 737  547.9904
 738  512.4688
 739  448.8793
 740  423.2641
 741  423.1457
 742  410.8808
 743  419.0755
 744  426.5155
 745  518.8478
 746  491.8936
 747  525.1378
 748  518.6976
 749  564.2632
 750  597.1902
 751  571.1185
 752  532.7939
 753  625.5919
 754  695.022
 755  740.5556
 756  697.8829
 757  652.5212
 758  602.448
 759  588.7667
 760  606.2883
 761  638.6164
 762  709.2036
 763  708.6759
 764  657.4017
 765  565.2474
 766  459.1869
 767  422.5717
 768  432.6252
 769  580.5135
 770  585.2181
 771  540.1634
 772  435.606
 773  410.7029
 774  385.1025
 775  385.7233
 776  356.4828
 777  409.8342
 778  442.9659
 779  508.3203
 780  643.1899
 781  685.8903
 782  562.0284
 783  460.7975
 784  455.013
 785  575.4931
 786  629.7559
 787  641.4669
 788  621.8905
 789  606.6299
 790  580.0917
 791  516.5316
 792  384.2654
 793  473.3379
 794  556.024
 795  683.228
 796  669.6561
 797  748.4142
 798  740.5168
 799  706.8725
 800  637.6813
 801  598.7925
 802  556.7403
 803  553.0781
 804  673.2232
 805  749.6797
 806  750.8278
 807  591.8074
 808  534.017
 809  486.1839
 810  456.7798
 811  357.8154
 812  368.0687
 813  505.233
 814  517.4418
 815  537.0404
 816  451.6108
 817  461.4684
 818  470.4518
 819  515.1616
 820  529.7122
 821  497.7894
 822  435.8231
 823  549.5007
 824  672.325
 825  717.5678
 826  673.2256
 827  637.796
 828  628.5495
 829  609.5594
 830  572.2903
 831  546.1605
 832  573.9814
 833  495.617
 834  471.6903
 835  531.7991
 836  617.1885
 837  656.3561
 838  591.6891
 839  572.3171
 840  636.4606
 841  708.0334
 842  807.9634
 843  715.6929
 844  681.4283
 845  590.4605
 846  547.7967
 847  534.6074
 848  554.241
 849  577.9052
 850  524.9803
 851  500.8729
 852  491.2791
 853  523.874
 854  524.2308
 855  495.7021
 856  507.1189
 857  554.1306
 858  576.3278
 859  556.8552
 860  586.1389
 861  592.0276
 862  597.7058
 863  621.2955
 864  645.431
 865  566.08
 866  550.5053
 867  527.8456
 868  546.1006
 869  476.7422
 870  479.4864
 871  601.6736
 872  750.2569
 873  712.9122
 874  629.6148
 875  537.7457
 876  479.4972
 877  491.6342
 878  599.9999
 879  667.2386
 880  692.5956
 881  728.0099
 882  773.5456
 883  695.6923
 884  621.746
 885  654.1175
 886  571.6924
 887  467.1252
 888  338.0869
 889  385.2461
 890  505.9652
 891  652.0188
 892  655.0991
 893  628.4399
 894  608.6572
 895  658.8687
 896  703.4929
 897  804.0292
 898  798.9622
 899  777.7096
 900  570.8212
 901  483.1887
 902  503.4497
 903  615.6868
 904  654.2455
 905  555.3131
 906  478.2849
 907  459.7521
 908  504.3385
 909  645.5892
 910  748.4103
 911  695.0372
 912  544.6946
 913  458.2989
 914  507.3416
 915  529.4791
 916  549.6929
 917  516.5355
 918  481.5424
 919  541.59
 920  574.2349
 921  671.7257
 922  641.033
 923  685.368
 924  596.5071
 925  475.8978
 926  382.2343
 927  441.0924
 928  587.2631
 929  571.8203
 930  557.4938
 931  617.9298
 932  681.7865
 933  696.3334
 934  624.2957
 935  570.2319
 936  616.895
 937  657.9122
 938  608.2806
 939  484.9669
 940  433.3764
 941  498.2602
 942  406.9135
 943  341.2521
 944  312.7608
 945  400.2737
 946  410.4823
 947  427.8799
 948  337.9008
 949  301.6676
 950  338.5151
 951  471.9355
 952  518.4985
 953  483.9031
 954  494.2489
 955  481.22
 956  476.826
 957  402.7645
 958  346.9733
 959  348.8783
 960  378.8137
 961  406.4832
 962  427.1949
 963  441.3912
 964  514.2073
 965  478.8817
 966  414.5894
 967  328.607
 968  347.3625
 969  403.4175
 970  420.1079
 971  384.6038
 972  270.0026
 973  296.1141
 974  367.6022
 975  448.0437
 976  450.936
 977  374.3144
 978  371.2116
 979  387.5015
 980  427.4454
 981  455.7266
 982  502.2232
 983  466.813
 984  396.7434
 985  369.4024
 986  423.1075
 987  420.7265
 988  435.5387
 989  422.5779
 990  376.5933
 991  430.7751
 992  599.5408
 993  649.8164
 994  565.1965
 995  520.7867
 996  582.0576
 997  481.1973
 998  424.6022
 999  415.0749
1000  500.6886
1001  535.8518
1002  556.0042
1003  548.5466
1004  595.841
1005  669.6519
1006  656.1616
1007  577.6541
1008  566.7054
1009  563.1276
1010  520.9476
1011  519.5358
1012  565.3303
1013  520.7441
1014  445.0417
1015  423.0163
1016  491.3494
1017  520.5969
1018  553.7119
1019  590.2897
1020  671.2234
1021  633.3434
1022  530.8663
1023  499.1293
