# Input file       =  1182921607.112785_cleaned.dat
# Candidate        =  PSR_0332+5434
# Telescope        =  AR
# Epoch_topo       =  57935.222524453529
# Epoch_bary       =  N/A
# T_sample         =  0.002
# Data Folded      =  7340032
# Data Avg         =  0.0443238558111983
# Data StdDev      =  1.0001291799854  
# Profile Bins     =  512
# Profile Avg      =  635.44657416714  
# Profile StdDev   =  119.748503488658 
# Reduced chi-sqr  =  1.102
# Prob(Noise)      <  0.0552   (~1.6 sigma)
# P_topo (ms)      =  714.489051426533  +/- 0.000417
# P'_topo (s/s)    =  -0                +/- 2.2e-10
# P''_topo (s/s^2) =  0                 +/- 9.71e-14
# P_bary (ms)      =  N/A
# P'_bary (s/s)    =  N/A
# P''_bary (s/s^2) =  N/A
# P_orb (s)        =  N/A
# asin(i)/c (s)    =  N/A
# eccentricity     =  N/A
# w (rad)          =  N/A
# T_peri           =  N/A
######################################################
   0  783.814
   1  804.0122
   2  695.3805
   3  728.7784
   4  736.8239
   5  681.6503
   6  744.5625
   7  713.6515
   8  656.1343
   9  690.4445
  10  733.4182
  11  685.905
  12  684.2144
  13  607.9663
  14  652.9721
  15  683.7888
  16  642.5553
  17  745.0966
  18  724.6017
  19  722.1613
  20  660.1229
  21  572.0656
  22  626.6335
  23  619.2574
  24  601.5839
  25  618.3043
  26  648.5057
  27  507.2101
  28  537.2875
  29  652.3398
  30  649.8777
  31  618.1962
  32  618.6119
  33  596.0081
  34  593.8931
  35  663.6033
  36  671.426
  37  643.6496
  38  650.8409
  39  690.7787
  40  610.7964
  41  576.1559
  42  609.7838
  43  710.2381
  44  704.7778
  45  649.2032
  46  520.8616
  47  563.1899
  48  598.4916
  49  658.1738
  50  697.7349
  51  645.3262
  52  581.4468
  53  569.1515
  54  632.4885
  55  623.6063
  56  652.3041
  57  646.1451
  58  551.011
  59  605.8775
  60  545.9741
  61  436.5385
  62  443.5506
  63  563.2202
  64  625.0338
  65  626.3323
  66  577.1608
  67  564.1305
  68  452.3664
  69  510.5032
  70  522.1847
  71  519.6261
  72  470.3071
  73  466.2279
  74  515.6249
  75  520.6858
  76  592.7401
  77  595.6245
  78  548.1502
  79  534.7855
  80  483.8656
  81  576.8538
  82  673.623
  83  596.7618
  84  462.6497
  85  508.4083
  86  570.9188
  87  670.6528
  88  692.792
  89  584.8108
  90  572.4948
  91  516.3623
  92  576.4969
  93  553.8775
  94  551.9714
  95  619.3588
  96  588.8016
  97  593.3663
  98  535.3505
  99  614.61
 100  707.5401
 101  577.2353
 102  442.5658
 103  575.8765
 104  653.9023
 105  590.382
 106  451.5207
 107  563.5974
 108  549.3613
 109  569.1309
 110  511.0964
 111  456.2479
 112  621.6974
 113  655.1015
 114  540.8988
 115  521.097
 116  543.6353
 117  570.5617
 118  485.6392
 119  529.5894
 120  588.3278
 121  610.365
 122  542.0488
 123  675.4305
 124  618.6174
 125  694.0509
 126  686.6376
 127  580.5314
 128  623.6523
 129  610.7675
 130  636.5188
 131  635.4391
 132  547.7976
 133  620.175
 134  638.3455
 135  697.4886
 136  590.6476
 137  498.0051
 138  497.3991
 139  488.1225
 140  593.1498
 141  612.5169
 142  517.834
 143  545.4619
 144  603.5308
 145  516.8591
 146  536.0223
 147  478.0841
 148  578.7059
 149  651.1349
 150  698.8046
 151  630.5076
 152  639.2099
 153  649.3166
 154  703.3473
 155  732.7275
 156  802.0493
 157  655.6755
 158  613.4548
 159  675.5701
 160  629.0237
 161  617.4165
 162  655.4457
 163  692.1057
 164  683.0004
 165  796.6939
 166  976.1371
 167  1069.609
 168  1125.76
 169  1126.902
 170  976.9534
 171  817.2622
 172  746.1516
 173  655.9663
 174  527.8281
 175  583.4393
 176  584.7818
 177  568.2287
 178  647.3422
 179  664.6482
 180  614.8586
 181  520.5525
 182  668.2128
 183  621.2802
 184  585.71
 185  607.2442
 186  592.0606
 187  587.492
 188  605.4734
 189  610.2595
 190  660.5405
 191  645.8652
 192  652.8779
 193  666.0573
 194  700.2358
 195  667.6079
 196  764.3893
 197  719.3967
 198  693.428
 199  606.4532
 200  687.0412
 201  639.2018
 202  647.9609
 203  712.1744
 204  700.3623
 205  632.9084
 206  601.4528
 207  538.7759
 208  608.543
 209  685.3516
 210  659.6461
 211  677.9971
 212  708.046
 213  680.187
 214  553.1635
 215  557.4994
 216  511.2392
 217  465.8446
 218  608.1181
 219  555.3261
 220  531.2668
 221  539.6279
 222  484.4204
 223  559.9077
 224  611.3973
 225  660.7379
 226  550.1965
 227  496.0892
 228  473.6698
 229  449.1203
 230  322.353
 231  477.8643
 232  589.7492
 233  650.9447
 234  565.9041
 235  550.3077
 236  513.6501
 237  494.8288
 238  554.5644
 239  584.767
 240  557.9567
 241  478.3554
 242  508.1019
 243  549.6953
 244  625.9349
 245  625.729
 246  549.213
 247  578.9224
 248  636.7507
 249  658.4178
 250  579.1088
 251  494.8259
 252  555.812
 253  636.1785
 254  656.7963
 255  596.6868
 256  606.3505
 257  510.5249
 258  551.3477
 259  609.1812
 260  669.932
 261  670.8542
 262  647.7975
 263  692.5183
 264  778.4693
 265  698.1975
 266  687.5136
 267  630.0714
 268  727.8237
 269  725.9829
 270  724.184
 271  762.9323
 272  680.5231
 273  486.7799
 274  648.7054
 275  683.7578
 276  548.2582
 277  700.2792
 278  753.9463
 279  661.421
 280  577.8639
 281  558.3018
 282  603.1204
 283  622.8655
 284  559.8755
 285  717.7443
 286  605.1816
 287  536.1958
 288  639.6585
 289  705.7313
 290  670.9884
 291  667.8281
 292  694.5262
 293  778.5377
 294  776.3522
 295  615.3032
 296  583.7834
 297  697.7762
 298  602.0058
 299  618.0683
 300  610.4325
 301  609.8007
 302  638.9843
 303  610.186
 304  674.7109
 305  657.814
 306  610.3871
 307  679.0784
 308  737.6805
 309  645.0604
 310  598.4323
 311  652.2759
 312  590.3945
 313  627.8573
 314  640.8223
 315  647.3955
 316  569.2304
 317  490.4393
 318  551.7196
 319  733.6962
 320  697.802
 321  545.0196
 322  544.4143
 323  656.294
 324  702.4422
 325  639.482
 326  604.8745
 327  532.5764
 328  507.3551
 329  570.7421
 330  632.0922
 331  557.5666
 332  517.4944
 333  608.571
 334  673.1428
 335  662.6602
 336  670.3842
 337  646.1241
 338  657.5656
 339  725.5499
 340  724.4131
 341  714.5366
 342  679.6547
 343  707.5734
 344  665.3966
 345  724.068
 346  835.3421
 347  728.8008
 348  737.933
 349  689.6577
 350  696.1508
 351  599.8923
 352  593.1332
 353  551.5999
 354  678.9462
 355  656.012
 356  665.4825
 357  658.7675
 358  673.0328
 359  575.5338
 360  578.3719
 361  497.1535
 362  571.7332
 363  584.3697
 364  660.3649
 365  618.7795
 366  528.1297
 367  524.0834
 368  458.1691
 369  543.8167
 370  720.3502
 371  763.0896
 372  636.456
 373  512.1412
 374  535.4101
 375  598.6785
 376  665.6592
 377  695.2179
 378  626.508
 379  649.7948
 380  594.187
 381  500.0449
 382  519.4424
 383  570.9114
 384  627.9935
 385  587.4753
 386  528.5011
 387  576.9467
 388  601.6339
 389  601.6517
 390  726.5658
 391  794.952
 392  760.6281
 393  737.7357
 394  658.5626
 395  667.2232
 396  829.0613
 397  791.8517
 398  728.254
 399  751.3657
 400  709.5991
 401  694.8083
 402  618.824
 403  591.5237
 404  605.0923
 405  609.0125
 406  682.5526
 407  676.6949
 408  607.6763
 409  656.5695
 410  733.1009
 411  654.9103
 412  598.4603
 413  568.5442
 414  684.4098
 415  719.7198
 416  613.5076
 417  592.3915
 418  559.3469
 419  577.0828
 420  674.8384
 421  592.1304
 422  565.9131
 423  596.1844
 424  561.6538
 425  603.3269
 426  716.6837
 427  699.1362
 428  672.6334
 429  736.942
 430  813.0824
 431  765.6899
 432  735.8512
 433  632.8484
 434  717.7084
 435  672.5012
 436  639.5755
 437  657.742
 438  730.0836
 439  679.5951
 440  613.0374
 441  699.7005
 442  672.5319
 443  651.7222
 444  614.3667
 445  665.2063
 446  760.4275
 447  746.6911
 448  785.75
 449  708.4399
 450  664.139
 451  736.1537
 452  777.3619
 453  792.2791
 454  634.9026
 455  587.0484
 456  670.9673
 457  745.5114
 458  710.8378
 459  657.1335
 460  728.941
 461  698.326
 462  649.4894
 463  642.5798
 464  639.1628
 465  606.9877
 466  692.2593
 467  712.338
 468  616.0363
 469  569.1888
 470  766.7979
 471  740.8726
 472  705.3675
 473  636.0733
 474  685.2396
 475  646.567
 476  609.3505
 477  670.806
 478  658.59
 479  668.7222
 480  725.0001
 481  629.838
 482  662.4841
 483  720.1233
 484  753.2814
 485  734.5431
 486  792.8775
 487  734.3907
 488  512.8641
 489  613.0754
 490  812.5162
 491  853.8083
 492  830.8011
 493  755.9244
 494  649.5721
 495  613.0015
 496  639.2595
 497  785.0125
 498  706.7881
 499  762.8608
 500  764.2746
 501  758.8409
 502  713.7993
 503  610.626
 504  578.835
 505  598.5907
 506  576.2858
 507  714.4666
 508  640.2682
 509  691.622
 510  784.8788
 511  789.4033
