# Input file       =  1182835593.123291_cleaned.dat
# Candidate        =  PSR_0332+5434
# Telescope        =  AR
# Epoch_topo       =  57934.226992167722
# Epoch_bary       =  N/A
# T_sample         =  0.002
# Data Folded      =  7340032
# Data Avg         =  0.040703191823729
# Data StdDev      =  1.00004036931075 
# Profile Bins     =  512
# Profile Avg      =  583.543248661343 
# Profile StdDev   =  119.737869916919 
# Reduced chi-sqr  =  1.028
# Prob(Noise)      <  0.321   (~0.5 sigma)
# P_topo (ms)      =  714.489859139236  +/- 0.000546
# P'_topo (s/s)    =  -0                +/- 2.88e-10
# P''_topo (s/s^2) =  0                 +/- 1.27e-13
# P_bary (ms)      =  N/A
# P'_bary (s/s)    =  N/A
# P''_bary (s/s^2) =  N/A
# P_orb (s)        =  N/A
# asin(i)/c (s)    =  N/A
# eccentricity     =  N/A
# w (rad)          =  N/A
# T_peri           =  N/A
######################################################
   0  1109.893
   1  994.6678
   2  857.798
   3  729.1929
   4  635.4881
   5  605.0708
   6  565.556
   7  507.1743
   8  554.4479
   9  666.6003
  10  627.9775
  11  469.0821
  12  553.5398
  13  586.5267
  14  581.6716
  15  610.8774
  16  546.9141
  17  427.1539
  18  457.1387
  19  537.8068
  20  581.1808
  21  487.161
  22  482.1218
  23  445.7597
  24  478.4148
  25  561.5581
  26  428.0832
  27  411.0001
  28  531.27
  29  542.8218
  30  560.075
  31  605.5458
  32  566.9452
  33  575.5108
  34  564.889
  35  504.3664
  36  522.1313
  37  622.4761
  38  571.0092
  39  483.768
  40  506.2598
  41  502.913
  42  507.9925
  43  466.5503
  44  443.5019
  45  523.3563
  46  574.6454
  47  570.4001
  48  589.7486
  49  560.8349
  50  672.6089
  51  604.3799
  52  586.2203
  53  528.9056
  54  528.7717
  55  654.798
  56  712.7657
  57  633.3445
  58  659.3375
  59  514.3019
  60  552.3002
  61  661.1502
  62  620.3887
  63  652.3037
  64  713.9277
  65  582.3506
  66  571.7191
  67  571.3654
  68  551.006
  69  544.0381
  70  617.922
  71  698.7962
  72  680.8527
  73  717.5698
  74  646.0828
  75  581.0509
  76  640.6255
  77  690.1174
  78  688.4058
  79  531.3782
  80  573.1238
  81  650.52
  82  674.1762
  83  626.7979
  84  627.7803
  85  537.3921
  86  412.6495
  87  510.1852
  88  676.6839
  89  719.5787
  90  716.8919
  91  536.3094
  92  401.5468
  93  433.0042
  94  407.9498
  95  425.8888
  96  481.8173
  97  525.7836
  98  532.9133
  99  450.441
 100  482.0044
 101  542.9166
 102  434.0688
 103  516.6638
 104  558.2391
 105  507.5503
 106  566.3972
 107  602.2646
 108  514.5711
 109  532.38
 110  520.7366
 111  483.5873
 112  573.1851
 113  612.1891
 114  670.3665
 115  507.6849
 116  519.2146
 117  569.1141
 118  621.3909
 119  616.7996
 120  591.473
 121  552.5273
 122  518.549
 123  508.1003
 124  515.3304
 125  573.1104
 126  469.3277
 127  427.9726
 128  460.2478
 129  507.9915
 130  545.92
 131  566.7238
 132  538.5392
 133  519.6874
 134  525.7659
 135  642.5832
 136  616.3145
 137  621.3868
 138  592.0117
 139  494.1639
 140  532.1622
 141  521.7943
 142  544.9561
 143  596.7852
 144  547.992
 145  472.8683
 146  499.4149
 147  547.1182
 148  615.3132
 149  579.0768
 150  533.9028
 151  511.8633
 152  583.6257
 153  589.3546
 154  532.571
 155  632.7249
 156  604.7822
 157  643.9139
 158  593.7446
 159  448.8686
 160  511.2142
 161  566.8153
 162  531.8186
 163  526.0332
 164  579.2241
 165  569.5185
 166  590.3776
 167  626.3601
 168  393.8346
 169  474.8568
 170  539.2893
 171  637.7415
 172  601.0408
 173  495.1883
 174  642.8397
 175  535.6159
 176  471.0294
 177  514.8183
 178  540.6828
 179  549.5233
 180  607.52
 181  594.2252
 182  493.0959
 183  442.1743
 184  510.4324
 185  559.8331
 186  609.3479
 187  605.5519
 188  484.2033
 189  510.687
 190  436.9657
 191  430.9701
 192  381.2802
 193  439.9496
 194  378.2612
 195  523.275
 196  583.0762
 197  517.3571
 198  468.5716
 199  475.2033
 200  498.6201
 201  495.3043
 202  618.9115
 203  576.1285
 204  555.3294
 205  577.772
 206  590.073
 207  646.7361
 208  616.1712
 209  566.0701
 210  482.6964
 211  489.2898
 212  469.716
 213  589.8291
 214  661.5691
 215  584.1358
 216  569.5933
 217  626.0164
 218  550.3761
 219  529.1516
 220  491.3247
 221  527.5399
 222  609.108
 223  496.3274
 224  421.5289
 225  413.4887
 226  589.785
 227  523.6441
 228  486.6422
 229  437.1436
 230  500.6971
 231  508.2996
 232  555.5488
 233  516.4201
 234  464.6947
 235  478.1984
 236  550.0419
 237  424.1924
 238  494.5415
 239  509.0936
 240  489.1626
 241  530.1086
 242  608.2763
 243  615.257
 244  677.0711
 245  614.6593
 246  593.615
 247  688.7661
 248  669.4658
 249  534.0461
 250  512.6583
 251  598.5104
 252  508.6655
 253  549.6154
 254  572.722
 255  591.4894
 256  474.555
 257  559.9536
 258  569.5533
 259  487.7012
 260  668.6641
 261  670.4722
 262  539.3356
 263  516.5142
 264  590.6926
 265  593.6585
 266  595.164
 267  620.1577
 268  563.5107
 269  502.3824
 270  470.05
 271  602.9927
 272  677.5184
 273  657.7371
 274  653.4822
 275  632.6045
 276  570.7934
 277  631.6935
 278  714.3333
 279  625.2929
 280  681.0852
 281  694.5222
 282  646.5264
 283  629.743
 284  701.111
 285  588.1069
 286  508.1337
 287  549.4797
 288  592.8102
 289  639.422
 290  691.1674
 291  622.0956
 292  627.1423
 293  551.6813
 294  622.5549
 295  567.3857
 296  559.6439
 297  579.7274
 298  601.0715
 299  683.2799
 300  655.934
 301  569.3071
 302  602.94
 303  607.5873
 304  541.2299
 305  581.5853
 306  618.718
 307  600.2101
 308  591.9766
 309  602.4179
 310  616.1136
 311  669.769
 312  745.6874
 313  726.0208
 314  687.9384
 315  709.0444
 316  704.2708
 317  664.9941
 318  666.8863
 319  580.062
 320  635.0142
 321  694.1409
 322  739.2557
 323  635.4742
 324  641.8213
 325  725.0237
 326  715.9998
 327  702.2244
 328  649.8771
 329  691.0198
 330  673.0963
 331  618.8019
 332  607.9014
 333  765.4556
 334  827.5319
 335  846.6012
 336  697.4824
 337  669.8978
 338  636.5311
 339  616.6904
 340  616.1553
 341  594.2897
 342  571.6564
 343  537.6893
 344  580.0389
 345  627.9215
 346  638.2404
 347  559.5374
 348  557.59
 349  650.3785
 350  479.1222
 351  429.0888
 352  416.0887
 353  484.1546
 354  536.3724
 355  594.9697
 356  522.4111
 357  543.4212
 358  678.6937
 359  554.002
 360  507.5403
 361  534.1486
 362  553.6845
 363  572.8491
 364  568.2084
 365  566.1529
 366  685.9692
 367  611.7941
 368  609.1934
 369  511.2063
 370  658.2004
 371  715.6378
 372  655.7704
 373  649.1021
 374  688.7078
 375  613.7548
 376  565.78
 377  582.0295
 378  563.2653
 379  594.6725
 380  625.6027
 381  537.4397
 382  572.7796
 383  591.0175
 384  604.787
 385  520.4257
 386  519.627
 387  551.9051
 388  581.9426
 389  556.495
 390  495.8136
 391  549.4921
 392  624.0606
 393  621.226
 394  547.3988
 395  570.8942
 396  605.0849
 397  581.9388
 398  613.3328
 399  619.2037
 400  607.718
 401  568.2866
 402  544.8936
 403  555.3196
 404  573.0162
 405  603.4829
 406  554.3545
 407  520.979
 408  559.5217
 409  559.0383
 410  616.7022
 411  589.5545
 412  666.4099
 413  630.2542
 414  593.9317
 415  571.7476
 416  596.1243
 417  645.5944
 418  636.8584
 419  631.6405
 420  637.1196
 421  597.0289
 422  616.9724
 423  572.8786
 424  550.5193
 425  566.1546
 426  522.6309
 427  470.4512
 428  571.7617
 429  534.1902
 430  544.2812
 431  586.482
 432  553.623
 433  628.6635
 434  644.1289
 435  640.0906
 436  604.1141
 437  552.6313
 438  502.7289
 439  458.3591
 440  517.3837
 441  492.0327
 442  528.408
 443  595.7115
 444  669.5488
 445  578.9575
 446  570.5953
 447  615.0897
 448  728.8511
 449  679.2882
 450  672.5925
 451  556.3621
 452  591.3524
 453  642.6282
 454  598.4885
 455  587.6321
 456  674.4271
 457  623.8323
 458  571.9517
 459  641.3181
 460  664.5064
 461  660.0603
 462  561.8889
 463  544.9874
 464  445.8538
 465  470.6064
 466  552.0228
 467  652.884
 468  658.7809
 469  698.3068
 470  625.0963
 471  568.6674
 472  547.03
 473  631.8659
 474  704.4689
 475  607.4226
 476  568.7222
 477  552.4797
 478  672.0492
 479  661.161
 480  547.4569
 481  555.4067
 482  635.716
 483  610.0611
 484  530.1506
 485  610.3281
 486  670.5356
 487  692.4194
 488  631.8111
 489  638.2409
 490  625.4788
 491  673.892
 492  584.7684
 493  685.0181
 494  636.9138
 495  548.3663
 496  527.5659
 497  536.7903
 498  583.8179
 499  601.7798
 500  601.8983
 501  678.9141
 502  715.6106
 503  708.0515
 504  690.2854
 505  637.0392
 506  620.1547
 507  770.0679
 508  701.73
 509  809.803
 510  1074.266
 511  1151.646
