# Input file       =  1182764375.119632_cleaned.dat
# Candidate        =  PSR_0332+5434
# Telescope        =  AR
# Epoch_topo       =  57933.402709717964
# Epoch_bary       =  N/A
# T_sample         =  0.002
# Data Folded      =  7340032
# Data Avg         =  0.143492149733772
# Data StdDev      =  4.62611464735983 
# Profile Bins     =  512
# Profile Avg      =  2057.21386296484 
# Profile StdDev   =  553.898753355426 
# Reduced chi-sqr  =  1.048
# Prob(Noise)      <  0.218   (~0.8 sigma)
# P_topo (ms)      =  714.49086928914   +/- 1.86e-05
# P'_topo (s/s)    =  -0                +/- 9.81e-12
# P''_topo (s/s^2) =  0                 +/- 4.33e-15
# P_bary (ms)      =  N/A
# P'_bary (s/s)    =  N/A
# P''_bary (s/s^2) =  N/A
# P_orb (s)        =  N/A
# asin(i)/c (s)    =  N/A
# eccentricity     =  N/A
# w (rad)          =  N/A
# T_peri           =  N/A
######################################################
   0  1622.332
   1  1856.033
   2  2301.519
   3  2074.492
   4  1592.428
   5  1456.114
   6  1946.07
   7  2589.277
   8  2334.696
   9  1627.611
  10  1458.345
  11  1774.073
  12  2549.746
  13  2480.861
  14  1692.582
  15  1565.233
  16  1740.362
  17  2178.476
  18  2289.311
  19  1623.524
  20  1593.301
  21  1581.513
  22  1825.769
  23  1548.797
  24  705.674
  25  1143.199
  26  1978.354
  27  2181.768
  28  1988.926
  29  1779.588
  30  1514.969
  31  2095.495
  32  2043.218
  33  2212.161
  34  1814.008
  35  1730.354
  36  2252.089
  37  2261.946
  38  1972.253
  39  1597.419
  40  1818.35
  41  1913.125
  42  1766.923
  43  2010.312
  44  1837.304
  45  1974.701
  46  2118.16
  47  2133.575
  48  1730.666
  49  1832.387
  50  2205.837
  51  2374.267
  52  1762.467
  53  1606.895
  54  1980.313
  55  2485.674
  56  2238.3
  57  1611.339
  58  1754.401
  59  2081.339
  60  2303.723
  61  1986.689
  62  1467.563
  63  1506.801
  64  2168.497
  65  2290.697
  66  1640.747
  67  1242.632
  68  1638.508
  69  2007.974
  70  2398.984
  71  2224.975
  72  1664.557
  73  2024.175
  74  2557.251
  75  2233.195
  76  2019.229
  77  1811.516
  78  2350.908
  79  2619.926
  80  2345.894
  81  1985.314
  82  1906.782
  83  2175.013
  84  2643.671
  85  2180.581
  86  1565.293
  87  1555.549
  88  2036.605
  89  2224.855
  90  2403.129
  91  1995.07
  92  1912.937
  93  1881.555
  94  1651.931
  95  1398.194
  96  1216.981
  97  1604.165
  98  1396.119
  99  1646.032
 100  1436.062
 101  1193.831
 102  1072.47
 103  1573.797
 104  1482.279
 105  913.8047
 106  988.6722
 107  1739.359
 108  2084.523
 109  1604.287
 110  1034.596
 111  897.7327
 112  1926.36
 113  2128.18
 114  1631.937
 115  1214.998
 116  1606.589
 117  1892.962
 118  2117.341
 119  1969.001
 120  1449.834
 121  1867.416
 122  2417.492
 123  2357.403
 124  1862.548
 125  1320.056
 126  2009.568
 127  2193.667
 128  1870.192
 129  1318.375
 130  1275.058
 131  2074.711
 132  2375.67
 133  2140.485
 134  1524.577
 135  1637.836
 136  2082.976
 137  2219.284
 138  2171.936
 139  1750.011
 140  1871.985
 141  1969.036
 142  1811.091
 143  1594.145
 144  1077.937
 145  1413.702
 146  1624.467
 147  1839.962
 148  1651.185
 149  1642.772
 150  1771.007
 151  2260.156
 152  1961.624
 153  1672.197
 154  1510.578
 155  2020.604
 156  2632.507
 157  2335.083
 158  1876.781
 159  1700.41
 160  1740.9
 161  1919.441
 162  1926.66
 163  1862.161
 164  1957.11
 165  2278.562
 166  2006.324
 167  1565.153
 168  1336.104
 169  1706.014
 170  2284.411
 171  2076.779
 172  1826.607
 173  1892.004
 174  2502.99
 175  2781.635
 176  2840.741
 177  2375.384
 178  2486.285
 179  3096.458
 180  2944.943
 181  2572.503
 182  1849.808
 183  1833.804
 184  2335.833
 185  2443.382
 186  2169.331
 187  1933.668
 188  2107.312
 189  2838.983
 190  2452.458
 191  1899.74
 192  2288.856
 193  3017.392
 194  3021.458
 195  2441.744
 196  1981.508
 197  1782.388
 198  2233.58
 199  2575.884
 200  2692.643
 201  2224.53
 202  2229.086
 203  2183.087
 204  2879.874
 205  2427.815
 206  1891.567
 207  2050.515
 208  2460.904
 209  2771.189
 210  2158.154
 211  1727.467
 212  1971.581
 213  2702.018
 214  2967.201
 215  2491.005
 216  2155.199
 217  1992.908
 218  2495.287
 219  2379.619
 220  1812.961
 221  1962.683
 222  2629.658
 223  2687.973
 224  2679.868
 225  2580.094
 226  2456.051
 227  3011.213
 228  2881.263
 229  2361.448
 230  2617.364
 231  2894.501
 232  2747.419
 233  2412.276
 234  2058.996
 235  2311.257
 236  2167.124
 237  2333.118
 238  2364.126
 239  1850.035
 240  1981.102
 241  2390.811
 242  2780.512
 243  2250.544
 244  2005.267
 245  2211.515
 246  2890.676
 247  2914.27
 248  2518.601
 249  1844.05
 250  1873.281
 251  2295.282
 252  2453.16
 253  2008.718
 254  1633.781
 255  1731.66
 256  1943.163
 257  2404.675
 258  1942.249
 259  1403.519
 260  1918.521
 261  2169.365
 262  2010.522
 263  1912.145
 264  1937.37
 265  2261.193
 266  2187.909
 267  2074.619
 268  1881.278
 269  2130.98
 270  2231.691
 271  2052.303
 272  1458.448
 273  1269.947
 274  1802.006
 275  2238.287
 276  2624.688
 277  2002.64
 278  1874.888
 279  2475.816
 280  2676.43
 281  2368.179
 282  2043.781
 283  1378.264
 284  2049.107
 285  2473.29
 286  2062.353
 287  1823.724
 288  1734.28
 289  2176.823
 290  2177.192
 291  1776.649
 292  1488.121
 293  1637.623
 294  2254.265
 295  2211.06
 296  2011.873
 297  1936.547
 298  2489.249
 299  2621.412
 300  2243.98
 301  2108.997
 302  2035.83
 303  2327.471
 304  2829.16
 305  2641.837
 306  1972.259
 307  1777.458
 308  2266.979
 309  2476.171
 310  2231.28
 311  1846.964
 312  1704.969
 313  2099.735
 314  2694.561
 315  2064.571
 316  1693.812
 317  2377.411
 318  2626.426
 319  2302.886
 320  2058.14
 321  2235.901
 322  2207.12
 323  2603.358
 324  2892.83
 325  2444.095
 326  2693.116
 327  3342.635
 328  3619.044
 329  3355.877
 330  2211.634
 331  2027.802
 332  2235.19
 333  2584.577
 334  2041.783
 335  1943.831
 336  2008.878
 337  2291.859
 338  2132.114
 339  2173.47
 340  1694.952
 341  1606.941
 342  2472.177
 343  2921.263
 344  2398.313
 345  2016.486
 346  2204.292
 347  2381
 348  1987.587
 349  1926.175
 350  1997.823
 351  2140.993
 352  2395.492
 353  1774.759
 354  1424.431
 355  1341.739
 356  1593.359
 357  2026.538
 358  1725.525
 359  1425.035
 360  1790.363
 361  1910.234
 362  2088.031
 363  2206.126
 364  1744.445
 365  1635.479
 366  2241.219
 367  2311.945
 368  1742.882
 369  1814.443
 370  2177.078
 371  2216.58
 372  2300.509
 373  1672.394
 374  1540.281
 375  2281.356
 376  2390.357
 377  2075.916
 378  1863.349
 379  1643.266
 380  2237.08
 381  2346.663
 382  1871.813
 383  1571.405
 384  1930.792
 385  2748.043
 386  2945.11
 387  2138.063
 388  1615.125
 389  1759.241
 390  2344.967
 391  2983.902
 392  2334.865
 393  1967.554
 394  2178.178
 395  2225.325
 396  1899.07
 397  1689.745
 398  1904.372
 399  2354.873
 400  2564.314
 401  2470.487
 402  2013.011
 403  2158.495
 404  2269.409
 405  2340.097
 406  2084.986
 407  2006.043
 408  2162.463
 409  2910.043
 410  2751.501
 411  2428.782
 412  2029.613
 413  2332.84
 414  2332.16
 415  1976.739
 416  2180.674
 417  1515.276
 418  1929.22
 419  2515.033
 420  2052.531
 421  1329.507
 422  1827.527
 423  2473.806
 424  2417.24
 425  2198.236
 426  2090.128
 427  1975.73
 428  2099.367
 429  1775.27
 430  1407.74
 431  1658.132
 432  1856.183
 433  1828.498
 434  1976.882
 435  1860.48
 436  1363.097
 437  1795.87
 438  2177.027
 439  2165.58
 440  1980.994
 441  1627.3
 442  1953.18
 443  2225
 444  2068.814
 445  1781.487
 446  1637.329
 447  2092.317
 448  1803.767
 449  1504.719
 450  1551.584
 451  1502.052
 452  2176.816
 453  2501.404
 454  2177.476
 455  2064.279
 456  1526.233
 457  1954.472
 458  2074.398
 459  1829.606
 460  1704.737
 461  2230.19
 462  2363.253
 463  2112.283
 464  1750.346
 465  1760.964
 466  2174.112
 467  2502.387
 468  2350.137
 469  1597.012
 470  1903.738
 471  2498.581
 472  2614.044
 473  2670.112
 474  1702.369
 475  2422.093
 476  2689.677
 477  2694.484
 478  2460.724
 479  2157.304
 480  2217.19
 481  2589.066
 482  2297.677
 483  2105.464
 484  1840.544
 485  1914.256
 486  2226.058
 487  2242.344
 488  2201.446
 489  2009.347
 490  2288.245
 491  2302.166
 492  1807.363
 493  1674.145
 494  1938.636
 495  2423.698
 496  2688.13
 497  2093.01
 498  1358.367
 499  1812.829
 500  2286.881
 501  2210.204
 502  1722.533
 503  1481.588
 504  1822.515
 505  2180.099
 506  2003.094
 507  1528.579
 508  1752.465
 509  1963.774
 510  2303.802
 511  2144.263
