# Input file       =  1183540492.120483_cleaned.dat
# Candidate        =  PSR_0332+5434
# Telescope        =  AR
# Epoch_topo       =  57942.385545375961
# Epoch_bary       =  N/A
# T_sample         =  0.002
# Data Folded      =  7340032
# Data Avg         =  0.0401033972825707
# Data StdDev      =  1.00026859485334 
# Profile Bins     =  512
# Profile Avg      =  574.842066664146 
# Profile StdDev   =  119.765196054112 
# Reduced chi-sqr  =  1.200
# Prob(Noise)      <  0.00124   (~3.0 sigma)
# P_topo (ms)      =  714.483896913837  +/- 0.000251
# P'_topo (s/s)    =  -0                +/- 1.33e-10
# P''_topo (s/s^2) =  0                 +/- 5.85e-14
# P_bary (ms)      =  N/A
# P'_bary (s/s)    =  N/A
# P''_bary (s/s^2) =  N/A
# P_orb (s)        =  N/A
# asin(i)/c (s)    =  N/A
# eccentricity     =  N/A
# w (rad)          =  N/A
# T_peri           =  N/A
######################################################
   0  695.668
   1  671.6151
   2  609.2911
   3  681.2469
   4  680.9709
   5  635.6766
   6  669.0421
   7  621.6882
   8  636.0391
   9  738.3558
  10  812.6335
  11  673.2147
  12  583.7162
  13  520.2199
  14  580.2552
  15  535.2812
  16  451.3773
  17  532.4482
  18  568.152
  19  553.7037
  20  580.9218
  21  499.8452
  22  559.571
  23  528.4791
  24  642.9697
  25  615.5218
  26  485.8522
  27  479.7445
  28  449.3422
  29  510.9115
  30  478.8419
  31  484.1678
  32  620.1087
  33  498.8558
  34  556.301
  35  606.0292
  36  632.0795
  37  603.0467
  38  500.652
  39  437.9138
  40  441.5875
  41  626.9878
  42  540.0204
  43  494.4026
  44  635.6509
  45  644.835
  46  499.779
  47  538.3933
  48  500.6533
  49  542.3152
  50  628.3174
  51  684.2669
  52  495.9042
  53  518.4411
  54  584.0774
  55  477.8408
  56  496.7272
  57  527.3467
  58  495.9453
  59  508.8852
  60  581.7336
  61  618.4584
  62  529.0064
  63  569.3854
  64  593.6984
  65  606.9489
  66  667.6442
  67  550.0435
  68  534.2046
  69  486.8257
  70  467.9995
  71  482.3485
  72  552.2509
  73  542.379
  74  510.8415
  75  549.1003
  76  586.384
  77  547.1597
  78  436.5454
  79  539.7289
  80  557.7839
  81  542.5483
  82  591.6546
  83  547.0476
  84  505.5255
  85  513.1443
  86  540.0323
  87  444.9875
  88  482.3802
  89  603.9854
  90  638.0796
  91  609.3637
  92  584.6306
  93  623.1981
  94  622.5319
  95  723.7455
  96  616.5379
  97  513.3278
  98  605.9271
  99  754.4755
 100  718.9807
 101  625.0956
 102  639.2969
 103  546.4453
 104  494.7237
 105  554.9514
 106  602.1119
 107  534.2983
 108  527.4667
 109  664.3425
 110  756.8073
 111  602.0709
 112  602.7965
 113  557.1806
 114  470.2793
 115  524.5664
 116  607.6818
 117  630.7269
 118  613.685
 119  568.937
 120  591.507
 121  537.3073
 122  627.5645
 123  592.23
 124  472.6476
 125  547.126
 126  609.1074
 127  484.9454
 128  511.601
 129  562.7096
 130  794.9348
 131  744.9592
 132  563.4851
 133  694.2776
 134  638.4546
 135  706.4398
 136  618.9073
 137  543.1151
 138  631.5315
 139  595.3444
 140  483.1175
 141  564.8683
 142  599.276
 143  672.4867
 144  493.8517
 145  445.8229
 146  463.3067
 147  556.8715
 148  548.4453
 149  604.0286
 150  587.6731
 151  547.625
 152  468.8153
 153  458.2885
 154  496.9644
 155  592.8603
 156  473.8943
 157  454.3151
 158  554.9265
 159  507.6883
 160  591.683
 161  622.3199
 162  571.6816
 163  679.56
 164  633.3174
 165  663.4515
 166  598.0615
 167  471.7285
 168  539.05
 169  512.9373
 170  476.385
 171  399.7122
 172  506.7252
 173  540.8034
 174  531.4861
 175  567.9216
 176  534.2175
 177  543.8287
 178  549.2711
 179  632.8422
 180  641.0287
 181  675.3063
 182  632.0328
 183  659.9005
 184  562.1207
 185  567.6646
 186  565.0491
 187  653.6906
 188  657.579
 189  678.0768
 190  613.9138
 191  590.6043
 192  512.8539
 193  585.8269
 194  603.6749
 195  569.2591
 196  587.3557
 197  518.0337
 198  529.3297
 199  585.0696
 200  709.5842
 201  663.2753
 202  649.117
 203  593.9648
 204  499.8473
 205  640.2712
 206  624.2692
 207  564.7258
 208  579.556
 209  602.925
 210  542.1356
 211  630.0521
 212  625.3058
 213  687.4873
 214  552.4142
 215  555.2738
 216  570.493
 217  617.718
 218  620.4725
 219  553.9277
 220  587.6752
 221  490.1976
 222  555.8596
 223  582.7577
 224  565.3875
 225  537.2373
 226  634.3257
 227  672.4967
 228  576.3185
 229  648.2523
 230  663.1754
 231  600.0478
 232  632.2345
 233  588.5702
 234  570.8178
 235  559.4444
 236  576.2239
 237  591.4429
 238  526.4413
 239  564.3881
 240  548.5967
 241  577.0962
 242  653.5972
 243  508.643
 244  449.6925
 245  585.6624
 246  558.5834
 247  561.7926
 248  556.1112
 249  511.8114
 250  569.7261
 251  555.3652
 252  465.736
 253  462.3124
 254  524.5399
 255  510.3511
 256  653.5135
 257  711.1843
 258  600.5267
 259  431.461
 260  318.3894
 261  329.1699
 262  396.8295
 263  479.3635
 264  547.8154
 265  572.4683
 266  602.5671
 267  626.9564
 268  629.9526
 269  608.8965
 270  499.7627
 271  536.1927
 272  469.0818
 273  286.1223
 274  317.9677
 275  577.4504
 276  502.6941
 277  522.8166
 278  448.9394
 279  522.7253
 280  548.6151
 281  511.888
 282  418.222
 283  472.181
 284  441.9523
 285  505.3372
 286  564.9911
 287  619.4188
 288  538.9437
 289  428.3757
 290  542.315
 291  579.1021
 292  552.7672
 293  610.2648
 294  528.4534
 295  560.0753
 296  581.3788
 297  580.0471
 298  559.5289
 299  606.27
 300  623.5237
 301  525.8425
 302  556.1323
 303  552.6805
 304  587.8849
 305  641.8038
 306  669.0252
 307  613.8346
 308  549.2174
 309  588.813
 310  703.6302
 311  633.347
 312  591.1796
 313  669.0624
 314  569.4823
 315  604.4223
 316  673.3182
 317  757.2861
 318  689.5645
 319  684.2617
 320  601.2923
 321  569.1409
 322  570.8475
 323  527.632
 324  594.3922
 325  681.2524
 326  631.0062
 327  561.0164
 328  484.06
 329  440.2885
 330  549.9926
 331  589.0952
 332  596.0447
 333  522.1949
 334  520.634
 335  529.6592
 336  521.4973
 337  431.4078
 338  448.6886
 339  541.0861
 340  587.8143
 341  491.3075
 342  487.998
 343  557.2108
 344  664.1073
 345  707.4767
 346  599.7145
 347  576.7172
 348  657.7299
 349  648.0589
 350  615.0202
 351  609.8953
 352  593.1069
 353  680.0513
 354  634.0159
 355  600.0159
 356  595.9145
 357  622.8167
 358  712.9351
 359  626.6321
 360  540.8118
 361  476.924
 362  573.8053
 363  516.9066
 364  392.3417
 365  434.0178
 366  571.8141
 367  584.0095
 368  585.078
 369  391.6649
 370  428.3798
 371  487.7084
 372  579.7513
 373  558.7119
 374  593.6691
 375  476.8646
 376  534.3538
 377  561.4578
 378  588.864
 379  490.9895
 380  540.1299
 381  593.2572
 382  558.2941
 383  468.735
 384  596.6953
 385  679.2673
 386  632.1913
 387  497.0869
 388  507.4651
 389  646.4703
 390  550.6138
 391  564.3917
 392  556.4207
 393  550.7125
 394  507.8872
 395  526.3611
 396  503.8003
 397  581.0151
 398  480.7768
 399  603.4183
 400  628.0115
 401  551.7292
 402  480.2324
 403  366.1703
 404  533.0662
 405  613.3417
 406  599.6892
 407  703.7569
 408  640.3397
 409  519.9365
 410  542.8785
 411  477.8873
 412  609.8912
 413  597.72
 414  485.4087
 415  452.3403
 416  501.8031
 417  389.0829
 418  448.3664
 419  492.2982
 420  532.263
 421  495.3817
 422  381.7158
 423  538.137
 424  591.7606
 425  602.2803
 426  572.6299
 427  531.8777
 428  540.4113
 429  606.8888
 430  587.3683
 431  598.2805
 432  653.4567
 433  527.5004
 434  474.4712
 435  486.1596
 436  523.8572
 437  539.5919
 438  595.9707
 439  725.9374
 440  793.3102
 441  682.097
 442  755.444
 443  795.3491
 444  769.2657
 445  975.2962
 446  1111.103
 447  1268.212
 448  1264.468
 449  1073.465
 450  797.0337
 451  614.9123
 452  661.325
 453  641.265
 454  560.6052
 455  546.9712
 456  560.7675
 457  603.2848
 458  660.4131
 459  588.4853
 460  547.5982
 461  599.1915
 462  692.3505
 463  723.8115
 464  661.1919
 465  661.1052
 466  539.9351
 467  496.8053
 468  454.5976
 469  421.4625
 470  514.4026
 471  621.9211
 472  508.3411
 473  551.9423
 474  555.9716
 475  579.5518
 476  558.8638
 477  550.9921
 478  544.0728
 479  543.0842
 480  567.6182
 481  632.2589
 482  601.8538
 483  531.7045
 484  582.5301
 485  566.9902
 486  621.7918
 487  646.0714
 488  641.7491
 489  588.4486
 490  577.3083
 491  544.1987
 492  508.6181
 493  543.7006
 494  645.6008
 495  556.543
 496  580.3751
 497  569.9834
 498  539.6645
 499  511.2637
 500  505.4227
 501  574.6216
 502  602.2652
 503  596.0142
 504  602.3756
 505  614.3455
 506  568.1264
 507  615.7812
 508  565.4057
 509  643.3616
 510  666.6154
 511  571.6371
