# Input file       =  1183195541.119305_cleaned.dat
# Candidate        =  PSR_0332+5434
# Telescope        =  AR
# Epoch_topo       =  57938.393056936402
# Epoch_bary       =  N/A
# T_sample         =  0.002
# Data Folded      =  7340032
# Data Avg         =  0.0379646803962439
# Data StdDev      =  1.00008861746787 
# Profile Bins     =  512
# Profile Avg      =  544.275983982737 
# Profile StdDev   =  119.74364681527  
# Reduced chi-sqr  =  1.171
# Prob(Noise)      <  0.00452   (~2.6 sigma)
# P_topo (ms)      =  714.486895550596  +/- 0.000176
# P'_topo (s/s)    =  -0                +/- 9.31e-11
# P''_topo (s/s^2) =  0                 +/- 4.11e-14
# P_bary (ms)      =  N/A
# P'_bary (s/s)    =  N/A
# P''_bary (s/s^2) =  N/A
# P_orb (s)        =  N/A
# asin(i)/c (s)    =  N/A
# eccentricity     =  N/A
# w (rad)          =  N/A
# T_peri           =  N/A
######################################################
   0  617.709
   1  656.5331
   2  555.9775
   3  460.9723
   4  614.7863
   5  588.4203
   6  557.8577
   7  510.2142
   8  513.2816
   9  507.0349
  10  598.3264
  11  606.2664
  12  480.3119
  13  601.7172
  14  616.7649
  15  643.5581
  16  496.9235
  17  485.6361
  18  591.1168
  19  562.1716
  20  581.2082
  21  498.5315
  22  479.952
  23  569.0023
  24  565.122
  25  579.2243
  26  653.6951
  27  688.554
  28  580.1927
  29  430.9828
  30  403.3498
  31  494.0133
  32  463.2329
  33  416.3351
  34  479.9919
  35  506.8192
  36  462.7081
  37  489.9115
  38  511.4043
  39  381.5981
  40  354.4387
  41  466.6653
  42  449.0192
  43  542.2238
  44  475.312
  45  476.1707
  46  470.438
  47  448.8457
  48  438.1557
  49  538.2009
  50  568.9897
  51  442.8104
  52  498.8904
  53  589.0896
  54  579.5146
  55  548.0948
  56  515.4341
  57  617.3405
  58  628.1681
  59  504.0224
  60  490.722
  61  633.9728
  62  571.5877
  63  574.0193
  64  579.5036
  65  606.0609
  66  530.3773
  67  560.135
  68  563.9409
  69  472.1329
  70  519.1552
  71  561.01
  72  466.1789
  73  438.4863
  74  459.4416
  75  468.063
  76  434.1225
  77  505.5195
  78  401.3846
  79  306.8133
  80  388.9763
  81  530.3087
  82  446.3559
  83  363.1984
  84  332.4171
  85  463.2938
  86  409.5267
  87  435.3148
  88  487.0249
  89  516.7788
  90  592.5538
  91  536.8467
  92  570.5204
  93  577.3772
  94  462.9435
  95  563.9582
  96  651.4788
  97  678.1036
  98  634.0519
  99  540.6968
 100  478.3749
 101  578.293
 102  650.961
 103  555.4916
 104  558.5974
 105  483.6174
 106  559.7972
 107  547.1831
 108  464.7362
 109  492.5516
 110  493.8388
 111  524.0441
 112  525.3958
 113  479.0813
 114  548.8662
 115  514.3152
 116  462.1112
 117  488.7376
 118  447.1493
 119  418.3721
 120  414.0422
 121  431.8454
 122  404.958
 123  435.0145
 124  445.119
 125  418.7757
 126  400.5698
 127  349.6752
 128  537.8135
 129  576.0408
 130  544.0643
 131  503.9878
 132  429.3925
 133  289.9111
 134  337.9749
 135  465.8338
 136  583.8705
 137  497.4994
 138  470.7976
 139  538.7222
 140  542.8719
 141  483.2601
 142  526.4581
 143  478.9975
 144  489.188
 145  451.6267
 146  462.7101
 147  476.5495
 148  540.1487
 149  657.8541
 150  523.4045
 151  527.983
 152  487.9185
 153  502.1082
 154  512.6472
 155  429.7821
 156  424.1849
 157  456.8684
 158  532.1437
 159  595.7443
 160  543.7693
 161  423.9248
 162  399.5927
 163  452.7958
 164  506.0919
 165  466.1357
 166  428.5319
 167  508.9031
 168  609.4758
 169  686.8534
 170  662.8318
 171  594.2173
 172  577.0196
 173  611.458
 174  816.8594
 175  883.0522
 176  937.788
 177  1029.301
 178  985.8672
 179  978.9986
 180  990.3783
 181  728.4601
 182  685.401
 183  746.513
 184  686.7196
 185  581.7846
 186  504.6292
 187  647.138
 188  595.5338
 189  553.8718
 190  711.569
 191  595.7161
 192  522.7467
 193  413.8782
 194  590.0311
 195  725.2384
 196  786.5534
 197  649.7291
 198  612.7233
 199  561.9629
 200  591.6262
 201  601.9884
 202  622.6001
 203  606.1845
 204  589.5715
 205  539.2164
 206  588.2637
 207  527.2355
 208  487.2359
 209  527.6035
 210  478.4481
 211  568.3373
 212  582.6156
 213  430.0531
 214  457.5998
 215  545.0374
 216  639.3595
 217  632.9011
 218  647.8932
 219  638.7507
 220  700.4277
 221  639.5331
 222  676.937
 223  623.6624
 224  577.156
 225  599.1967
 226  625.9812
 227  561.1301
 228  620.0513
 229  575.3115
 230  608.7411
 231  551.9077
 232  599.3675
 233  691.4871
 234  698.6616
 235  631.4236
 236  575.1597
 237  546.2646
 238  571.9902
 239  591.4109
 240  599.2836
 241  523.1472
 242  590.8443
 243  511.3393
 244  506.6872
 245  557.0262
 246  559.4647
 247  527.3956
 248  446.1906
 249  552.2733
 250  601.0026
 251  487.1102
 252  539.3074
 253  642.7178
 254  634.1182
 255  603.8356
 256  612.7285
 257  558.5068
 258  599.9731
 259  545.103
 260  581.2723
 261  543.3672
 262  534.3259
 263  478.9289
 264  521.5457
 265  555.1725
 266  597.1207
 267  715.5887
 268  744.1602
 269  738.8069
 270  678.5087
 271  594.3511
 272  597.5361
 273  630.1815
 274  663.853
 275  686.3866
 276  660.3782
 277  592.304
 278  555.6716
 279  613.7068
 280  532.0557
 281  454.1972
 282  512.7499
 283  620.5228
 284  693.3824
 285  652.8177
 286  529.3171
 287  432.4012
 288  551.8838
 289  598.3472
 290  595.159
 291  594.1894
 292  567.5719
 293  590.1674
 294  604.8406
 295  544.9218
 296  539.2194
 297  563.2123
 298  526.2252
 299  494.0611
 300  481.2123
 301  549.8997
 302  627.2057
 303  640.0408
 304  632.4326
 305  554.7617
 306  552.7996
 307  597.0616
 308  630.7267
 309  589.2924
 310  720.1097
 311  729.4362
 312  619.1586
 313  617.9155
 314  626.3342
 315  599.04
 316  628.1116
 317  644.1974
 318  676.2678
 319  696.4065
 320  707.6779
 321  727.7961
 322  630.6107
 323  581.8535
 324  543.4043
 325  558.7024
 326  556.9755
 327  539.6552
 328  456.7381
 329  473.0135
 330  470.2012
 331  424.8402
 332  465.7175
 333  394.2484
 334  460.3
 335  513.4994
 336  590.1445
 337  584.6855
 338  460.4572
 339  407.7031
 340  461.6197
 341  516.1005
 342  488.0464
 343  491.5053
 344  467.1664
 345  557.6605
 346  622.2556
 347  543.7453
 348  493.7161
 349  553.8837
 350  525.6255
 351  515.5876
 352  476.7188
 353  519.4249
 354  528.6702
 355  478.3962
 356  551.5111
 357  530.666
 358  530.6121
 359  592.6406
 360  573.0643
 361  511.6
 362  435.6867
 363  413.6155
 364  453.7086
 365  439.0806
 366  505.2595
 367  498.8159
 368  562.051
 369  637.0287
 370  585.5945
 371  530.7186
 372  414.7582
 373  437.9723
 374  430.3044
 375  496.7661
 376  476.3139
 377  459.2816
 378  532.2377
 379  508.6412
 380  453.2244
 381  424.6191
 382  442.0152
 383  488.0214
 384  477.2241
 385  494.6802
 386  453.5874
 387  464.1793
 388  519.6272
 389  607.9348
 390  513.6261
 391  510.0621
 392  488.2024
 393  602.0601
 394  627.3212
 395  557.0499
 396  570.2836
 397  530.5988
 398  547.8209
 399  530.3168
 400  514.9409
 401  451.314
 402  495.5533
 403  466.7698
 404  439.3143
 405  443.3698
 406  522.2964
 407  490.3779
 408  496.1809
 409  456.9406
 410  536.54
 411  535.5336
 412  653.7852
 413  551.7134
 414  515.2324
 415  463.6883
 416  373.3065
 417  461.8149
 418  535.7344
 419  425.5454
 420  464.9153
 421  541.5007
 422  537.5045
 423  598.7752
 424  511.9441
 425  572.5173
 426  601.6823
 427  520.3179
 428  569.8462
 429  631.6643
 430  662.3694
 431  696.2313
 432  612.5549
 433  524.0187
 434  467.5276
 435  405.2122
 436  432.9085
 437  572.2689
 438  573.0162
 439  468.5283
 440  524.4511
 441  517.2673
 442  529.249
 443  485.5125
 444  486.011
 445  514.3077
 446  435.0678
 447  423.7388
 448  483.1356
 449  551.5631
 450  544.8546
 451  528.0469
 452  477.3316
 453  416.9417
 454  451.4382
 455  454.8101
 456  400.8514
 457  445.4337
 458  462.0078
 459  516.9789
 460  506.9946
 461  454.2813
 462  351.8068
 463  338.5838
 464  559.5093
 465  631.3466
 466  622.0519
 467  548.8181
 468  474.1558
 469  492.0083
 470  499.2819
 471  477.5088
 472  388.8253
 473  581.8325
 474  660.7867
 475  626.4137
 476  578.4459
 477  479.0517
 478  538.0539
 479  577.2333
 480  568.5291
 481  557.2445
 482  643.3934
 483  695.1931
 484  722.7048
 485  690.848
 486  706.7564
 487  651.7711
 488  626.725
 489  592.7843
 490  608.3624
 491  579.708
 492  597.1901
 493  580.9867
 494  558.1042
 495  585.9994
 496  488.3474
 497  493.1399
 498  511.3722
 499  537.1569
 500  560.2311
 501  489.9819
 502  547.6035
 503  543.6811
 504  562.5874
 505  516.6816
 506  583.8522
 507  440.3043
 508  509.3745
 509  678.198
 510  549.6387
 511  580.1729
