# Input file       =  1183682620.103163_cleaned.dat
# Candidate        =  PSR_0332+5434
# Telescope        =  AR
# Epoch_topo       =  57944.030545175498
# Epoch_bary       =  N/A
# T_sample         =  0.002
# Data Folded      =  7208960
# Data Avg         =  0.27581761177862 
# Data StdDev      =  6.03779236303192 
# Profile Bins     =  1024
# Profile Avg      =  1941.80007645081 
# Profile StdDev   =  506.599204300963 
# Reduced chi-sqr  =  0.351
# Prob(Noise)      <  1   (~0.0 sigma)
# P_topo (ms)      =  714.482342287134  +/- 0.000198
# P'_topo (s/s)    =  -0                +/- 1.06e-10
# P''_topo (s/s^2) =  0                 +/- 4.78e-14
# P_bary (ms)      =  N/A
# P'_bary (s/s)    =  N/A
# P''_bary (s/s^2) =  N/A
# P_orb (s)        =  N/A
# asin(i)/c (s)    =  N/A
# eccentricity     =  N/A
# w (rad)          =  N/A
# T_peri           =  N/A
######################################################
   0  1625.224
   1  1785.899
   2  1756.661
   3  1930.549
   4  1733.904
   5  1666.139
   6  1721.322
   7  1885.622
   8  1946.3
   9  1809.465
  10  1918.303
  11  1865.928
  12  2012.463
  13  1988.69
  14  1976.068
  15  2000.921
  16  1908.788
  17  1795.57
  18  1712.16
  19  1845.598
  20  1927.778
  21  1867.213
  22  1794.198
  23  1769.139
  24  1839.108
  25  1908.802
  26  1899.591
  27  1915.346
  28  2134.487
  29  2230.84
  30  2200.62
  31  2049.391
  32  2081.798
  33  2109.767
  34  2106.098
  35  2074.402
  36  1708.09
  37  1853.398
  38  1886.594
  39  2143.05
  40  2001.128
  41  2015.651
  42  1987.553
  43  2100.621
  44  2031.141
  45  1953.369
  46  1960.602
  47  2163.566
  48  2113.011
  49  1954.965
  50  1800.755
  51  1908.346
  52  1962.541
  53  2038.017
  54  1910.646
  55  2046.49
  56  2066.446
  57  2150.255
  58  1901.439
  59  1846.171
  60  1805.84
  61  1910.295
  62  1927.458
  63  1931.881
  64  1836.884
  65  1861.187
  66  1922.594
  67  1843.744
  68  1886.906
  69  1919.894
  70  2027.095
  71  1967.682
  72  2046.284
  73  1983.063
  74  1961.804
  75  1792.862
  76  1785.402
  77  1775.44
  78  1835.94
  79  1855.952
  80  1980.19
  81  1863.274
  82  1765.241
  83  1748.316
  84  2011.606
  85  1994.943
  86  2051.729
  87  2104.257
  88  2157.501
  89  2115.988
  90  2050.505
  91  1934.984
  92  1823.809
  93  1923.528
  94  2019.118
  95  1937.854
  96  1832.396
  97  1831.443
  98  1956.741
  99  2047.596
 100  2032.071
 101  1981.064
 102  2030.695
 103  2077.634
 104  2107.245
 105  2150.445
 106  2155.479
 107  2056.799
 108  2046.266
 109  2016.151
 110  1881.843
 111  1860.047
 112  1913.313
 113  1978.391
 114  1925.319
 115  2030.431
 116  2035.459
 117  1986.835
 118  1932.636
 119  1864.65
 120  1769.26
 121  1783.436
 122  1969.114
 123  2062.208
 124  2111.258
 125  1961.143
 126  1849.651
 127  1777.868
 128  1855.677
 129  1973.889
 130  2079.077
 131  1948.945
 132  1786.561
 133  1769.359
 134  1892.69
 135  1845.234
 136  1881.564
 137  1985.051
 138  2183.587
 139  2119.205
 140  2079.976
 141  1928.177
 142  1953.263
 143  1867.42
 144  1951.44
 145  1999.872
 146  1978.585
 147  1954.105
 148  1861.237
 149  1946.495
 150  1827.483
 151  1785.462
 152  1845.288
 153  2001.87
 154  2084.085
 155  1914.298
 156  1904.8
 157  1801.721
 158  1878.132
 159  2002.224
 160  2117.037
 161  2131.105
 162  2102.178
 163  2159.997
 164  2122.311
 165  1978.053
 166  1897.062
 167  2050.524
 168  2061.88
 169  1893.841
 170  1745.121
 171  1759.879
 172  1780.407
 173  1749.8
 174  1904.548
 175  1841.047
 176  1792.821
 177  1709.759
 178  1805.666
 179  1718.999
 180  1726.63
 181  1737.327
 182  1901.827
 183  1898.942
 184  1841.674
 185  1919.783
 186  1960.512
 187  1859.016
 188  1894.584
 189  1995.26
 190  2183.278
 191  1963.989
 192  1858.657
 193  1826.708
 194  1861.555
 195  1799.244
 196  1911.695
 197  1920.771
 198  1925.326
 199  1780.472
 200  1845.094
 201  1942.45
 202  1987.925
 203  2007.006
 204  2061.544
 205  2100.802
 206  2055.895
 207  2068.61
 208  1997.583
 209  1876.209
 210  1859.548
 211  2105.692
 212  2178.183
 213  1963.868
 214  1751.94
 215  1711.42
 216  1669.719
 217  1767.549
 218  1872.949
 219  2178.109
 220  2131.244
 221  2080.458
 222  1862.319
 223  1923.571
 224  1942.329
 225  2133.035
 226  2147.058
 227  2065.009
 228  1937.487
 229  1839.556
 230  1956.297
 231  1847.212
 232  2056.86
 233  2004.678
 234  2071.55
 235  2083.986
 236  2039.446
 237  2041.782
 238  1999.609
 239  2132.825
 240  2140.228
 241  1931.059
 242  1999.48
 243  1955.905
 244  2024.398
 245  1860.858
 246  1945.789
 247  1987.546
 248  1969.82
 249  1884.625
 250  1904.43
 251  1886.965
 252  1852.293
 253  1771.091
 254  1920.388
 255  1969.507
 256  2067.366
 257  2162.685
 258  2233.146
 259  2108.709
 260  1989.918
 261  2046.636
 262  2126.079
 263  2005.458
 264  1956.256
 265  1957.811
 266  1910.357
 267  1920.344
 268  1930.313
 269  2148.492
 270  2194.52
 271  2206.241
 272  2106.186
 273  2012.151
 274  1963.187
 275  1954.161
 276  1957.187
 277  1963.777
 278  1869.132
 279  1990.681
 280  2121.926
 281  2117.76
 282  2216.545
 283  2021.491
 284  1909.659
 285  1847.211
 286  2067.774
 287  2179.912
 288  2182.86
 289  2126.677
 290  2094.593
 291  2010.827
 292  2071.234
 293  2026.487
 294  2050.724
 295  2003.331
 296  2011.246
 297  2238.098
 298  2137.65
 299  1892.811
 300  1721.997
 301  1947.041
 302  2128.23
 303  2114.498
 304  2194.49
 305  2239.015
 306  2248.376
 307  2365.779
 308  2372.6
 309  2376.46
 310  2221.822
 311  2209.598
 312  2094.937
 313  1980.604
 314  1981.952
 315  2051.561
 316  2043.665
 317  1923.824
 318  1732.822
 319  1858.545
 320  1796.458
 321  1855.121
 322  1921.963
 323  2107.141
 324  2203.354
 325  2046.364
 326  2000.176
 327  1982.703
 328  1984.151
 329  2089.139
 330  2097.861
 331  2100.502
 332  1950.033
 333  1924.405
 334  1990.281
 335  2033.668
 336  2085.597
 337  2091.759
 338  2170.295
 339  2178.95
 340  2167.088
 341  2055.406
 342  1964.361
 343  1760.431
 344  1823.248
 345  1838.43
 346  1946.646
 347  1928.608
 348  2052.142
 349  2065.611
 350  2097.698
 351  2075.125
 352  2119.563
 353  2230.57
 354  2173.477
 355  2064.865
 356  1991.497
 357  2145.698
 358  2179.337
 359  2227.346
 360  2158.401
 361  2124.28
 362  2043.794
 363  2152.894
 364  1956.048
 365  1973.873
 366  1907.804
 367  2009.132
 368  1894.969
 369  1987.005
 370  1897.829
 371  1855.717
 372  1756.452
 373  1856.852
 374  1812.581
 375  2065.267
 376  2040.314
 377  2094.028
 378  1958.461
 379  2019.14
 380  1880.227
 381  1762.115
 382  1987.737
 383  2152.067
 384  2145.872
 385  1959.191
 386  1904.438
 387  1865.891
 388  1879.952
 389  1893.654
 390  1933.447
 391  1831.058
 392  1795.572
 393  1783.255
 394  1910.747
 395  1943.508
 396  2142.45
 397  2181.417
 398  2311.123
 399  2148.004
 400  2099.514
 401  1856.09
 402  1942.415
 403  1966.792
 404  1955.796
 405  1865.329
 406  1813.423
 407  1777.835
 408  1593.509
 409  1506.236
 410  1680.455
 411  1751.196
 412  1874.904
 413  1928.249
 414  1861.619
 415  1717.043
 416  1738.963
 417  1968.321
 418  2124.29
 419  2012.91
 420  1906.637
 421  1865.68
 422  1875.017
 423  1847.934
 424  1740.564
 425  1810.349
 426  1835.305
 427  1878.785
 428  1846.157
 429  1854.112
 430  1919.541
 431  2058.675
 432  2023.64
 433  1937.257
 434  1944.372
 435  2096.855
 436  2101.075
 437  2093.435
 438  2028.638
 439  2017.332
 440  2015.001
 441  1968.635
 442  1927.35
 443  1944.966
 444  1774.341
 445  1679.971
 446  1645.375
 447  1916.166
 448  1957.167
 449  1890.896
 450  1910.278
 451  1800.903
 452  1958.018
 453  2007.101
 454  2095.179
 455  1930.156
 456  1837.688
 457  1795.555
 458  1686.312
 459  1656.999
 460  1754.546
 461  1888.432
 462  1867.026
 463  1885.842
 464  1876.412
 465  1915.802
 466  1775.089
 467  1887.931
 468  1947.426
 469  2011.398
 470  1947.61
 471  2091.264
 472  2143.056
 473  2017.457
 474  1952.149
 475  2039.257
 476  2001.229
 477  1887.65
 478  1764.978
 479  1885.03
 480  1829.347
 481  1748.047
 482  1800.382
 483  1977.092
 484  2056.651
 485  2068.413
 486  2195.077
 487  2287.26
 488  2100.526
 489  1972.86
 490  2038.336
 491  2065.152
 492  2028.28
 493  1951.616
 494  2019.221
 495  1818.41
 496  1747.977
 497  1711.113
 498  1928.731
 499  2087.35
 500  2252.196
 501  2132.197
 502  2142.04
 503  2039.733
 504  2143.059
 505  1915.737
 506  1955.828
 507  1894.14
 508  2100.928
 509  1854.325
 510  1729.698
 511  1628.896
 512  1767.25
 513  1855.237
 514  1947.243
 515  2044.285
 516  2047.678
 517  2018.157
 518  2064.283
 519  2015.004
 520  1966.642
 521  1936.364
 522  2044.988
 523  2065.252
 524  1916.616
 525  1856.027
 526  1955.688
 527  2092.191
 528  2057.05
 529  1916.778
 530  1898.654
 531  1942.391
 532  1812.384
 533  1784.283
 534  1741.391
 535  1903.505
 536  1832.141
 537  1868.563
 538  1690.304
 539  1562.21
 540  1498.21
 541  1587.12
 542  1741.435
 543  1726.781
 544  1662.675
 545  1815.805
 546  1927.981
 547  1922.008
 548  1701.299
 549  1726.872
 550  1947.232
 551  1866.372
 552  1884.157
 553  1757.08
 554  1624.108
 555  1487.175
 556  1617.728
 557  1764.557
 558  1760.429
 559  1836.782
 560  2025.565
 561  2091.447
 562  2032.405
 563  1981.604
 564  2144.593
 565  2176.489
 566  2066.776
 567  1913.996
 568  1878.661
 569  1868.992
 570  1913.638
 571  1849.377
 572  1843.238
 573  1718.147
 574  1734.88
 575  1681.92
 576  1634.048
 577  1661.456
 578  1658.509
 579  1756.773
 580  1864.278
 581  1974.714
 582  1911.676
 583  1845.166
 584  1767.445
 585  1734.836
 586  1674.417
 587  1827.036
 588  2058.234
 589  2030.708
 590  1853.756
 591  1841.793
 592  1931.471
 593  2051.85
 594  1894.744
 595  1917.757
 596  1810.859
 597  1741.296
 598  1746.486
 599  1890.959
 600  1957.2
 601  1905.92
 602  1985.889
 603  1975.693
 604  1943.177
 605  1899.678
 606  1963.573
 607  1806.095
 608  1700.076
 609  1769.037
 610  2033.998
 611  2111.766
 612  2130.384
 613  1973.143
 614  2042.812
 615  2025.667
 616  2043.237
 617  1997.162
 618  1924.893
 619  1784.868
 620  1844.304
 621  1830.644
 622  1934.117
 623  1883.631
 624  2033.411
 625  2049.059
 626  1947.75
 627  1846.661
 628  1847.489
 629  1946.615
 630  2006.554
 631  2076.641
 632  2156.058
 633  2220.448
 634  2165.228
 635  2095.505
 636  2050.097
 637  2088.334
 638  2059.72
 639  2053.226
 640  1916.324
 641  1905.604
 642  1994.536
 643  1974.319
 644  1858.095
 645  2020.393
 646  2252.66
 647  2488.145
 648  2477.116
 649  2614.122
 650  2685.382
 651  2751.727
 652  2782.754
 653  2895.035
 654  2962.557
 655  2903.951
 656  2754.346
 657  2519.805
 658  2411.386
 659  2077.867
 660  2092.597
 661  1855.718
 662  1831.859
 663  1657.94
 664  1832.903
 665  1840.685
 666  1813.964
 667  1854.333
 668  2023.761
 669  2034.985
 670  2099.046
 671  2141.201
 672  2050.817
 673  1862.545
 674  2002.112
 675  2248.133
 676  2251.162
 677  2022.796
 678  1917.672
 679  2011.52
 680  2106.395
 681  1908.998
 682  1911.037
 683  1992.568
 684  2068.751
 685  2101.192
 686  2082.633
 687  2003.304
 688  1808.78
 689  1824.548
 690  1892.125
 691  1845.197
 692  1847.222
 693  2009.556
 694  2057.506
 695  2101.73
 696  2019.424
 697  2076.319
 698  2217.185
 699  2109.795
 700  2022.057
 701  1873.547
 702  1903.791
 703  1847.998
 704  1904.863
 705  2071.178
 706  1878.808
 707  1829.583
 708  1750.477
 709  1872.517
 710  1891.712
 711  1994.728
 712  2150.581
 713  2013.598
 714  2110.518
 715  2113.997
 716  2201.733
 717  1962.888
 718  1926.57
 719  2064.233
 720  2312.092
 721  2314.126
 722  2220.9
 723  2089.88
 724  1950.566
 725  1871.337
 726  1962.223
 727  1899.687
 728  1964.012
 729  1949.08
 730  2045.234
 731  1919.962
 732  2045.654
 733  2101.461
 734  2146.715
 735  2074.563
 736  2095.885
 737  1973.594
 738  1954.152
 739  1882.867
 740  1811.352
 741  1760.136
 742  1780.601
 743  1917.086
 744  1971.388
 745  1968.59
 746  1828.877
 747  1737.031
 748  1851.223
 749  1985.902
 750  2068.203
 751  2089.498
 752  1972.951
 753  1912.068
 754  1977.391
 755  2136.033
 756  2124.038
 757  2024.386
 758  2036.793
 759  1996.241
 760  1994.429
 761  1749.792
 762  1772.443
 763  1892.254
 764  2005.114
 765  1953.034
 766  1883.002
 767  1846.931
 768  1876.776
 769  1810.783
 770  1826.368
 771  1730.355
 772  1744.691
 773  1827.889
 774  1903.802
 775  1959.547
 776  2045.902
 777  2033.344
 778  1943.235
 779  1902.435
 780  1952.572
 781  1917.964
 782  1846.035
 783  1745.596
 784  1726.001
 785  1801.297
 786  1863.014
 787  1856.235
 788  1766.037
 789  1656.853
 790  1679.867
 791  1802.124
 792  1920.14
 793  1852.33
 794  1906.716
 795  1896.616
 796  1688.776
 797  1797.585
 798  1911.13
 799  2044.169
 800  1896.193
 801  1897.83
 802  1803.476
 803  1772.642
 804  1719.35
 805  1903.615
 806  1890.453
 807  1861.082
 808  1849.57
 809  1952.615
 810  1928.357
 811  1712.939
 812  1710.216
 813  1879.783
 814  1940.884
 815  1898.162
 816  1961.668
 817  2010.181
 818  1871.839
 819  1711.326
 820  1748.442
 821  1647.663
 822  1600.269
 823  1746.12
 824  1919.62
 825  1873.892
 826  1757.123
 827  1845.027
 828  2179.069
 829  1906.461
 830  1782.745
 831  1597.698
 832  1702.758
 833  1540.281
 834  1687.859
 835  1696.632
 836  1713.322
 837  1514.42
 838  1678.325
 839  1699.678
 840  1868.343
 841  1849.985
 842  1898.452
 843  1787.707
 844  1854.527
 845  2084.44
 846  2225.913
 847  2107.959
 848  1864.385
 849  1841.767
 850  1918.974
 851  1974.716
 852  1907.308
 853  2190.107
 854  2135.454
 855  2071.897
 856  1786.643
 857  2014.229
 858  1992.671
 859  2115.123
 860  2040.718
 861  2045.432
 862  1970.537
 863  2024.438
 864  2079.416
 865  2076.858
 866  2122.517
 867  2117.899
 868  2125.692
 869  2047.131
 870  1875.129
 871  1913.755
 872  1856.517
 873  1878.539
 874  1769.324
 875  1906.024
 876  1924.022
 877  1882.578
 878  2013.219
 879  2046.788
 880  2151.319
 881  2134.943
 882  2106.703
 883  2033.498
 884  2099.91
 885  2013.573
 886  2033.23
 887  1915.243
 888  2097.049
 889  2086.469
 890  1992.224
 891  1852.113
 892  1665.321
 893  1770.756
 894  1844.083
 895  1905.706
 896  1893.699
 897  1855.502
 898  1891.523
 899  1956.383
 900  1877.532
 901  1766.224
 902  1683.267
 903  1767.093
 904  1857.935
 905  2145.666
 906  2330.001
 907  2187.802
 908  1870.26
 909  1857.065
 910  1865.782
 911  2102.65
 912  2028.86
 913  2196.51
 914  1980.746
 915  1954.749
 916  1811.264
 917  1823.497
 918  1823.031
 919  1832.86
 920  1822.406
 921  1814.839
 922  1790.107
 923  1837.327
 924  1871.085
 925  1916.312
 926  1856.61
 927  1981.493
 928  1921.958
 929  1757.79
 930  1525.805
 931  1603.08
 932  1748.871
 933  1733.046
 934  1714.179
 935  1609.656
 936  1733.018
 937  1684.134
 938  1867.059
 939  1650.923
 940  1850.125
 941  1782.872
 942  1882.485
 943  1834.217
 944  1745.857
 945  1722.034
 946  1732.549
 947  1925.677
 948  2068.158
 949  2091.599
 950  1897.318
 951  1761.659
 952  1798.629
 953  1914.799
 954  1911.61
 955  1853.493
 956  1740.804
 957  1727.681
 958  1837.036
 959  1796.866
 960  1677.353
 961  1724.804
 962  1810.713
 963  1896.001
 964  1810.211
 965  1912.975
 966  1837.81
 967  1719.005
 968  1784.382
 969  1887.552
 970  1820.356
 971  1822.422
 972  1860.444
 973  1903.994
 974  1686.827
 975  1771.15
 976  1914.07
 977  1926.186
 978  1845.922
 979  1855.468
 980  2103.54
 981  2047.966
 982  1947.568
 983  2051.56
 984  2214.097
 985  1965.242
 986  1813.535
 987  1752.815
 988  1776.719
 989  1703.288
 990  1879.997
 991  1904.187
 992  1861.369
 993  1771.631
 994  1946.317
 995  1909.926
 996  1884.426
 997  1806.826
 998  1892.985
 999  1910.756
1000  1838.901
1001  1779.11
1002  1764.101
1003  1765.89
1004  1666.112
1005  1704.105
1006  1579.044
1007  1613.966
1008  1697.135
1009  1997.21
1010  1987.907
1011  1924.401
1012  1894.402
1013  1936.016
1014  2013.31
1015  2048.084
1016  2038.353
1017  1884.396
1018  1736.437
1019  1811.549
1020  1874.243
1021  2067.426
1022  1812.914
1023  1835.007
