# Input file       =  1183682620.103163_cleaned.dat
# Candidate        =  PSR_0332+5434
# Telescope        =  AR
# Epoch_topo       =  57944.030545175498
# Epoch_bary       =  N/A
# T_sample         =  0.002
# Data Folded      =  7208960
# Data Avg         =  0.27581761177862 
# Data StdDev      =  6.03779236303192 
# Profile Bins     =  256
# Profile Avg      =  7767.2003057167  
# Profile StdDev   =  1013.19840860193 
# Reduced chi-sqr  =  0.432
# Prob(Noise)      <  1   (~0.0 sigma)
# P_topo (ms)      =  714.482342276546  +/- 0.00144
# P'_topo (s/s)    =  -0                +/- 7.76e-10
# P''_topo (s/s^2) =  0                 +/- 3.49e-13
# P_bary (ms)      =  N/A
# P'_bary (s/s)    =  N/A
# P''_bary (s/s^2) =  N/A
# P_orb (s)        =  N/A
# asin(i)/c (s)    =  N/A
# eccentricity     =  N/A
# w (rad)          =  N/A
# T_peri           =  N/A
######################################################
   0  7051.009
   1  7045.073
   2  7495.522
   3  7958.532
   4  7290.269
   5  7437.278
   6  7434.743
   7  8574.977
   8  8387.392
   9  7533.835
  10  8104.998
  11  8062.698
  12  7898.503
  13  7921.521
  14  8105.03
  15  7529.62
  16  7476.546
  17  7767.28
  18  7865.529
  19  7173.884
  20  7417.552
  21  7987.059
  22  8391.334
  23  7686.48
  24  7601.42
  25  8071.853
  26  8512.807
  27  7926.667
  28  7735.152
  29  7926.041
  30  7444.035
  31  7840.747
  32  7787.641
  33  7344.284
  34  8041.633
  35  7923.058
  36  7866.636
  37  7479.386
  38  7805.05
  39  7524.084
  40  8433.146
  41  8123.549
  42  7603.688
  43  7243.392
  44  7101.278
  45  7128.991
  46  7637.065
  47  7996.389
  48  7402.455
  49  7546.318
  50  7651.668
  51  8291.569
  52  7770.313
  53  7867.129
  54  7208.829
  55  8154.477
  56  8235.227
  57  7660.572
  58  8092.106
  59  8168.764
  60  8142.977
  61  7821.778
  62  7670.361
  63  7469.616
  64  8535.418
  65  8206.9
  66  7767.111
  67  8366.011
  68  8135.489
  69  7760.197
  70  8508.49
  71  7900.392
  72  8491.144
  73  8173.343
  74  8349.274
  75  7753.564
  76  8930.827
  77  9258.147
  78  8174.335
  79  7697.174
  80  7537.237
  81  8327.915
  82  8213.756
  83  7913.514
  84  8456.762
  85  8130.053
  86  7464.334
  87  8219.233
  88  8592.156
  89  8474.632
  90  8524.758
  91  7890.436
  92  7712.567
  93  7377.381
  94  8165.182
  95  7696.988
  96  8030.586
  97  7535.545
  98  7393.535
  99  8674.622
 100  7944.578
 101  7530.199
 102  6509.118
 103  7435.978
 104  7701.544
 105  7578.9
 106  7211.987
 107  7639.352
 108  7966.41
 109  8259.096
 110  7927.145
 111  6981.875
 112  7658.471
 113  7935.134
 114  7063.131
 115  7266.312
 116  7465.88
 117  7885.158
 118  8181.734
 119  7623.76
 120  7293.48
 121  8474.004
 122  8317.375
 123  7947.574
 124  7297.877
 125  8594.948
 126  7984.878
 127  7430.43
 128  7383.412
 129  8177.185
 130  8005.667
 131  7776.073
 132  7949.724
 133  7224.786
 134  7168.54
 135  6459.099
 136  7257.839
 137  7240.609
 138  6933.548
 139  6771.514
 140  8089.879
 141  8333.104
 142  7528.467
 143  7057.688
 144  6704.614
 145  7566.7
 146  6963.12
 147  7801.284
 148  7760.821
 149  7201.064
 150  7806.274
 151  7697.091
 152  7470.188
 153  8187.927
 154  7880.547
 155  7421.234
 156  7900.952
 157  7741.37
 158  8658.713
 159  8273.338
 160  7867.649
 161  8319.708
 162  10434.99
 163  11462.97
 164  10202.35
 165  7595.03
 166  7236.891
 167  8190.561
 168  8075.368
 169  8292.105
 170  7935.02
 171  8273.846
 172  7435.684
 173  7929.255
 174  8425.486
 175  7749.565
 176  7698.601
 177  7418.599
 178  8328.888
 179  8157.706
 180  8951.321
 181  7752.33
 182  7885.993
 183  8261.036
 184  8030.269
 185  7229.436
 186  7599.559
 187  7861.411
 188  7932.096
 189  8273.438
 190  7446.891
 191  7732.087
 192  7327.354
 193  7272.329
 194  7962.669
 195  7550.951
 196  7182.895
 197  6906.062
 198  7534.264
 199  7379.886
 200  7538.954
 201  7315.775
 202  7537.527
 203  7291.62
 204  7665.96
 205  6689.287
 206  7337.607
 207  7606.161
 208  6536.733
 209  6629.296
 210  7391.314
 211  8119.268
 212  7652.466
 213  8301.759
 214  7862.35
 215  8110.534
 216  8366.264
 217  8064.639
 218  7416.933
 219  7801.185
 220  8434.93
 221  8086.945
 222  8080.119
 223  7134.961
 224  7585.391
 225  7167.16
 226  8359.432
 227  7720.009
 228  8243.345
 229  7362.643
 230  7247.605
 231  7551.778
 232  7035.181
 233  6790.883
 234  6917.254
 235  7229.983
 236  7020.876
 237  7964.861
 238  7446.958
 239  7132.211
 240  7068.759
 241  7319.743
 242  7287.949
 243  7256.385
 244  7483.59
 245  8056.438
 246  7924.265
 247  7186.618
 248  7444.761
 249  7511.616
 250  7217.381
 251  6652.563
 252  7474.14
 253  7777.11
 254  7622.476
 255  7582.252
