# Input file       =  1183370233.240542_cleaned.dat
# Candidate        =  PSR_0332+5434
# Telescope        =  AR
# Epoch_topo       =  57940.414956487752
# Epoch_bary       =  N/A
# T_sample         =  0.002
# Data Folded      =  7340032
# Data Avg         =  0.0373759008474134
# Data StdDev      =  1.0001084656783  
# Profile Bins     =  512
# Profile Avg      =  535.749432535383 
# Profile StdDev   =  119.746023301772 
# Reduced chi-sqr  =  1.606
# Prob(Noise)      <  8.67e-17   (~8.2 sigma)
# P_topo (ms)      =  714.485413880195  +/- 1.77e-05
# P'_topo (s/s)    =  -0                +/- 9.35e-12
# P''_topo (s/s^2) =  0                 +/- 4.13e-15
# P_bary (ms)      =  N/A
# P'_bary (s/s)    =  N/A
# P''_bary (s/s^2) =  N/A
# P_orb (s)        =  N/A
# asin(i)/c (s)    =  N/A
# eccentricity     =  N/A
# w (rad)          =  N/A
# T_peri           =  N/A
######################################################
   0  601.1999
   1  618.9005
   2  478.015
   3  524.2389
   4  512.9702
   5  431.3476
   6  545.1466
   7  536.0311
   8  491.0751
   9  580.2087
  10  704.4183
  11  745.2501
  12  591.6379
  13  560.2014
  14  593.4675
  15  655.3687
  16  697.3982
  17  515.9085
  18  470.2833
  19  622.5289
  20  641.9303
  21  466.5593
  22  414.7413
  23  518.5615
  24  573.6709
  25  547.948
  26  559.173
  27  436.0552
  28  351.3315
  29  541.7061
  30  572.9195
  31  391.5832
  32  339.126
  33  490.6055
  34  687.2081
  35  646.9716
  36  545.6138
  37  479.0827
  38  561.7038
  39  639.9469
  40  544.3005
  41  369.829
  42  385.4911
  43  593.2054
  44  720.9172
  45  670.5579
  46  623.8578
  47  508.2177
  48  590.1633
  49  635.205
  50  528.0973
  51  415.7381
  52  521.702
  53  612.7423
  54  508.8033
  55  449.2169
  56  373.3567
  57  448.0803
  58  502.61
  59  573.8234
  60  420.315
  61  466.7888
  62  525.0168
  63  586.0663
  64  532.3644
  65  347.5215
  66  354.4492
  67  616.0787
  68  706.7995
  69  640.2125
  70  548.0569
  71  451.1749
  72  503.8608
  73  510.5368
  74  426.6953
  75  333.3687
  76  552.665
  77  695.8906
  78  558.8578
  79  366.085
  80  297.5011
  81  346.5154
  82  425.8418
  83  433.4499
  84  419.312
  85  469.5945
  86  558.3743
  87  617.5334
  88  555.7278
  89  355.1314
  90  376.2638
  91  474.394
  92  543.6771
  93  395.1726
  94  249.4652
  95  290.6444
  96  435.292
  97  440.2403
  98  342.799
  99  318.0158
 100  368.4263
 101  506.7378
 102  612.4119
 103  532.9629
 104  374.0151
 105  460.1225
 106  506.8045
 107  509.123
 108  385.2648
 109  530.5994
 110  647.3621
 111  710.0896
 112  482.5845
 113  370.3397
 114  374.378
 115  511.7319
 116  592.0208
 117  520.5042
 118  434.5685
 119  404.4016
 120  636.8078
 121  548.4836
 122  378.222
 123  424.5286
 124  450.8091
 125  576.4451
 126  592.7811
 127  492.548
 128  447.9409
 129  485.0522
 130  499.3542
 131  544.0769
 132  508.1117
 133  528.6924
 134  666.7278
 135  711.3618
 136  496.1482
 137  344.4134
 138  469.3793
 139  643.2891
 140  667.1702
 141  570.5477
 142  436.646
 143  447.1346
 144  521.6948
 145  599.1721
 146  522.8777
 147  385.7958
 148  538.6766
 149  536.2104
 150  634.8318
 151  551.3252
 152  465.7162
 153  531.8484
 154  591.7175
 155  556.1863
 156  406.0476
 157  365.0722
 158  481.2891
 159  561.1864
 160  467.0935
 161  452.4471
 162  432.7514
 163  385.1582
 164  476.9914
 165  596.4342
 166  552.2658
 167  510.4599
 168  595.1677
 169  560.4012
 170  433.324
 171  344.1219
 172  536.8157
 173  585.8694
 174  554.6226
 175  492.7793
 176  497.7115
 177  641.6915
 178  688.8834
 179  569.9122
 180  435.5866
 181  529.1599
 182  620.5095
 183  604.5692
 184  575.6431
 185  425.3192
 186  480.3655
 187  438.7729
 188  529.625
 189  468.7817
 190  381.1849
 191  477.334
 192  508.9256
 193  503.2365
 194  512.9455
 195  526.8007
 196  556.4198
 197  580.6739
 198  576.0156
 199  433.7628
 200  393.6836
 201  500.2928
 202  531.878
 203  465.2422
 204  395.7622
 205  440.288
 206  497.6229
 207  537.4788
 208  450.3536
 209  362.1833
 210  522.1942
 211  588.9837
 212  589.8514
 213  341.6497
 214  212.2374
 215  485.0511
 216  674.7466
 217  623.3821
 218  484.0494
 219  495.7817
 220  584.5546
 221  504.665
 222  520.3469
 223  362.9891
 224  361.2526
 225  532.4626
 226  504.5494
 227  456.6319
 228  328.8317
 229  394.311
 230  456.4976
 231  492.9973
 232  491.7669
 233  440.8305
 234  545.224
 235  614.5179
 236  685.2593
 237  617.9387
 238  420.1375
 239  403.8693
 240  431.8751
 241  408.1677
 242  353.3554
 243  400.2172
 244  508.7821
 245  580.7036
 246  513.3638
 247  398.794
 248  408.7408
 249  615.543
 250  732.9727
 251  646.1042
 252  599.8022
 253  611.1786
 254  664.107
 255  601.5962
 256  482.272
 257  402.1737
 258  458.3565
 259  624.5766
 260  634.9896
 261  497.7056
 262  521.9213
 263  559.8191
 264  603.5068
 265  451.7616
 266  401.7802
 267  483.0965
 268  575.41
 269  549.1881
 270  486.0192
 271  426.839
 272  496.8842
 273  569.2711
 274  547.0119
 275  412.4523
 276  309.9689
 277  442.7345
 278  553.7853
 279  530.2289
 280  393.7449
 281  326.3444
 282  362.5832
 283  555.9894
 284  653.8415
 285  555.0873
 286  457.9727
 287  521.9996
 288  575.0538
 289  553.5204
 290  334.5963
 291  337.0664
 292  451.73
 293  534.0195
 294  527.4429
 295  515.2607
 296  655.3214
 297  550.9081
 298  419.8852
 299  403.7142
 300  445.7809
 301  438.6725
 302  586.1804
 303  584.2548
 304  484.8129
 305  584.2994
 306  662.2055
 307  640.2425
 308  605.024
 309  565.904
 310  520.1617
 311  665.0521
 312  594.1979
 313  527.0759
 314  418.259
 315  541.2482
 316  686.8132
 317  676.048
 318  636.8671
 319  523.8816
 320  489.809
 321  602.3039
 322  631.0931
 323  552.9983
 324  570.4056
 325  605.4819
 326  685.1376
 327  695.1556
 328  516.6111
 329  382.6755
 330  489.9759
 331  645.512
 332  597.4429
 333  423.3804
 334  345.9954
 335  501.7324
 336  566.6562
 337  486.334
 338  372.6638
 339  423.7581
 340  456.1288
 341  517.2249
 342  611.303
 343  481.7944
 344  409.0454
 345  576.5101
 346  616.4264
 347  454.0643
 348  397.7205
 349  505.6694
 350  523.3715
 351  465.6515
 352  502.8543
 353  559.4593
 354  606.9294
 355  696.8121
 356  555.7669
 357  606.8644
 358  579.29
 359  651.8893
 360  699.8829
 361  544.0773
 362  415.0664
 363  509.0085
 364  748.1805
 365  672.6583
 366  560.77
 367  545.4686
 368  673.2272
 369  673.322
 370  493.6336
 371  480.1111
 372  468.2938
 373  560.0297
 374  631.4708
 375  543.0262
 376  485.5804
 377  537.8016
 378  638.0381
 379  596.1893
 380  513.361
 381  582.2563
 382  573.9362
 383  658.7734
 384  658.9163
 385  666.0669
 386  635.9847
 387  576.5776
 388  657.5643
 389  604.1497
 390  577.1282
 391  551.3752
 392  516.1262
 393  662.3547
 394  593.3824
 395  401.8107
 396  483.8747
 397  647.1956
 398  656.172
 399  692.9826
 400  630.8869
 401  535.6245
 402  527.7429
 403  627.5104
 404  552.8494
 405  432.3672
 406  505.5722
 407  598.6762
 408  680.9481
 409  652.2152
 410  560.3197
 411  557.1172
 412  666.5509
 413  656.0054
 414  542.496
 415  447.0809
 416  421.5534
 417  535.519
 418  672.158
 419  544.092
 420  613.1797
 421  559.3829
 422  553.8038
 423  442.1953
 424  436.0875
 425  563.0493
 426  616.2261
 427  644.6151
 428  706.1813
 429  572.3436
 430  479.4627
 431  549.2504
 432  548.0801
 433  615.4246
 434  601.6339
 435  573.5338
 436  706.9724
 437  590.7831
 438  498.3379
 439  544.1079
 440  488.3007
 441  516.9531
 442  655.7733
 443  446.6372
 444  452.7605
 445  590.0672
 446  812.5133
 447  614.1559
 448  439.2838
 449  528.7814
 450  647.3834
 451  630.9142
 452  633.3907
 453  546.2614
 454  539.5984
 455  572.4789
 456  637.9645
 457  534.1553
 458  518.4531
 459  619.6724
 460  749.1185
 461  628.7898
 462  492.2987
 463  487.9359
 464  541.5846
 465  749.8622
 466  564.7766
 467  482.2937
 468  525.4423
 469  576.9944
 470  635.0048
 471  473.5836
 472  453.8265
 473  449.7341
 474  643.1655
 475  683.8949
 476  462.2318
 477  477.7184
 478  543.9312
 479  481.5411
 480  529.0571
 481  453.0307
 482  448.1139
 483  662.6471
 484  741.8216
 485  617.7985
 486  578.4519
 487  621.0495
 488  742.3864
 489  853.5461
 490  870.378
 491  1003.361
 492  1090.116
 493  1069.634
 494  1044.463
 495  878.0237
 496  667.0556
 497  547.8681
 498  594.9807
 499  583.7908
 500  440.2615
 501  464.0713
 502  455.2248
 503  640.9059
 504  689.9774
 505  602.6288
 506  537.4912
 507  542.9723
 508  601.3312
 509  624.806
 510  535.424
 511  514.6865
