# Input file       =  1183970685.111763_cleaned.dat
# Candidate        =  PSR_0332+5434
# Telescope        =  AR
# Epoch_topo       =  57947.364630923184
# Epoch_bary       =  N/A
# T_sample         =  0.002
# Data Folded      =  7340032
# Data Avg         =  0.0426386682952479
# Data StdDev      =  1.00007853164987 
# Profile Bins     =  512
# Profile Avg      =  611.332123317649 
# Profile StdDev   =  119.742439209657 
# Reduced chi-sqr  =  0.951
# Prob(Noise)      <  0.783   (~0.0 sigma)
# P_topo (ms)      =  714.480358208515  +/- 0.000182
# P'_topo (s/s)    =  -0                +/- 9.59e-11
# P''_topo (s/s^2) =  0                 +/- 4.23e-14
# P_bary (ms)      =  N/A
# P'_bary (s/s)    =  N/A
# P''_bary (s/s^2) =  N/A
# P_orb (s)        =  N/A
# asin(i)/c (s)    =  N/A
# eccentricity     =  N/A
# w (rad)          =  N/A
# T_peri           =  N/A
######################################################
   0  460.7647
   1  606.1246
   2  560.2662
   3  553.0992
   4  533.8608
   5  510.6621
   6  558.7222
   7  551.9296
   8  526.0083
   9  575.1478
  10  621.379
  11  587.1073
  12  580.8046
  13  616.458
  14  698.1
  15  606.637
  16  659.1007
  17  625.7368
  18  622.9895
  19  672.0931
  20  531.2996
  21  545.8735
  22  584.4924
  23  571.9865
  24  577.4289
  25  667.1711
  26  772.8588
  27  615.4524
  28  582.1378
  29  499.5706
  30  479.6399
  31  596.2983
  32  648.5368
  33  607.7656
  34  568.6305
  35  607.0887
  36  619.7667
  37  555.073
  38  525.0836
  39  539.4844
  40  636.5975
  41  658.5442
  42  581.8361
  43  605.1756
  44  677.6715
  45  638.6992
  46  627.1802
  47  678.2672
  48  807.3848
  49  715.5876
  50  644.3691
  51  687.8428
  52  660.3456
  53  644.7457
  54  616.1968
  55  531.0353
  56  493.9249
  57  571.8575
  58  622.4656
  59  705.9353
  60  633.0088
  61  644.128
  62  632.95
  63  658.815
  64  620.0429
  65  633.4278
  66  632.9662
  67  597.626
  68  633.0018
  69  510.7679
  70  592.0641
  71  598.8143
  72  617.7693
  73  658.9867
  74  601.6662
  75  628.0607
  76  676.1652
  77  702.583
  78  722.8838
  79  653.645
  80  667.0718
  81  653.8134
  82  596.548
  83  531.9164
  84  493.1203
  85  557.6901
  86  597.4337
  87  556.2169
  88  574.7325
  89  617.8238
  90  640.1476
  91  523.288
  92  440.8341
  93  576.8529
  94  629.0084
  95  768.3152
  96  776.3218
  97  595.8406
  98  766.3259
  99  805.6878
 100  832.0731
 101  895.9824
 102  1113.196
 103  1235.506
 104  1079.272
 105  938.3016
 106  882.1638
 107  718.2834
 108  573.9838
 109  606.0526
 110  631.8684
 111  612.9429
 112  585.4958
 113  667.3593
 114  613.9229
 115  541.3599
 116  597.9219
 117  533.0421
 118  615.0535
 119  660.4476
 120  541.8322
 121  541.8658
 122  547.723
 123  526.8353
 124  504.7841
 125  543.3135
 126  573.4349
 127  599.5195
 128  535.9926
 129  556.4612
 130  495.9909
 131  599.8896
 132  721.4185
 133  652.1723
 134  636.2722
 135  658.8436
 136  586.8928
 137  461.2968
 138  456.7637
 139  520.4781
 140  651.9565
 141  727.7446
 142  713.0107
 143  677.0774
 144  615.9515
 145  473.2322
 146  556.9282
 147  629.4679
 148  610.3243
 149  572.0472
 150  448.7987
 151  614.0246
 152  691.5759
 153  704.7136
 154  592.6769
 155  537.6727
 156  500.5423
 157  454.2465
 158  540.9178
 159  638.5431
 160  698.2634
 161  640.0177
 162  585.9897
 163  461.018
 164  563.9867
 165  647.5993
 166  592.7527
 167  718.2255
 168  641.9485
 169  526.3766
 170  638.9667
 171  598.6844
 172  638.7588
 173  564.3301
 174  619.7416
 175  606.0413
 176  461.1753
 177  571.5167
 178  601.5485
 179  566.0989
 180  618.7154
 181  579.2808
 182  502.83
 183  477.9539
 184  628.1485
 185  526.4647
 186  428.0247
 187  367.0408
 188  468.5595
 189  581.3612
 190  508.5546
 191  647.5108
 192  582.6635
 193  591.175
 194  565.0897
 195  619.5952
 196  663.6362
 197  568.0233
 198  592.6443
 199  601.1871
 200  553.5709
 201  580.946
 202  626.1251
 203  635.3102
 204  547.9316
 205  584.999
 206  585.814
 207  599.2164
 208  663.4786
 209  593.8961
 210  574.1478
 211  575.8107
 212  584.6365
 213  563.8011
 214  643.5912
 215  683.3383
 216  627.6887
 217  640.3854
 218  590.3492
 219  654.8203
 220  674.1538
 221  640.4946
 222  595.8975
 223  621.3297
 224  631.5758
 225  568.4493
 226  570.6938
 227  667.9244
 228  781.9771
 229  636.7765
 230  558.6733
 231  571.0829
 232  654.8384
 233  671.8627
 234  685.191
 235  654.8214
 236  616.9001
 237  640.2758
 238  647.6603
 239  676.4898
 240  676.4324
 241  596.3142
 242  602.0711
 243  521.8399
 244  623.0971
 245  665.1918
 246  650.4052
 247  708.8448
 248  675.5687
 249  602.3195
 250  554.6398
 251  623.44
 252  638.1959
 253  563.7641
 254  470.6899
 255  614.6305
 256  578.7313
 257  574.8471
 258  549.6741
 259  540.1022
 260  629.5528
 261  661.3044
 262  729.5714
 263  618.8522
 264  565.6905
 265  540.2906
 266  551.0536
 267  617.9023
 268  579.1216
 269  540.3584
 270  548.0778
 271  453.7706
 272  545.398
 273  608.29
 274  585.6707
 275  687.4557
 276  674.587
 277  633.326
 278  533.0465
 279  584.7716
 280  619.7726
 281  704.0981
 282  600.7686
 283  548.4871
 284  598.8887
 285  654.1434
 286  696.3751
 287  674.2244
 288  664.0897
 289  559.6387
 290  701.6291
 291  686.3205
 292  581.0007
 293  534.3712
 294  671.8447
 295  683.6436
 296  638.2651
 297  575.9209
 298  617.3085
 299  605.2172
 300  632.0458
 301  646.9704
 302  529.4749
 303  601.5731
 304  608.1895
 305  540.9622
 306  622.4165
 307  574.2568
 308  592.5436
 309  622.1101
 310  655.3563
 311  699.6675
 312  618.9008
 313  526.9897
 314  643.467
 315  669.6166
 316  559.3518
 317  566.4465
 318  726.3669
 319  774.2031
 320  635.4717
 321  566.0016
 322  488.1111
 323  626.8299
 324  690.4996
 325  715.9751
 326  580.5024
 327  504.4893
 328  499.403
 329  501.7513
 330  600.9427
 331  614.8794
 332  541.2018
 333  510.4244
 334  491.1671
 335  606.185
 336  568.4061
 337  545.1149
 338  669.5768
 339  745.3242
 340  582.6724
 341  459.5939
 342  400.1893
 343  467.9476
 344  624.6449
 345  685.1455
 346  710.9051
 347  649.9662
 348  592.7901
 349  543.48
 350  528.347
 351  565.7704
 352  659.2147
 353  811.4232
 354  749.1981
 355  698.1234
 356  666.3542
 357  573.5293
 358  689.9471
 359  768.2208
 360  626.9886
 361  595.3416
 362  719.6105
 363  661.9619
 364  576.2307
 365  655.2831
 366  732.3279
 367  656.1309
 368  520.1445
 369  554.2562
 370  541.2319
 371  625.8897
 372  554.7662
 373  609.7985
 374  613.5492
 375  643.5933
 376  571.6407
 377  612.7594
 378  630.1739
 379  588.9255
 380  598.7575
 381  818.3854
 382  638.6093
 383  444.703
 384  573.1801
 385  596.5342
 386  521.2816
 387  513.1974
 388  569.7347
 389  629.5731
 390  621.4968
 391  751.8569
 392  723.4355
 393  661.0385
 394  666.1266
 395  655.2051
 396  554.601
 397  532.6408
 398  484.9449
 399  542.9869
 400  612.7307
 401  622.1674
 402  660.3664
 403  652.4388
 404  645.376
 405  669.1992
 406  538.3541
 407  626.572
 408  653.1273
 409  610.5469
 410  573.7409
 411  579.7225
 412  625.0914
 413  575.7867
 414  609.0954
 415  575.73
 416  492.3844
 417  543.4268
 418  566.7189
 419  621.7641
 420  677.4918
 421  558.6184
 422  486.0165
 423  421.9538
 424  557.0739
 425  536.5242
 426  545.4313
 427  479.435
 428  528.5457
 429  644.2258
 430  557.2781
 431  590.7563
 432  604.0003
 433  699.8362
 434  726.9678
 435  603.5328
 436  583.8019
 437  631.4871
 438  516.509
 439  540.8865
 440  616.0413
 441  654.2744
 442  747.979
 443  563.2333
 444  516.4689
 445  663.1271
 446  675.0224
 447  671.0811
 448  689.1486
 449  559.8843
 450  529.7484
 451  621.1834
 452  671.7335
 453  679.1404
 454  664.1503
 455  621.4066
 456  715.2637
 457  643.811
 458  584.6845
 459  624.2458
 460  706.5724
 461  612.2693
 462  604.0112
 463  538.8655
 464  623.4824
 465  610.2632
 466  611.0037
 467  661.5855
 468  733.3243
 469  705.9249
 470  658.3153
 471  537.1307
 472  591.5048
 473  718.2517
 474  694.5891
 475  657.1825
 476  635.4433
 477  608.6769
 478  660.3421
 479  734.2234
 480  666.8377
 481  683.361
 482  560.3953
 483  490.2837
 484  509.9677
 485  578.7293
 486  681.7966
 487  625.0969
 488  556.8398
 489  581.5559
 490  482.013
 491  525.412
 492  634.8011
 493  683.5319
 494  614.7696
 495  682.3843
 496  619.1485
 497  697.5995
 498  670.2354
 499  642.2656
 500  585.1285
 501  578.1418
 502  602.2456
 503  494.7242
 504  589.636
 505  665.8002
 506  632.1851
 507  576.225
 508  562.9617
 509  571.8369
 510  514.0465
 511  485.823
