# Input file       =  1183611107.093294_cleaned.dat
# Candidate        =  PSR_0332+5434
# Telescope        =  AR
# Epoch_topo       =  57943.202848302011
# Epoch_bary       =  N/A
# T_sample         =  0.002
# Data Folded      =  7340032
# Data Avg         =  0.0409853097087338
# Data StdDev      =  1.00005254028772 
# Profile Bins     =  512
# Profile Avg      =  587.93203045377  
# Profile StdDev   =  119.739327184946 
# Reduced chi-sqr  =  1.380
# Prob(Noise)      <  2.32e-08   (~5.5 sigma)
# P_topo (ms)      =  714.482950495916  +/- 0.000304
# P'_topo (s/s)    =  -0                +/- 1.61e-10
# P''_topo (s/s^2) =  0                 +/- 7.09e-14
# P_bary (ms)      =  N/A
# P'_bary (s/s)    =  N/A
# P''_bary (s/s^2) =  N/A
# P_orb (s)        =  N/A
# asin(i)/c (s)    =  N/A
# eccentricity     =  N/A
# w (rad)          =  N/A
# T_peri           =  N/A
######################################################
   0  555.6638
   1  621.3275
   2  642.0103
   3  700.4351
   4  672.0637
   5  644.5106
   6  571.2002
   7  589.0673
   8  616.3172
   9  555.4681
  10  473.5735
  11  469.126
  12  506.3546
  13  554.6646
  14  624.0463
  15  646.9796
  16  561.2896
  17  516.8945
  18  525.9149
  19  480.8041
  20  421.5596
  21  419.2503
  22  477.0869
  23  501.9751
  24  439.3025
  25  308.2097
  26  369.726
  27  392.5811
  28  444.4394
  29  473.709
  30  411.1124
  31  384.8405
  32  383.1944
  33  456.6928
  34  504.6476
  35  507.9647
  36  526.4247
  37  490.8793
  38  448.9402
  39  499.0556
  40  541.0903
  41  684.4506
  42  654.4367
  43  653.7095
  44  574.9061
  45  609.4143
  46  636.6008
  47  577.3055
  48  584.9619
  49  683.9218
  50  663.8709
  51  541.3552
  52  599.8046
  53  564.4127
  54  532.8406
  55  545.852
  56  591.9775
  57  586.8365
  58  619.49
  59  561.2794
  60  552.8517
  61  543.0491
  62  470.4492
  63  412.2372
  64  479.1343
  65  578.4418
  66  626.6981
  67  570.3256
  68  524.6183
  69  504.7199
  70  437.3252
  71  546.6417
  72  595.1002
  73  569.801
  74  457.5291
  75  542.8073
  76  487.9664
  77  505.6516
  78  395.661
  79  357.8353
  80  360.1893
  81  512.2
  82  556.3509
  83  550.5756
  84  470.2589
  85  512.1145
  86  438.4922
  87  520.2107
  88  564.0821
  89  471.8218
  90  459.8727
  91  493.8943
  92  595.8055
  93  647.0716
  94  545.9985
  95  470.7021
  96  454.7591
  97  505.0494
  98  522.7176
  99  456.5178
 100  566.4368
 101  585.8943
 102  533.3893
 103  498.6314
 104  508.9542
 105  516.0554
 106  573.1301
 107  630.0262
 108  607.7874
 109  571.2413
 110  575.4263
 111  488.6169
 112  454.6171
 113  541.1763
 114  514.9669
 115  475.8597
 116  504.426
 117  466.8182
 118  478.9883
 119  587.1442
 120  628.3713
 121  581.562
 122  588.2595
 123  512.8443
 124  605.8062
 125  678.1445
 126  679.5
 127  747.244
 128  802.936
 129  713.2259
 130  694.8674
 131  679.6249
 132  600.3015
 133  589.3078
 134  619.2204
 135  599.7269
 136  529.3593
 137  559.7153
 138  550.5851
 139  530.548
 140  625.3813
 141  623.6406
 142  592.0139
 143  647.6035
 144  732.41
 145  774.6208
 146  845.6408
 147  1134.637
 148  1222.448
 149  1247.81
 150  1139.561
 151  858.6754
 152  612.1628
 153  578.4558
 154  553.8705
 155  550.6993
 156  448.0175
 157  540.7555
 158  670.1409
 159  651.5902
 160  624.336
 161  560.2414
 162  467.0426
 163  448.2566
 164  517.5532
 165  592.5131
 166  627.9919
 167  674.5156
 168  633.3575
 169  697.3353
 170  662.586
 171  591.6177
 172  578.0276
 173  513.4635
 174  475.6436
 175  558.4116
 176  573.4108
 177  589.8568
 178  665.6461
 179  616.4091
 180  533.0952
 181  560.8619
 182  571.3732
 183  484.0836
 184  552.523
 185  616.831
 186  653.2855
 187  512.0061
 188  597.6224
 189  585.7079
 190  593.6893
 191  595.5733
 192  558.8882
 193  485.2925
 194  547.6334
 195  625.6995
 196  706.2305
 197  610.3352
 198  575.2906
 199  535.004
 200  591.3979
 201  616.5912
 202  774.8464
 203  607.8989
 204  626.8273
 205  572.4474
 206  566.49
 207  680.2498
 208  756.8546
 209  679.9752
 210  809.6915
 211  766.835
 212  624.4449
 213  640.5098
 214  754.487
 215  671.9882
 216  633.7479
 217  669.6989
 218  574.6522
 219  616.8153
 220  734.7823
 221  731.0563
 222  622.5797
 223  722.9333
 224  638.2123
 225  528.5833
 226  548.7053
 227  528.3828
 228  561.6332
 229  480.1385
 230  687.5961
 231  623.3719
 232  638.3528
 233  539.3434
 234  531.5112
 235  621.1353
 236  572.0089
 237  508.1153
 238  531.8661
 239  515.7269
 240  429.7487
 241  453.188
 242  495.8399
 243  423.6632
 244  421.4062
 245  576.2444
 246  467.3927
 247  498.2007
 248  692.9457
 249  556.1893
 250  586.9937
 251  473.2055
 252  506.9627
 253  556.7658
 254  494.3005
 255  550.956
 256  400.6159
 257  514.4853
 258  561.3918
 259  560.157
 260  543.2972
 261  586.1484
 262  623.1632
 263  674.4396
 264  637.0426
 265  604.6077
 266  585.3056
 267  604.0422
 268  527.8232
 269  578.1541
 270  598.5958
 271  631.8842
 272  571.685
 273  494.9989
 274  439.7668
 275  508.805
 276  653.8333
 277  578.4811
 278  605.877
 279  642.25
 280  644.8092
 281  669.4534
 282  621.3649
 283  587.9343
 284  592.4398
 285  577.8827
 286  559.8623
 287  499.6797
 288  502.6299
 289  522.7885
 290  640.9684
 291  647.5342
 292  653.0836
 293  620.0532
 294  709.1113
 295  592.0098
 296  539.5731
 297  668.475
 298  661.3549
 299  702.5195
 300  625.3546
 301  589.5361
 302  608.7945
 303  624.5457
 304  600.8451
 305  498.872
 306  574.3544
 307  628.5177
 308  620.2919
 309  716.9982
 310  683.1279
 311  578.6014
 312  567.0609
 313  611.9442
 314  558.4335
 315  460.944
 316  545.1745
 317  517.0485
 318  524.9387
 319  558.7661
 320  477.3058
 321  473.3402
 322  466.3569
 323  527.5866
 324  496.7923
 325  466.2121
 326  465.5067
 327  548.7763
 328  534.5477
 329  629.5334
 330  635.8657
 331  663.2365
 332  634.6628
 333  621.8597
 334  615.3583
 335  622.6321
 336  629.3117
 337  683.9091
 338  633.8852
 339  475.2417
 340  406.0715
 341  639.703
 342  680.0767
 343  539.7241
 344  634.7014
 345  695.1706
 346  645.8569
 347  608.9555
 348  636.6913
 349  696.1771
 350  811.7682
 351  765.1647
 352  667.2354
 353  738.5381
 354  748.7391
 355  736.8113
 356  679.9526
 357  678.6458
 358  658.0211
 359  601.4549
 360  653.6658
 361  718.3163
 362  666.0292
 363  600.4348
 364  568.312
 365  595.8621
 366  600.3754
 367  616.9761
 368  633.6054
 369  630.3989
 370  663.6227
 371  640.3019
 372  633.2694
 373  611.403
 374  623.0912
 375  639.4276
 376  636.1053
 377  755.8241
 378  731.7967
 379  762.0902
 380  732.0064
 381  740.0397
 382  743.7603
 383  773.049
 384  668.98
 385  687.066
 386  703.2185
 387  666.9395
 388  626.5935
 389  576.5467
 390  653.4235
 391  656.7049
 392  608.1962
 393  576.3381
 394  680.3646
 395  600.0557
 396  503.6329
 397  556.9255
 398  585.17
 399  642.9238
 400  614.516
 401  541.8062
 402  556.2874
 403  520.8848
 404  543.4518
 405  494.605
 406  522.8098
 407  553.0237
 408  628.7984
 409  697.5808
 410  608.0422
 411  543.5909
 412  576.518
 413  495.1306
 414  491.7309
 415  498.8932
 416  560.0133
 417  667.6009
 418  677.0353
 419  542.2748
 420  531.1127
 421  536.2285
 422  625.2752
 423  668.6625
 424  675.9983
 425  635.4261
 426  593.0312
 427  557.1144
 428  602.2255
 429  607.8916
 430  659.1964
 431  720.9868
 432  754.2562
 433  737.7189
 434  660.6174
 435  606.7941
 436  565.1934
 437  626.0974
 438  650.4329
 439  644.0288
 440  592.5947
 441  551.7038
 442  572.7479
 443  583.7425
 444  537.3029
 445  529.5395
 446  477.4441
 447  586.5479
 448  559.3082
 449  582.8446
 450  692.7007
 451  570.1156
 452  582.9145
 453  667.8264
 454  646.6091
 455  565.562
 456  476.1541
 457  565.6795
 458  502.7833
 459  455.8659
 460  490.9565
 461  523.8244
 462  567.1962
 463  530.0771
 464  533.5209
 465  569.9293
 466  601.5544
 467  606.505
 468  700.0868
 469  737.5983
 470  737.0328
 471  663.9534
 472  746.1649
 473  723.7396
 474  766.003
 475  719.8414
 476  724.2217
 477  725.9536
 478  691.1117
 479  601.7383
 480  578.9379
 481  545.5073
 482  622.3901
 483  686.4012
 484  580.8531
 485  496.2182
 486  547.9202
 487  522.9882
 488  468.9863
 489  462.4868
 490  633.1739
 491  652.2331
 492  564.3636
 493  495.5713
 494  369.8993
 495  470.7929
 496  439.8075
 497  419.4036
 498  358.7116
 499  472.3091
 500  523.3253
 501  460.3245
 502  579.9838
 503  612.9526
 504  579.2502
 505  595.0626
 506  593.9951
 507  664.3201
 508  579.0558
 509  548.2903
 510  571.3319
 511  559.7729
