# Input file       =  1183281104.121031_cleaned.dat
# Candidate        =  PSR_0332+5434
# Telescope        =  AR
# Epoch_topo       =  57939.383369456380
# Epoch_bary       =  N/A
# T_sample         =  0.002
# Data Folded      =  7340032
# Data Avg         =  0.0628430862636198
# Data StdDev      =  0.999933708435548
# Profile Bins     =  512
# Profile Avg      =  900.94393949712  
# Profile StdDev   =  119.725099086468 
# Reduced chi-sqr  =  0.871
# Prob(Noise)      <  0.984   (~0.0 sigma)
# P_topo (ms)      =  714.486119084322  +/- 0.000548
# P'_topo (s/s)    =  -0                +/- 2.89e-10
# P''_topo (s/s^2) =  0                 +/- 1.28e-13
# P_bary (ms)      =  N/A
# P'_bary (s/s)    =  N/A
# P''_bary (s/s^2) =  N/A
# P_orb (s)        =  N/A
# asin(i)/c (s)    =  N/A
# eccentricity     =  N/A
# w (rad)          =  N/A
# T_peri           =  N/A
######################################################
   0  798.074
   1  845.5881
   2  877.4573
   3  884.4349
   4  813.5824
   5  825.3209
   6  829.9942
   7  833.3504
   8  755.0546
   9  884.3656
  10  907.3258
  11  915.8311
  12  886.7263
  13  870.3689
  14  880.7091
  15  914.5598
  16  912.8013
  17  952.8237
  18  925.9543
  19  853.1937
  20  821.9609
  21  791.1298
  22  714.7568
  23  761.2928
  24  903.4089
  25  860.6469
  26  810.2158
  27  842.7034
  28  855.4597
  29  922.2808
  30  1009.48
  31  944.0001
  32  837.3299
  33  920.2513
  34  885.2769
  35  874.7028
  36  845.884
  37  936.3143
  38  912.2233
  39  795.7355
  40  791.1673
  41  864.9401
  42  848.3505
  43  843.1541
  44  930.8614
  45  912.6483
  46  994.8917
  47  989.4926
  48  909.0531
  49  875.294
  50  902.9874
  51  997.8875
  52  1022.158
  53  924.1395
  54  877.4525
  55  954.8182
  56  978.9819
  57  971.65
  58  1015.648
  59  1009.35
  60  961.903
  61  904.3044
  62  935.4229
  63  967.9919
  64  909.5515
  65  769.4479
  66  814.9842
  67  802.2025
  68  825.7341
  69  947.4457
  70  905.2126
  71  904.3298
  72  915.1877
  73  927.2806
  74  952.5646
  75  860.4782
  76  888.4751
  77  923.4088
  78  941.614
  79  1011.368
  80  916.9598
  81  789.6383
  82  889.1759
  83  935.4794
  84  963.1937
  85  964.4676
  86  1034.691
  87  942.9167
  88  893.0656
  89  884.7243
  90  878.5017
  91  873.634
  92  915.3053
  93  971.6972
  94  1027.2
  95  940.6422
  96  874.7122
  97  827.3672
  98  852.6729
  99  885.6683
 100  875.3996
 101  1002.239
 102  897.6326
 103  868.9958
 104  849.5656
 105  887.2913
 106  1056.252
 107  965.9026
 108  1011.325
 109  1016.881
 110  951.3337
 111  987.0176
 112  989.3923
 113  904.1131
 114  896.8804
 115  917.6428
 116  928.2869
 117  915.9115
 118  948.5612
 119  943.1137
 120  934.1994
 121  881.8512
 122  857.8121
 123  894.7878
 124  918.8046
 125  961.457
 126  895.6766
 127  898.1161
 128  920.1428
 129  1035.81
 130  959.6476
 131  871.9785
 132  858.1454
 133  981.6044
 134  919.8103
 135  875.8933
 136  929.838
 137  934.2435
 138  811.6728
 139  841.5859
 140  936.0518
 141  1011.471
 142  965.9459
 143  926.9734
 144  832.7352
 145  863.9269
 146  976.9808
 147  854.4805
 148  850.4183
 149  888.8757
 150  895.4274
 151  897.0201
 152  913.4827
 153  809.2342
 154  820.3657
 155  828.7686
 156  798.6935
 157  866.9964
 158  887.3156
 159  834.4105
 160  837.652
 161  829.2628
 162  831.5482
 163  816.323
 164  876.9308
 165  931.2247
 166  894.0801
 167  834.29
 168  816.9729
 169  844.5259
 170  778.4844
 171  815.1984
 172  786.3852
 173  951.4525
 174  1004.538
 175  918.9507
 176  843.3132
 177  769.902
 178  787.6678
 179  772.0225
 180  803.9089
 181  869.2986
 182  896.6152
 183  947.7269
 184  952.1809
 185  881.0929
 186  869.6786
 187  887.5674
 188  910.5109
 189  855.0746
 190  881.0215
 191  949.3706
 192  945.4305
 193  849.9959
 194  890.6592
 195  869.3746
 196  879.2508
 197  868.33
 198  914.9384
 199  944.1264
 200  955.3453
 201  977.4023
 202  953.1768
 203  945.1376
 204  966.8761
 205  855.9194
 206  944.9882
 207  926.1026
 208  903.2499
 209  1003.944
 210  907.0827
 211  822.5021
 212  888.1058
 213  946.1007
 214  949.5629
 215  869.7994
 216  948.2306
 217  1002.446
 218  943.4618
 219  938.7766
 220  896.7245
 221  804.1866
 222  919.3076
 223  935.9911
 224  939.9079
 225  938.9175
 226  894.2363
 227  943.6863
 228  833.7521
 229  774.8069
 230  941.1025
 231  922.8471
 232  852.9959
 233  928.1119
 234  941.4808
 235  968.8938
 236  981.9363
 237  910.6852
 238  945.9816
 239  849.2416
 240  888.5451
 241  997.031
 242  1025.872
 243  1002.491
 244  1041.588
 245  1028.947
 246  1020.319
 247  1002.819
 248  997.0637
 249  923.882
 250  893.9197
 251  969.4008
 252  950.0776
 253  945.0272
 254  845.7066
 255  804.3398
 256  812.4755
 257  864.2583
 258  845.5732
 259  937.7004
 260  922.8715
 261  880.4365
 262  820.8078
 263  792.3683
 264  878.2188
 265  932.2023
 266  908.7718
 267  892.3032
 268  880.8461
 269  873.5983
 270  953.9475
 271  977.4734
 272  902.4495
 273  797.559
 274  783.4539
 275  851.374
 276  860.0561
 277  845.0261
 278  880.8722
 279  888.4072
 280  985.8492
 281  914.9446
 282  817.4771
 283  799.6553
 284  878.8811
 285  901.3578
 286  969.0475
 287  900.8692
 288  922.9653
 289  976.0937
 290  910.335
 291  826.882
 292  787.6727
 293  808.5458
 294  943.7842
 295  918.2597
 296  891.2424
 297  906.1891
 298  971.5511
 299  980.5458
 300  921.1474
 301  876.5919
 302  873.117
 303  892.4662
 304  856.7276
 305  889.2148
 306  795.0143
 307  902.8807
 308  838.2022
 309  864.0884
 310  945.528
 311  870.4786
 312  834.9556
 313  829.1367
 314  855.5858
 315  884.676
 316  894.5117
 317  932.8984
 318  852.6097
 319  927.3561
 320  885.1713
 321  885.3344
 322  847.5436
 323  934.7809
 324  978.9667
 325  915.6642
 326  886.5186
 327  936.0604
 328  910.601
 329  873.1655
 330  939.5551
 331  990.4308
 332  952.7915
 333  837.947
 334  746.884
 335  845.8641
 336  833.9485
 337  840.8934
 338  878.0818
 339  790.0305
 340  806.2678
 341  873.0098
 342  771.4523
 343  779.2252
 344  858.0407
 345  834.0765
 346  827.1752
 347  914.8457
 348  838.5187
 349  766.9443
 350  884.8995
 351  830.7252
 352  779.129
 353  773.6202
 354  786.0867
 355  792.5771
 356  804.1747
 357  830.0762
 358  821.7406
 359  861.0488
 360  869.3502
 361  810.2174
 362  756.2879
 363  907.5728
 364  892.5892
 365  968.2312
 366  915.7812
 367  897.948
 368  889.3458
 369  918.6008
 370  994.7376
 371  946.9224
 372  879.6362
 373  916.22
 374  905.3514
 375  964.3528
 376  975.223
 377  968.9526
 378  807.903
 379  797.0995
 380  921.425
 381  927.0136
 382  889.6969
 383  959.8948
 384  1019.847
 385  1013.68
 386  956.297
 387  861.2992
 388  856.1356
 389  907.5948
 390  967.5254
 391  976.6771
 392  1040.578
 393  975.1645
 394  936.0572
 395  929.7344
 396  972.1906
 397  1010.945
 398  1004.891
 399  939.3196
 400  794.056
 401  829.5541
 402  924.9764
 403  1083.747
 404  1050.323
 405  1066.623
 406  1096.75
 407  1188.135
 408  1240.512
 409  1343.297
 410  1434.771
 411  1333.05
 412  1203.747
 413  1144.87
 414  970.9567
 415  903.3167
 416  978.9942
 417  914.1042
 418  890.8101
 419  839.5554
 420  804.3701
 421  821.8849
 422  853.5567
 423  812.8198
 424  866.1843
 425  893.6473
 426  930.5165
 427  909.8148
 428  859.6844
 429  855.3917
 430  827.2119
 431  912.7438
 432  933.1104
 433  955.9039
 434  878.0318
 435  867.2797
 436  872.6575
 437  880.5779
 438  826.3243
 439  889.8586
 440  849.2075
 441  874.689
 442  963.8027
 443  1014.475
 444  948.8159
 445  854.0272
 446  897.4998
 447  914.0881
 448  920.1335
 449  808.9931
 450  848.0468
 451  805.1928
 452  856.9586
 453  842.1036
 454  860.6312
 455  826.0839
 456  861.8904
 457  827.9441
 458  838.6116
 459  809.6198
 460  830.0914
 461  831.0594
 462  857.06
 463  997.8171
 464  983.2864
 465  916.4652
 466  821.8634
 467  816.3215
 468  798.8751
 469  800.9008
 470  831.2626
 471  820.6351
 472  908.895
 473  937.7203
 474  947.3969
 475  1035.214
 476  926.2969
 477  1019.562
 478  1021.702
 479  1091.558
 480  1036.574
 481  973.7165
 482  970.81
 483  978.7737
 484  934.1359
 485  1035.102
 486  993.3121
 487  931.7122
 488  868.2473
 489  871.7588
 490  943.8195
 491  912.133
 492  870.2026
 493  923.2781
 494  942.6279
 495  948.9085
 496  892.5233
 497  907.991
 498  827.2579
 499  794.8377
 500  887.0551
 501  743.6234
 502  786.0936
 503  868.8335
 504  819.2668
 505  791.961
 506  795.8696
 507  766.8323
 508  825.3073
 509  825.0583
 510  734.1024
 511  725.0967
