# Input file       =  1183525578.105013_cleaned.dat
# Candidate        =  PSR_0332+5434
# Telescope        =  AR
# Epoch_topo       =  57942.212929456167
# Epoch_bary       =  N/A
# T_sample         =  0.002
# Data Folded      =  7340032
# Data Avg         =  0.2753014823268  
# Data StdDev      =  4.30824935915569 
# Profile Bins     =  1024
# Profile Avg      =  1973.52294313014 
# Profile StdDev   =  364.753804492139 
# Reduced chi-sqr  =  0.693
# Prob(Noise)      <  1   (~0.0 sigma)
# P_topo (ms)      =  714.483682128902  +/- 0.000473
# P'_topo (s/s)    =  -0                +/- 2.5e-10
# P''_topo (s/s^2) =  0                 +/- 1.1e-13
# P_bary (ms)      =  N/A
# P'_bary (s/s)    =  N/A
# P''_bary (s/s^2) =  N/A
# P_orb (s)        =  N/A
# asin(i)/c (s)    =  N/A
# eccentricity     =  N/A
# w (rad)          =  N/A
# T_peri           =  N/A
######################################################
   0  2207.656
   1  2273.295
   2  2308.854
   3  2265.975
   4  2196.397
   5  2106.519
   6  2130.64
   7  2136.322
   8  2026.926
   9  2033.398
  10  2044.682
  11  2086.614
  12  1998.875
  13  1964.659
  14  2023.44
  15  2068.752
  16  2113.602
  17  2093.62
  18  2120.947
  19  2046.341
  20  2046.881
  21  2091.114
  22  2100.797
  23  2136.448
  24  2112.091
  25  2007.24
  26  2052.387
  27  2072.589
  28  2106.269
  29  2000.705
  30  2130.469
  31  2207.092
  32  2224.884
  33  2141.094
  34  2127.653
  35  2069.724
  36  2038.939
  37  2009.143
  38  2044.269
  39  2085.697
  40  2043.52
  41  2017.349
  42  1983.069
  43  1988.629
  44  2002.323
  45  1932.796
  46  1835.064
  47  1784.708
  48  1889.789
  49  2035.604
  50  2120.964
  51  2077.605
  52  1983.914
  53  2017.266
  54  2099.515
  55  2073.833
  56  1994.437
  57  2059.179
  58  2196.712
  59  2216.501
  60  2138.802
  61  1940.923
  62  1933.331
  63  1937.818
  64  2054.092
  65  2016.271
  66  2012.079
  67  2048.343
  68  2041.937
  69  1953.235
  70  1906.371
  71  1848.088
  72  1878.772
  73  1923.016
  74  1959.018
  75  1863.594
  76  1762.893
  77  1790.585
  78  1694.943
  79  1647.912
  80  1675.332
  81  1717.448
  82  1726.701
  83  1711.15
  84  1744.819
  85  1827.186
  86  1922.503
  87  1890.305
  88  1749.678
  89  1671.831
  90  1759.616
  91  1932.828
  92  1912.355
  93  1875.697
  94  2018.685
  95  2106.052
  96  2109.846
  97  2036.675
  98  2154.99
  99  2163.927
 100  2074.912
 101  1916.458
 102  2004.129
 103  2006.401
 104  2022.154
 105  1953.504
 106  1947.795
 107  1968.439
 108  1968.508
 109  2023.228
 110  1951.176
 111  1962.19
 112  2010.637
 113  2117.61
 114  2112.028
 115  1964.292
 116  1851.664
 117  1946.809
 118  2073.198
 119  2111.623
 120  2012.295
 121  1900.221
 122  1796.465
 123  1799.51
 124  1888.352
 125  1914.469
 126  1852.55
 127  1710.444
 128  1762.103
 129  1790.146
 130  1933.396
 131  1961.379
 132  2012.128
 133  2018.424
 134  1936.384
 135  1904.879
 136  1739.874
 137  1635.884
 138  1644.252
 139  1799.449
 140  1840.812
 141  1784.637
 142  1682.883
 143  1655.399
 144  1672.101
 145  1728.131
 146  1744.208
 147  1796.355
 148  1793.961
 149  1707.914
 150  1725.651
 151  1816.955
 152  1927.127
 153  1889.117
 154  1787.44
 155  1623.643
 156  1666.074
 157  1754.69
 158  1897.128
 159  1926.871
 160  1870.612
 161  1753.039
 162  1734.98
 163  1824.295
 164  1923.324
 165  1900.095
 166  2036.703
 167  2108.957
 168  2137.269
 169  2021.607
 170  2009.482
 171  2107.921
 172  2154.631
 173  2072.046
 174  1984.531
 175  1932.606
 176  1911.871
 177  1868.119
 178  1874.581
 179  1886.041
 180  1931.087
 181  1898.867
 182  1984.364
 183  1937.583
 184  1937.044
 185  1833.772
 186  1860.732
 187  1886.888
 188  1968.905
 189  2114.077
 190  2158.012
 191  2174.646
 192  2113.625
 193  2079.811
 194  2043.843
 195  1986.341
 196  1955.717
 197  1946.774
 198  1968.562
 199  2026.02
 200  2069.46
 201  2160.633
 202  2213.352
 203  2263.537
 204  2172.254
 205  2118.447
 206  2075.113
 207  2195.234
 208  2199.64
 209  2199.339
 210  2135.908
 211  2119.29
 212  1945.631
 213  1872.755
 214  1827.956
 215  1917.835
 216  1950.56
 217  2085.804
 218  2153.345
 219  2136.599
 220  2080.402
 221  2118.958
 222  2159.881
 223  2178.094
 224  2147.426
 225  2160.158
 226  2139.889
 227  2212.248
 228  2265.876
 229  2242.314
 230  2141.376
 231  2114.764
 232  2078.664
 233  2044.817
 234  2025.534
 235  1993.783
 236  2027.105
 237  1979.651
 238  1932.335
 239  1955.967
 240  1972.771
 241  2039.481
 242  1985.636
 243  1993.365
 244  1973.159
 245  1839.78
 246  1795.476
 247  1678.537
 248  1655.76
 249  1679.46
 250  1868.691
 251  2006.517
 252  1942.064
 253  1785.825
 254  1761.453
 255  1955.562
 256  2042.607
 257  2053.602
 258  2030.077
 259  1995.911
 260  1951.874
 261  1893.575
 262  1901.779
 263  1949.357
 264  2094.956
 265  2158.405
 266  2121.249
 267  1994.269
 268  1921.091
 269  1938.25
 270  2003.787
 271  2001.979
 272  1989.387
 273  1961.69
 274  2003.267
 275  1994.818
 276  1987.549
 277  1970.131
 278  1922.704
 279  1953.113
 280  1978.212
 281  2087.404
 282  2022.842
 283  2074.168
 284  2019.909
 285  2005.282
 286  2034.418
 287  2136.579
 288  2185.302
 289  2164.652
 290  2030.626
 291  1913.122
 292  1764.09
 293  1805.303
 294  1899.086
 295  1984.702
 296  2014.259
 297  1991.957
 298  2074.092
 299  2054.211
 300  2135.165
 301  2012.988
 302  2013.168
 303  1952.55
 304  2003.369
 305  2115.635
 306  2130.448
 307  2202.961
 308  2125.098
 309  2183.866
 310  2161.39
 311  2067.741
 312  2014.318
 313  1953.047
 314  1982.519
 315  2061.779
 316  2042.636
 317  2022.507
 318  1994.969
 319  2056.918
 320  2080.51
 321  2064.214
 322  2086.696
 323  2082.166
 324  2067.142
 325  2016.258
 326  2048.8
 327  2067.931
 328  2025.363
 329  2024.736
 330  2046.494
 331  2000.557
 332  1989.37
 333  1978.348
 334  1892.314
 335  1746.245
 336  1772.65
 337  1881.609
 338  1839.292
 339  1906.544
 340  1845.588
 341  1907.983
 342  1893.198
 343  1882.795
 344  1861.682
 345  1833.713
 346  2001.853
 347  2089.836
 348  2207.758
 349  2157.825
 350  2063.888
 351  1970.359
 352  1836.672
 353  1816.226
 354  1735.604
 355  1774.458
 356  1734.39
 357  1859.175
 358  1909.758
 359  2068.773
 360  2166.904
 361  2270.586
 362  2201.324
 363  2071.739
 364  2083.407
 365  2116.069
 366  2184.009
 367  2131.11
 368  2068.226
 369  1966.634
 370  1997.388
 371  1963.542
 372  1978.059
 373  1963.334
 374  2021.167
 375  2088.623
 376  2111.334
 377  1972.831
 378  2012.424
 379  2176.072
 380  2175.369
 381  2091.198
 382  2036.839
 383  2039.141
 384  1946.233
 385  1894.366
 386  1844.451
 387  1823.109
 388  1857.276
 389  1964.656
 390  2005.013
 391  1912.798
 392  1794.796
 393  1703.582
 394  1759.429
 395  1860.946
 396  1936.222
 397  1939.606
 398  1930.253
 399  2015.896
 400  2014.405
 401  1998.345
 402  2055.971
 403  2074.847
 404  2099.168
 405  2027.558
 406  1981.856
 407  2047.502
 408  2069.57
 409  2155.236
 410  2111.855
 411  2157.178
 412  2019.007
 413  1958.458
 414  1907.098
 415  1921.781
 416  1773.781
 417  1817.789
 418  1852.394
 419  1854.088
 420  1697.101
 421  1656.236
 422  1728.161
 423  1828.478
 424  1734.498
 425  1754.538
 426  1865.145
 427  2015.171
 428  2109.354
 429  2155.469
 430  2152.275
 431  2091.64
 432  1952.958
 433  1846.596
 434  1733.21
 435  1718.022
 436  1779.534
 437  1807.963
 438  2022.276
 439  2094.107
 440  2142.549
 441  2081.118
 442  2046.516
 443  1941.358
 444  2016.562
 445  2045.043
 446  2101.432
 447  2126.592
 448  2266.585
 449  2157.302
 450  2174.594
 451  2113.847
 452  2188.65
 453  2115.063
 454  2163.868
 455  2079.792
 456  2029.746
 457  1950.552
 458  1930.245
 459  1939.766
 460  2008.011
 461  2148.822
 462  2099.448
 463  2000.404
 464  1854.824
 465  1900.806
 466  1914.19
 467  1847.461
 468  1828.102
 469  1874.414
 470  1923.315
 471  1927.338
 472  1981.055
 473  2072.87
 474  2083.212
 475  2057.552
 476  2025.415
 477  1945.376
 478  1869.343
 479  1817.311
 480  1755.977
 481  1730.675
 482  1720.72
 483  1856.76
 484  1843.767
 485  1885.693
 486  1869.694
 487  1930.775
 488  2024.062
 489  2081.239
 490  2091.182
 491  1964.101
 492  1907.176
 493  1906.849
 494  1853.903
 495  1843.497
 496  1945.617
 497  1995.539
 498  2017.214
 499  1962.491
 500  1990.518
 501  1974.482
 502  1928.597
 503  1924.561
 504  1962.354
 505  2037.503
 506  2081.346
 507  2149.134
 508  2150.017
 509  2124.055
 510  2006.045
 511  2030.183
 512  2074.99
 513  2101.099
 514  2112.499
 515  2141.215
 516  2125.713
 517  2069.502
 518  2065.531
 519  2090.994
 520  2062.641
 521  2140.415
 522  2107.068
 523  2091.502
 524  2064.403
 525  2101.222
 526  2026.772
 527  1983.605
 528  1970.543
 529  1967.269
 530  2020.532
 531  1984.239
 532  2137.504
 533  2167.645
 534  2120.893
 535  1907.041
 536  1890.15
 537  1957.943
 538  2027.849
 539  2055.482
 540  2070.533
 541  2069.598
 542  2086.838
 543  1969.011
 544  1856.077
 545  1829.276
 546  1973.124
 547  2051.02
 548  2043.939
 549  1972.281
 550  2024.075
 551  2050.348
 552  2090.606
 553  2048.764
 554  1970.443
 555  1929.95
 556  1907.073
 557  1914.29
 558  1873.478
 559  1766.073
 560  1694.814
 561  1700.11
 562  1724.037
 563  1822.457
 564  1925.416
 565  2001.875
 566  2152.564
 567  2095.661
 568  2083.511
 569  2045.964
 570  1971.631
 571  1805.793
 572  1727.527
 573  1865.544
 574  1875.276
 575  1934.317
 576  1872.81
 577  1978.621
 578  2016.513
 579  2147.851
 580  2158.96
 581  2194.677
 582  2035.127
 583  1977.607
 584  1894.686
 585  1950.559
 586  1946.314
 587  1959.435
 588  1800.169
 589  1816.629
 590  1896.343
 591  2037.204
 592  2045.198
 593  2149.727
 594  2264.051
 595  2285.284
 596  2101.247
 597  2098.839
 598  2056.009
 599  2113.17
 600  2092.223
 601  2170.41
 602  2141.933
 603  1981.935
 604  1930.578
 605  1894.337
 606  1996.895
 607  1914.402
 608  1911.498
 609  1971.801
 610  2033.762
 611  2125.96
 612  2067.556
 613  2168.648
 614  2188.189
 615  2151.021
 616  2047.049
 617  2017.43
 618  1953.24
 619  1975.603
 620  2010.455
 621  2094.158
 622  2063.113
 623  2034.937
 624  1891.439
 625  1862.241
 626  1849.834
 627  1858.154
 628  1938.415
 629  1921.389
 630  1951.705
 631  1984.28
 632  2085.708
 633  1988.664
 634  1910.081
 635  1916.745
 636  1995.587
 637  2062.199
 638  2105.489
 639  2121.332
 640  2135.832
 641  2219.565
 642  2290.948
 643  2285.934
 644  2180.141
 645  2108.471
 646  2184.434
 647  2358.653
 648  2568.961
 649  2766.897
 650  2956.659
 651  2988.641
 652  2958.045
 653  2977.936
 654  2964.47
 655  2872.687
 656  2733.917
 657  2579.789
 658  2367.725
 659  2282.594
 660  2263.135
 661  2273.276
 662  2270.32
 663  2202.894
 664  2161.676
 665  2049.646
 666  2017.215
 667  2012.802
 668  1939.675
 669  1871.511
 670  1896.873
 671  2025.341
 672  1986.854
 673  1972.314
 674  1876.774
 675  2036.912
 676  2012.498
 677  2087.81
 678  2092.697
 679  2169.292
 680  2155.187
 681  2092.139
 682  2015.655
 683  1971.609
 684  1919.377
 685  2003.226
 686  1842.337
 687  1744.719
 688  1730.775
 689  1967.576
 690  2075.594
 691  2053.102
 692  1969.903
 693  1997.023
 694  2043.446
 695  2001.384
 696  1840.765
 697  1799.591
 698  1824.278
 699  1875.259
 700  1817.429
 701  1822.266
 702  1788.703
 703  1749.041
 704  1722.149
 705  1745.762
 706  1782.032
 707  1743.882
 708  1741.384
 709  1700.649
 710  1580.067
 711  1595.419
 712  1725.724
 713  1900.686
 714  1936.309
 715  1919.538
 716  1852.599
 717  1841.535
 718  1763.418
 719  1831.508
 720  1762.406
 721  1775.107
 722  1788.287
 723  1865.134
 724  1894.052
 725  1788.705
 726  1905.439
 727  1977.867
 728  2030.115
 729  1851.779
 730  1795.249
 731  1858.43
 732  1902.126
 733  1978.311
 734  1958.173
 735  1947.591
 736  1866.45
 737  1877.47
 738  1930.335
 739  1904.556
 740  1879.289
 741  1888.414
 742  1954.45
 743  1964.506
 744  1940.017
 745  1844.426
 746  1797.813
 747  1733.406
 748  1770.875
 749  1697.93
 750  1773.76
 751  1806.304
 752  1856.672
 753  1854.31
 754  1881.364
 755  1846.861
 756  1841.58
 757  1801.521
 758  1891.658
 759  1850.313
 760  1990.632
 761  1945.202
 762  1871.658
 763  1904.46
 764  1934.909
 765  2016.697
 766  1926.735
 767  1926.777
 768  1810.002
 769  1764.457
 770  1693.575
 771  1599.221
 772  1646.415
 773  1751.462
 774  1749.996
 775  1621.97
 776  1667.137
 777  1732.553
 778  1808.155
 779  1739.992
 780  1698.787
 781  1648.771
 782  1658.258
 783  1706.89
 784  1710.752
 785  1806.248
 786  1854.257
 787  1933.014
 788  1830.858
 789  1810.625
 790  1815.176
 791  1868.749
 792  1888.416
 793  1905.648
 794  1932.609
 795  1985.483
 796  2010.116
 797  2077.769
 798  2062.802
 799  2034.466
 800  1913.643
 801  1867.519
 802  1892.936
 803  1937.927
 804  1926.62
 805  1825.602
 806  1787.218
 807  1694.831
 808  1820.607
 809  1856.59
 810  2075.62
 811  2042.857
 812  2123.982
 813  1884.85
 814  1785.032
 815  1816.897
 816  1894.585
 817  1902.198
 818  1956.555
 819  1950.84
 820  1839.998
 821  1762.178
 822  1906.592
 823  2019.121
 824  2017.409
 825  1951.742
 826  2051.079
 827  2118.486
 828  2105.917
 829  2009.282
 830  1955.831
 831  1901.209
 832  1887.236
 833  1669.647
 834  1682.105
 835  1735.303
 836  1939.126
 837  1908.932
 838  1916.164
 839  1904.815
 840  1961.695
 841  2109.65
 842  2157.528
 843  2144.727
 844  2016.61
 845  2047.046
 846  2023.443
 847  1888.093
 848  1752.27
 849  1763.385
 850  1736.661
 851  1717.653
 852  1747.164
 853  1837.453
 854  1846.88
 855  1816.541
 856  1836.598
 857  1837.156
 858  1847.093
 859  1901.111
 860  1820.743
 861  1809.362
 862  1736.431
 863  1844.784
 864  1790.155
 865  1777.053
 866  1861.777
 867  1930.408
 868  1998.651
 869  1981.605
 870  2056.105
 871  1998.404
 872  1920.701
 873  1860.151
 874  1847.865
 875  1786.516
 876  1777.389
 877  1823.026
 878  1974.622
 879  1979.077
 880  2004.354
 881  1962.777
 882  1980.902
 883  2003.823
 884  2014.155
 885  1981.431
 886  1859.599
 887  1658.84
 888  1574.856
 889  1714.323
 890  1847.136
 891  1771.029
 892  1644.125
 893  1652.779
 894  1708.955
 895  1728.492
 896  1775.576
 897  1783.316
 898  1692.401
 899  1625.926
 900  1760.89
 901  1901.896
 902  2043.516
 903  2168.346
 904  2205.218
 905  2145.013
 906  2075.081
 907  2066.285
 908  2011.758
 909  1860.659
 910  1899.805
 911  2044.995
 912  2109.146
 913  1952.012
 914  1841.334
 915  1819.847
 916  1842.403
 917  1878.055
 918  1920.543
 919  1973.137
 920  2058.694
 921  2069.544
 922  2097.82
 923  2024.509
 924  2030.867
 925  2017.353
 926  2018.181
 927  2145.436
 928  2143.164
 929  2184.479
 930  2119.722
 931  1963.84
 932  1777.815
 933  1718.18
 934  1799.162
 935  1917.767
 936  1959.837
 937  1959.145
 938  1951.205
 939  2017.443
 940  2032.65
 941  1931.559
 942  1896.997
 943  1889.266
 944  1953.495
 945  1980.843
 946  1970.461
 947  1821.327
 948  1715.817
 949  1733.973
 950  1833.061
 951  1847.566
 952  1835.282
 953  1771.432
 954  1749.648
 955  1772.781
 956  1770.331
 957  1814.271
 958  1853.404
 959  1966.911
 960  1971.331
 961  1976.894
 962  1965.548
 963  1918.441
 964  1813.247
 965  1807.162
 966  1834.182
 967  2000.799
 968  1936.928
 969  1971.043
 970  1891.164
 971  1905.319
 972  1935.576
 973  1876.009
 974  1915.157
 975  1939.994
 976  1942.603
 977  1967.519
 978  2020.778
 979  2102.337
 980  2120.02
 981  1956.973
 982  1903.652
 983  1910.623
 984  1980.974
 985  1975.523
 986  1947.631
 987  1896.037
 988  1898.328
 989  1883.604
 990  1901.57
 991  1972.497
 992  2073.899
 993  2008.918
 994  1977.017
 995  1996.049
 996  2108.025
 997  2128.589
 998  2158.842
 999  2086.099
1000  1994.496
1001  1964.565
1002  2015.421
1003  2058.246
1004  2026.536
1005  2070.924
1006  2224.501
1007  2226.412
1008  2268.846
1009  2224.912
1010  2291.76
1011  2218.216
1012  2239.358
1013  2332.869
1014  2468.48
1015  2412.502
1016  2352.127
1017  2267.443
1018  2224.064
1019  2207.146
1020  2248.663
1021  2237.289
1022  2172.352
1023  2133.254
