# Input file       =  1183281104.121031_cleaned.dat
# Candidate        =  PSR_0332+5434
# Telescope        =  AR
# Epoch_topo       =  57939.383369456380
# Epoch_bary       =  N/A
# T_sample         =  0.002
# Data Folded      =  7340032
# Data Avg         =  1.02852214049822 
# Data StdDev      =  14.4077046120279 
# Profile Bins     =  1024
# Profile Avg      =  7372.49794039907 
# Profile StdDev   =  1219.81450773454 
# Reduced chi-sqr  =  0.299
# Prob(Noise)      <  1   (~0.0 sigma)
# P_topo (ms)      =  714.486119084322  +/- 0.000767
# P'_topo (s/s)    =  -0                +/- 4.05e-10
# P''_topo (s/s^2) =  0                 +/- 1.79e-13
# P_bary (ms)      =  N/A
# P'_bary (s/s)    =  N/A
# P''_bary (s/s^2) =  N/A
# P_orb (s)        =  N/A
# asin(i)/c (s)    =  N/A
# eccentricity     =  N/A
# w (rad)          =  N/A
# T_peri           =  N/A
######################################################
   0  8205.596
   1  8142.917
   2  8107.647
   3  7914
   4  8040.978
   5  7691.196
   6  7466.172
   7  7160.413
   8  7267.479
   9  7313.252
  10  7220.68
  11  7231.736
  12  7201.675
  13  7269.895
  14  7224.926
  15  7174.431
  16  7189.996
  17  7149.713
  18  7115.108
  19  7336.089
  20  7281.901
  21  7132.576
  22  7028.268
  23  7009.638
  24  6887.639
  25  6857.346
  26  6981.363
  27  7047.492
  28  7166.461
  29  7339.028
  30  7464.074
  31  7297.185
  32  7297.239
  33  7400.602
  34  7449.484
  35  7367.872
  36  7201.544
  37  7147.138
  38  6969.335
  39  6950.906
  40  6840.492
  41  6960.677
  42  7109.486
  43  7595
  44  7778.211
  45  7852.397
  46  7859.229
  47  7830.803
  48  7718.721
  49  7771.271
  50  7772.726
  51  7711.407
  52  7777.95
  53  7894.577
  54  7883.245
  55  7867.778
  56  7838.297
  57  7808.6
  58  7559.023
  59  7681.337
  60  7667.853
  61  7658.164
  62  7837.523
  63  7835.343
  64  7795.475
  65  7505.21
  66  7554.827
  67  7666.747
  68  7694.936
  69  7428.096
  70  7499.426
  71  7699.843
  72  7876.347
  73  7795.288
  74  7594.929
  75  7578.67
  76  7566.075
  77  7725.022
  78  7592.035
  79  7575.521
  80  7656.633
  81  7808.44
  82  7555.993
  83  7437.724
  84  7390.667
  85  7515.227
  86  7535.03
  87  7486.615
  88  7707.206
  89  7869.232
  90  7875.45
  91  7576.245
  92  7612.635
  93  7481.345
  94  7493.06
  95  7477.32
  96  7601.167
  97  7688.561
  98  7700.815
  99  7678.545
 100  7736.165
 101  7670.237
 102  7759.521
 103  7730.806
 104  7703.894
 105  7744.275
 106  7417.942
 107  7223.466
 108  7103.798
 109  7112.323
 110  7423.135
 111  7567.362
 112  7839.224
 113  7828.262
 114  8024.627
 115  7974.936
 116  8027.399
 117  7978.588
 118  7761.74
 119  7681.557
 120  7704.511
 121  7703.364
 122  7697.832
 123  7730.312
 124  7819.326
 125  7692.264
 126  7610.826
 127  7656.91
 128  7736.123
 129  7815.091
 130  7774.331
 131  7729.737
 132  7603.342
 133  7333.475
 134  7334.845
 135  7389.533
 136  7477.205
 137  7361.956
 138  7273.967
 139  7174.646
 140  7390.991
 141  7426.783
 142  7277.97
 143  7110.099
 144  7130.735
 145  7365.019
 146  7161.629
 147  7165.137
 148  7110
 149  7052.423
 150  6973.297
 151  6966.549
 152  6967.182
 153  6827.685
 154  6938.324
 155  6922.462
 156  6938.937
 157  6801.4
 158  6840.84
 159  7016.693
 160  6964.203
 161  7156.89
 162  6987.757
 163  7050.536
 164  7033.111
 165  7139.366
 166  7135.521
 167  7161.365
 168  7173.783
 169  7199.184
 170  6908.832
 171  6656.727
 172  6641.874
 173  6706.516
 174  6701.507
 175  6465.83
 176  6575.985
 177  7061.027
 178  7410.258
 179  7661.621
 180  7637.555
 181  7454.895
 182  7205.354
 183  7067.206
 184  6817.436
 185  6825.049
 186  6547.539
 187  6571.605
 188  6577.583
 189  6635.748
 190  6584.249
 191  6777.271
 192  6919.477
 193  7149.353
 194  7298.281
 195  7410.108
 196  7562.731
 197  7541.653
 198  7546.434
 199  7617.6
 200  7488.594
 201  7454.993
 202  7323.121
 203  7119.291
 204  7205.994
 205  7313.292
 206  7319.019
 207  7366.341
 208  7428.782
 209  7372.962
 210  7189.979
 211  7127.124
 212  7126.814
 213  7050.926
 214  7260.862
 215  7237.577
 216  7179.425
 217  7013.831
 218  7195.519
 219  7063.322
 220  7178.411
 221  7247.282
 222  7338.116
 223  7351.76
 224  7336.596
 225  7445.125
 226  7404.316
 227  7485.774
 228  7662.513
 229  7696.534
 230  7622.172
 231  7653.259
 232  7750.801
 233  7777.885
 234  7901.972
 235  8125.025
 236  8132.695
 237  7917.258
 238  7736.264
 239  7792.485
 240  7649.777
 241  7456.049
 242  7520.842
 243  7797.051
 244  7963.621
 245  7997.085
 246  8008.587
 247  7942.47
 248  7961.22
 249  7807.424
 250  7779.551
 251  7514.076
 252  7341.396
 253  7200.224
 254  6998.474
 255  7166.231
 256  7269.051
 257  7362.995
 258  7421.876
 259  7292.634
 260  7091.514
 261  6985.831
 262  7055.813
 263  7108.279
 264  7386.498
 265  7516.983
 266  7425.467
 267  7412.864
 268  7387.192
 269  7469.547
 270  7438.639
 271  7421.914
 272  7309.31
 273  7162.511
 274  7205.332
 275  7259.582
 276  7525.919
 277  7428.088
 278  7503.967
 279  7453.792
 280  7354.602
 281  7158.582
 282  7269.857
 283  7284.827
 284  7325.148
 285  7305.492
 286  7409.482
 287  7048.412
 288  6910.568
 289  6833.718
 290  6966.065
 291  7172.028
 292  7427.241
 293  7549.094
 294  7458.557
 295  7367.081
 296  7297.42
 297  7354.593
 298  7280.255
 299  7274.414
 300  7277.305
 301  7309.335
 302  7494.571
 303  7643.605
 304  7583.578
 305  7523.034
 306  7499.032
 307  7477.874
 308  7471.101
 309  7454.514
 310  7282.337
 311  7267.049
 312  7385.873
 313  7810.873
 314  7811.961
 315  7812.846
 316  7874.029
 317  7815.916
 318  7638.215
 319  7794.386
 320  7765.369
 321  7729.778
 322  7800.681
 323  7854.226
 324  7824.849
 325  7671.042
 326  7641.155
 327  7636.04
 328  7513.903
 329  7361.045
 330  7291.118
 331  7364.758
 332  7378.599
 333  7551.06
 334  7674.231
 335  7543.646
 336  7531.536
 337  7611.123
 338  7560.097
 339  7531.191
 340  7370.134
 341  7285.205
 342  7154.538
 343  7113.113
 344  7137.887
 345  7197.475
 346  7078.446
 347  7128.591
 348  7272.13
 349  7231.66
 350  7298.582
 351  7309.539
 352  7461.537
 353  7451.993
 354  7517.314
 355  7414.631
 356  7203.093
 357  7065.026
 358  7180.271
 359  7176.292
 360  7213.182
 361  7321.012
 362  7485.101
 363  7486.784
 364  7451.481
 365  7487.533
 366  7609.04
 367  7699.578
 368  7819.327
 369  7778.122
 370  7774.979
 371  7977.973
 372  8121.514
 373  8129.537
 374  7907.993
 375  7796.849
 376  7789.398
 377  7648.351
 378  7585.308
 379  7628.528
 380  7620.706
 381  7765.824
 382  7708.368
 383  7800.189
 384  7736.77
 385  7528.639
 386  7604.527
 387  7729.195
 388  7573.062
 389  7467.051
 390  7511.131
 391  7789.282
 392  7795.457
 393  7725.996
 394  7579.554
 395  7461.942
 396  7358.442
 397  7234.967
 398  7204.24
 399  7399.5
 400  7468.271
 401  7369.363
 402  7572.489
 403  7644.253
 404  7589.195
 405  7549.95
 406  7532.546
 407  7522.597
 408  7539.782
 409  7467.666
 410  7395.76
 411  7210.929
 412  7178.326
 413  7236.319
 414  7089.258
 415  6981.197
 416  6916.408
 417  6889.346
 418  6704.057
 419  6938.042
 420  6952.944
 421  6982.685
 422  6695.795
 423  6543.78
 424  6400.843
 425  6324.947
 426  6445.376
 427  6686.111
 428  6807.768
 429  6842.355
 430  6936.811
 431  6945.039
 432  6974.822
 433  6914.16
 434  6920.224
 435  6831.749
 436  6857.66
 437  6979.755
 438  6894.96
 439  6695.445
 440  6566.462
 441  6773.827
 442  6776.202
 443  6761.32
 444  6929.509
 445  7117.482
 446  7072.961
 447  7091.515
 448  7213.31
 449  7339.68
 450  7426.643
 451  7383.298
 452  7615.123
 453  7487.092
 454  7482.598
 455  7449.469
 456  7423.346
 457  7542.845
 458  7537.766
 459  7562.224
 460  7512.073
 461  7575.245
 462  7644.889
 463  7617.328
 464  7760.384
 465  7886.627
 466  7934.381
 467  7656.615
 468  7589.993
 469  7692.661
 470  7880.825
 471  7888.448
 472  7887.032
 473  7933.56
 474  7906.595
 475  7801.83
 476  7805.431
 477  8007.017
 478  8143.491
 479  8091.27
 480  7992.176
 481  8029.085
 482  7928.53
 483  7932.386
 484  7707.653
 485  7746.228
 486  7564.885
 487  7644.45
 488  7501.518
 489  7535.448
 490  7568.004
 491  7804.289
 492  7918.35
 493  7937.339
 494  7866.581
 495  8008.674
 496  7943.739
 497  7843.171
 498  7647.553
 499  7313.518
 500  7100.513
 501  7150.069
 502  7047.521
 503  6782.69
 504  6602.177
 505  6788.84
 506  6929.321
 507  6950.42
 508  6972.882
 509  6927.597
 510  6857.915
 511  6941.606
 512  7257.507
 513  7431.337
 514  7381.788
 515  7091.388
 516  6963.889
 517  6811.986
 518  6851.01
 519  7060.507
 520  7204.956
 521  7221.223
 522  7230.423
 523  7036.354
 524  7150.152
 525  7311.711
 526  7465.371
 527  7504.529
 528  7260.256
 529  7310.67
 530  7360.732
 531  7604.505
 532  7664.935
 533  7511.03
 534  7269.541
 535  7144.826
 536  7209.919
 537  7071.753
 538  7274.735
 539  7127.378
 540  7223.308
 541  7057.762
 542  6884.018
 543  6922.68
 544  6823.154
 545  6920.63
 546  6730.488
 547  7059.117
 548  7013.125
 549  7015.625
 550  6835.725
 551  7062.59
 552  7206.781
 553  7120.955
 554  6939.157
 555  6846.603
 556  6934.288
 557  7167.104
 558  7399.176
 559  7568.673
 560  7369.301
 561  7484.466
 562  7653.261
 563  7541.775
 564  7257.833
 565  7312.703
 566  7305.496
 567  7394.525
 568  7414.621
 569  7390.62
 570  7254.662
 571  7327.665
 572  7465.746
 573  7621.719
 574  7404.411
 575  7200.868
 576  7333.31
 577  7174.786
 578  6971.859
 579  6981.975
 580  6956.34
 581  7019.265
 582  7027.13
 583  7152.548
 584  7215.868
 585  7160.125
 586  7258.95
 587  7037.842
 588  6909.593
 589  6800.581
 590  6958.641
 591  7041.94
 592  7171.478
 593  7135.364
 594  7155.856
 595  7039.384
 596  7214.824
 597  7317.217
 598  7413.427
 599  7393.282
 600  7689.201
 601  7758.351
 602  7869.993
 603  7615.57
 604  7533.893
 605  7296.154
 606  7187.024
 607  7252.003
 608  7097.593
 609  7156.525
 610  7333.623
 611  7628.285
 612  7724.437
 613  7658.991
 614  7596.432
 615  7638.957
 616  7693.369
 617  7441.85
 618  7466.856
 619  7499.589
 620  7615.619
 621  7423.779
 622  7495.962
 623  7589.299
 624  7571.441
 625  7484.507
 626  7551.283
 627  7503.706
 628  7621.767
 629  7629.68
 630  7440.742
 631  7154.578
 632  6867.136
 633  6949.567
 634  7149.95
 635  7239.873
 636  7411.467
 637  7506.755
 638  7594.694
 639  7666.999
 640  7752.6
 641  7557.893
 642  7595.996
 643  7506.077
 644  7639.885
 645  7761.774
 646  8011.332
 647  8165.45
 648  8305.217
 649  8482.304
 650  8590.292
 651  8497.596
 652  8706.348
 653  8756.003
 654  8521.735
 655  8187.668
 656  8060.8
 657  7958.003
 658  7995.428
 659  7969.908
 660  7682.855
 661  7543.879
 662  7552.183
 663  7615.67
 664  7776.784
 665  7449.146
 666  7287.072
 667  7317.427
 668  7295.286
 669  7187.386
 670  6952.298
 671  6933.967
 672  6833.38
 673  6898.478
 674  6906.751
 675  6834.725
 676  6879.069
 677  7032.107
 678  7283.618
 679  7247.4
 680  7230.79
 681  7133.283
 682  7059.781
 683  7122.692
 684  7236.935
 685  7336.824
 686  7101.506
 687  7066.722
 688  7119.042
 689  7285.938
 690  7256.258
 691  7084.262
 692  7142.651
 693  7351.109
 694  7586.72
 695  7530.521
 696  7542.761
 697  7671.64
 698  7669.044
 699  7640.306
 700  7425.608
 701  7268.066
 702  7245.949
 703  7225.502
 704  7403.187
 705  7449.731
 706  7641.711
 707  7814.612
 708  7657.503
 709  7468.827
 710  7614.923
 711  7508.221
 712  7288.182
 713  7205.385
 714  7621.168
 715  7688.677
 716  7838.626
 717  7723.47
 718  7902.008
 719  7772.136
 720  7641.593
 721  7629.462
 722  7678.613
 723  7694.532
 724  7693.543
 725  7538.326
 726  7384.361
 727  7571.999
 728  7547.887
 729  7342.569
 730  7235.649
 731  7260.85
 732  7130.887
 733  6997.043
 734  6853.038
 735  6929.127
 736  6849.187
 737  6961.123
 738  6881.912
 739  7082.271
 740  7033.059
 741  7066.984
 742  7015.302
 743  7129.767
 744  7317.818
 745  7026.361
 746  6688.238
 747  6698.698
 748  6632.267
 749  6556.78
 750  6688.459
 751  6889.899
 752  7037.831
 753  7101.815
 754  7274.906
 755  7400.898
 756  7206.767
 757  7390.584
 758  7593.603
 759  7484.911
 760  7171.609
 761  7078.88
 762  6879.19
 763  6872.538
 764  6933.281
 765  6887.027
 766  6866.595
 767  6913.611
 768  6802.655
 769  6912.555
 770  7089.442
 771  7145.235
 772  7053.897
 773  7006.459
 774  7116.618
 775  7176.024
 776  7227.503
 777  7383.574
 778  7554.334
 779  7394.225
 780  7525.023
 781  7631.993
 782  7534.785
 783  7398.181
 784  7304.687
 785  7619.792
 786  7743.6
 787  7738.201
 788  7798.18
 789  7779.927
 790  8099.652
 791  8127.894
 792  8041.105
 793  7877.666
 794  7956.419
 795  7883.696
 796  7788.971
 797  7712.997
 798  7995.342
 799  7906.069
 800  7693.904
 801  7847.976
 802  7793.937
 803  7630.121
 804  7392.982
 805  7333.131
 806  7239.812
 807  7133.517
 808  7144.016
 809  7215.726
 810  7045.959
 811  7039.396
 812  7391.96
 813  7391.809
 814  7143.924
 815  7111.237
 816  6961.231
 817  7014.827
 818  7174.913
 819  7335.41
 820  7394.064
 821  7321.109
 822  7344.845
 823  7330.173
 824  7316.924
 825  7420.623
 826  7480.646
 827  7443.982
 828  7299.595
 829  7044.507
 830  7079.011
 831  7251.993
 832  7138.482
 833  7069.952
 834  6935.49
 835  7033.98
 836  7242.785
 837  7394.668
 838  7598.164
 839  7516.833
 840  7619.746
 841  7360.248
 842  7300.204
 843  7056.228
 844  7050.319
 845  6938.518
 846  7102.652
 847  7258.125
 848  7195.259
 849  7412.393
 850  7299.941
 851  7225.047
 852  7019.156
 853  7012.281
 854  7056.735
 855  7312.417
 856  7419.652
 857  7370.572
 858  7427.979
 859  7324.868
 860  7366.492
 861  7430.875
 862  7306.029
 863  7019.652
 864  6939.407
 865  6972.48
 866  6940.459
 867  7021.97
 868  7282.067
 869  7510.321
 870  7301.963
 871  7278.482
 872  7257.097
 873  7336.861
 874  7177.463
 875  7047.997
 876  7079.832
 877  7073.54
 878  7206.864
 879  7280.952
 880  7315.661
 881  7192.413
 882  7097.831
 883  7074.538
 884  7013.176
 885  7325.266
 886  7358.737
 887  7435.705
 888  7304.14
 889  7495.207
 890  7420.729
 891  7400.351
 892  7140.041
 893  6893.229
 894  6724.718
 895  6537.922
 896  6554.965
 897  6358.456
 898  6533.73
 899  6428.56
 900  6272.108
 901  6251.844
 902  6370.776
 903  6750.85
 904  6920.405
 905  7084.013
 906  7087.756
 907  6990.479
 908  6673.653
 909  6539.439
 910  6472.786
 911  6411.029
 912  6475.55
 913  6645.728
 914  6783.828
 915  6923.799
 916  7060.398
 917  7134.747
 918  6996.313
 919  7013.453
 920  7128.791
 921  7311.209
 922  7334.062
 923  7288.999
 924  7154.449
 925  7161.412
 926  7006.914
 927  6985.396
 928  6868.317
 929  7068.865
 930  6983.67
 931  7159.983
 932  7111.66
 933  7165.675
 934  6920.429
 935  6925.983
 936  6930.192
 937  7087.376
 938  6930.194
 939  6956.068
 940  6727.308
 941  6760.295
 942  6893.449
 943  7183.281
 944  7214.553
 945  7073.461
 946  7124.88
 947  7226.567
 948  7278.481
 949  7353.337
 950  7441.284
 951  7407.969
 952  7292.836
 953  7255.417
 954  7253.786
 955  7300.394
 956  7384.548
 957  7551.436
 958  7554.47
 959  7496.865
 960  7563.158
 961  7278.862
 962  7126.073
 963  7116.829
 964  7198.163
 965  7313.689
 966  7434.027
 967  7542.76
 968  7596.952
 969  7780.234
 970  7970.104
 971  8002.956
 972  7968.1
 973  7868.635
 974  7825.293
 975  7737.107
 976  7998.128
 977  7949.582
 978  7827.228
 979  7666.188
 980  7841.208
 981  7850.132
 982  7776.924
 983  7767.172
 984  7785.611
 985  7591.985
 986  7618.149
 987  7610.073
 988  7682.111
 989  7611.13
 990  7624.621
 991  7625.58
 992  7714.841
 993  7856.574
 994  7944.298
 995  7981.56
 996  7623.524
 997  7610.272
 998  7626.874
 999  7695.112
1000  7696.428
1001  7874.03
1002  7948.043
1003  8051.547
1004  7993.486
1005  7675.868
1006  7579.838
1007  7520.099
1008  7540.127
1009  7686.098
1010  7648.575
1011  7813.793
1012  7680.392
1013  8049.333
1014  8150.367
1015  8091.262
1016  7813.621
1017  7648.721
1018  7658.261
1019  7751.156
1020  7876.575
1021  8073.906
1022  7974.771
1023  8038.037
