# Input file       =  1183165821.120904_cleaned.dat
# Candidate        =  PSR_0332+5434
# Telescope        =  AR
# Epoch_topo       =  57938.049075473427
# Epoch_bary       =  N/A
# T_sample         =  0.002
# Data Folded      =  7405568
# Data Avg         =  0.125726896057944
# Data StdDev      =  4.54952694774874 
# Profile Bins     =  512
# Profile Avg      =  1819.29866092021 
# Profile StdDev   =  547.155095895209 
# Reduced chi-sqr  =  0.713
# Prob(Noise)      <  1   (~0.0 sigma)
# P_topo (ms)      =  714.486804807408  +/- 7.52e-05
# P'_topo (s/s)    =  -0                +/- 3.93e-11
# P''_topo (s/s^2) =  0                 +/- 1.72e-14
# P_bary (ms)      =  N/A
# P'_bary (s/s)    =  N/A
# P''_bary (s/s^2) =  N/A
# P_orb (s)        =  N/A
# asin(i)/c (s)    =  N/A
# eccentricity     =  N/A
# w (rad)          =  N/A
# T_peri           =  N/A
######################################################
   0  1924.332
   1  2272.392
   2  1851.383
   3  1773.262
   4  1788.421
   5  1628.516
   6  1754.297
   7  1762.892
   8  1647.794
   9  1877.141
  10  1864.68
  11  1297.621
  12  1300.157
  13  1909.069
  14  1887.511
  15  1746.86
  16  1758.11
  17  1466.061
  18  1914.72
  19  1774.332
  20  1915.351
  21  1725
  22  1685.037
  23  1680.31
  24  1392.952
  25  1873.456
  26  1564.735
  27  1502.482
  28  1306.753
  29  1684.849
  30  1834.819
  31  1988.421
  32  1906.436
  33  1404.427
  34  1303.676
  35  1351.808
  36  1274.459
  37  1597.86
  38  2216.349
  39  2627.269
  40  2355.977
  41  1670.389
  42  1326.998
  43  1780.375
  44  1727.103
  45  1798.228
  46  2132.106
  47  2069.076
  48  1825.185
  49  1597.582
  50  1958.46
  51  1855.703
  52  2130.095
  53  2406.615
  54  2088.87
  55  1655.739
  56  1412.177
  57  1567.541
  58  1401.343
  59  1389.874
  60  1782.929
  61  1987.069
  62  2190.228
  63  1550.655
  64  1516.509
  65  1412.692
  66  1683.807
  67  1745.449
  68  1898.71
  69  2020.793
  70  1910.349
  71  2073.401
  72  1794.009
  73  1745.228
  74  2016.054
  75  2035.201
  76  1664.294
  77  1969.35
  78  1775.396
  79  2074.87
  80  1993.597
  81  1657.46
  82  2005.94
  83  2105.904
  84  2001.402
  85  1725.436
  86  1885.235
  87  1794.887
  88  1289.893
  89  1538.239
  90  1734.626
  91  1892.978
  92  2140.588
  93  1892.274
  94  2179.902
  95  1968.531
  96  2006.471
  97  1815.901
  98  1925.262
  99  1777.418
 100  1593.182
 101  1859.957
 102  1620.281
 103  1773.75
 104  2049.479
 105  2071.474
 106  2001.82
 107  1705.304
 108  1535.089
 109  1450.704
 110  1464.339
 111  1723.88
 112  1812.278
 113  2053.912
 114  2030.054
 115  1777.292
 116  1588.812
 117  1315.662
 118  1316.153
 119  1901.949
 120  2110.172
 121  1914.06
 122  1763.724
 123  1434.486
 124  1793.435
 125  1506.857
 126  1703.917
 127  2248.39
 128  2465.314
 129  2472.628
 130  1655.435
 131  1548.96
 132  882.7246
 133  1336.347
 134  1948.232
 135  1954.076
 136  2492.149
 137  1909.841
 138  1730.508
 139  1407.038
 140  1513.522
 141  1566.636
 142  1283.169
 143  1667.873
 144  2079.235
 145  2007.594
 146  2052.905
 147  1864.343
 148  1886.722
 149  2225.716
 150  2047.995
 151  2196.885
 152  2040.295
 153  2059.872
 154  1587.151
 155  1550.148
 156  1796.795
 157  2071.167
 158  2254.455
 159  2161.899
 160  2213.364
 161  1912.249
 162  1715.516
 163  1730.692
 164  1913.504
 165  1773.71
 166  1896.251
 167  1861.616
 168  1863.797
 169  1553.253
 170  1689.569
 171  1701.999
 172  1567.031
 173  1319.407
 174  1635.38
 175  2004.087
 176  2038.27
 177  2121.853
 178  2186.62
 179  2190.187
 180  1858.439
 181  1903.913
 182  2129.043
 183  1774.071
 184  1576.045
 185  1807.76
 186  1894.7
 187  1721.93
 188  1691.369
 189  1911.247
 190  1826.058
 191  1375.378
 192  1169.429
 193  1556.916
 194  1876.125
 195  2053.344
 196  1923.289
 197  1853.454
 198  1727.382
 199  1310.9
 200  1381.644
 201  1632.489
 202  1978.185
 203  2259.328
 204  1792.516
 205  1525.971
 206  1445.201
 207  1712.594
 208  1568.908
 209  1699.319
 210  2388.238
 211  2206.863
 212  2331.727
 213  1852.607
 214  1809.349
 215  1563.957
 216  1680.338
 217  1785.84
 218  2016.837
 219  1995.464
 220  1950.485
 221  1647.85
 222  1356.479
 223  1528.928
 224  1757.96
 225  1849.99
 226  1619.901
 227  1911.848
 228  1841.892
 229  1712.163
 230  1661.547
 231  1410.254
 232  1763.855
 233  1693.346
 234  1879.189
 235  1487.659
 236  1179.869
 237  1153.341
 238  1516.66
 239  1231.973
 240  1440.468
 241  1757.675
 242  1892.448
 243  1794.174
 244  1703.366
 245  1372.749
 246  1350.329
 247  1339.754
 248  1540.054
 249  1421.134
 250  1423.822
 251  1688.994
 252  1982.918
 253  1977.521
 254  1865.632
 255  1818.297
 256  1336.814
 257  1390.898
 258  1535.801
 259  1558.365
 260  1777.968
 261  2092.802
 262  2032.619
 263  1631.298
 264  1689.409
 265  1611.571
 266  1525.273
 267  1731.179
 268  1819.204
 269  2000.802
 270  1810.862
 271  1642.17
 272  1580.871
 273  1637.346
 274  1747.562
 275  1468.592
 276  1716.595
 277  1901.143
 278  1675.529
 279  1836.263
 280  1345.531
 281  1267.569
 282  1322.514
 283  1542.657
 284  2047.084
 285  2264.189
 286  2227.139
 287  2055.141
 288  1815.591
 289  1284.368
 290  1262.294
 291  1495.493
 292  1615.359
 293  2012.451
 294  2468.212
 295  2148.715
 296  1919.254
 297  1630.041
 298  1739.088
 299  2070.424
 300  1628.464
 301  1751.126
 302  1675.026
 303  1977.728
 304  1908.221
 305  1970.891
 306  1955.051
 307  1857.54
 308  1826.569
 309  2208.245
 310  2008.205
 311  1875.337
 312  1458.188
 313  1696.68
 314  1546.406
 315  2077.511
 316  2362.155
 317  2102.596
 318  2174.752
 319  2186.002
 320  2004.105
 321  2081.026
 322  2448.634
 323  2915.82
 324  2988.772
 325  3620.529
 326  4036.09
 327  3875.042
 328  3637.319
 329  3203.433
 330  2006.252
 331  1901.421
 332  1656.281
 333  1921.818
 334  1780.304
 335  2211.418
 336  1943.634
 337  1405.616
 338  1651.345
 339  1967.599
 340  1918.468
 341  1697.974
 342  1717.193
 343  2069.298
 344  1958.825
 345  1740.048
 346  1559.42
 347  1409.907
 348  1680.187
 349  1448.514
 350  1512.492
 351  1884.047
 352  2039.035
 353  1740.417
 354  1604.869
 355  1765.152
 356  1740.177
 357  1760.887
 358  2115.931
 359  2092.456
 360  2008.016
 361  1863.818
 362  1918.028
 363  1826.532
 364  1469.164
 365  1348.746
 366  1681.284
 367  1948.602
 368  2284.652
 369  2113.976
 370  2280.417
 371  2051.669
 372  1762.009
 373  1429.353
 374  1586.786
 375  1746.083
 376  1784.169
 377  2264.466
 378  2016.235
 379  1468.543
 380  1222.775
 381  1542.811
 382  1718.436
 383  2154.678
 384  2150.457
 385  2044.602
 386  1427.301
 387  1514.257
 388  1587.054
 389  1487.445
 390  1662.62
 391  1811.632
 392  2139.28
 393  2062.029
 394  1872.103
 395  1693.787
 396  1698.235
 397  1591.618
 398  1804.874
 399  1935.327
 400  2036.512
 401  2161.511
 402  1869.416
 403  2003.195
 404  1613.123
 405  1689.116
 406  1724.902
 407  1851.862
 408  1906.781
 409  1995.956
 410  2117.789
 411  2057.235
 412  1827.375
 413  1637.668
 414  1998.374
 415  1865.144
 416  1662.853
 417  2094.13
 418  2085.352
 419  1957.612
 420  1623.241
 421  1767.36
 422  1733.834
 423  1570.598
 424  2040.197
 425  2135.967
 426  2355.125
 427  1859.321
 428  1706.238
 429  1715.776
 430  1816.136
 431  1984.172
 432  1949.989
 433  1880.167
 434  1745.95
 435  1820.37
 436  2075.523
 437  1920.798
 438  1767.401
 439  1776.455
 440  1627.146
 441  1790.942
 442  1883.121
 443  1863.893
 444  2094.307
 445  2004.03
 446  1874.269
 447  2045.7
 448  1868.824
 449  1781.603
 450  1861.125
 451  1871.242
 452  1275.26
 453  1234.099
 454  1535.851
 455  1757.638
 456  1912.173
 457  1825.421
 458  1858.596
 459  1989.061
 460  1823.907
 461  1753.469
 462  1358.473
 463  1231.023
 464  1357.529
 465  2032.363
 466  2120.064
 467  2063.383
 468  2321.08
 469  1805.091
 470  1725.252
 471  1161.921
 472  1545.167
 473  1640.989
 474  1788.406
 475  1960.672
 476  2353.699
 477  2391.226
 478  1971.884
 479  1870.66
 480  1686.586
 481  1551.604
 482  1460.889
 483  1778.747
 484  1960.751
 485  1831.129
 486  1732.651
 487  1712.917
 488  1763.136
 489  1350.719
 490  1843.655
 491  2370.951
 492  1756.952
 493  1689.531
 494  1628.666
 495  2247.633
 496  1890.316
 497  1489.823
 498  1978.12
 499  1942.384
 500  2303.259
 501  2083.127
 502  1980.679
 503  1777.593
 504  1652.829
 505  1927.783
 506  1139.851
 507  1581.99
 508  2100.776
 509  1932.771
 510  1499.499
 511  1802.695
