# Input file       =  1183970685.111763_cleaned.dat
# Candidate        =  PSR_0332+5434
# Telescope        =  AR
# Epoch_topo       =  57947.364630923184
# Epoch_bary       =  N/A
# T_sample         =  0.002
# Data Folded      =  7340032
# Data Avg         =  0.270114978760831
# Data StdDev      =  5.15808668716018 
# Profile Bins     =  256
# Profile Avg      =  7745.04335433483 
# Profile StdDev   =  873.408935368887 
# Reduced chi-sqr  =  0.682
# Prob(Noise)      <  1   (~0.0 sigma)
# P_topo (ms)      =  714.480358181839  +/- 0.000493
# P'_topo (s/s)    =  -0                +/- 2.6e-10
# P''_topo (s/s^2) =  0                 +/- 1.15e-13
# P_bary (ms)      =  N/A
# P'_bary (s/s)    =  N/A
# P''_bary (s/s^2) =  N/A
# P_orb (s)        =  N/A
# asin(i)/c (s)    =  N/A
# eccentricity     =  N/A
# w (rad)          =  N/A
# T_peri           =  N/A
######################################################
   0  7771.445
   1  7656.844
   2  7095.765
   3  8163.028
   4  7952.592
   5  7998.975
   6  7538.646
   7  7590.69
   8  7966.425
   9  7872.766
  10  7518.024
  11  8140.979
  12  7680.314
  13  8010.525
  14  7543.721
  15  8489.672
  16  7275.61
  17  7340.228
  18  7487.045
  19  6693.213
  20  6893.602
  21  7265.117
  22  6534.73
  23  7028.508
  24  7070.911
  25  7932.139
  26  6001.568
  27  6289.291
  28  7847.67
  29  7977.179
  30  7540.282
  31  7332.064
  32  9061.438
  33  8437.117
  34  7983.577
  35  8400.008
  36  7304.589
  37  7876.957
  38  8258.502
  39  7780.256
  40  7297.742
  41  7469.346
  42  7668.03
  43  7432.278
  44  7639.328
  45  7452.577
  46  8585.902
  47  6717.171
  48  7558.794
  49  7372.696
  50  7975.115
  51  8270.26
  52  7992.794
  53  7485.433
  54  6787.008
  55  7144.85
  56  7316.267
  57  7664.74
  58  8066.641
  59  7811.905
  60  7698.857
  61  7998.231
  62  7714.061
  63  7399.431
  64  7021.314
  65  8110.667
  66  7641.726
  67  6568.353
  68  6932.746
  69  6888.061
  70  7572.417
  71  7286.501
  72  7755.433
  73  7454.395
  74  7275.292
  75  7417
  76  8278.331
  77  7598.01
  78  8247.017
  79  8471.157
  80  7535.054
  81  7892.636
  82  8141.081
  83  8035.208
  84  7752.183
  85  7721.49
  86  7575.668
  87  7770.684
  88  7925.39
  89  8726.389
  90  8391.835
  91  8107.066
  92  8975.015
  93  8772.751
  94  8590.249
  95  8587.104
  96  8090.179
  97  6518.011
  98  7403.649
  99  7337.912
 100  6940.307
 101  6813.366
 102  7678.277
 103  8078.727
 104  7809.621
 105  7497.946
 106  7610.497
 107  7079.719
 108  7932.333
 109  6905.342
 110  6802.134
 111  6841.492
 112  7535.852
 113  7542.804
 114  7526.166
 115  7575.269
 116  7867.604
 117  7797.69
 118  8278.897
 119  8124.78
 120  8163.923
 121  8049.061
 122  7268.355
 123  7627.388
 124  8630.302
 125  7931.944
 126  6834.112
 127  7643.06
 128  7650.442
 129  8137.889
 130  7657.53
 131  8000.502
 132  8322.065
 133  7950.35
 134  8044.244
 135  8514.001
 136  8629.835
 137  8285.447
 138  7643.344
 139  7549.375
 140  8119.882
 141  8668.597
 142  8565.297
 143  8433.859
 144  8494.168
 145  8400.113
 146  8082.237
 147  7801.845
 148  7840.167
 149  8095.818
 150  8821.312
 151  8304.917
 152  7812.172
 153  6806.654
 154  7467.786
 155  6911.763
 156  7611.969
 157  7013.677
 158  7234.63
 159  8430.862
 160  7910.067
 161  9252.117
 162  10154.86
 163  11659
 164  9983.637
 165  8501.215
 166  7925.369
 167  7606.465
 168  7796.619
 169  7127.529
 170  7157.056
 171  7356.965
 172  6573.973
 173  6864.285
 174  6895.281
 175  7203.617
 176  7193.379
 177  7626.725
 178  8104.783
 179  7970.356
 180  7406.462
 181  7662.729
 182  8881.483
 183  8348.275
 184  7146.817
 185  7978.834
 186  7228.575
 187  7690.015
 188  8094.597
 189  7074.088
 190  7144.641
 191  8020.398
 192  7593.398
 193  6706.136
 194  7714.847
 195  8401.88
 196  7718.4
 197  8055.209
 198  7824.585
 199  7797.172
 200  7877.488
 201  7694.129
 202  7219.155
 203  7510.906
 204  7271.807
 205  6288.489
 206  7278.215
 207  7588.763
 208  7268.794
 209  7993.896
 210  7581.821
 211  8038.817
 212  8182.487
 213  8037.48
 214  8035.696
 215  8074.579
 216  7860.365
 217  7972.235
 218  8244.832
 219  8586.066
 220  8307.2
 221  8581.185
 222  8316.194
 223  8176.927
 224  7424.987
 225  8189.665
 226  7817.837
 227  7615.785
 228  8036.573
 229  7746.462
 230  7612.539
 231  7701.404
 232  7336.151
 233  7329.737
 234  7523.913
 235  7947.391
 236  7500.151
 237  7862.46
 238  7629.021
 239  7751.137
 240  7610.786
 241  7473.532
 242  8156.986
 243  8199.929
 244  7714.63
 245  7621.58
 246  7392.572
 247  6882.212
 248  7056.256
 249  7690.484
 250  6963.083
 251  6867.295
 252  7986.24
 253  7493.641
 254  8062.406
 255  8015.725
