# Input file       =  1183023208.110605_cleaned.dat
# Candidate        =  PSR_0332+5434
# Telescope        =  AR
# Epoch_topo       =  57936.398461928300
# Epoch_bary       =  N/A
# T_sample         =  0.002
# Data Folded      =  7340032
# Data Avg         =  0.141293927555255
# Data StdDev      =  3.6344916265     
# Profile Bins     =  512
# Profile Avg      =  2025.64901142997 
# Profile StdDev   =  435.168718126777 
# Reduced chi-sqr  =  0.709
# Prob(Noise)      <  1   (~0.0 sigma)
# P_topo (ms)      =  714.488457510133  +/- 0.000463
# P'_topo (s/s)    =  -0                +/- 2.44e-10
# P''_topo (s/s^2) =  0                 +/- 1.08e-13
# P_bary (ms)      =  N/A
# P'_bary (s/s)    =  N/A
# P''_bary (s/s^2) =  N/A
# P_orb (s)        =  N/A
# asin(i)/c (s)    =  N/A
# eccentricity     =  N/A
# w (rad)          =  N/A
# T_peri           =  N/A
######################################################
   0  1524.268
   1  2200.584
   2  2479.721
   3  2450.491
   4  2301.843
   5  2393.594
   6  2383.42
   7  2288.043
   8  2502.669
   9  2135.267
  10  2074.591
  11  2164.378
  12  2201.048
  13  2534.73
  14  2718.941
  15  2316.142
  16  2068.677
  17  1771.678
  18  1802.68
  19  1847.82
  20  1849.499
  21  2144.938
  22  2237.039
  23  1741.77
  24  1650.155
  25  1926.88
  26  1777.481
  27  1821.941
  28  1917.926
  29  1916.158
  30  2123.598
  31  2038.816
  32  1911.423
  33  1890.072
  34  1681.97
  35  1768.137
  36  1571.778
  37  1664.136
  38  1934.07
  39  1635.996
  40  1928.964
  41  1782.841
  42  1967.555
  43  1945.161
  44  1898.668
  45  2077.121
  46  2116.557
  47  2060.322
  48  2076.697
  49  2092.611
  50  1983.76
  51  2073.313
  52  2060.391
  53  1972.972
  54  1958.198
  55  2240.897
  56  2329.939
  57  1917.116
  58  1615.528
  59  2081.555
  60  2073.76
  61  1858.142
  62  1861.867
  63  1872.584
  64  2129.373
  65  2145.708
  66  2015.899
  67  1889.921
  68  1775.627
  69  2165.525
  70  2223.951
  71  2125.516
  72  2057.958
  73  1603.711
  74  2070.18
  75  2215.506
  76  2061.422
  77  2406.55
  78  2096.768
  79  1908.871
  80  1740.275
  81  1809.045
  82  1757.59
  83  1763.69
  84  1533.868
  85  1914.428
  86  1989.487
  87  1849.847
  88  1964.396
  89  1945.198
  90  1847.689
  91  1789.146
  92  2039.685
  93  2239.56
  94  2350.462
  95  2087.519
  96  2530.297
  97  2468.461
  98  2192.211
  99  2172.833
 100  1720.558
 101  2013.939
 102  2315.822
 103  2482.67
 104  2376.569
 105  2045.839
 106  2150.687
 107  2125.512
 108  1822.366
 109  2093.165
 110  2067.739
 111  2229.832
 112  2051.609
 113  1738.79
 114  1708.616
 115  1993.945
 116  2094.75
 117  2072.256
 118  1947.083
 119  1902.898
 120  2311.912
 121  2176.532
 122  2126.899
 123  1895.465
 124  2015.477
 125  2212.524
 126  2032.367
 127  2031.805
 128  2179.015
 129  2090.839
 130  2044.265
 131  1899.775
 132  1711.662
 133  2024.746
 134  1871.522
 135  1854.303
 136  1842.223
 137  2022.474
 138  2258.557
 139  2258.835
 140  2408.732
 141  2135.796
 142  2030.544
 143  2282.429
 144  1969.648
 145  2197.498
 146  2351.808
 147  1917.799
 148  2020.269
 149  1849.961
 150  1898.924
 151  1781.455
 152  1681.525
 153  1808.658
 154  2263.141
 155  1897.443
 156  1922.658
 157  1644.699
 158  1728.564
 159  1394.941
 160  1311.806
 161  1659.331
 162  1719.376
 163  2044.061
 164  2214.476
 165  1786.193
 166  1758.614
 167  1969.448
 168  2039.79
 169  1735.39
 170  1853.356
 171  1939.48
 172  1970.204
 173  1817.238
 174  1802.956
 175  1632.366
 176  1634.06
 177  1788.069
 178  1759.087
 179  1785.532
 180  1964.382
 181  2030.678
 182  2326.946
 183  1851.482
 184  2098.78
 185  2295.125
 186  2256.513
 187  2194.769
 188  2462.008
 189  2641.508
 190  2833.294
 191  3031.628
 192  3150.898
 193  3377.774
 194  3110.779
 195  2705.812
 196  2315.346
 197  1879.81
 198  1731.438
 199  2001.238
 200  2013.335
 201  1919.396
 202  2184.441
 203  2045.515
 204  2151.981
 205  1935.239
 206  2090.762
 207  2462.254
 208  1822.411
 209  1769.053
 210  2053.496
 211  2201.128
 212  2327.91
 213  2129.956
 214  1508.082
 215  1261.043
 216  1386.433
 217  1616
 218  1910.493
 219  1378.507
 220  1541.259
 221  1848.389
 222  1882.805
 223  2166.007
 224  1990.201
 225  1899.891
 226  1978.275
 227  2072.681
 228  2359.817
 229  2037.288
 230  1927.657
 231  1904.806
 232  2143.594
 233  2227.286
 234  1993.875
 235  2029.651
 236  2208.115
 237  2431.691
 238  2444.836
 239  1926.266
 240  1608.948
 241  1604.796
 242  1802.187
 243  2001.343
 244  2049.065
 245  2106.833
 246  2168.854
 247  1820.029
 248  1627.978
 249  1882.616
 250  1928.954
 251  2284.811
 252  2058.671
 253  2167.862
 254  2350.983
 255  2260.001
 256  2234.965
 257  2283.681
 258  2302.579
 259  1982.261
 260  1839.701
 261  1995.832
 262  2230.514
 263  2353.966
 264  2313.61
 265  2002.085
 266  1633.832
 267  1836.592
 268  2074.243
 269  1985.141
 270  2403.416
 271  2364.911
 272  2235.48
 273  2198.367
 274  2216.181
 275  2320.155
 276  2197.667
 277  2132.371
 278  2088.656
 279  2161.373
 280  1805.322
 281  1495.611
 282  1865.268
 283  1761.472
 284  1858.253
 285  1718.582
 286  1750.372
 287  1875.943
 288  2147.813
 289  2124.544
 290  1760.414
 291  1576.747
 292  1716.176
 293  1838.454
 294  1910.764
 295  1675.1
 296  2243.753
 297  2463.738
 298  2109.148
 299  2018.888
 300  2371.423
 301  2365.599
 302  2194.067
 303  2116.932
 304  2281.833
 305  2182.448
 306  2216.065
 307  2113.933
 308  2161.561
 309  2302.857
 310  2271.647
 311  2093.808
 312  2220.912
 313  2133.776
 314  1988.494
 315  1963.739
 316  2217.803
 317  2225.497
 318  1814.995
 319  1893.708
 320  2117.88
 321  1734.311
 322  1691.487
 323  1600.054
 324  1787.545
 325  1889.479
 326  1981.827
 327  1842.11
 328  2069.385
 329  1661.098
 330  1605.911
 331  1867.359
 332  1837.154
 333  1650.377
 334  1624.999
 335  1658.179
 336  1602.3
 337  1600.838
 338  1969.062
 339  2221.816
 340  1908.329
 341  1486.413
 342  1398.867
 343  1258.651
 344  1635.629
 345  1824.848
 346  1965.954
 347  1888.447
 348  1650.233
 349  1595.273
 350  1930.45
 351  1923.764
 352  1999.077
 353  2027.202
 354  1720.407
 355  1959.134
 356  1909.073
 357  2043.258
 358  2247.456
 359  1823.977
 360  1687.765
 361  1641.211
 362  1643.359
 363  1730.962
 364  2046.445
 365  2024.476
 366  1871.592
 367  1835.769
 368  2182.048
 369  2181.807
 370  1941.341
 371  1838.347
 372  1992.874
 373  2058.902
 374  2031.206
 375  1945.495
 376  1763.109
 377  1952.503
 378  1994.48
 379  1886.829
 380  2142.055
 381  2078.953
 382  2281.135
 383  2155.631
 384  1668.809
 385  2145.963
 386  2327.298
 387  2387.086
 388  2112.614
 389  1866.894
 390  1896.056
 391  1996.527
 392  2097.924
 393  2062.223
 394  2248.474
 395  2201.91
 396  2202.444
 397  2394.676
 398  2198.452
 399  2089.153
 400  2137.844
 401  1903.957
 402  1879.382
 403  1896.54
 404  1908.314
 405  1819.146
 406  1941.209
 407  1799.562
 408  1842.991
 409  2106.051
 410  2240.474
 411  2077.295
 412  1742.582
 413  1452.204
 414  1585.308
 415  1907.285
 416  2288.057
 417  2196.572
 418  2316.242
 419  2601.264
 420  2446.051
 421  1933.797
 422  2010.375
 423  1884.514
 424  2081.125
 425  2102.979
 426  2018.361
 427  1878.431
 428  1958.425
 429  1726.24
 430  2032.5
 431  2174.515
 432  2096.379
 433  2077.807
 434  2319.423
 435  2336.297
 436  2521.208
 437  2420.791
 438  2302.665
 439  2202.773
 440  2069.313
 441  2096.438
 442  2420.64
 443  2327.69
 444  2060.603
 445  1524.962
 446  1927.119
 447  2298.295
 448  1944.861
 449  1822.331
 450  2423.161
 451  2115.585
 452  1555.801
 453  1687.126
 454  2009.975
 455  1945.474
 456  2049.182
 457  2157.496
 458  2260.818
 459  2296.446
 460  2114.991
 461  2055.125
 462  1992.657
 463  1809.771
 464  2004.819
 465  1904.031
 466  2381.879
 467  2141.36
 468  2056.317
 469  1938.505
 470  1751.133
 471  1940.267
 472  1978.315
 473  1987.138
 474  2019.999
 475  2345.957
 476  2159.398
 477  2120.668
 478  2106.679
 479  2149.104
 480  2470.035
 481  2128.972
 482  2320.183
 483  2462.386
 484  2253.862
 485  2304.899
 486  1990.162
 487  1926.357
 488  2168.521
 489  2064.294
 490  2356.563
 491  2443.074
 492  2048.536
 493  2258.886
 494  2140.31
 495  2040.107
 496  2036.254
 497  2079.337
 498  2246.817
 499  2173.856
 500  1984.627
 501  2280.543
 502  2394.968
 503  1963.247
 504  2100.756
 505  2018.082
 506  2168.824
 507  2245.993
 508  2182.613
 509  2156.082
 510  2308.407
 511  1568.738
