# Input file       =  1183094583.125446_cleaned.dat
# Candidate        =  PSR_0332+5434
# Telescope        =  AR
# Epoch_topo       =  57937.224561637107
# Epoch_bary       =  N/A
# T_sample         =  0.002
# Data Folded      =  7340032
# Data Avg         =  0.300469989231455
# Data StdDev      =  6.08580986253239 
# Profile Bins     =  1024
# Profile Avg      =  2150.31004039778 
# Profile StdDev   =  515.249261525916 
# Reduced chi-sqr  =  0.948
# Prob(Noise)      <  0.883   (~0.0 sigma)
# P_topo (ms)      =  714.487469473703  +/- 0.000344
# P'_topo (s/s)    =  -0                +/- 1.82e-10
# P''_topo (s/s^2) =  0                 +/- 8.02e-14
# P_bary (ms)      =  N/A
# P'_bary (s/s)    =  N/A
# P''_bary (s/s^2) =  N/A
# P_orb (s)        =  N/A
# asin(i)/c (s)    =  N/A
# eccentricity     =  N/A
# w (rad)          =  N/A
# T_peri           =  N/A
######################################################
   0  2644.834
   1  2825.986
   2  2778.177
   3  2745.172
   4  2785.557
   5  2782.65
   6  2593.536
   7  2490.127
   8  2538.201
   9  2521.749
  10  2461.119
  11  2475.51
  12  2596.328
  13  2606.45
  14  2629.589
  15  2667.333
  16  2525.24
  17  2420.98
  18  2286.053
  19  2349.436
  20  2275.811
  21  2321.561
  22  2212.917
  23  2217.982
  24  2096.191
  25  2021.716
  26  1989.332
  27  1975.037
  28  2091.364
  29  2103.518
  30  2032.908
  31  1996.254
  32  2060.655
  33  2136.217
  34  2142.544
  35  2010.269
  36  1918.41
  37  1708.729
  38  1787.669
  39  1838.934
  40  1940.521
  41  2020.974
  42  2092.953
  43  2117.617
  44  2008.131
  45  1958.362
  46  2000.981
  47  2048.721
  48  2078.05
  49  2001.62
  50  1910.947
  51  2057.938
  52  2121.725
  53  2046.94
  54  1928.18
  55  1927.849
  56  2044.871
  57  2108.757
  58  2267.476
  59  2339.965
  60  2383.74
  61  2341.811
  62  2262.323
  63  2167.402
  64  2116.583
  65  2070.958
  66  2105.776
  67  2103.732
  68  2139.659
  69  2320.587
  70  2456.034
  71  2528.424
  72  2414.6
  73  2460.085
  74  2468.624
  75  2469.496
  76  2488.33
  77  2660.28
  78  2667.948
  79  2703.441
  80  2824.284
  81  2818.24
  82  2695.706
  83  2644.016
  84  2703.269
  85  2737.599
  86  2558.273
  87  2468.943
  88  2613.974
  89  2682.859
  90  2770.497
  91  2760.829
  92  2765.953
  93  2694.041
  94  2606.742
  95  2558.784
  96  2485.893
  97  2458.4
  98  2507.898
  99  2540.045
 100  2489.666
 101  2454.883
 102  2567.462
 103  2520.016
 104  2446.428
 105  2308.343
 106  2225.651
 107  2315.836
 108  2422.68
 109  2539.039
 110  2403.646
 111  2246.705
 112  2128.596
 113  2159.709
 114  2253.319
 115  2333.982
 116  2402.26
 117  2579.89
 118  2707.398
 119  2663.29
 120  2588.408
 121  2548.079
 122  2497.671
 123  2372.178
 124  2254.089
 125  2242.855
 126  2364.035
 127  2384.052
 128  2441.606
 129  2526.216
 130  2533.964
 131  2537.183
 132  2554.764
 133  2592.476
 134  2682.771
 135  2762.938
 136  2751.278
 137  2607.264
 138  2516.28
 139  2491.448
 140  2492.317
 141  2596.327
 142  2768.901
 143  2797.53
 144  2802.173
 145  2761.726
 146  2743.052
 147  2751.795
 148  2704.222
 149  2748.949
 150  2705.304
 151  2686.458
 152  2682.345
 153  2655.415
 154  2573.864
 155  2536.03
 156  2617.705
 157  2627.715
 158  2777.224
 159  2698.43
 160  2549.059
 161  2438.125
 162  2530.814
 163  2686.663
 164  2610.42
 165  2520.562
 166  2596.549
 167  2648.818
 168  2623.163
 169  2426.341
 170  2203.733
 171  2154.553
 172  2273.455
 173  2327.911
 174  2347.875
 175  2282.894
 176  2192.208
 177  2146.006
 178  2128.722
 179  2107.943
 180  2119.422
 181  2121.172
 182  2111.95
 183  2054.089
 184  2141.499
 185  2089.43
 186  2015.97
 187  1813.548
 188  1810.673
 189  1759.379
 190  1842.693
 191  1846.085
 192  1899.823
 193  1742.193
 194  1655.603
 195  1761.937
 196  1870.778
 197  1857.35
 198  1663.251
 199  1586.864
 200  1596.703
 201  1758.772
 202  1786.977
 203  1879.052
 204  2017.86
 205  2101.654
 206  2106.941
 207  1990.225
 208  1921.138
 209  1884.409
 210  1760.036
 211  1594.19
 212  1614.722
 213  1728.502
 214  1844.675
 215  1966.513
 216  2111.276
 217  2151.923
 218  1996.332
 219  1975.902
 220  2001.801
 221  1928.08
 222  1906.734
 223  1923.473
 224  1979.019
 225  2022.708
 226  2084.028
 227  2025.843
 228  1929.573
 229  1761.772
 230  1753.769
 231  1868.853
 232  1888.724
 233  1993.484
 234  2045.641
 235  2000.854
 236  1889.283
 237  1860.684
 238  1874.244
 239  1972.578
 240  2076.546
 241  2147.152
 242  2137.913
 243  2031.873
 244  1951.423
 245  2048.927
 246  2075.604
 247  2028.699
 248  1943.412
 249  1949.149
 250  2004.646
 251  2064.642
 252  2147.814
 253  2133.973
 254  2169.584
 255  2263.179
 256  2177.003
 257  2163.093
 258  2099.641
 259  2277.357
 260  2250.077
 261  2141.93
 262  2048.796
 263  2012.066
 264  2124.462
 265  2193.525
 266  2315.925
 267  2314.106
 268  2195.52
 269  2172.938
 270  2261.804
 271  2273.275
 272  2135.418
 273  2140.648
 274  2137.977
 275  2166.929
 276  2123.919
 277  1997.021
 278  1927.838
 279  1971.191
 280  2069.648
 281  2125.174
 282  2236.886
 283  2351.336
 284  2347.973
 285  2187.254
 286  2221.564
 287  2281.773
 288  2394.725
 289  2246.478
 290  2010.666
 291  1962.898
 292  1992.186
 293  1910.665
 294  1911.526
 295  2080.334
 296  2191.54
 297  2140.364
 298  2044.268
 299  2081.989
 300  2223.169
 301  2136.195
 302  1992.141
 303  1822.33
 304  1892.027
 305  1975.344
 306  1903.538
 307  1875.08
 308  1913.881
 309  2066.559
 310  2030.262
 311  1920.831
 312  1931.472
 313  2019.254
 314  2003.673
 315  2014.726
 316  2034.681
 317  2110.382
 318  2104.313
 319  2187.057
 320  2215.319
 321  2183.607
 322  2104.11
 323  2148.562
 324  2275.715
 325  2296.406
 326  2240.097
 327  2141.501
 328  2159.542
 329  2206.465
 330  2217.653
 331  2196.518
 332  2184.726
 333  2142.515
 334  2140.956
 335  2189.037
 336  2087.633
 337  2145.199
 338  2227.159
 339  2277.553
 340  2257.757
 341  2269.361
 342  2101.701
 343  2101.198
 344  2044.486
 345  2068.696
 346  1996.419
 347  1993.48
 348  1954.593
 349  1926.361
 350  1932.643
 351  1915.949
 352  1892.745
 353  1763.808
 354  1818.311
 355  1801.1
 356  1897.406
 357  1880.35
 358  1930.637
 359  2026.618
 360  1921.574
 361  1810.997
 362  1682.425
 363  1708.919
 364  1797.29
 365  1907.764
 366  1884.559
 367  1716.718
 368  1713.37
 369  1785.074
 370  1829.789
 371  1790.559
 372  1728.864
 373  1767.653
 374  1857.477
 375  1918.46
 376  1920.086
 377  1854.401
 378  1861.313
 379  1827.065
 380  1836.908
 381  1806.069
 382  1761.503
 383  1721.514
 384  1703.852
 385  1743.504
 386  1899.022
 387  2020.47
 388  2078.762
 389  1957.559
 390  1861.938
 391  1778.067
 392  1783.748
 393  1893.234
 394  1992.94
 395  2029.465
 396  2081.59
 397  1994.472
 398  1997.036
 399  1962.578
 400  2088.02
 401  1993.447
 402  1921.129
 403  1825.862
 404  1934.542
 405  2106.34
 406  2184.536
 407  2185.552
 408  2282.761
 409  2258.505
 410  2206.839
 411  2059.087
 412  2081.341
 413  2182.358
 414  2319.99
 415  2262.428
 416  2126.403
 417  2080.923
 418  2087.314
 419  2024.41
 420  2008.806
 421  2103.976
 422  2206.767
 423  2215.852
 424  2239.728
 425  2341.465
 426  2461.651
 427  2426.156
 428  2311.236
 429  2366.78
 430  2473.24
 431  2445.332
 432  2444.299
 433  2365.679
 434  2359.813
 435  2263.476
 436  2273.058
 437  2205.947
 438  2192.007
 439  2171.271
 440  2110.975
 441  2080.191
 442  2168.781
 443  2243.219
 444  2216.791
 445  2122.509
 446  2074.497
 447  2088.488
 448  2087.162
 449  2072.942
 450  1934.405
 451  2037.824
 452  2002.289
 453  1993.033
 454  1929.775
 455  2037.376
 456  2041.271
 457  1978.245
 458  1926.827
 459  2040.812
 460  2106.269
 461  2032.011
 462  1799.138
 463  1745.127
 464  1834.937
 465  1854.312
 466  1882.843
 467  1795.446
 468  1820.955
 469  1870.165
 470  1914.221
 471  1908.646
 472  1932.836
 473  2080.286
 474  2334.241
 475  2472.63
 476  2340.683
 477  2217.087
 478  2085.99
 479  2129.053
 480  2197.539
 481  2204.397
 482  2180.1
 483  2186.049
 484  2158.251
 485  2094.922
 486  2104.459
 487  2175.53
 488  2248.094
 489  2256.761
 490  2144.733
 491  2125.931
 492  2169.083
 493  2149.168
 494  1995.064
 495  2032.758
 496  2128.599
 497  2366.303
 498  2288.719
 499  2376.671
 500  2337.919
 501  2289.169
 502  2250.646
 503  2277.635
 504  2395.294
 505  2540.426
 506  2495.976
 507  2461.331
 508  2240.689
 509  2177.137
 510  2214.19
 511  2219.526
 512  2286.432
 513  2236.248
 514  2240.745
 515  2182.314
 516  2122.348
 517  2050.215
 518  1953.876
 519  1882.621
 520  1973.9
 521  2013.252
 522  1955.095
 523  1888.558
 524  1913.597
 525  1879.835
 526  1855.242
 527  1833.472
 528  1912.631
 529  1920.065
 530  2006.3
 531  2014.786
 532  2046.891
 533  1896.793
 534  1692.957
 535  1560.644
 536  1524.015
 537  1616.367
 538  1608.791
 539  1687.578
 540  1724.682
 541  1848.145
 542  1878.232
 543  1874.142
 544  1830.474
 545  1814.959
 546  1761.879
 547  1779.503
 548  1799.141
 549  1865.077
 550  1955.527
 551  2015.224
 552  2040.987
 553  2055.799
 554  2147.923
 555  2156.847
 556  2062.229
 557  1990.654
 558  1933.436
 559  1827.773
 560  1809.755
 561  1878.492
 562  1941.519
 563  1964.521
 564  2083.804
 565  2098.749
 566  2143.583
 567  2166.873
 568  2214.232
 569  2177.961
 570  2037.301
 571  1941.598
 572  1913.252
 573  1924.693
 574  1967.323
 575  2018.668
 576  1968.138
 577  1979.628
 578  2024.442
 579  2139.329
 580  2179.751
 581  2184.257
 582  2220.096
 583  2272.892
 584  2255.694
 585  2225.527
 586  2129.069
 587  2173.895
 588  2225.833
 589  2341.161
 590  2276
 591  2322.603
 592  2416.787
 593  2533.391
 594  2452.821
 595  2411.024
 596  2379.363
 597  2488.385
 598  2622.417
 599  2603.968
 600  2677.249
 601  2664.444
 602  2696.647
 603  2559.604
 604  2466.672
 605  2545.999
 606  2690.027
 607  2760.752
 608  2792.603
 609  2623.199
 610  2565.631
 611  2597.622
 612  2612.652
 613  2635.075
 614  2555.625
 615  2582.562
 616  2588.249
 617  2567.91
 618  2493.338
 619  2431.841
 620  2418.012
 621  2496.02
 622  2442.316
 623  2407.375
 624  2383.511
 625  2477.543
 626  2444.87
 627  2402.702
 628  2396.369
 629  2306.427
 630  2230.879
 631  2198.818
 632  2220.741
 633  2193.908
 634  2251.746
 635  2260.427
 636  2275.64
 637  2299.606
 638  2212.945
 639  2153.512
 640  2049.646
 641  2021.755
 642  1995.718
 643  2032.053
 644  2195.232
 645  2374.949
 646  2386.688
 647  2543.571
 648  2735.086
 649  2943.942
 650  3105.857
 651  3205.365
 652  3233.098
 653  3227.951
 654  3232.04
 655  3253.492
 656  3030.155
 657  2806.405
 658  2645.266
 659  2619.77
 660  2528.788
 661  2468.075
 662  2450.533
 663  2444.127
 664  2292.524
 665  2253.308
 666  2142.045
 667  2136.228
 668  2078.593
 669  2110.963
 670  2068.325
 671  2156.295
 672  2309.843
 673  2400.512
 674  2380.228
 675  2404.627
 676  2485.374
 677  2617.677
 678  2446.669
 679  2286.507
 680  2391.672
 681  2545.995
 682  2560.708
 683  2568.336
 684  2651.88
 685  2621.698
 686  2494.661
 687  2337.966
 688  2276.823
 689  2199.038
 690  2218.455
 691  2267.688
 692  2141.399
 693  2027.444
 694  2089.904
 695  2082.969
 696  2114.13
 697  2078.655
 698  2017.545
 699  1987.841
 700  1811.124
 701  1849.096
 702  1824.237
 703  1907.115
 704  1905.46
 705  1930.336
 706  1867.364
 707  1772.858
 708  1840.335
 709  1856.383
 710  1924.644
 711  1959.908
 712  1960.869
 713  1891.861
 714  1904.408
 715  1984.361
 716  2006.787
 717  1917.669
 718  1873.828
 719  1897.459
 720  1986.049
 721  2039.365
 722  2032.317
 723  2072.24
 724  2115.591
 725  2096.104
 726  1945.271
 727  1980.727
 728  1996.452
 729  2042.63
 730  2099.784
 731  2143.848
 732  2257.653
 733  2156.607
 734  2087.944
 735  1982.901
 736  2016.349
 737  2050.364
 738  1994.464
 739  1910.566
 740  1850.133
 741  1785.917
 742  1782.055
 743  1947.588
 744  2001.917
 745  2048.896
 746  1992.49
 747  2065.894
 748  2081.21
 749  2141.738
 750  2165.128
 751  2257.631
 752  2384.852
 753  2370.088
 754  2161.919
 755  1981.543
 756  2095.907
 757  2248.499
 758  2421.556
 759  2500.574
 760  2539.212
 761  2368.424
 762  2180.177
 763  2117.451
 764  2221.018
 765  2271.747
 766  2185.915
 767  2245.053
 768  2358.634
 769  2470.75
 770  2494.732
 771  2445.527
 772  2319.73
 773  2312.878
 774  2300.469
 775  2302.037
 776  2058.635
 777  2056.115
 778  2168.601
 779  2250.587
 780  2194.099
 781  2080.077
 782  2093.734
 783  1930.315
 784  1833.656
 785  1758.255
 786  1807.717
 787  1809.309
 788  1893.213
 789  1891.104
 790  1889.872
 791  1849.801
 792  1883.56
 793  1836.208
 794  1811.944
 795  1865.132
 796  1918.353
 797  1942.659
 798  1956.981
 799  2052.421
 800  2145.602
 801  2141.575
 802  2070.453
 803  1935.278
 804  1927.157
 805  1931.628
 806  2012.341
 807  1986.328
 808  1973.872
 809  1864.083
 810  1935.741
 811  1774.859
 812  1806.615
 813  1830.284
 814  2007.606
 815  2063.621
 816  2083.424
 817  2104.277
 818  1994.94
 819  1988.355
 820  1899.247
 821  1887.664
 822  1837.703
 823  1781.008
 824  1841.514
 825  1927.361
 826  1933.927
 827  1829.656
 828  1967.634
 829  2130.122
 830  2140.213
 831  1978.758
 832  1927.409
 833  1996.302
 834  2056.801
 835  2081.509
 836  2054.971
 837  2087.37
 838  2057.039
 839  2014.788
 840  1962.645
 841  1963.561
 842  1967.106
 843  2045.721
 844  2015.565
 845  1897.114
 846  1819.362
 847  1780.335
 848  1651.208
 849  1670.438
 850  1771.192
 851  1992.674
 852  2027.05
 853  1993.594
 854  1899.363
 855  1761.107
 856  1722.25
 857  1787.841
 858  1758.937
 859  1769.843
 860  1760.212
 861  1733.394
 862  1743.211
 863  1636.924
 864  1756.146
 865  1885.209
 866  1916.018
 867  1810.166
 868  1850.835
 869  1911.303
 870  1885.929
 871  1898.64
 872  1891.234
 873  1878.369
 874  1859.992
 875  1810.242
 876  1860.044
 877  1868.415
 878  1826.669
 879  1933.083
 880  2026.76
 881  2036.452
 882  1986.371
 883  1928.79
 884  1941.81
 885  1928.038
 886  1929.455
 887  1894.983
 888  1937.936
 889  1906.249
 890  2092.2
 891  2019.334
 892  2142.581
 893  2070.526
 894  2066.215
 895  1988.69
 896  1953.37
 897  2094.267
 898  2115.584
 899  2114.045
 900  2000.973
 901  2004.38
 902  1928.963
 903  1984.125
 904  2062.415
 905  2120.559
 906  2016.006
 907  1879.938
 908  1819.373
 909  1789.302
 910  1806.129
 911  1835.95
 912  1839.775
 913  1900.052
 914  1997.955
 915  1937.794
 916  1996.115
 917  1999.187
 918  2073.305
 919  2007.84
 920  2046.098
 921  2059.68
 922  2110.352
 923  2141.413
 924  2220.801
 925  2198.116
 926  2226.468
 927  2231.41
 928  2333.024
 929  2384.981
 930  2509.859
 931  2627.735
 932  2719.64
 933  2638.345
 934  2573.108
 935  2600.083
 936  2593.401
 937  2615.069
 938  2569.061
 939  2537.524
 940  2592.557
 941  2581.771
 942  2494.462
 943  2369.35
 944  2328.159
 945  2355.935
 946  2331.044
 947  2278.53
 948  2352.689
 949  2300.449
 950  2234.272
 951  2243.324
 952  2183.835
 953  2180.94
 954  2050.715
 955  2113.399
 956  2087.514
 957  2131.94
 958  2089.358
 959  2119.506
 960  2004.464
 961  1867.729
 962  1880.342
 963  1982.084
 964  2000.214
 965  1946.985
 966  1950.851
 967  1958.474
 968  2049.848
 969  2101.012
 970  2206.522
 971  2200.647
 972  2080.244
 973  1974.992
 974  1865.66
 975  1941.574
 976  2033.88
 977  1947.981
 978  1852.935
 979  1912.844
 980  2016.041
 981  2119.464
 982  1974.22
 983  1879.712
 984  1860.14
 985  1897.688
 986  1825.966
 987  1769.214
 988  1852.742
 989  1917.197
 990  1912.62
 991  1879.681
 992  1916.346
 993  1886.94
 994  1989.127
 995  2016.034
 996  2068.233
 997  2139.914
 998  2149.972
 999  2078.052
1000  2051.574
1001  2062.538
1002  2153.395
1003  2071.358
1004  2092.199
1005  2261.195
1006  2290.716
1007  2186.5
1008  2115.452
1009  2062.082
1010  2139.531
1011  2219.898
1012  2255.977
1013  2307.772
1014  2205.607
1015  2386.596
1016  2309.226
1017  2414.781
1018  2356.801
1019  2435.2
1020  2506.934
1021  2542.214
1022  2508.224
1023  2517.999
