# Input file       =  1183697231.101892_cleaned.dat
# Candidate        =  PSR_0332+5434
# Telescope        =  AR
# Epoch_topo       =  57944.199653957083
# Epoch_bary       =  N/A
# T_sample         =  0.002
# Data Folded      =  7340032
# Data Avg         =  0.227561423570608
# Data StdDev      =  3.9500194888237  
# Profile Bins     =  1024
# Profile Avg      =  1629.37862728885 
# Profile StdDev   =  334.424615721152 
# Reduced chi-sqr  =  0.908
# Prob(Noise)      <  0.984   (~0.0 sigma)
# P_topo (ms)      =  714.482232733279  +/- 0.000912
# P'_topo (s/s)    =  -0                +/- 4.81e-10
# P''_topo (s/s^2) =  0                 +/- 2.12e-13
# P_bary (ms)      =  N/A
# P'_bary (s/s)    =  N/A
# P''_bary (s/s^2) =  N/A
# P_orb (s)        =  N/A
# asin(i)/c (s)    =  N/A
# eccentricity     =  N/A
# w (rad)          =  N/A
# T_peri           =  N/A
######################################################
   0  1693.237
   1  1724.703
   2  1700.645
   3  1551.165
   4  1529.794
   5  1472.418
   6  1501.666
   7  1561.452
   8  1475.745
   9  1386.034
  10  1270.632
  11  1284.147
  12  1345.125
  13  1446.738
  14  1540.94
  15  1550.617
  16  1551.357
  17  1462.844
  18  1374.499
  19  1340.27
  20  1407.875
  21  1411.23
  22  1454.694
  23  1424.808
  24  1436.823
  25  1442.775
  26  1507.409
  27  1573.597
  28  1654.846
  29  1621.174
  30  1629.409
  31  1527.045
  32  1452.649
  33  1447.092
  34  1502.528
  35  1647.273
  36  1632.75
  37  1662.619
  38  1571.45
  39  1525.845
  40  1347.986
  41  1359.502
  42  1346.961
  43  1422.78
  44  1385.586
  45  1441.574
  46  1437.385
  47  1565.11
  48  1526.37
  49  1606.376
  50  1620.917
  51  1619.646
  52  1523.802
  53  1473.601
  54  1506.409
  55  1507.27
  56  1503.433
  57  1513.741
  58  1550.67
  59  1602.658
  60  1577.23
  61  1526.885
  62  1432.134
  63  1453.794
  64  1379.216
  65  1387.375
  66  1459.661
  67  1436.868
  68  1448.391
  69  1461.317
  70  1531.726
  71  1574.225
  72  1562.926
  73  1481.991
  74  1446.867
  75  1354.052
  76  1415.713
  77  1400.637
  78  1407.686
  79  1318.386
  80  1236.057
  81  1208.922
  82  1215.445
  83  1213.13
  84  1289.387
  85  1360.724
  86  1504.715
  87  1490.411
  88  1399.778
  89  1219.315
  90  1182.301
  91  1219.282
  92  1296.5
  93  1356.673
  94  1387.978
  95  1433.594
  96  1535.336
  97  1561.836
  98  1460.316
  99  1462.556
 100  1534.707
 101  1534.094
 102  1495.175
 103  1493.897
 104  1485.754
 105  1494.528
 106  1529.846
 107  1604.707
 108  1538.716
 109  1492.665
 110  1424.093
 111  1374.759
 112  1301.568
 113  1325.135
 114  1347.364
 115  1374.718
 116  1465.534
 117  1563.112
 118  1570.5
 119  1484.089
 120  1505.357
 121  1518.545
 122  1596.476
 123  1486.044
 124  1505.143
 125  1427.578
 126  1412.904
 127  1418.194
 128  1406.924
 129  1410.486
 130  1366.841
 131  1359.288
 132  1438.458
 133  1530.096
 134  1600.814
 135  1582.69
 136  1604.649
 137  1584.674
 138  1672.061
 139  1732.238
 140  1778.525
 141  1731.914
 142  1630.648
 143  1551.19
 144  1536.796
 145  1529.835
 146  1510.856
 147  1521.894
 148  1511.313
 149  1540.69
 150  1453.109
 151  1366.071
 152  1432.036
 153  1470.305
 154  1454.938
 155  1445.109
 156  1408.413
 157  1440.607
 158  1333.588
 159  1448.219
 160  1556.987
 161  1733.273
 162  1579.569
 163  1553.256
 164  1495.695
 165  1480.749
 166  1463.5
 167  1568.168
 168  1672.531
 169  1573.869
 170  1363.403
 171  1388.008
 172  1465.697
 173  1568.098
 174  1532.822
 175  1473.169
 176  1562.572
 177  1572.311
 178  1603.039
 179  1524.407
 180  1498.14
 181  1532.633
 182  1627.339
 183  1619.501
 184  1602.106
 185  1550.877
 186  1544.064
 187  1478.977
 188  1526.783
 189  1550.893
 190  1621.816
 191  1659.745
 192  1668.055
 193  1611.015
 194  1476.816
 195  1377.579
 196  1410.528
 197  1522.058
 198  1468.83
 199  1458.489
 200  1371.831
 201  1434.502
 202  1474.231
 203  1576.692
 204  1661.336
 205  1684.164
 206  1698.047
 207  1700.204
 208  1650.306
 209  1576.07
 210  1626.21
 211  1705.502
 212  1707.308
 213  1717.657
 214  1733.129
 215  1788.227
 216  1810.484
 217  1697.982
 218  1566.297
 219  1514.972
 220  1484.986
 221  1567.405
 222  1605.724
 223  1642.861
 224  1544.544
 225  1523.476
 226  1616.61
 227  1677.606
 228  1740.354
 229  1766.864
 230  1754.248
 231  1722.223
 232  1831.902
 233  1934.527
 234  1772.937
 235  1617.367
 236  1514.911
 237  1587.423
 238  1614.581
 239  1715.276
 240  1670.28
 241  1725.395
 242  1665.125
 243  1763.777
 244  1751.4
 245  1680.374
 246  1603.767
 247  1547.25
 248  1700.784
 249  1735.429
 250  1670.809
 251  1613.49
 252  1665.991
 253  1691.023
 254  1546.036
 255  1436.43
 256  1474.794
 257  1572.359
 258  1553.455
 259  1626.234
 260  1578.79
 261  1493.765
 262  1436.336
 263  1526.694
 264  1573.583
 265  1632.068
 266  1555.021
 267  1571.256
 268  1583.582
 269  1582.636
 270  1579.059
 271  1640.46
 272  1711.114
 273  1643.822
 274  1542.873
 275  1652.105
 276  1845.74
 277  1882.507
 278  1794.883
 279  1676.859
 280  1638.427
 281  1601.381
 282  1499.854
 283  1504.748
 284  1648.07
 285  1646.151
 286  1670.503
 287  1656.244
 288  1616.432
 289  1557.588
 290  1658.568
 291  1747.524
 292  1763.128
 293  1642.55
 294  1538.355
 295  1496.946
 296  1541.548
 297  1510.506
 298  1368.049
 299  1404.05
 300  1636.459
 301  1702.877
 302  1575.367
 303  1439.832
 304  1499.331
 305  1575.307
 306  1620.446
 307  1596.973
 308  1532.176
 309  1521.919
 310  1607.449
 311  1643.234
 312  1669.97
 313  1547.432
 314  1517.384
 315  1488.26
 316  1572.621
 317  1587.342
 318  1588.478
 319  1628.091
 320  1621.885
 321  1657.75
 322  1659.456
 323  1583.96
 324  1531.703
 325  1361.73
 326  1383.999
 327  1361.654
 328  1312.75
 329  1203.828
 330  1202.695
 331  1299.068
 332  1385.37
 333  1461.773
 334  1460.265
 335  1336.609
 336  1389.599
 337  1490.537
 338  1528.863
 339  1418.892
 340  1395.854
 341  1399.903
 342  1351.989
 343  1399.773
 344  1376.012
 345  1405.287
 346  1400.36
 347  1436.915
 348  1417.339
 349  1363.482
 350  1276.816
 351  1282.924
 352  1398.353
 353  1586.099
 354  1658.265
 355  1581.408
 356  1499.34
 357  1479.299
 358  1452.614
 359  1497.768
 360  1547.005
 361  1612.24
 362  1541.589
 363  1523.157
 364  1496.132
 365  1521.085
 366  1453.662
 367  1483.592
 368  1509.412
 369  1537.278
 370  1494.939
 371  1382.085
 372  1367.535
 373  1465.82
 374  1617.577
 375  1720.44
 376  1683.713
 377  1624.153
 378  1627.023
 379  1658.244
 380  1630.482
 381  1567.26
 382  1475.466
 383  1422.258
 384  1453.605
 385  1586.673
 386  1684.723
 387  1626.055
 388  1604.134
 389  1678.04
 390  1779.404
 391  1756.047
 392  1785.148
 393  1700.245
 394  1625.985
 395  1462.424
 396  1528.122
 397  1600.864
 398  1669.25
 399  1582.64
 400  1500.92
 401  1481.083
 402  1494.698
 403  1550.634
 404  1655.445
 405  1815.205
 406  1822.328
 407  1884.097
 408  1769.607
 409  1646.687
 410  1559.019
 411  1591.488
 412  1651.134
 413  1618.021
 414  1684.503
 415  1741.161
 416  1710.381
 417  1595.452
 418  1605.223
 419  1707.424
 420  1753.959
 421  1774.761
 422  1784.753
 423  1792.438
 424  1774.788
 425  1796.882
 426  1820.437
 427  1712.216
 428  1631.629
 429  1704.573
 430  1631.27
 431  1560.672
 432  1606.806
 433  1772.653
 434  1809.141
 435  1619.968
 436  1597.564
 437  1656.451
 438  1714.737
 439  1793.544
 440  1763.193
 441  1693.347
 442  1668.336
 443  1652.352
 444  1729.524
 445  1665.416
 446  1764.741
 447  1745.383
 448  1897.445
 449  1839.982
 450  1859.037
 451  1834.345
 452  1957.139
 453  2007.152
 454  1975.28
 455  1858.347
 456  1837.278
 457  1776.956
 458  1847.805
 459  1735.957
 460  1636.971
 461  1698.545
 462  1867.865
 463  2013.806
 464  2060.568
 465  2087.379
 466  1991.055
 467  1940.231
 468  1981.87
 469  2026.332
 470  1973.821
 471  1914.798
 472  1877.664
 473  1902.559
 474  1810.755
 475  1792.795
 476  1752.707
 477  1775.973
 478  1816.712
 479  1902.518
 480  1962.124
 481  1908.712
 482  1922.796
 483  1878.107
 484  1845.587
 485  1860.115
 486  1892.641
 487  1977.297
 488  1969.688
 489  1986.565
 490  1973.101
 491  1945.549
 492  1847.618
 493  1825.259
 494  1670.187
 495  1741.258
 496  1809.578
 497  1858.273
 498  1860.723
 499  1809.896
 500  1814.661
 501  1764.884
 502  1809.149
 503  1833.744
 504  1914.912
 505  1785.458
 506  1765.738
 507  1848.149
 508  1900.826
 509  1915.803
 510  1802.438
 511  1805.285
 512  1904.043
 513  2040.866
 514  2041.519
 515  2018.823
 516  1989.532
 517  2008.904
 518  1888.834
 519  1845.349
 520  1770.281
 521  1746.804
 522  1688.711
 523  1745.326
 524  1690.128
 525  1753.008
 526  1836.155
 527  1883.106
 528  1860.701
 529  1774.897
 530  1722.466
 531  1639.146
 532  1622.966
 533  1676.391
 534  1643.524
 535  1560.836
 536  1593.223
 537  1664.67
 538  1677.16
 539  1679.568
 540  1628.884
 541  1686.112
 542  1618.537
 543  1592.233
 544  1631.647
 545  1594.505
 546  1571.575
 547  1628.547
 548  1695.067
 549  1695.415
 550  1654.818
 551  1727.936
 552  1729.04
 553  1748.717
 554  1794.349
 555  1810.531
 556  1772.339
 557  1759.619
 558  1818.03
 559  1826.205
 560  1749.442
 561  1792.201
 562  1758.166
 563  1672.193
 564  1535.203
 565  1501.039
 566  1581.366
 567  1678.81
 568  1769.093
 569  1720.627
 570  1696.235
 571  1650.953
 572  1650.613
 573  1550.512
 574  1464.234
 575  1363.821
 576  1364.6
 577  1425.975
 578  1598.087
 579  1674.338
 580  1736.853
 581  1774.014
 582  1775.678
 583  1798.496
 584  1727.953
 585  1616.705
 586  1495.958
 587  1525.234
 588  1543.669
 589  1670.593
 590  1792.37
 591  1831.734
 592  1786.968
 593  1770.177
 594  1853.102
 595  1859.507
 596  1864.84
 597  1815.731
 598  1878.35
 599  1882.608
 600  1895.839
 601  1866.615
 602  1835.328
 603  1758.068
 604  1779.001
 605  1756.366
 606  1786.245
 607  1818.902
 608  1860.241
 609  1801.756
 610  1767.096
 611  1871.832
 612  1962.328
 613  1974.746
 614  1925.766
 615  1844
 616  1847.424
 617  1841.831
 618  1793.588
 619  1733.067
 620  1725.973
 621  1768.617
 622  1798.042
 623  1906.483
 624  1948.358
 625  1951.457
 626  1952.973
 627  1934.715
 628  1936.557
 629  1916.181
 630  1893.563
 631  1893.036
 632  1925.123
 633  1885.032
 634  1924.501
 635  1895.969
 636  1924.46
 637  1843.505
 638  1756.351
 639  1755.024
 640  1718.117
 641  1695.59
 642  1793.273
 643  1849.767
 644  1912.57
 645  1976.871
 646  2073.844
 647  2215.647
 648  2218.985
 649  2343.511
 650  2428.601
 651  2508.945
 652  2499.344
 653  2488.46
 654  2484.644
 655  2375.299
 656  2332.391
 657  2190.379
 658  2018.379
 659  1793.936
 660  1758.363
 661  1765.666
 662  1658.014
 663  1529.245
 664  1608.392
 665  1693.397
 666  1785.099
 667  1854.34
 668  1794.622
 669  1692.169
 670  1672.395
 671  1649.958
 672  1711.722
 673  1691.204
 674  1701.238
 675  1683.57
 676  1620.931
 677  1554.863
 678  1605.356
 679  1659.51
 680  1756.248
 681  1736.194
 682  1647.713
 683  1647.993
 684  1689.943
 685  1686.654
 686  1679.175
 687  1625.336
 688  1483.251
 689  1419.509
 690  1407.324
 691  1510.832
 692  1507.782
 693  1440.815
 694  1499.697
 695  1527.109
 696  1544.812
 697  1461.184
 698  1381.363
 699  1403.479
 700  1540.198
 701  1612.955
 702  1577.779
 703  1578.085
 704  1477.587
 705  1440.323
 706  1383.918
 707  1416.787
 708  1343.134
 709  1441.01
 710  1499.328
 711  1584.472
 712  1595.742
 713  1578.597
 714  1563.248
 715  1553.075
 716  1669.889
 717  1619.534
 718  1494.958
 719  1361.246
 720  1407.549
 721  1531.345
 722  1615.404
 723  1587.308
 724  1553.965
 725  1502.14
 726  1389.614
 727  1370.776
 728  1388.191
 729  1448.054
 730  1449.456
 731  1537.349
 732  1576.672
 733  1566.962
 734  1560.157
 735  1528.564
 736  1429.266
 737  1414.727
 738  1452.49
 739  1592.92
 740  1631.629
 741  1618.556
 742  1552.446
 743  1502.557
 744  1502.937
 745  1488.235
 746  1444.311
 747  1364.738
 748  1430.313
 749  1603.245
 750  1659.823
 751  1510.161
 752  1406.114
 753  1485.587
 754  1609.93
 755  1643.078
 756  1628.915
 757  1599.172
 758  1572.862
 759  1456.305
 760  1385.259
 761  1437.484
 762  1545.273
 763  1581.43
 764  1543.419
 765  1569.464
 766  1584.24
 767  1615.87
 768  1637.856
 769  1597.932
 770  1615.544
 771  1617.954
 772  1590.676
 773  1691.037
 774  1648.484
 775  1758.925
 776  1752.138
 777  1812.107
 778  1739.616
 779  1666.637
 780  1696.531
 781  1753.584
 782  1759.474
 783  1803.055
 784  1810.326
 785  1782.403
 786  1848.082
 787  1853.677
 788  1894.514
 789  1879.722
 790  2023.855
 791  2052.095
 792  1930.943
 793  1832.592
 794  1752.44
 795  1698.829
 796  1608.753
 797  1699.518
 798  1673.165
 799  1636.09
 800  1590.068
 801  1669.073
 802  1737.917
 803  1721.883
 804  1715.688
 805  1780.972
 806  1777.623
 807  1740.84
 808  1754.005
 809  1756.131
 810  1693.192
 811  1744.032
 812  1852.859
 813  1845.111
 814  1840.056
 815  1861.815
 816  1850.901
 817  1772.401
 818  1778.849
 819  1758.346
 820  1822.502
 821  1746.865
 822  1717.831
 823  1729.416
 824  1639.643
 825  1557.92
 826  1471.634
 827  1504.767
 828  1522.057
 829  1559.184
 830  1591.787
 831  1521.837
 832  1503.382
 833  1492.466
 834  1437.799
 835  1515.568
 836  1607.498
 837  1556.231
 838  1447.232
 839  1386.023
 840  1510.154
 841  1530.613
 842  1513.507
 843  1455.7
 844  1534.814
 845  1680.222
 846  1734.624
 847  1666.377
 848  1591.683
 849  1514.328
 850  1551.36
 851  1564.196
 852  1572.51
 853  1396.028
 854  1386.767
 855  1449.894
 856  1578.923
 857  1566.957
 858  1606.562
 859  1612.534
 860  1685.376
 861  1680.672
 862  1635.772
 863  1532
 864  1535.336
 865  1520.362
 866  1614.872
 867  1731.12
 868  1741.342
 869  1657.534
 870  1618.369
 871  1545.745
 872  1506.44
 873  1426.807
 874  1506.043
 875  1488.883
 876  1586.928
 877  1620.203
 878  1603.359
 879  1542.698
 880  1535.031
 881  1501.09
 882  1512.167
 883  1596.657
 884  1621.525
 885  1660.534
 886  1685.002
 887  1667.994
 888  1538.097
 889  1573.402
 890  1657.368
 891  1691.781
 892  1557.123
 893  1540.409
 894  1610.152
 895  1660.324
 896  1636.439
 897  1594.525
 898  1585.289
 899  1594.423
 900  1602.96
 901  1653.464
 902  1685.775
 903  1701.962
 904  1715.251
 905  1718.949
 906  1776.553
 907  1757.972
 908  1649.807
 909  1561.829
 910  1570.148
 911  1627.52
 912  1613.009
 913  1573.228
 914  1507.826
 915  1533.349
 916  1593.625
 917  1628.452
 918  1617.313
 919  1609.547
 920  1584.385
 921  1589.158
 922  1578.016
 923  1592.049
 924  1588.128
 925  1570.692
 926  1563.948
 927  1575.981
 928  1574.258
 929  1637.33
 930  1721.34
 931  1727.605
 932  1635.386
 933  1593.82
 934  1676.385
 935  1782.62
 936  1876.857
 937  1913.071
 938  1875.726
 939  1814.239
 940  1711.271
 941  1669.878
 942  1700.867
 943  1665.423
 944  1657.411
 945  1636.839
 946  1708.924
 947  1657.948
 948  1666.81
 949  1710.263
 950  1738.889
 951  1638.742
 952  1515.059
 953  1582.517
 954  1665.766
 955  1745.266
 956  1693.608
 957  1665.365
 958  1602.539
 959  1454.473
 960  1317.91
 961  1252.721
 962  1308.283
 963  1363.528
 964  1461.354
 965  1560.116
 966  1627.964
 967  1628.65
 968  1547.728
 969  1555.099
 970  1558.095
 971  1564.791
 972  1542.883
 973  1478.748
 974  1486.095
 975  1609.361
 976  1764.641
 977  1786.115
 978  1692.439
 979  1745.671
 980  1679.275
 981  1681.163
 982  1658.991
 983  1679.49
 984  1696.992
 985  1748.403
 986  1785.108
 987  1732.156
 988  1714.605
 989  1660.787
 990  1565.754
 991  1545.265
 992  1554.18
 993  1610.11
 994  1626.562
 995  1679.945
 996  1632.75
 997  1658.985
 998  1637.946
 999  1700.942
1000  1677.66
1001  1638.46
1002  1560.552
1003  1518.04
1004  1511.092
1005  1432.77
1006  1509.168
1007  1558.994
1008  1610.996
1009  1600.162
1010  1605.374
1011  1620.201
1012  1615.245
1013  1638.125
1014  1702.966
1015  1711.871
1016  1599.41
1017  1578.979
1018  1651.216
1019  1597.464
1020  1562.491
1021  1523.042
1022  1615.725
1023  1597.329
