# Input file       =  1183626022.165991-PSRB0329-2ms-sampling-dd.dat
# Candidate        =  PSR_0332+5434
# Telescope        =  AR
# Epoch_topo       =  57943.375476458226
# Epoch_bary       =  N/A
# T_sample         =  0.002
# Data Folded      =  7340032
# Data Avg         =  -1.17392627338475e-09
# Data StdDev      =  8.42067162458589 
# Profile Bins     =  512
# Profile Avg      =  -0.0139536740080978
# Profile StdDev   =  1008.23258194334 
# Reduced chi-sqr  =  0.530
# Prob(Noise)      <  1   (~0.0 sigma)
# P_topo (ms)      =  714.483159783427  +/- 0.000179
# P'_topo (s/s)    =  -0                +/- 9.47e-11
# P''_topo (s/s^2) =  0                 +/- 4.18e-14
# P_bary (ms)      =  N/A
# P'_bary (s/s)    =  N/A
# P''_bary (s/s^2) =  N/A
# P_orb (s)        =  N/A
# asin(i)/c (s)    =  N/A
# eccentricity     =  N/A
# w (rad)          =  N/A
# T_peri           =  N/A
######################################################
   0  515.2341
   1  164.185
   2  -418.1171
   3  -436.7088
   4  -582.5279
   5  -581.3212
   6  -203.2143
   7  -256.9494
   8  -522.0236
   9  -678.0365
  10  -45.22336
  11  -76.47373
  12  -14.29507
  13  -89.69745
  14  -405.4089
  15  -469.1418
  16  -230.0284
  17  -140.7314
  18  -334.2817
  19  89.46266
  20  233.0793
  21  481.6633
  22  221.2096
  23  -22.51118
  24  93.67427
  25  -135.5471
  26  348.4554
  27  278.9605
  28  211.6601
  29  174.977
  30  202.4501
  31  496.3483
  32  130.215
  33  182.1408
  34  36.83509
  35  336.7473
  36  102.0331
  37  146.0518
  38  361.2162
  39  504.1905
  40  650.8134
  41  742.558
  42  1279.377
  43  707.4414
  44  746.7628
  45  909.8677
  46  652.6898
  47  802.341
  48  1078.342
  49  920.5773
  50  729.7581
  51  681.5573
  52  697.2966
  53  1314.99
  54  1068.379
  55  1276.164
  56  784.0099
  57  463.6514
  58  394.1172
  59  442.3453
  60  659.6135
  61  552.8748
  62  520.6076
  63  725.9454
  64  270.3329
  65  -94.25873
  66  -372.3416
  67  115.9882
  68  130.5546
  69  45.43187
  70  148.6805
  71  355.514
  72  38.44495
  73  15.92558
  74  593.5688
  75  301.3256
  76  -252.1693
  77  -313.6637
  78  60.73347
  79  569.6501
  80  783.0727
  81  926.0092
  82  490.5558
  83  90.17741
  84  171.201
  85  -79.40108
  86  482.4432
  87  619.6865
  88  550.7934
  89  386.575
  90  58.52427
  91  362.5084
  92  10.1331
  93  -41.59024
  94  364.9899
  95  881.7522
  96  679.6732
  97  166.3382
  98  269.8772
  99  266.05
 100  390.0158
 101  268.7578
 102  309.0847
 103  614.3278
 104  638.4232
 105  887.8916
 106  458.2247
 107  121.8226
 108  -95.90939
 109  99.44198
 110  222.5849
 111  505.5774
 112  706.5535
 113  999.8085
 114  968.8846
 115  255.952
 116  138.9788
 117  -102.5957
 118  22.73231
 119  184.611
 120  520.9567
 121  801.5015
 122  197.2657
 123  -234.1817
 124  -139.1687
 125  -115.2438
 126  -449.1734
 127  -607.9456
 128  -380.2687
 129  277.4328
 130  397.6619
 131  163.2976
 132  159.9917
 133  -327.3151
 134  -819.2816
 135  -696.8878
 136  43.56252
 137  460.4132
 138  120.4743
 139  -248.267
 140  -229.4275
 141  -79.33952
 142  -50.9461
 143  12.05095
 144  94.65175
 145  277.7862
 146  -407.366
 147  -488.4071
 148  -921.4255
 149  -465.5202
 150  -314.4661
 151  -180.7814
 152  227.2162
 153  493.8772
 154  387.0004
 155  115.9812
 156  -34.47164
 157  -409.6878
 158  -369.8862
 159  -125.9678
 160  368.5526
 161  415.4682
 162  179.6048
 163  -41.57414
 164  71.32265
 165  -433.9826
 166  -529.0759
 167  -116.5347
 168  -446.5367
 169  -377.9032
 170  20.85472
 171  -16.6863
 172  -610.7999
 173  -1157.777
 174  -384.1364
 175  -618.6523
 176  -943.5023
 177  -945.3246
 178  -358.7931
 179  -677.275
 180  -1113.885
 181  -874.7147
 182  -567.7238
 183  -638.4136
 184  -736.6181
 185  -411.8368
 186  -105.6605
 187  -50.75406
 188  549.2174
 189  441.1863
 190  157.2494
 191  -35.09065
 192  -515.0128
 193  -347.1093
 194  -87.5767
 195  570.3403
 196  868.596
 197  321.9984
 198  -322.6672
 199  -713.7762
 200  -470.2058
 201  -730.0679
 202  -495.4227
 203  294.8107
 204  404.2278
 205  140.8617
 206  -180.5663
 207  -238.2083
 208  -547.0549
 209  -473.4419
 210  21.50546
 211  577.6973
 212  983.3919
 213  731.3015
 214  31.71799
 215  -65.3927
 216  -452.4127
 217  -10.29661
 218  645.9763
 219  482.7295
 220  557.5835
 221  272.821
 222  -558.0847
 223  -228.0021
 224  -246.3526
 225  161.0782
 226  -212.4456
 227  -670.401
 228  -248.277
 229  -213.0757
 230  -148.6812
 231  -274.1978
 232  -399.962
 233  -246.5993
 234  -222.7206
 235  -80.16526
 236  90.86531
 237  293.2554
 238  384.4577
 239  206.3128
 240  117.4183
 241  -130.5926
 242  -215.3402
 243  -55.26455
 244  -36.72002
 245  163.6956
 246  154.8628
 247  -110.92
 248  -222.3974
 249  -404.0499
 250  -516.8006
 251  -45.44373
 252  359.9311
 253  582.1204
 254  -59.22598
 255  155.6856
 256  -198.0551
 257  -296.0058
 258  -252.6665
 259  -365.3602
 260  -146.2083
 261  -234.5151
 262  -2.683304
 263  -135.6461
 264  -147.5191
 265  -60.40577
 266  -73.57204
 267  -415.4518
 268  -495.7477
 269  -48.50484
 270  202.1818
 271  270.8298
 272  398.3961
 273  79.77308
 274  -20.31999
 275  -39.73737
 276  -137.4438
 277  -92.06248
 278  -303.5889
 279  -24.86837
 280  -426.9167
 281  118.0727
 282  229.1877
 283  57.28994
 284  -142.1466
 285  -387.3725
 286  264.0486
 287  71.97859
 288  -81.11104
 289  -390.7527
 290  -95.53575
 291  63.17463
 292  -546.2001
 293  -135.4412
 294  43.6538
 295  -199.3007
 296  -490.1127
 297  -921.5403
 298  -838.2169
 299  -726.6371
 300  -1179.696
 301  -905.1601
 302  -467.0384
 303  -600.8638
 304  -401.7585
 305  -835.0552
 306  -584.2444
 307  -301.1913
 308  -586.602
 309  -550.2491
 310  -601.8586
 311  -386.5898
 312  -822.3388
 313  -400.5561
 314  -231.27
 315  -441.0516
 316  -477.5776
 317  -556.9988
 318  -145.7083
 319  -607.1671
 320  -611.0172
 321  -431.1237
 322  -435.8126
 323  -152.4364
 324  -200.6198
 325  -128.6056
 326  -449.4744
 327  -456.9931
 328  -1010.042
 329  -1185.421
 330  -1144.397
 331  -888.9193
 332  -662.9288
 333  -570.5032
 334  -610.0318
 335  -755.527
 336  -581.8168
 337  -402.6342
 338  176.7007
 339  286.5589
 340  94.41386
 341  -21.88777
 342  -809.8179
 343  -964.0966
 344  -941.3361
 345  -80.93082
 346  171.1827
 347  -120.9863
 348  -42.14332
 349  -729.6436
 350  -1058.103
 351  -1315.576
 352  -347.4362
 353  -169.4555
 354  -416.3198
 355  -623.2329
 356  -866.2083
 357  -855.4314
 358  -837.0309
 359  -643.6439
 360  -238.7056
 361  -67.05042
 362  336.0025
 363  284.6721
 364  -44.39945
 365  -629.9333
 366  -346.0723
 367  -323.4779
 368  -291.2344
 369  -626.5334
 370  -637.3698
 371  -928.1872
 372  -693.3975
 373  -700.949
 374  -820.1958
 375  -618.748
 376  -453.9881
 377  -684.9804
 378  -728.1382
 379  -875.7437
 380  -674.5074
 381  -204.2476
 382  501.0299
 383  327.5938
 384  -274.8658
 385  -335.3154
 386  -698.6006
 387  -468.1074
 388  -220.7925
 389  469.4212
 390  531.7064
 391  206.4685
 392  -132.7508
 393  -462.6799
 394  -85.97943
 395  -80.95882
 396  399.3616
 397  561.7192
 398  469.1334
 399  335.7958
 400  564.2792
 401  581.8113
 402  -68.07799
 403  -100.2012
 404  18.35126
 405  -153.422
 406  131.3105
 407  284.5598
 408  29.60394
 409  -125.0663
 410  276.1136
 411  364.4076
 412  -1.747525
 413  -401.8365
 414  -216.08
 415  329.0285
 416  649.0572
 417  626.3148
 418  571.5189
 419  255.227
 420  -7.95169
 421  -5.695737
 422  -193.2115
 423  23.23985
 424  264.8207
 425  7.059003
 426  -305.0051
 427  -320.8745
 428  -137.3154
 429  -365.545
 430  -296.5835
 431  -130.4794
 432  92.20942
 433  107.1301
 434  71.44011
 435  34.65178
 436  -558.5206
 437  -1266.866
 438  -653.8081
 439  -235.812
 440  20.38809
 441  -358.351
 442  -804.9311
 443  -912.1561
 444  -1207.52
 445  -949.0114
 446  -414.0846
 447  -45.8339
 448  169.7759
 449  20.24588
 450  -80.20022
 451  -57.24131
 452  -262.8559
 453  -351.5072
 454  -228.9749
 455  -252.5725
 456  -84.47778
 457  347.8117
 458  294.0016
 459  494.9296
 460  476.5957
 461  311.9523
 462  53.7731
 463  83.22369
 464  18.12396
 465  350.3695
 466  684.3983
 467  1072.279
 468  796.5038
 469  558.9222
 470  398.0052
 471  486.6142
 472  759.9902
 473  492.5035
 474  581.3235
 475  688.4902
 476  236.2852
 477  721.1191
 478  507.5908
 479  431.2207
 480  347.5328
 481  636.9961
 482  1227.002
 483  1178.654
 484  900.6991
 485  478.415
 486  730.6871
 487  1152.823
 488  1707.979
 489  2512.131
 490  2716.147
 491  2075.581
 492  1217.469
 493  674.3981
 494  -257.9207
 495  -33.99349
 496  445.1438
 497  673.7863
 498  779.8858
 499  752.5687
 500  557.9113
 501  510.0062
 502  417.9099
 503  776.2374
 504  705.7222
 505  136.9237
 506  -155.7948
 507  -126.218
 508  143.486
 509  4.693392
 510  -66.78678
 511  96.6987
