# Input file       =  1183941209.125544_cleaned.dat
# Candidate        =  PSR_0332+5434
# Telescope        =  AR
# Epoch_topo       =  57947.023473675275
# Epoch_bary       =  N/A
# T_sample         =  0.002
# Data Folded      =  7143424
# Data Avg         =  0.140614452275208
# Data StdDev      =  4.78929697475991 
# Profile Bins     =  512
# Profile Avg      =  1961.6034783324  
# Profile StdDev   =  565.70497932193  
# Reduced chi-sqr  =  0.581
# Prob(Noise)      <  1   (~0.0 sigma)
# P_topo (ms)      =  714.480243629623  +/- 6.26e-05
# P'_topo (s/s)    =  -0                +/- 3.4e-11
# P''_topo (s/s^2) =  0                 +/- 1.54e-14
# P_bary (ms)      =  N/A
# P'_bary (s/s)    =  N/A
# P''_bary (s/s^2) =  N/A
# P_orb (s)        =  N/A
# asin(i)/c (s)    =  N/A
# eccentricity     =  N/A
# w (rad)          =  N/A
# T_peri           =  N/A
######################################################
   0  1616.267
   1  1901.159
   2  2221.581
   3  2112.759
   4  1882.183
   5  2057.55
   6  2509.429
   7  2138.233
   8  1558.41
   9  1442.316
  10  1900.487
  11  2148.499
  12  1584.025
  13  1854.52
  14  2092.324
  15  1902.816
  16  2113.754
  17  2289.917
  18  2258.844
  19  2032.567
  20  1574.568
  21  1384.818
  22  1540.729
  23  2324.036
  24  2611.024
  25  1909.922
  26  1692.15
  27  1997.252
  28  1838.166
  29  1521.129
  30  1918.787
  31  2350.838
  32  2475.316
  33  1933.893
  34  1754.922
  35  2042.461
  36  2144.054
  37  1930.179
  38  1878.204
  39  1989.173
  40  2054.385
  41  2048.959
  42  1894.077
  43  2465.984
  44  1895.308
  45  1600.33
  46  1606.568
  47  1827.437
  48  2167.408
  49  1850.384
  50  2076.612
  51  2023.184
  52  1973.293
  53  2062.262
  54  2108.549
  55  2047.937
  56  1915.505
  57  1758.332
  58  1547.617
  59  1632.97
  60  1943.961
  61  2003.719
  62  2286.02
  63  2291.369
  64  2448.829
  65  2251.428
  66  1765.048
  67  1683.043
  68  1912.213
  69  1920.122
  70  1943.818
  71  1946.495
  72  2344.189
  73  2226.505
  74  1448.527
  75  1370.519
  76  1946.994
  77  1791.985
  78  1704.382
  79  2009.091
  80  2292.099
  81  1968.673
  82  1869.758
  83  1805.882
  84  1997.363
  85  2035.281
  86  1938.962
  87  1739.016
  88  1857.552
  89  2114.679
  90  2026.993
  91  1741.477
  92  1487.574
  93  1161.61
  94  1673.268
  95  1914.302
  96  1695.32
  97  1893.646
  98  1854.469
  99  1825.25
 100  1724.826
 101  2364.81
 102  1504.872
 103  1220.508
 104  1366.768
 105  1893.28
 106  1894.047
 107  1611.17
 108  1855.606
 109  1660.092
 110  1603.185
 111  1357.873
 112  1922.651
 113  2063.762
 114  2574.289
 115  2245.171
 116  1877.659
 117  2156.134
 118  1773.228
 119  1634.072
 120  1424.033
 121  1636.029
 122  1934.894
 123  1864.722
 124  1938.923
 125  1660.425
 126  1736.897
 127  1986.259
 128  1608.157
 129  1392.636
 130  1868.877
 131  2088.096
 132  1792.287
 133  1638.067
 134  1911.023
 135  2125.698
 136  2098.7
 137  1836.17
 138  1772.528
 139  1389.599
 140  1284.166
 141  1617.157
 142  2016.771
 143  1906.341
 144  1412.104
 145  1503.858
 146  1914.886
 147  1867.554
 148  1719.498
 149  1985.84
 150  1506.078
 151  1572.426
 152  1717.94
 153  1879.114
 154  1991.89
 155  1759.136
 156  1911.507
 157  1642.312
 158  1434.323
 159  1519.648
 160  1935.681
 161  1692.561
 162  1573.542
 163  2053.258
 164  2109.971
 165  1516.138
 166  1809.046
 167  1788.411
 168  2275.583
 169  1862.418
 170  2106.822
 171  2211.12
 172  1849.23
 173  1674.861
 174  1616.861
 175  2021.751
 176  1588.807
 177  1621.627
 178  1816.456
 179  1955.509
 180  2032.381
 181  2001.487
 182  2503.104
 183  1817.695
 184  1631.344
 185  1293.569
 186  1379.452
 187  1592.904
 188  2264.152
 189  2384.898
 190  2272.143
 191  1781.019
 192  1486.245
 193  2078.005
 194  1893.344
 195  1810.702
 196  2424.921
 197  2624.121
 198  2337.039
 199  1931.18
 200  2451.721
 201  2340.787
 202  1839.525
 203  2007.045
 204  2169.393
 205  2074.79
 206  1980.33
 207  1853.1
 208  2119.691
 209  2261.108
 210  1945.023
 211  1931.465
 212  2180.859
 213  1735.025
 214  1703.253
 215  1748.646
 216  2041.652
 217  2212.2
 218  2036.523
 219  2044.299
 220  1996.819
 221  1957.037
 222  2024.824
 223  1890.294
 224  1682.315
 225  1960.985
 226  1945.947
 227  1811.277
 228  1797.525
 229  1646.625
 230  1967.619
 231  1621.528
 232  1950.305
 233  2093.919
 234  1838.592
 235  2002.258
 236  1776.85
 237  2240.183
 238  2017.47
 239  1982.208
 240  1257.648
 241  1407.685
 242  1955.498
 243  1286.338
 244  1732.698
 245  1874.075
 246  2141.059
 247  1759.819
 248  1360.134
 249  1546.26
 250  1659.529
 251  1725.829
 252  1506.021
 253  1762.759
 254  1857.549
 255  2029.803
 256  2284.489
 257  1842.011
 258  1979.947
 259  1954.207
 260  2171.068
 261  1728.143
 262  1687.632
 263  2149.968
 264  2296.912
 265  1873.998
 266  2155.122
 267  2257.422
 268  1962.868
 269  2009.421
 270  1888.163
 271  2086.394
 272  2099.309
 273  1648.935
 274  2000.44
 275  2239.757
 276  1888.6
 277  1793.166
 278  1365.777
 279  2009.133
 280  2100.801
 281  2263.827
 282  2150.111
 283  1993.339
 284  2002.37
 285  1917.979
 286  2114.581
 287  1804.298
 288  1996.101
 289  1619.206
 290  2045.311
 291  2212.68
 292  2123.992
 293  2386.777
 294  2502.535
 295  2356.06
 296  2149.791
 297  1798.293
 298  1546.09
 299  2472.673
 300  2586.808
 301  2146.098
 302  2227.55
 303  2145.348
 304  2371.153
 305  2064.884
 306  2467.56
 307  2133.168
 308  2497.967
 309  2224.783
 310  1690.037
 311  1972.244
 312  1964.62
 313  1992.82
 314  1869.816
 315  2282.329
 316  2483.255
 317  2171.907
 318  1990.866
 319  2060.634
 320  2103.055
 321  2310.172
 322  2218.42
 323  2674.646
 324  3013.069
 325  3653.504
 326  3701.363
 327  3478.657
 328  3066.371
 329  3002.639
 330  2686.839
 331  2091.776
 332  1801.246
 333  1866.637
 334  2054.554
 335  2039.681
 336  2200.935
 337  2305.439
 338  1905.683
 339  2020.172
 340  2260.792
 341  2195.511
 342  2150.33
 343  1900.724
 344  1857.604
 345  1947.286
 346  1888.747
 347  1800.679
 348  2028.647
 349  2116.128
 350  1976.189
 351  1882.419
 352  1689.187
 353  1910.246
 354  1696.537
 355  1990.13
 356  2090.034
 357  2010.742
 358  1778.176
 359  2128.442
 360  2482.257
 361  1978.134
 362  1943.754
 363  2263.389
 364  2390.118
 365  2162.639
 366  2309.125
 367  2041.304
 368  1796.876
 369  2016.434
 370  2299.711
 371  2103.965
 372  1731.997
 373  2080.516
 374  1979.626
 375  2035.216
 376  2040.353
 377  2115.809
 378  2508.398
 379  2051.159
 380  1807.562
 381  2390.505
 382  2322.273
 383  1894.053
 384  1782.837
 385  1876.958
 386  1691.986
 387  1555.288
 388  1642.189
 389  1817.049
 390  2047.958
 391  1908.346
 392  2338.853
 393  2251.56
 394  2150.431
 395  2134.781
 396  1947.62
 397  2151.382
 398  2287.54
 399  2216.758
 400  2292.901
 401  1964.205
 402  2286.224
 403  2493.097
 404  2349.3
 405  1974.595
 406  1901.42
 407  2168.752
 408  1950.487
 409  2019.491
 410  2156.763
 411  2333.269
 412  2512.367
 413  2424.245
 414  2391.604
 415  2214.263
 416  1924.071
 417  1622.342
 418  1832.422
 419  1870.145
 420  1780.428
 421  1817.907
 422  1819.238
 423  1561.227
 424  2062.668
 425  1908.276
 426  1966.488
 427  1723.94
 428  1699.632
 429  1831.411
 430  1610.975
 431  1876.016
 432  2176.769
 433  2238.438
 434  1997.778
 435  2279.639
 436  2210.859
 437  1876.099
 438  1894.958
 439  1690.666
 440  1701.282
 441  1557.262
 442  1570.534
 443  1811.126
 444  2266.684
 445  2312.635
 446  1982.786
 447  2025.597
 448  2131.263
 449  1998.487
 450  1920.955
 451  1951.633
 452  1971.578
 453  2068.508
 454  1879.731
 455  1636.084
 456  1879.15
 457  2057.699
 458  1769.095
 459  1983.235
 460  1817.177
 461  1774.823
 462  2214.79
 463  2008.148
 464  2117.931
 465  2097.838
 466  2118.56
 467  1607.31
 468  1681.193
 469  2078.088
 470  1789.819
 471  1508.113
 472  1848.895
 473  1753.61
 474  1608.715
 475  1300.514
 476  1425.952
 477  1870.689
 478  1905.664
 479  1799.859
 480  2030.49
 481  2310.804
 482  1996.207
 483  2410.507
 484  2537.927
 485  2339.395
 486  2256.692
 487  1792.393
 488  1649.901
 489  1921.134
 490  1765.012
 491  1563.865
 492  1812.292
 493  2226.419
 494  2199.397
 495  1895.742
 496  1559.07
 497  1833.34
 498  1965.193
 499  1995.176
 500  2069.615
 501  2252.681
 502  1922.112
 503  1763.849
 504  1291.001
 505  1378.252
 506  1689.164
 507  1920.502
 508  1853.546
 509  1990.824
 510  2656.211
 511  2018.782
