# Input file       =  1183195541.119305_cleaned.dat
# Candidate        =  PSR_0332+5434
# Telescope        =  AR
# Epoch_topo       =  57938.393056936402
# Epoch_bary       =  N/A
# T_sample         =  0.002
# Data Folded      =  7340032
# Data Avg         =  0.0379646803962439
# Data StdDev      =  1.00008861746787 
# Profile Bins     =  512
# Profile Avg      =  544.275976264474 
# Profile StdDev   =  119.74364681527  
# Reduced chi-sqr  =  1.163
# Prob(Noise)      <  0.00617   (~2.5 sigma)
# P_topo (ms)      =  714.486894949183  +/- 0.000181
# P'_topo (s/s)    =  -0                +/- 9.52e-11
# P''_topo (s/s^2) =  0                 +/- 4.2e-14
# P_bary (ms)      =  N/A
# P'_bary (s/s)    =  N/A
# P''_bary (s/s^2) =  N/A
# P_orb (s)        =  N/A
# asin(i)/c (s)    =  N/A
# eccentricity     =  N/A
# w (rad)          =  N/A
# T_peri           =  N/A
######################################################
   0  1011.529
   1  964.8951
   2  1010.57
   3  910.1639
   4  686.5654
   5  711.4787
   6  740.9844
   7  662.8602
   8  528.3561
   9  539.5781
  10  657.1412
  11  547.3578
  12  622.1769
  13  687.0039
  14  561.7463
  15  479.9302
  16  447.7183
  17  665.2745
  18  754.8686
  19  746.9678
  20  618.2247
  21  585.2467
  22  574.8074
  23  591.4111
  24  616.6732
  25  622.1529
  26  611.9722
  27  565.9711
  28  550.9025
  29  579.6912
  30  489.2044
  31  503.0977
  32  511.2265
  33  496.1699
  34  597.5668
  35  545.6034
  36  403.4169
  37  506.7751
  38  568.7933
  39  660.2158
  40  627.7722
  41  643.3724
  42  655.7455
  43  690.505
  44  630.8082
  45  675.0269
  46  602.7202
  47  574.1725
  48  632.5344
  49  582.6743
  50  598.6799
  51  598.2163
  52  594.7132
  53  578.0532
  54  556.9036
  55  626.7691
  56  709.6748
  57  677.8196
  58  612.4121
  59  564.8575
  60  558.9584
  61  569.2979
  62  603.5236
  63  560.0386
  64  553.9709
  65  576.0747
  66  489.168
  67  528.5135
  68  547.6915
  69  588.5966
  70  472.4391
  71  486.3307
  72  576.8267
  73  570.5488
  74  466.986
  75  587.5203
  76  641.2201
  77  628.7217
  78  612.1718
  79  590.0844
  80  582.6151
  81  577.7635
  82  559.6224
  83  561.4033
  84  540.1282
  85  515.3034
  86  471.052
  87  554.3896
  88  554.3018
  89  653.2097
  90  738.4788
  91  728.8774
  92  736.4829
  93  632.6995
  94  601.3415
  95  593.6534
  96  641.6642
  97  665.2416
  98  684.4237
  99  645.6269
 100  575.1425
 101  579.0287
 102  605.7416
 103  483.6625
 104  469.7287
 105  534.2858
 106  669.7873
 107  666.8814
 108  639.0231
 109  459.2607
 110  475.2494
 111  585.4681
 112  597.3771
 113  602.2087
 114  584.9898
 115  564.3875
 116  600.657
 117  585.378
 118  526.4606
 119  547.4777
 120  561.9823
 121  506.1967
 122  493.5164
 123  508.5145
 124  575.1352
 125  635.7599
 126  638.7029
 127  603.5858
 128  537.1871
 129  571.4354
 130  616.1915
 131  620.9788
 132  625.7441
 133  755.2652
 134  679.5082
 135  608.4081
 136  619.7772
 137  619.6661
 138  598.2719
 139  627.1212
 140  661.81
 141  671.3463
 142  705.171
 143  736.2856
 144  710.0734
 145  607.2132
 146  568.1077
 147  530.4767
 148  562.2656
 149  546.8454
 150  510.066
 151  446.6196
 152  494.7393
 153  449.7663
 154  441.7335
 155  452.3804
 156  400.2504
 157  483.0169
 158  534.678
 159  596.8162
 160  547.0444
 161  419.2099
 162  420.41
 163  500.1801
 164  503.2351
 165  503.4632
 166  478.016
 167  488.9815
 168  592.8303
 169  603.3878
 170  498.3205
 171  519.537
 172  534.3281
 173  535.6832
 174  489.6287
 175  497.8523
 176  544.5397
 177  502.4454
 178  502.6157
 179  543.164
 180  527.4492
 181  530.1625
 182  615.6664
 183  534.9456
 184  500.2795
 185  420.3294
 186  430.159
 187  446.2831
 188  459.6216
 189  510.0153
 190  510.0831
 191  587.9837
 192  639.8665
 193  549.0695
 194  496.6176
 195  408.7409
 196  451.1677
 197  444.8925
 198  518.0967
 199  444.9285
 200  489.1065
 201  525.7735
 202  495.2906
 203  423.8027
 204  421.1246
 205  457.0325
 206  511.2892
 207  469.9923
 208  501.7779
 209  436.5716
 210  487.4125
 211  550.9699
 212  585.5259
 213  492.2522
 214  497.7361
 215  517.7109
 216  638.9581
 217  607.9901
 218  562.6932
 219  554.5998
 220  535.0213
 221  536.7279
 222  536.9348
 223  483.7966
 224  467.6086
 225  476.4341
 226  461.8409
 227  418.9206
 228  493.7555
 229  513.2701
 230  500.9388
 231  474.1689
 232  482.3333
 233  524.873
 234  580.1225
 235  631.3681
 236  527.1339
 237  502.8071
 238  439.7867
 239  374.9757
 240  525.6929
 241  490.6036
 242  432.1854
 243  480.2163
 244  547.3702
 245  550.2466
 246  588.7079
 247  497.7386
 248  613.9036
 249  575.3944
 250  532.7287
 251  594.0084
 252  638.5438
 253  681.1334
 254  666.3469
 255  592.7269
 256  469.8375
 257  465.9007
 258  385.1958
 259  490.388
 260  603.2736
 261  523.8347
 262  482.9468
 263  532.6783
 264  521.535
 265  521.7559
 266  462.8418
 267  496.0774
 268  495.7371
 269  411.7963
 270  466.7711
 271  492.0976
 272  576.993
 273  525.0269
 274  523.7296
 275  453.6754
 276  409.7365
 277  462.8954
 278  427.3323
 279  408.7726
 280  463.1528
 281  469.0128
 282  530.4284
 283  483.578
 284  428.1389
 285  320.9389
 286  407.4066
 287  611.9486
 288  624.5718
 289  601.3274
 290  515.5516
 291  469.7464
 292  510.3167
 293  497.0045
 294  451.288
 295  419.703
 296  652.9404
 297  628.5708
 298  630.5751
 299  521.9516
 300  492.1448
 301  563.4825
 302  574.1425
 303  559.9578
 304  580.4487
 305  682.7465
 306  697.3359
 307  715.8593
 308  684.6053
 309  694.8928
 310  629.9832
 311  620.6351
 312  587.5884
 313  613.4396
 314  586.2616
 315  606.4343
 316  554.673
 317  580.405
 318  555.5275
 319  476.6686
 320  482.2757
 321  522.9051
 322  550.7376
 323  547.3793
 324  502.2115
 325  549.8591
 326  557.1984
 327  529.6686
 328  558.2612
 329  538.5623
 330  426.8137
 331  591.2395
 332  639.727
 333  543.1454
 334  600.9307
 335  635.2713
 336  641.1038
 337  504.0051
 338  512.1974
 339  623.5117
 340  570.6354
 341  534.64
 342  503.1937
 343  513.246
 344  524.0729
 345  647.8637
 346  540.9904
 347  515.4021
 348  613.3481
 349  636.1617
 350  598.808
 351  456.4382
 352  522.6426
 353  598.8264
 354  562.082
 355  569.6237
 356  460.8877
 357  527.4249
 358  576.2591
 359  579.7245
 360  585.7227
 361  676.0349
 362  661.9305
 363  520.5504
 364  396.8987
 365  429.9028
 366  511.3532
 367  432.7345
 368  438.2978
 369  507.4849
 370  477.5287
 371  470.5372
 372  492.4734
 373  483.4523
 374  342.0306
 375  405.8738
 376  459.7502
 377  476.9825
 378  543.3051
 379  454.5856
 380  498.2866
 381  450.7852
 382  449.6722
 383  450.0058
 384  569.8508
 385  514.1708
 386  453.233
 387  534.2856
 388  602.9464
 389  570.4958
 390  530.9153
 391  547.4066
 392  635.9111
 393  589.4578
 394  472.0095
 395  540.296
 396  622.9246
 397  562.4965
 398  576.8135
 399  600.6348
 400  590.7393
 401  522.2103
 402  590.7227
 403  518.0506
 404  469.4245
 405  542.7786
 406  526.2643
 407  444.8724
 408  447.5697
 409  478.3828
 410  449.104
 411  461.5229
 412  477.0313
 413  363.9382
 414  302.245
 415  456.2852
 416  515.5682
 417  406.1063
 418  343.5328
 419  378.7478
 420  466.8531
 421  402.5671
 422  453.4865
 423  501.4418
 424  538.3693
 425  600.4516
 426  511.3978
 427  599.3197
 428  519.3538
 429  481.0946
 430  620.7822
 431  655.119
 432  685.5538
 433  599.8724
 434  501.8848
 435  497.4872
 436  627.2001
 437  629.9317
 438  530.4462
 439  542.7813
 440  493.4205
 441  583.9772
 442  509.6169
 443  476.5466
 444  497.1136
 445  499.7277
 446  523.1965
 447  503.0085
 448  489.2886
 449  556.0184
 450  489.261
 451  472.7173
 452  483.2235
 453  440.9181
 454  405.4538
 455  427.5026
 456  417.1808
 457  406.0168
 458  443.1132
 459  429.4731
 460  424.6899
 461  355.3773
 462  411.3086
 463  571.2914
 464  596.2535
 465  510.8443
 466  500.6642
 467  354.8534
 468  296.6585
 469  366.4412
 470  530.5755
 471  556.4969
 472  477.0032
 473  499.7976
 474  557.8207
 475  516.7227
 476  495.5481
 477  510.682
 478  485.8212
 479  473.1448
 480  451.8014
 481  457.9248
 482  479.1303
 483  608.8246
 484  634.6383
 485  508.9995
 486  522.3466
 487  477.5974
 488  517.4417
 489  482.0714
 490  408.7982
 491  434.883
 492  477.742
 493  567.9432
 494  587.5012
 495  504.0123
 496  402.4538
 497  420.3521
 498  477.9798
 499  494.294
 500  447.0238
 501  417.4282
 502  559.3345
 503  640.7206
 504  705.5594
 505  638.8903
 506  579.737
 507  584.0219
 508  660.5555
 509  883.8106
 510  863.0975
 511  996.9116
