# Input file       =  1183884525.141243_cleaned.dat
# Candidate        =  PSR_0332+5434
# Telescope        =  AR
# Epoch_topo       =  57946.367409042163
# Epoch_bary       =  N/A
# T_sample         =  0.002
# Data Folded      =  7340032
# Data Avg         =  0.0736064799161147
# Data StdDev      =  3.29192998199884 
# Profile Bins     =  512
# Profile Avg      =  1055.21020888054 
# Profile StdDev   =  394.152772284434 
# Reduced chi-sqr  =  1.032
# Prob(Noise)      <  0.299   (~0.5 sigma)
# P_topo (ms)      =  714.481043248699  +/- 0.000576
# P'_topo (s/s)    =  -0                +/- 3.04e-10
# P''_topo (s/s^2) =  0                 +/- 1.34e-13
# P_bary (ms)      =  N/A
# P'_bary (s/s)    =  N/A
# P''_bary (s/s^2) =  N/A
# P_orb (s)        =  N/A
# asin(i)/c (s)    =  N/A
# eccentricity     =  N/A
# w (rad)          =  N/A
# T_peri           =  N/A
######################################################
   0  774.7903
   1  955.9708
   2  1162.526
   3  934.1218
   4  933.295
   5  624.7412
   6  539.56
   7  930.2693
   8  1065.358
   9  740.72
  10  955.5031
  11  1069.991
  12  841.2026
  13  699.6912
  14  524.9106
  15  449.272
  16  708.0965
  17  899.4995
  18  663.0881
  19  1080.856
  20  878.9528
  21  343.2988
  22  546.0839
  23  716.7993
  24  601.4478
  25  650.4564
  26  608.6163
  27  712.7079
  28  855.6567
  29  908.1727
  30  1256.053
  31  1209.729
  32  994.2309
  33  1012.857
  34  1058.76
  35  938.8502
  36  1103.394
  37  1184.263
  38  1256.372
  39  1108.209
  40  929.7055
  41  884.3489
  42  884.8627
  43  1085.703
  44  1065.56
  45  879.8877
  46  795.6597
  47  322.3124
  48  643.1124
  49  1289.581
  50  1226.202
  51  863.193
  52  1095.045
  53  1293.885
  54  1282.223
  55  1190.398
  56  1005.161
  57  879.7967
  58  809.2565
  59  784.4291
  60  809.2156
  61  481.6741
  62  517.7008
  63  944.9961
  64  678.357
  65  717.973
  66  1041.785
  67  1020.789
  68  688.0027
  69  806.9454
  70  1274.097
  71  1364.891
  72  1577.333
  73  1665.146
  74  1196.028
  75  996.6157
  76  1104.635
  77  1114.785
  78  1022.549
  79  1146.672
  80  1086.471
  81  1093.378
  82  855.4188
  83  863.9907
  84  800.687
  85  1237.851
  86  1245.392
  87  846.722
  88  839.3199
  89  1090.889
  90  1211.306
  91  1106.358
  92  1324.292
  93  1243.605
  94  1154.1
  95  1236.773
  96  1184.663
  97  1201.485
  98  1521.232
  99  1422.448
 100  950.7471
 101  1278.583
 102  1464.406
 103  1480.182
 104  1479.669
 105  1422.033
 106  1095.591
 107  866.8799
 108  1032.004
 109  1118.743
 110  1169.731
 111  1248.289
 112  802.7236
 113  1112.707
 114  1182.379
 115  1004.693
 116  1016.013
 117  962.0255
 118  1147.474
 119  1263.646
 120  1081.464
 121  1105.461
 122  1259.602
 123  1434.511
 124  1427.995
 125  1056.421
 126  1169.61
 127  1026.586
 128  1203.196
 129  1146.489
 130  1039.018
 131  1230.526
 132  1401.231
 133  1135.719
 134  1371.62
 135  1442.62
 136  1571.58
 137  1391.817
 138  1297.337
 139  1188.832
 140  717.6725
 141  1152.212
 142  1368.787
 143  1319.961
 144  1531.512
 145  1628.692
 146  1281.892
 147  1345.027
 148  1207.015
 149  1043.45
 150  721.809
 151  644.2573
 152  910.3987
 153  1173.537
 154  1255.448
 155  1073.805
 156  1111.434
 157  1236.778
 158  1269.646
 159  984.8704
 160  1212.298
 161  1112.854
 162  1166.789
 163  1214.056
 164  1235.677
 165  843.1167
 166  1052.616
 167  905.6165
 168  835.3416
 169  806.9626
 170  1079.929
 171  1097.792
 172  982.1228
 173  1065.183
 174  712.4673
 175  999.4353
 176  983.2491
 177  867.1761
 178  763.0145
 179  461.9473
 180  846.9665
 181  965.5195
 182  757.3109
 183  736.5775
 184  1083.217
 185  889.3816
 186  988.3887
 187  1333.015
 188  1270.44
 189  1415.292
 190  1131.277
 191  1042.342
 192  992.4019
 193  1262.833
 194  1171.532
 195  799.0134
 196  814.7429
 197  1207.942
 198  1486.713
 199  1281.544
 200  1387.27
 201  967.7492
 202  1047.531
 203  1056.808
 204  1325.088
 205  1335.641
 206  1479.525
 207  1277.694
 208  1158.658
 209  837.4837
 210  1046.747
 211  1022.515
 212  948.448
 213  1052.028
 214  1053.947
 215  881.7818
 216  906.3317
 217  1291.878
 218  1195.604
 219  1230.442
 220  1376.987
 221  1401.228
 222  1470.56
 223  1187.85
 224  847.1374
 225  1077.537
 226  709.4968
 227  1037.726
 228  1002.415
 229  1285.016
 230  1233.719
 231  1043.477
 232  733.0373
 233  451.0297
 234  505.1448
 235  599.554
 236  1039.853
 237  1224.411
 238  1188.315
 239  814.4536
 240  916.468
 241  960.4647
 242  1028.088
 243  1024.912
 244  1105.425
 245  1330.724
 246  1181.7
 247  833.7257
 248  882.9839
 249  1138.385
 250  1072.072
 251  1024.009
 252  1101.027
 253  1108.178
 254  1188.947
 255  1215.765
 256  1007.851
 257  1002.86
 258  660.2891
 259  865.6733
 260  882.1254
 261  938.3779
 262  949.4628
 263  792.0381
 264  1009.811
 265  1079.018
 266  539.1318
 267  647.5692
 268  992.6559
 269  1014.266
 270  937.9083
 271  655.221
 272  773.8239
 273  822.4958
 274  989.8802
 275  1051.562
 276  988.8384
 277  1170.348
 278  1237.754
 279  1296.666
 280  1082.722
 281  1435.161
 282  1207.86
 283  1154.073
 284  1248.09
 285  1445.307
 286  1550.478
 287  1020.827
 288  1049.92
 289  1045.267
 290  1032.722
 291  1229.142
 292  1332.376
 293  846.4706
 294  799.2635
 295  817.4135
 296  1046.241
 297  1349.381
 298  1210.082
 299  1175.053
 300  882.4767
 301  1039.444
 302  1116.701
 303  1326.177
 304  1357.141
 305  1212.592
 306  1484.403
 307  1212.378
 308  1039.241
 309  1042.141
 310  1372.817
 311  1717.419
 312  1726.839
 313  1447.18
 314  1723.008
 315  1266.602
 316  1094.44
 317  1457.363
 318  1557.428
 319  1559.588
 320  1260.566
 321  1372.7
 322  1438.997
 323  1726.991
 324  2269.628
 325  2606.257
 326  2403.261
 327  2649.611
 328  2399.51
 329  1765.199
 330  1074.713
 331  690.3768
 332  1037.945
 333  1409.715
 334  1203.743
 335  1165.761
 336  696.0269
 337  1176.087
 338  1415.354
 339  1005.185
 340  1018.477
 341  1006.54
 342  1158.416
 343  887.3239
 344  890.2867
 345  1231.655
 346  1008.549
 347  806.6194
 348  645.5559
 349  975.4323
 350  962.1351
 351  978.5331
 352  925.3127
 353  981.1167
 354  998.3104
 355  660.2953
 356  725.1949
 357  863.5792
 358  1106.872
 359  1134.154
 360  659.1265
 361  342.0046
 362  513.7527
 363  877.6757
 364  1115.077
 365  1295.536
 366  1191.878
 367  575.7256
 368  732.3444
 369  987.1208
 370  801.8496
 371  756.5579
 372  694.278
 373  837.8953
 374  827.9564
 375  855.8054
 376  701.6719
 377  796.802
 378  857.7721
 379  882.9935
 380  868.6251
 381  843.1541
 382  1049.161
 383  1171.968
 384  531.1939
 385  560.6503
 386  977.1542
 387  1135.888
 388  800.2033
 389  538.8043
 390  727.1629
 391  958.0814
 392  1168.676
 393  1177.07
 394  1014.549
 395  902.9394
 396  1184.86
 397  1066.011
 398  1142.594
 399  1028.754
 400  1372.866
 401  1252.588
 402  827.9426
 403  1103.029
 404  1213.187
 405  1109.208
 406  999.6312
 407  1033.594
 408  1179.357
 409  1324.544
 410  1203.439
 411  1112.66
 412  797.626
 413  629.408
 414  502.6159
 415  639.8718
 416  917.0724
 417  573.216
 418  264.6794
 419  506.536
 420  992.1182
 421  844.5596
 422  673.6365
 423  706.1329
 424  870.7146
 425  982.8303
 426  1129.941
 427  1289.284
 428  1144.34
 429  1067.39
 430  689.8347
 431  965.2586
 432  1223.965
 433  1171.043
 434  870.6984
 435  1027.11
 436  1197.731
 437  1069.569
 438  1051.857
 439  1261.301
 440  1702.156
 441  1103.12
 442  870.9691
 443  958.9297
 444  1331.813
 445  1424.864
 446  947.4159
 447  756.6606
 448  969.5367
 449  1307.094
 450  1284.451
 451  949.5543
 452  930.7783
 453  974.5746
 454  1034.535
 455  968.1055
 456  1328.684
 457  1438.79
 458  1280.753
 459  1239.151
 460  1142.661
 461  1063.645
 462  714.5387
 463  705.7542
 464  1142.835
 465  1058.01
 466  906.6071
 467  1163.104
 468  1106.024
 469  768.8477
 470  846.9935
 471  501.5431
 472  690.0154
 473  1017.689
 474  960.1223
 475  882.2252
 476  1238.875
 477  930.4414
 478  1015.954
 479  1285.822
 480  1189.846
 481  904.4706
 482  569.3343
 483  539.4739
 484  825.0181
 485  1308.725
 486  1283.648
 487  1287.141
 488  962.8625
 489  1011.542
 490  1136.224
 491  964.5577
 492  922.7761
 493  982.8478
 494  1283.553
 495  1317.753
 496  1195.101
 497  1149.999
 498  1337.3
 499  1502.914
 500  1054.794
 501  1183.309
 502  1369.443
 503  1205.096
 504  980.5049
 505  848.7543
 506  1297.126
 507  948.71
 508  1006.553
 509  844.0343
 510  968.58
 511  1024.723
