# Input file       =  1183798301.101795_cleaned.dat
# Candidate        =  PSR_0332+5434
# Telescope        =  AR
# Epoch_topo       =  57945.369445622629
# Epoch_bary       =  N/A
# T_sample         =  0.002
# Data Folded      =  7340032
# Data Avg         =  0.288763867046717
# Data StdDev      =  5.21294428945298 
# Profile Bins     =  1024
# Profile Avg      =  2069.79550458428 
# Profile StdDev   =  441.34893402646  
# Reduced chi-sqr  =  0.466
# Prob(Noise)      <  1   (~0.0 sigma)
# P_topo (ms)      =  714.481737552671  +/- 0.000651
# P'_topo (s/s)    =  -0                +/- 3.44e-10
# P''_topo (s/s^2) =  0                 +/- 1.52e-13
# P_bary (ms)      =  N/A
# P'_bary (s/s)    =  N/A
# P''_bary (s/s^2) =  N/A
# P_orb (s)        =  N/A
# asin(i)/c (s)    =  N/A
# eccentricity     =  N/A
# w (rad)          =  N/A
# T_peri           =  N/A
######################################################
   0  2157.837
   1  2245.883
   2  2244.132
   3  2270.732
   4  2316.277
   5  2428.993
   6  2458.661
   7  2468.176
   8  2417.508
   9  2306.993
  10  2201.17
  11  2050.127
  12  2054.96
  13  2059.727
  14  2142.344
  15  2186.948
  16  2270.124
  17  2102.789
  18  2061.039
  19  2112.735
  20  2331.754
  21  2249.122
  22  2068.161
  23  1933.875
  24  1908.745
  25  1918.637
  26  1876.203
  27  1914.994
  28  1871.987
  29  1868.925
  30  1900.009
  31  1914.961
  32  1989.106
  33  2158.976
  34  2241.165
  35  2221.997
  36  2094.338
  37  1976.605
  38  1840.967
  39  1746.952
  40  1883.475
  41  1964.391
  42  2021.918
  43  2015.916
  44  1928.442
  45  1975.932
  46  1887.336
  47  1848.771
  48  1876.981
  49  1885.761
  50  1894.654
  51  1859.779
  52  1874.166
  53  1901.106
  54  1911.782
  55  1846.28
  56  1867.167
  57  1872.682
  58  1967.733
  59  1978.779
  60  1968.234
  61  2043.501
  62  2068.015
  63  2044.714
  64  2038.724
  65  1963.673
  66  1850.357
  67  1807.712
  68  1802.742
  69  1908.469
  70  2005.354
  71  2033.406
  72  2029.651
  73  1920.019
  74  1892.932
  75  1901.696
  76  1887.172
  77  1909.944
  78  1928.935
  79  1907.646
  80  1936.557
  81  1968.857
  82  2035.537
  83  1974.751
  84  2028.182
  85  2062.298
  86  2112.229
  87  2088.827
  88  2064.421
  89  2058.114
  90  2109.624
  91  2222.234
  92  2201.401
  93  2069.824
  94  2051.679
  95  2101.395
  96  2082.239
  97  1984.793
  98  1833.667
  99  1931.688
 100  1972.386
 101  2075.374
 102  2048.173
 103  2059.78
 104  2088.419
 105  2139.449
 106  2285.45
 107  2259.109
 108  2247.654
 109  2187.49
 110  2224.178
 111  2131.685
 112  2094.35
 113  1949.922
 114  1997.469
 115  1965.096
 116  1881.908
 117  1827.445
 118  1797.038
 119  1906.17
 120  1877.57
 121  1815.119
 122  1852.7
 123  1909.495
 124  2145.772
 125  2102.043
 126  2047.653
 127  1920.119
 128  2028.485
 129  2111.509
 130  2023.178
 131  2024.913
 132  1988.851
 133  1890.831
 134  1869.453
 135  1803.757
 136  1845.103
 137  1885.276
 138  1979.324
 139  2022.927
 140  1983.107
 141  1911.911
 142  1948.902
 143  1849.856
 144  1965.961
 145  1906.8
 146  1939.988
 147  1950.371
 148  2058.698
 149  2225.166
 150  2309.781
 151  2369.82
 152  2270.278
 153  2146.674
 154  2045.728
 155  2100.916
 156  2187.573
 157  2053.908
 158  2003.03
 159  2008.041
 160  2156.648
 161  2215.496
 162  2150.214
 163  2122.144
 164  2087.962
 165  2094.726
 166  2062.905
 167  2008.058
 168  1941.598
 169  1975.28
 170  1996.333
 171  2014.771
 172  1985.615
 173  2046.553
 174  2108.993
 175  2103.743
 176  2016.627
 177  2081.958
 178  2058.129
 179  2043.143
 180  2120.354
 181  2160.532
 182  2241.354
 183  2110.778
 184  2183.76
 185  2239.954
 186  2342.453
 187  2350.277
 188  2335.651
 189  2195.615
 190  2133.951
 191  2035.965
 192  2069.924
 193  2202.338
 194  2127.452
 195  2082.896
 196  2120.067
 197  2225.393
 198  2297.723
 199  2147.066
 200  2114.407
 201  2039.361
 202  1990.617
 203  1965.893
 204  2029.708
 205  2069.573
 206  2081.846
 207  2052.19
 208  2030.421
 209  1889.328
 210  1727.172
 211  1684.188
 212  1762.371
 213  1827.203
 214  1833.501
 215  1877.392
 216  1764.463
 217  1749.097
 218  1675.793
 219  1727.818
 220  1761.213
 221  1707.2
 222  1638.29
 223  1712.344
 224  1879.685
 225  1984.717
 226  1996.536
 227  1966.919
 228  1985.886
 229  1937.208
 230  1848.599
 231  1891.107
 232  1908.527
 233  1894.077
 234  1970.575
 235  1966.752
 236  2087.696
 237  1995.117
 238  1961.054
 239  1921.114
 240  1936.686
 241  1950.649
 242  1913.141
 243  1799.175
 244  1859.191
 245  1864.348
 246  1820.848
 247  1922.256
 248  1982.049
 249  2044.088
 250  1980.581
 251  1843.003
 252  1844.033
 253  1859.745
 254  1977.236
 255  1986.92
 256  1977.099
 257  1890.672
 258  1806.106
 259  1784.348
 260  1753.95
 261  1836.01
 262  1824.06
 263  2051.386
 264  2015.749
 265  2011.356
 266  1888.947
 267  1766.108
 268  1674.77
 269  1736.3
 270  1864.243
 271  1952.769
 272  2023.727
 273  2085.341
 274  2105.168
 275  1973.983
 276  2024.549
 277  1976.14
 278  1949.215
 279  2018.488
 280  2092.674
 281  2100.639
 282  2025.184
 283  2042.967
 284  2112.152
 285  2130.483
 286  2133.891
 287  2202.662
 288  2163.194
 289  2100.719
 290  2037.357
 291  1910.245
 292  1888.003
 293  1873.696
 294  1983.562
 295  1903.444
 296  1887.48
 297  2006.595
 298  2043.895
 299  2036.29
 300  2003.378
 301  2130.956
 302  2112.99
 303  2134.42
 304  2027.912
 305  2024.978
 306  1976.442
 307  1964.83
 308  1878.463
 309  1842.976
 310  1805.099
 311  1889.715
 312  1918.602
 313  1898.815
 314  1979.052
 315  1872.031
 316  1874.924
 317  1816.315
 318  1923.112
 319  2037.586
 320  2151.787
 321  2224.282
 322  2379.119
 323  2351.95
 324  2449.96
 325  2433.408
 326  2326.243
 327  2263.164
 328  2239.223
 329  2237.258
 330  2293.541
 331  2433.127
 332  2455.888
 333  2420.573
 334  2333.095
 335  2325.293
 336  2266.086
 337  2181.176
 338  2113.081
 339  2170.209
 340  2286.533
 341  2395.565
 342  2209.883
 343  2268.206
 344  2244.177
 345  2221.807
 346  2206.523
 347  2331.134
 348  2340.918
 349  2156.117
 350  1968.312
 351  2061.531
 352  2204.45
 353  2152.672
 354  2050.301
 355  2029.238
 356  1963.962
 357  2004.099
 358  1951.124
 359  2021.83
 360  2145.835
 361  2228.972
 362  2169.855
 363  2078.453
 364  2083.003
 365  2115.196
 366  2094.322
 367  1982.142
 368  2017.941
 369  1979.983
 370  2077.713
 371  1969.146
 372  1909.836
 373  1908.014
 374  2057.849
 375  2126.929
 376  2045.169
 377  2004.855
 378  2040.54
 379  2238.862
 380  2208.697
 381  2034.797
 382  1824.775
 383  1672.205
 384  1855.974
 385  2019.183
 386  2109.636
 387  2098.771
 388  1958.561
 389  1918.756
 390  1995.056
 391  2118.642
 392  2114.521
 393  1972.24
 394  1981.873
 395  2035.882
 396  2016.538
 397  2009.686
 398  1942.542
 399  1944.298
 400  1959.535
 401  1999.817
 402  1994.572
 403  1922.66
 404  1815.683
 405  1922.301
 406  2053.548
 407  2114.594
 408  2178.641
 409  2155.417
 410  2143.706
 411  2184.43
 412  2237.791
 413  2189.913
 414  2173.34
 415  2052.56
 416  2127.678
 417  1984.324
 418  2056.194
 419  1972.38
 420  1876.468
 421  1816.105
 422  1928.482
 423  1959.038
 424  1989.316
 425  2027.178
 426  2249.945
 427  2362.974
 428  2320.854
 429  2301.371
 430  2183.036
 431  2149.967
 432  2069.137
 433  2078.255
 434  1994.815
 435  2029.349
 436  2023.299
 437  2108.048
 438  2064.121
 439  1965.768
 440  2023.232
 441  2013.587
 442  2123.165
 443  2082.964
 444  2055.059
 445  2018.122
 446  2095.166
 447  2066.213
 448  2019.324
 449  1929.649
 450  1950.045
 451  2135.938
 452  2239.568
 453  2221.001
 454  2068.614
 455  2092.365
 456  2161.486
 457  2199.374
 458  2040.332
 459  1982.444
 460  1984.656
 461  2024.422
 462  2141.146
 463  2172.429
 464  2217.69
 465  2193.675
 466  2212.341
 467  2242.558
 468  2085.68
 469  1894.574
 470  1954.881
 471  2083.394
 472  2136.283
 473  2079.321
 474  2105.686
 475  2100.625
 476  2159.72
 477  2151.492
 478  2098.415
 479  1982.216
 480  2003.052
 481  2214.255
 482  2087.53
 483  1986.88
 484  1929.41
 485  1999.098
 486  2109.295
 487  2008.205
 488  1971.711
 489  2004.735
 490  2033.535
 491  2216.271
 492  2224.611
 493  2221.514
 494  2202.681
 495  2178.011
 496  2201.58
 497  2285.632
 498  2260.994
 499  2267.011
 500  2246.627
 501  2212.625
 502  2184.757
 503  2090.394
 504  2230.307
 505  2223.102
 506  2229.244
 507  2120.281
 508  2122.476
 509  2185.003
 510  2325.676
 511  2385.492
 512  2286.278
 513  2287.182
 514  2371.677
 515  2342.222
 516  2235.14
 517  1928.067
 518  1700.313
 519  1857.809
 520  2034.869
 521  2177.445
 522  2072.124
 523  2115.014
 524  2174.464
 525  2175.253
 526  2336.286
 527  2343.898
 528  2340.684
 529  2262.157
 530  2300.169
 531  2273.65
 532  2271.088
 533  2170.129
 534  2178.402
 535  2256.127
 536  2272.84
 537  2268.688
 538  2253.151
 539  2432.07
 540  2401.057
 541  2365.629
 542  2274.683
 543  2224.479
 544  2168.361
 545  2204.398
 546  2237.936
 547  2381.197
 548  2357.658
 549  2207.098
 550  2157.831
 551  2125.156
 552  2085.104
 553  2097.883
 554  2084.308
 555  2125.771
 556  2045.319
 557  1990.598
 558  1883.755
 559  1947.421
 560  2014.021
 561  2117.088
 562  2169.993
 563  2190.586
 564  2184.637
 565  2043.774
 566  1980.513
 567  1970.547
 568  2050.862
 569  2203.472
 570  2181.469
 571  2113.701
 572  2049.082
 573  1905.373
 574  1762.339
 575  1747.318
 576  1853.193
 577  2084.839
 578  2148.547
 579  2192.195
 580  2141.781
 581  2118.279
 582  2023.544
 583  2066.45
 584  2090.121
 585  2218.229
 586  2212.1
 587  2100.194
 588  2067.826
 589  2071.724
 590  2152.596
 591  2111.593
 592  1992.61
 593  1913.933
 594  1932.709
 595  2061.235
 596  2147.065
 597  2201.259
 598  2115.602
 599  2173.056
 600  2129.26
 601  2122.499
 602  2097.253
 603  2111.775
 604  2073.983
 605  2051.938
 606  2019.467
 607  2145.236
 608  2234.459
 609  2247.726
 610  2214.724
 611  2139.114
 612  2076.555
 613  2206.813
 614  2307.226
 615  2374.165
 616  2256.833
 617  2140.96
 618  2111.395
 619  1986.381
 620  1824.586
 621  1656.635
 622  1765.553
 623  1905.455
 624  1935.895
 625  1933.2
 626  2008.483
 627  2115.156
 628  2211.903
 629  2233.058
 630  2274.442
 631  2211.633
 632  2067.356
 633  1894.119
 634  1787.262
 635  1897.137
 636  1871.835
 637  1890.376
 638  1879.031
 639  2049.752
 640  2163.281
 641  2102.812
 642  2029.136
 643  1972.837
 644  2053.608
 645  2162.995
 646  2319.909
 647  2483.421
 648  2622.531
 649  2696.707
 650  2767.571
 651  2669.452
 652  2614.291
 653  2584.677
 654  2717.938
 655  2715.172
 656  2563.891
 657  2280.625
 658  2110.498
 659  1974.021
 660  1956.289
 661  2027.967
 662  2116.789
 663  2192.574
 664  2144.427
 665  2002.656
 666  1959.848
 667  2003.239
 668  2119.073
 669  2083.667
 670  2010.107
 671  1950.818
 672  2013.547
 673  2113.852
 674  2180.933
 675  2406.632
 676  2418.526
 677  2451.745
 678  2232.959
 679  2068.346
 680  2030.911
 681  2017.454
 682  2134.102
 683  2166.245
 684  2227.089
 685  2298.118
 686  2213.542
 687  2177.971
 688  2064.562
 689  2128.545
 690  1974.19
 691  1937.163
 692  1938.05
 693  2051.286
 694  1989.027
 695  1988.934
 696  2043.895
 697  2004.815
 698  1962.46
 699  1924.649
 700  1948.09
 701  1905.258
 702  1926.111
 703  1885.564
 704  1992.794
 705  1917.701
 706  2006.899
 707  1925.224
 708  1795.1
 709  1782.923
 710  1927.015
 711  2078.614
 712  2066.104
 713  1976.11
 714  1956.221
 715  1910.906
 716  1942.986
 717  2043.899
 718  1938.939
 719  1824.329
 720  1705.135
 721  1795.944
 722  1919.624
 723  1980.795
 724  2053.738
 725  1956.13
 726  1894.939
 727  1919.639
 728  1890.924
 729  1878.665
 730  1865.546
 731  1960.8
 732  2082.107
 733  2159.286
 734  2150.461
 735  2078.312
 736  2125.134
 737  2126.284
 738  1979.233
 739  1847.72
 740  1816.154
 741  1840.184
 742  2002.148
 743  1994.061
 744  2143.366
 745  2109.771
 746  2104.946
 747  1980.62
 748  1945.153
 749  1837.743
 750  1741.12
 751  1791.609
 752  1926.487
 753  1935.985
 754  1899.324
 755  2066.749
 756  2115.847
 757  2156.788
 758  2048.011
 759  2024.589
 760  2104.466
 761  2155.234
 762  2041.682
 763  1795.696
 764  1701.65
 765  1717.609
 766  1774.469
 767  1965.795
 768  2104.912
 769  2173.55
 770  2144.952
 771  2105.689
 772  2115.45
 773  2101.141
 774  2065.403
 775  2056.456
 776  2054.923
 777  2011.909
 778  1933.747
 779  2000.066
 780  2022.47
 781  2048.987
 782  2094.063
 783  2097.18
 784  2104.463
 785  1983.476
 786  1858.754
 787  1869.73
 788  1946.53
 789  2018.042
 790  1974.419
 791  1885.382
 792  1893.236
 793  2028.111
 794  2049.183
 795  2061.386
 796  1971.185
 797  1983.007
 798  1975.048
 799  1969.998
 800  1968.625
 801  1938.962
 802  1842.337
 803  1851.299
 804  1895.795
 805  1894.205
 806  1814.314
 807  1801.437
 808  1902.007
 809  1938.422
 810  2039.082
 811  2070.909
 812  2105.551
 813  2119.613
 814  2153.082
 815  2097.198
 816  2124.647
 817  2180.083
 818  2180.994
 819  2050.275
 820  1882.455
 821  1868.296
 822  1995.226
 823  1962.679
 824  1877.323
 825  1832.198
 826  1993.849
 827  2162.455
 828  2322.778
 829  2287.523
 830  2104.777
 831  2055.361
 832  2066.813
 833  2000.659
 834  1938.699
 835  1996.251
 836  2217.117
 837  2329.681
 838  2238.262
 839  2182.913
 840  2205.43
 841  2248.278
 842  2250.352
 843  2339.911
 844  2530.296
 845  2521.261
 846  2406.874
 847  2260.231
 848  2242.085
 849  2190.888
 850  2142.806
 851  2072.703
 852  2127.081
 853  2201.224
 854  2253.375
 855  2354.681
 856  2339.128
 857  2321.252
 858  2217.645
 859  2213.196
 860  2221.392
 861  2129.378
 862  2125.153
 863  2108.134
 864  2107.562
 865  2128.753
 866  2216.332
 867  2344.213
 868  2204.082
 869  2010.954
 870  1899.537
 871  1845.89
 872  1976.441
 873  2010.213
 874  1993.927
 875  1965.654
 876  2044.093
 877  1970.263
 878  1889.017
 879  1830.882
 880  1889.452
 881  1990.142
 882  1864.744
 883  1851.121
 884  1970.142
 885  2142.537
 886  2141.064
 887  2034.914
 888  1887.575
 889  1871.215
 890  1755.447
 891  1735.362
 892  1747.324
 893  1787.564
 894  1904.976
 895  1991.326
 896  2022.023
 897  2053.547
 898  2148.216
 899  2092.405
 900  1995.048
 901  1859.184
 902  1828.02
 903  1947.917
 904  1983.27
 905  1911.052
 906  1786.944
 907  1695.576
 908  1780.377
 909  1768.839
 910  1879.492
 911  1947.34
 912  2078.819
 913  2240.819
 914  2291.487
 915  2240.531
 916  2166.556
 917  2060.843
 918  2073.818
 919  2106.451
 920  2160.934
 921  2323.96
 922  2291.278
 923  2243.468
 924  2208.084
 925  2310.448
 926  2426.427
 927  2471.48
 928  2487.271
 929  2425.73
 930  2253.28
 931  2124.266
 932  2156.543
 933  2244.159
 934  2162.209
 935  2073.261
 936  2143.39
 937  2241.252
 938  2289.53
 939  2138.708
 940  2139.016
 941  2181.469
 942  2322.126
 943  2351.816
 944  2260.515
 945  2211.693
 946  2195.96
 947  2203.894
 948  2067.192
 949  2013.316
 950  2006.91
 951  2193.517
 952  2283.789
 953  2192.268
 954  2146.552
 955  2045.48
 956  2075.091
 957  2122.271
 958  2118.942
 959  2054.155
 960  2057.969
 961  2132.189
 962  2272.207
 963  2270.255
 964  2264.584
 965  2238.813
 966  2272.812
 967  2284.883
 968  2285.681
 969  2235.867
 970  2222.949
 971  2134.313
 972  2131.668
 973  2011.906
 974  1964.936
 975  1896.12
 976  2074.881
 977  2066.009
 978  2184.309
 979  2212.235
 980  2324.041
 981  2212.415
 982  2057.857
 983  1882.513
 984  1970.199
 985  2024.17
 986  1965.118
 987  2063.18
 988  2150.308
 989  2233.965
 990  2183.59
 991  2200.498
 992  2293.047
 993  2119.541
 994  1993.204
 995  1903.658
 996  2020.924
 997  2100.724
 998  2135.281
 999  2186.996
1000  2252.021
1001  2420.677
1002  2420.341
1003  2435.421
1004  2370.957
1005  2363.426
1006  2210.688
1007  2212.751
1008  2207.242
1009  2167.236
1010  2105.231
1011  2091.227
1012  2126.412
1013  2165.483
1014  2041.247
1015  2148.832
1016  2162.497
1017  2254.052
1018  2320.062
1019  2340.023
1020  2284.815
1021  2110.885
1022  2050.935
1023  2106.772
