# Input file       =  1183854874.114862_cleaned.dat
# Candidate        =  PSR_0332+5434
# Telescope        =  AR
# Epoch_topo       =  57946.024225866458
# Epoch_bary       =  N/A
# T_sample         =  0.002
# Data Folded      =  7274496
# Data Avg         =  0.131337972888555
# Data StdDev      =  4.97598126525506 
# Profile Bins     =  512
# Profile Avg      =  1866.06148398907 
# Profile StdDev   =  593.123608329007 
# Reduced chi-sqr  =  0.521
# Prob(Noise)      <  1   (~0.0 sigma)
# P_topo (ms)      =  714.480935788639  +/- 0.000139
# P'_topo (s/s)    =  -0                +/- 7.38e-11
# P''_topo (s/s^2) =  0                 +/- 3.29e-14
# P_bary (ms)      =  N/A
# P'_bary (s/s)    =  N/A
# P''_bary (s/s^2) =  N/A
# P_orb (s)        =  N/A
# asin(i)/c (s)    =  N/A
# eccentricity     =  N/A
# w (rad)          =  N/A
# T_peri           =  N/A
######################################################
   0  2408.127
   1  2344.567
   2  1901.529
   3  1611.442
   4  1930.491
   5  1843.277
   6  2049.531
   7  2104.396
   8  1855.588
   9  1867.373
  10  1975.268
  11  1785.228
  12  1688
  13  1836.751
  14  1335.324
  15  1386.319
  16  2051.323
  17  2107.26
  18  2152.986
  19  1765.867
  20  1634.392
  21  1320.74
  22  1194.357
  23  1436.432
  24  2061.263
  25  2182.543
  26  1563.229
  27  1566.106
  28  1622.89
  29  1828.065
  30  1737.955
  31  1657.836
  32  2066.209
  33  2185.804
  34  2119.976
  35  2070.546
  36  1947.565
  37  1651.097
  38  1339.335
  39  1492.663
  40  1862.013
  41  2249.765
  42  2075.655
  43  2160.039
  44  2113.559
  45  1849.715
  46  1993.76
  47  1809.771
  48  1969.526
  49  1867.243
  50  1696.48
  51  1698.283
  52  2117.662
  53  2033.193
  54  1739.961
  55  2005.643
  56  1909.738
  57  1913.705
  58  1856.704
  59  1721.171
  60  2077.53
  61  1744.916
  62  2169.467
  63  2069.513
  64  1811.558
  65  1465.518
  66  1815.653
  67  1568.833
  68  1862.824
  69  2382.062
  70  2203.488
  71  1981.984
  72  1721.665
  73  2230.483
  74  2135.034
  75  1946.349
  76  2226.064
  77  1941.455
  78  1794.49
  79  1621.847
  80  1674.601
  81  1796.318
  82  1990.858
  83  2191.375
  84  2252.334
  85  2091.661
  86  1765.855
  87  1496.622
  88  1639.13
  89  1947.296
  90  2238.199
  91  2020.756
  92  1799.88
  93  1277.188
  94  1390.571
  95  1582.103
  96  1985.47
  97  1972.356
  98  1668.046
  99  1619.44
 100  1833.02
 101  1636.815
 102  1116.386
 103  1584.647
 104  1652.412
 105  1770.177
 106  1991.921
 107  2178.045
 108  2229.359
 109  1676.295
 110  1584.441
 111  1612.953
 112  1374.463
 113  1281.251
 114  1461.451
 115  2083.521
 116  2455.042
 117  2287.011
 118  2018.851
 119  1824.602
 120  1616.421
 121  1373.14
 122  1730.839
 123  1767.792
 124  2140.617
 125  2122.93
 126  1853.427
 127  2032.369
 128  1647.376
 129  1663.232
 130  1628.334
 131  1762.752
 132  1491.002
 133  1680.883
 134  1528.165
 135  1686.913
 136  1920.069
 137  1360.774
 138  1113.098
 139  1173.253
 140  1635.096
 141  1558.334
 142  1927.204
 143  1905.443
 144  1547.811
 145  1641.15
 146  1762.759
 147  1617.736
 148  1706.533
 149  1910.895
 150  1811.151
 151  1743.37
 152  2111.125
 153  1912.545
 154  1715.562
 155  1522.029
 156  1764.083
 157  2162.235
 158  2068.368
 159  2037.959
 160  2053.066
 161  1878.428
 162  1616.018
 163  1812.855
 164  1899.965
 165  1849.954
 166  1628.275
 167  1757.175
 168  1885.137
 169  1783.765
 170  1894.055
 171  2352.472
 172  2844.149
 173  2906.595
 174  2850.911
 175  3352.875
 176  3264.094
 177  2809.147
 178  2711.356
 179  2083.083
 180  1941.716
 181  1973.047
 182  1923.25
 183  1246.88
 184  1534.915
 185  1505.437
 186  1603.257
 187  1376.686
 188  1542.976
 189  2274.186
 190  2423.553
 191  2542.3
 192  1980.515
 193  1910.267
 194  1545.286
 195  827.3801
 196  1485.347
 197  1948.665
 198  2233.657
 199  1946.575
 200  1934.423
 201  2232.715
 202  2022.041
 203  1263.473
 204  1293.923
 205  1765.956
 206  1670.13
 207  1834.3
 208  2064.594
 209  2242.42
 210  1837.977
 211  1798.847
 212  1965.988
 213  1605.974
 214  1452.868
 215  1331.055
 216  1814.236
 217  2061.96
 218  1983.133
 219  1422.125
 220  1196.04
 221  1676.382
 222  1610.125
 223  2155.219
 224  2151.255
 225  1573.921
 226  1895.242
 227  1716.709
 228  1450.851
 229  1238.108
 230  1274.355
 231  1761.596
 232  1461.018
 233  1446.517
 234  1877.496
 235  1904.145
 236  1945.59
 237  1713.706
 238  1280.093
 239  1318.666
 240  1066.228
 241  1092.945
 242  1420.233
 243  1622.118
 244  2002.99
 245  2091.728
 246  2033.464
 247  1828.731
 248  1910.078
 249  2091.554
 250  1430.139
 251  1825.991
 252  1869.137
 253  1832.839
 254  1469.961
 255  1471.954
 256  1581.946
 257  1850.808
 258  1659.919
 259  1777.599
 260  2013.716
 261  1771.802
 262  1663.466
 263  1991.877
 264  2017.513
 265  2187.634
 266  2018.123
 267  2272.499
 268  1875.695
 269  1838.913
 270  1567.825
 271  1820.146
 272  1939.738
 273  2128.162
 274  1960.896
 275  2150.87
 276  2373.052
 277  1761.392
 278  1861.634
 279  2009.862
 280  1885.228
 281  2148.283
 282  1993.442
 283  2111.356
 284  2373.085
 285  2299.342
 286  2116.457
 287  2242.227
 288  2260.313
 289  1978.487
 290  1752.37
 291  1657.621
 292  1950.854
 293  2205.039
 294  1859.904
 295  1660.79
 296  1782.747
 297  1927.058
 298  2161.719
 299  2021.456
 300  2340.393
 301  1971.37
 302  1615.859
 303  1180.233
 304  1431.631
 305  1677.499
 306  1923.024
 307  2098.223
 308  1978.528
 309  1886.022
 310  1985.648
 311  1697.728
 312  1493.503
 313  1483.938
 314  1276.965
 315  1235.766
 316  1451.377
 317  1910.595
 318  2007.305
 319  2109.515
 320  1868.566
 321  1324.539
 322  1426.213
 323  1250.542
 324  1399.147
 325  1536.97
 326  1865.526
 327  2093.746
 328  1687.656
 329  1895.599
 330  2030.006
 331  1349.773
 332  1288.25
 333  1923.27
 334  2376.523
 335  1795.257
 336  1707.803
 337  1415.718
 338  1458.425
 339  2022.073
 340  1690.684
 341  2011.327
 342  1749.795
 343  1499.936
 344  1569.612
 345  1693.483
 346  1761.538
 347  1698.36
 348  1921.673
 349  2178.08
 350  2180.332
 351  1940.96
 352  2047.374
 353  1893.678
 354  1940.953
 355  2119.473
 356  1753.475
 357  1606.474
 358  1835.807
 359  2185.681
 360  2566.543
 361  2008.367
 362  1962.233
 363  2151.415
 364  1791.582
 365  1619.398
 366  2098.6
 367  2066.712
 368  1643.229
 369  1615.362
 370  1934.044
 371  2060.453
 372  2000.319
 373  1708.119
 374  2088.768
 375  1823.465
 376  1923.134
 377  1661.227
 378  1695.664
 379  1818.155
 380  1775.229
 381  2222.672
 382  2387.507
 383  1972.035
 384  1780.751
 385  1826.72
 386  2354.109
 387  2147.035
 388  2007.114
 389  2431.979
 390  1986.086
 391  1869.952
 392  2358.342
 393  2057.672
 394  1797.616
 395  1693.447
 396  2129.55
 397  1654.35
 398  1456.775
 399  1652.109
 400  2137.561
 401  2507.754
 402  1835.433
 403  1954.125
 404  1752.429
 405  1514.457
 406  1700.014
 407  1778.225
 408  2209.383
 409  2105.436
 410  1638.006
 411  1968.135
 412  2048.211
 413  2123.841
 414  2162.413
 415  2427.98
 416  2312.073
 417  2069.155
 418  1745.759
 419  1700.965
 420  1962.391
 421  1878.583
 422  1901.384
 423  1980.176
 424  1889.667
 425  2279.039
 426  2236.539
 427  1902.736
 428  1902.935
 429  2023.035
 430  2163.2
 431  1945.791
 432  2000.006
 433  2309.643
 434  2431.411
 435  2118.132
 436  1904.873
 437  1828.265
 438  2231.645
 439  1848.658
 440  1878.104
 441  1741.242
 442  1625.133
 443  1933.931
 444  1831.407
 445  2177.047
 446  2431.893
 447  2200.732
 448  2036.653
 449  1952.719
 450  1937.131
 451  1724.216
 452  1627.232
 453  1783.683
 454  2045.509
 455  1862.59
 456  2073.193
 457  1873.571
 458  1779.05
 459  1544.167
 460  1536.18
 461  1686.681
 462  1852.636
 463  2279.678
 464  2040.568
 465  1939.427
 466  1684.416
 467  1688.657
 468  1802.442
 469  1853.787
 470  2018.75
 471  1886.29
 472  2144.238
 473  1771.929
 474  1543.854
 475  1549.246
 476  1574.656
 477  1726.008
 478  1859.13
 479  1989.016
 480  1803.469
 481  1896.09
 482  1749.288
 483  1746.334
 484  1964.225
 485  2030.686
 486  2056.93
 487  2076.153
 488  1932.145
 489  1962.39
 490  2072.708
 491  1914.364
 492  1817.51
 493  1542.871
 494  1844.023
 495  1895.846
 496  2070.318
 497  1552.954
 498  1243.238
 499  2308.986
 500  2411.307
 501  2331.093
 502  1977.545
 503  2199.645
 504  2008.904
 505  2076.327
 506  2088.812
 507  1982.469
 508  1881.812
 509  2051.357
 510  2192.478
 511  1988.833
