# Input file       =  1183453964.104919_cleaned.dat
# Candidate        =  PSR_0332+5434
# Telescope        =  AR
# Epoch_topo       =  57941.384063714337
# Epoch_bary       =  N/A
# T_sample         =  0.002
# Data Folded      =  7340032
# Data Avg         =  0.535065135608811
# Data StdDev      =  8.66304680260251 
# Profile Bins     =  512
# Profile Avg      =  7671.17086433228 
# Profile StdDev   =  1037.25289794963 
# Reduced chi-sqr  =  0.767
# Prob(Noise)      <  1   (~0.0 sigma)
# P_topo (ms)      =  714.484626166892  +/- 0.000403
# P'_topo (s/s)    =  -0                +/- 2.13e-10
# P''_topo (s/s^2) =  0                 +/- 9.39e-14
# P_bary (ms)      =  N/A
# P'_bary (s/s)    =  N/A
# P''_bary (s/s^2) =  N/A
# P_orb (s)        =  N/A
# asin(i)/c (s)    =  N/A
# eccentricity     =  N/A
# w (rad)          =  N/A
# T_peri           =  N/A
######################################################
   0  7491.803
   1  7141.061
   2  7211.456
   3  7285.994
   4  7397.229
   5  7304.258
   6  7393.298
   7  7334.636
   8  7130.119
   9  7629.971
  10  7921.754
  11  7838.737
  12  7010.632
  13  6820.673
  14  7259.604
  15  7409.298
  16  7503.703
  17  7074.067
  18  7618.938
  19  7764.24
  20  8030.446
  21  7714.433
  22  7670.329
  23  7524.854
  24  7447.913
  25  7748.281
  26  8041.895
  27  7769.952
  28  7408.517
  29  7172.485
  30  6734.936
  31  6717.897
  32  6679.745
  33  6340.227
  34  6778.646
  35  6600.626
  36  6525.723
  37  6801.766
  38  6761.013
  39  6653.621
  40  6713.053
  41  6715.651
  42  6921.42
  43  7562.139
  44  8151.563
  45  7699.869
  46  7054.333
  47  7115.682
  48  7453.131
  49  7395.088
  50  7536.235
  51  7709.533
  52  7853.307
  53  7321.8
  54  7207.241
  55  7095.401
  56  6964.631
  57  7332.767
  58  7401.221
  59  7430.605
  60  7075.399
  61  6944.822
  62  7181.656
  63  7225.073
  64  7074.818
  65  7034.146
  66  7384.672
  67  6885.659
  68  6903.519
  69  6961.655
  70  6688.277
  71  7472.193
  72  7669.11
  73  7315.619
  74  7060.773
  75  7121.872
  76  7363.231
  77  7493.41
  78  7677.001
  79  7866.043
  80  8100.434
  81  8050.787
  82  8517.963
  83  8129.299
  84  7892.094
  85  8296.548
  86  8593.384
  87  8252.536
  88  7915.174
  89  7775.338
  90  7886.93
  91  8417.088
  92  8600.014
  93  8129.616
  94  7715.896
  95  8212.1
  96  8761.068
  97  8627.102
  98  8193.704
  99  8053.836
 100  8140.94
 101  8105.604
 102  7488.082
 103  7437.716
 104  7689.055
 105  8108.718
 106  8400.602
 107  8369.953
 108  7904.843
 109  7812.637
 110  7996.382
 111  8273.917
 112  8146.468
 113  8007.18
 114  8298.789
 115  8523.686
 116  8609.408
 117  8457.708
 118  8247.124
 119  7306.212
 120  7238.102
 121  7846.34
 122  7936.257
 123  7654.127
 124  7792.054
 125  7366.204
 126  7009.352
 127  6839.396
 128  7200.868
 129  7725.019
 130  7635.099
 131  7460.023
 132  7502.584
 133  7225.915
 134  7478.498
 135  7656.367
 136  7737.877
 137  7534.126
 138  8177.833
 139  8139.047
 140  7175.325
 141  6893.102
 142  6745.77
 143  6867.468
 144  6673.711
 145  6885.888
 146  6816.991
 147  6739.624
 148  7359.587
 149  7326.265
 150  6516.641
 151  6295.77
 152  6454.897
 153  7040.561
 154  7489.399
 155  6894.802
 156  7166.147
 157  7381.817
 158  7212.356
 159  7143.477
 160  7603.493
 161  7621.865
 162  7554.998
 163  7952.642
 164  7529.374
 165  7670.681
 166  7654.263
 167  7310.623
 168  7457.901
 169  6801.029
 170  7100.83
 171  7090.029
 172  6710.872
 173  6729.619
 174  6710.013
 175  6501.347
 176  6165.836
 177  6639.34
 178  6974.726
 179  6938.68
 180  6858.435
 181  7109.288
 182  6835.723
 183  6667.688
 184  6849.449
 185  6808.294
 186  6943.769
 187  7326.123
 188  7303.051
 189  6980.976
 190  6753.062
 191  6770.084
 192  6928.276
 193  6878.35
 194  7259.74
 195  6981.297
 196  7444.378
 197  8081.999
 198  7748.451
 199  7320.142
 200  7629.694
 201  7896.867
 202  7835.076
 203  7614.434
 204  7781.798
 205  7727.319
 206  7598.681
 207  7894.198
 208  7353.209
 209  7511.346
 210  7359.398
 211  7672.3
 212  7897.114
 213  7913.462
 214  8281.188
 215  9166.562
 216  9347.946
 217  9268.44
 218  9364.252
 219  9377.844
 220  9398.776
 221  9433.441
 222  8773.494
 223  8393.613
 224  8279.337
 225  8758.39
 226  8513.981
 227  8041.941
 228  7297.013
 229  7899.211
 230  8122.508
 231  8160.464
 232  8203.984
 233  7919.222
 234  8075.222
 235  8395.916
 236  8372.256
 237  8359.356
 238  8129.531
 239  8236.705
 240  8417.679
 241  8028.147
 242  7878.958
 243  7388.717
 244  7501.527
 245  8488.284
 246  8359.729
 247  8575.167
 248  8377.047
 249  8323.186
 250  8722.606
 251  8708.875
 252  8841.523
 253  9250.664
 254  8915.87
 255  9257.656
 256  9292.059
 257  8798.672
 258  8765.294
 259  9230.926
 260  8771.037
 261  8517.256
 262  8183.536
 263  8116.43
 264  8573.631
 265  8500.401
 266  8591.531
 267  8626.239
 268  8797.254
 269  8781.151
 270  8145.588
 271  8029.424
 272  8171.25
 273  8322.112
 274  8302.534
 275  7916.604
 276  8302.099
 277  8711.578
 278  9018.489
 279  8378.053
 280  8632.349
 281  8450.079
 282  8489.436
 283  8706.199
 284  8616.769
 285  8918.937
 286  9189.504
 287  9438.046
 288  9242.914
 289  8943.215
 290  9284.021
 291  9100.083
 292  8928.097
 293  8903.867
 294  8231.354
 295  7619.136
 296  7665.961
 297  7902.201
 298  7917.55
 299  7428.459
 300  7387.915
 301  7825.252
 302  7726.719
 303  7440.894
 304  7268.481
 305  7796.913
 306  8026.463
 307  8147.447
 308  8080.596
 309  7913.761
 310  7569.301
 311  7933.677
 312  8141.653
 313  7735.352
 314  7480.504
 315  7311.957
 316  7484.625
 317  7527.183
 318  7512.547
 319  7892.685
 320  8200.264
 321  8166.162
 322  8389.29
 323  8405.451
 324  9093.354
 325  9646.023
 326  10094.25
 327  10091.93
 328  9043.761
 329  8365.069
 330  7943.662
 331  7595.512
 332  7366.031
 333  7449.507
 334  7489.699
 335  7528.501
 336  8095.952
 337  7602.037
 338  7140.838
 339  6955.6
 340  7297.438
 341  7879.222
 342  7301.111
 343  7517.402
 344  7269.123
 345  6997.884
 346  6970.35
 347  6926.597
 348  7017.426
 349  7355.299
 350  7461.157
 351  7037.812
 352  6462.962
 353  6448.548
 354  6959.47
 355  7534.833
 356  7694.192
 357  7653.806
 358  7471.307
 359  7212.733
 360  7274.236
 361  6845.321
 362  6869.055
 363  7059.686
 364  7076.365
 365  7542.211
 366  7560.854
 367  7107.416
 368  6875.494
 369  7092.926
 370  7161.382
 371  7297.057
 372  7240.68
 373  7416.039
 374  7832.686
 375  7521.618
 376  7214.506
 377  7489.104
 378  7550.818
 379  7696.597
 380  7298.622
 381  7396.393
 382  7013.755
 383  7178.842
 384  7490.92
 385  6631.341
 386  6568.954
 387  6903.111
 388  6798.864
 389  6862.625
 390  6555.269
 391  6710.53
 392  7461.011
 393  7800.316
 394  7737.155
 395  7535.485
 396  7310.673
 397  7535.583
 398  7531.39
 399  7521.247
 400  7702.269
 401  7468.497
 402  7042.699
 403  6735.402
 404  6496.736
 405  7004.944
 406  7203.414
 407  7460.286
 408  7174.764
 409  7083.783
 410  7466.471
 411  7470.161
 412  7747.185
 413  7760.556
 414  7635.575
 415  7800.279
 416  7655.569
 417  7702.95
 418  7640.037
 419  7609.289
 420  7301.214
 421  7250.298
 422  6972.949
 423  6850.966
 424  6719.589
 425  7209.609
 426  7204.625
 427  7590.227
 428  7301.256
 429  7378.415
 430  7709.124
 431  7770.73
 432  7311.064
 433  7265.742
 434  7416.342
 435  7070.34
 436  6876.164
 437  6801.137
 438  6450.527
 439  6688.836
 440  7403.577
 441  7928.762
 442  7750.874
 443  7675.654
 444  7749.309
 445  7717.832
 446  8270.671
 447  8455.616
 448  7846.132
 449  7854.463
 450  8042.187
 451  8231.318
 452  7489.895
 453  7589.513
 454  7732.396
 455  7909.85
 456  8022.02
 457  7932.603
 458  8010.743
 459  7826.232
 460  8120.776
 461  8104.305
 462  7972.406
 463  7881.376
 464  8020.219
 465  7861.199
 466  7432.562
 467  7864.674
 468  8291.29
 469  8441.049
 470  8026.021
 471  7753.9
 472  7792.516
 473  7909.4
 474  8340.877
 475  8200.398
 476  7713.306
 477  7716.317
 478  7943.509
 479  8562.505
 480  8199.74
 481  8153.01
 482  8485.92
 483  7921.563
 484  7790.64
 485  8035.695
 486  7961.012
 487  7843.541
 488  8090.05
 489  8049.786
 490  8064.242
 491  7750.481
 492  7756.513
 493  7792.162
 494  7822.691
 495  7394.111
 496  7333.181
 497  7533.483
 498  7282.773
 499  7100.832
 500  7437.957
 501  7404.275
 502  7063.231
 503  7356.929
 504  7369.669
 505  6945.051
 506  7199.157
 507  7139.43
 508  7377.892
 509  7249.664
 510  7170.671
 511  7586.038
