# Input file       =  1183079651.114455_cleaned.dat
# Candidate        =  PSR_0332+5434
# Telescope        =  AR
# Epoch_topo       =  57937.051737435824
# Epoch_bary       =  N/A
# T_sample         =  0.002
# Data Folded      =  7405568
# Data Avg         =  0.183402722463449
# Data StdDev      =  5.02969519747206 
# Profile Bins     =  1024
# Profile Avg      =  1326.38458415201 
# Profile StdDev   =  427.731146741913 
# Reduced chi-sqr  =  0.758
# Prob(Noise)      <  1   (~0.0 sigma)
# P_topo (ms)      =  714.487584299222  +/- 3.35e-05
# P'_topo (s/s)    =  -0                +/- 1.75e-11
# P''_topo (s/s^2) =  0                 +/- 7.68e-15
# P_bary (ms)      =  N/A
# P'_bary (s/s)    =  N/A
# P''_bary (s/s^2) =  N/A
# P_orb (s)        =  N/A
# asin(i)/c (s)    =  N/A
# eccentricity     =  N/A
# w (rad)          =  N/A
# T_peri           =  N/A
######################################################
   0  1542.196
   1  1433.4
   2  1279.36
   3  1078.622
   4  1104.524
   5  1144.601
   6  1304.333
   7  1346.74
   8  1391.051
   9  1201.779
  10  1127.681
  11  1120.037
  12  1361.316
  13  1665.379
  14  1740.435
  15  1570.053
  16  1463.217
  17  1372
  18  1361.849
  19  1297.413
  20  1271.096
  21  1196.514
  22  1176.269
  23  1213.956
  24  1167.271
  25  1280.272
  26  1319.435
  27  1403.395
  28  1330.419
  29  1349.681
  30  1470.41
  31  1521.618
  32  1462.748
  33  1392.472
  34  1359.832
  35  1504.938
  36  1519.088
  37  1437.584
  38  1180.051
  39  1035.607
  40  1065.295
  41  1186.906
  42  1250.605
  43  1340.892
  44  1464.26
  45  1564.651
  46  1619.711
  47  1623.799
  48  1637.896
  49  1519.636
  50  1546.066
  51  1424.173
  52  1157.068
  53  881.2726
  54  838.3873
  55  944.6849
  56  990.5735
  57  1094.333
  58  1309.462
  59  1362.601
  60  1320.054
  61  1239.734
  62  1414.804
  63  1619.82
  64  1747.435
  65  1719.52
  66  1555.314
  67  1217.867
  68  950.3191
  69  914.2197
  70  878.0126
  71  866.6867
  72  914.3137
  73  1131.876
  74  1163.605
  75  1200.736
  76  1259.882
  77  1360.229
  78  1536.914
  79  1624.039
  80  1649.85
  81  1552.1
  82  1435.253
  83  1379.406
  84  1192.992
  85  1012.31
  86  809.4345
  87  853.8483
  88  1033.861
  89  983.8016
  90  927.3481
  91  906.2119
  92  1080.22
  93  1106.416
  94  1177.351
  95  1326.623
  96  1443.177
  97  1511.978
  98  1508.989
  99  1378.342
 100  1194.492
 101  1075.025
 102  1113.794
 103  1073.027
 104  1005.99
 105  895.9619
 106  941.5062
 107  1014.932
 108  1052.476
 109  1071.94
 110  1174.707
 111  1251.941
 112  1377.154
 113  1495.575
 114  1627.062
 115  1653.715
 116  1617.56
 117  1432.927
 118  1269.629
 119  1211.112
 120  1318.318
 121  1315.773
 122  1358.629
 123  1273.236
 124  1312.463
 125  1235.384
 126  1194.558
 127  1084.348
 128  1201.511
 129  1367.743
 130  1396.106
 131  1358.275
 132  1390.307
 133  1404.554
 134  1349.131
 135  1232.311
 136  1221.885
 137  1248.411
 138  1205.758
 139  1225.959
 140  1139.801
 141  1179.092
 142  1164.377
 143  1262.347
 144  1344.509
 145  1454.774
 146  1680.625
 147  1665.972
 148  1628.491
 149  1520.881
 150  1417.104
 151  1212.088
 152  1089.569
 153  1114.798
 154  1132.255
 155  1142.305
 156  1124.757
 157  1215.28
 158  1281.388
 159  1444.11
 160  1467.685
 161  1468.684
 162  1491.992
 163  1487.488
 164  1464.062
 165  1321.168
 166  1328.059
 167  1480.578
 168  1549.572
 169  1538.396
 170  1359.919
 171  1278.865
 172  1224.223
 173  1273.122
 174  1344.879
 175  1464.853
 176  1412.798
 177  1368.511
 178  1367.05
 179  1411.949
 180  1426.095
 181  1457.026
 182  1423.291
 183  1509.553
 184  1423.433
 185  1556.988
 186  1404.479
 187  1443.797
 188  1225.668
 189  1175.052
 190  1114.321
 191  1209.787
 192  1258.699
 193  1411.189
 194  1450.612
 195  1402.255
 196  1309.507
 197  1386.675
 198  1479.631
 199  1323.863
 200  1140.062
 201  1121.427
 202  1291.682
 203  1229.414
 204  1138.731
 205  993.5523
 206  1125.024
 207  1251.307
 208  1425.016
 209  1499.905
 210  1407.86
 211  1406.039
 212  1448.699
 213  1615.318
 214  1605.78
 215  1431.68
 216  1334.411
 217  1321.86
 218  1297.706
 219  1183.186
 220  1001.542
 221  916.5724
 222  958.1038
 223  988.1707
 224  1125.735
 225  1291.989
 226  1477.669
 227  1576.899
 228  1570.524
 229  1509.96
 230  1579.682
 231  1569.522
 232  1536.016
 233  1284.645
 234  1221.029
 235  1187.753
 236  1124.465
 237  973.0474
 238  895.3274
 239  1038.353
 240  1242.965
 241  1278.877
 242  1320.162
 243  1484.356
 244  1487.114
 245  1576.063
 246  1591.655
 247  1621.211
 248  1438.979
 249  1306.148
 250  1268.611
 251  1207.278
 252  1044.171
 253  1011.522
 254  999.1823
 255  1059.621
 256  1054.221
 257  1102.514
 258  1130.063
 259  1220.057
 260  1313.68
 261  1364.132
 262  1428.449
 263  1443.533
 264  1462.643
 265  1439.411
 266  1433.832
 267  1293.757
 268  1172.331
 269  1058.111
 270  1154.445
 271  1062.479
 272  1277.974
 273  1393.714
 274  1468.519
 275  1305.954
 276  1253.983
 277  1341.051
 278  1374.83
 279  1426.554
 280  1387.259
 281  1370.177
 282  1250.245
 283  1207.972
 284  1280.186
 285  1276.104
 286  1214.778
 287  1167.643
 288  1125.625
 289  1065.085
 290  1190.143
 291  1313.086
 292  1401.733
 293  1404.471
 294  1579.141
 295  1685.283
 296  1628.81
 297  1491.477
 298  1450.018
 299  1459.588
 300  1327.146
 301  1231.564
 302  1219.287
 303  1351.092
 304  1267.354
 305  1213.424
 306  1202.746
 307  1331.581
 308  1409.655
 309  1486.063
 310  1617.904
 311  1705.158
 312  1692.309
 313  1853.677
 314  1846.932
 315  1872.993
 316  1425.133
 317  1251.263
 318  1149.522
 319  1075.304
 320  1121.024
 321  1146.819
 322  1489.756
 323  1461.453
 324  1367.257
 325  1202.162
 326  1249.469
 327  1337.398
 328  1363.467
 329  1347.382
 330  1321.564
 331  1396.229
 332  1411.732
 333  1313.988
 334  1314.83
 335  1441.477
 336  1428.337
 337  1431.685
 338  1308.365
 339  1318.507
 340  1089.226
 341  1066.011
 342  1159.495
 343  1330.211
 344  1336.719
 345  1271.286
 346  1256.607
 347  1159.575
 348  1117.847
 349  1166.905
 350  1308.898
 351  1324.064
 352  1315.273
 353  1336.628
 354  1400.936
 355  1459.442
 356  1468.301
 357  1502.508
 358  1512.172
 359  1654.298
 360  1838.948
 361  1716.737
 362  1549.042
 363  1200.001
 364  1305.797
 365  1248.141
 366  1352.316
 367  1205.153
 368  1186.245
 369  1317.065
 370  1332.762
 371  1302.415
 372  1115.578
 373  1101.497
 374  1274.814
 375  1470.322
 376  1617.019
 377  1562.984
 378  1621.922
 379  1563.267
 380  1484.771
 381  1375.596
 382  1460.896
 383  1377.365
 384  1201.148
 385  1166.505
 386  1196.271
 387  1148.092
 388  1028.775
 389  1095.921
 390  1180.365
 391  1247.812
 392  1540.369
 393  1777.364
 394  1711.596
 395  1478.009
 396  1423.482
 397  1442.021
 398  1409.612
 399  1362.35
 400  1264.173
 401  1222.641
 402  1182.438
 403  1264.193
 404  1273.576
 405  1375.451
 406  1473.697
 407  1525.69
 408  1364.841
 409  1387.821
 410  1567.855
 411  1718.001
 412  1680.478
 413  1492.664
 414  1402.006
 415  1172.404
 416  1077.046
 417  1083.777
 418  1213.7
 419  1162.301
 420  1232.422
 421  1282.799
 422  1358.893
 423  1324.847
 424  1467.424
 425  1541.724
 426  1506.345
 427  1261.052
 428  1314.791
 429  1381.188
 430  1390.128
 431  1293.521
 432  1289.176
 433  1328.647
 434  1410.559
 435  1347.341
 436  1364.564
 437  1184.477
 438  1236.505
 439  1450.94
 440  1546.3
 441  1423.95
 442  1423.64
 443  1620.833
 444  1730.007
 445  1572.893
 446  1419.473
 447  1350.321
 448  1206.296
 449  1043.104
 450  1013.925
 451  1091.486
 452  1102.543
 453  1057.869
 454  1234.57
 455  1262.319
 456  1292.389
 457  1340.98
 458  1516.159
 459  1548.861
 460  1537.328
 461  1615.223
 462  1496.959
 463  1337.662
 464  1253.166
 465  1336.524
 466  1258.156
 467  1069.349
 468  938.2995
 469  1066.948
 470  1146.397
 471  1124.642
 472  1186.387
 473  1294.686
 474  1409.725
 475  1472.197
 476  1643.175
 477  1691.726
 478  1584.032
 479  1459.549
 480  1398.932
 481  1296.896
 482  1155.037
 483  1226.715
 484  1372.931
 485  1442.88
 486  1342.066
 487  1250.009
 488  1187.995
 489  1161.428
 490  1235.294
 491  1416.652
 492  1486.986
 493  1413.86
 494  1371.31
 495  1455.852
 496  1501.906
 497  1255.522
 498  1211.964
 499  1172.921
 500  1232.823
 501  1148.875
 502  1148.66
 503  1198.969
 504  1218.084
 505  1275.968
 506  1341.847
 507  1323.69
 508  1349.377
 509  1355.259
 510  1357.775
 511  1233.287
 512  1249.837
 513  1289.15
 514  1250.982
 515  1031.469
 516  1106.298
 517  1111.054
 518  995.1932
 519  988.5671
 520  1038.821
 521  1078.105
 522  1085.036
 523  1311.218
 524  1423.107
 525  1470.739
 526  1514.454
 527  1486.435
 528  1372.546
 529  1235.651
 530  1304.445
 531  1308.28
 532  1331.494
 533  1233.042
 534  1367.056
 535  1375.337
 536  1327.481
 537  1358.477
 538  1406.632
 539  1294.736
 540  1188.066
 541  1266.907
 542  1443.209
 543  1492.776
 544  1513.406
 545  1498.132
 546  1471.262
 547  1441.909
 548  1509.313
 549  1404.472
 550  1311.039
 551  1211.746
 552  1220.293
 553  1237.599
 554  1259.103
 555  1320.819
 556  1349.369
 557  1410.5
 558  1466.519
 559  1494.99
 560  1459.695
 561  1529.924
 562  1522.483
 563  1513.557
 564  1246.272
 565  1242.388
 566  1271.39
 567  1458.558
 568  1250.104
 569  1148.845
 570  1094.834
 571  1167.915
 572  1369.703
 573  1546.797
 574  1677.531
 575  1635.739
 576  1605.547
 577  1481.455
 578  1310.248
 579  1186.246
 580  1294.05
 581  1230.222
 582  1145.174
 583  969.2567
 584  1069.216
 585  1111.51
 586  1141.072
 587  1203.28
 588  1249.196
 589  1365.469
 590  1454.753
 591  1638.968
 592  1767.3
 593  1735.41
 594  1701.881
 595  1646.295
 596  1602.441
 597  1408.659
 598  1252.147
 599  1180.289
 600  1218.712
 601  1148.679
 602  1108.278
 603  1192.101
 604  1380.886
 605  1455.63
 606  1500.053
 607  1558.122
 608  1727.558
 609  1755.933
 610  1711.232
 611  1560.474
 612  1435.194
 613  1401.019
 614  1342.61
 615  1310.39
 616  1280.985
 617  1307.142
 618  1360.451
 619  1406.845
 620  1292.501
 621  1192.874
 622  1166.231
 623  1381.462
 624  1492.288
 625  1558.89
 626  1494.688
 627  1437.924
 628  1420.632
 629  1498.787
 630  1418.054
 631  1368.553
 632  1314.72
 633  1384.75
 634  1286.049
 635  1192.672
 636  1271.452
 637  1413.815
 638  1516.78
 639  1406.231
 640  1523.293
 641  1428.636
 642  1564.491
 643  1516.587
 644  1623.297
 645  1486.731
 646  1447.484
 647  1603.789
 648  1620.521
 649  1815.904
 650  2022.726
 651  2210.029
 652  2140.701
 653  2128.951
 654  2237.359
 655  2289.715
 656  2260.147
 657  2258.8
 658  2057.412
 659  1932.346
 660  1928.637
 661  1912.08
 662  1701.011
 663  1316.771
 664  1219.812
 665  1112.269
 666  1153.063
 667  1141.418
 668  1263.295
 669  1430.25
 670  1322.612
 671  1326.373
 672  1263.744
 673  1449.715
 674  1476.55
 675  1537.724
 676  1469.446
 677  1465.368
 678  1434.858
 679  1338.336
 680  1152.414
 681  978.5131
 682  1033.824
 683  1219.574
 684  1347.605
 685  1306.36
 686  1286.646
 687  1347.289
 688  1432.78
 689  1353.315
 690  1298.004
 691  1219.773
 692  1221.473
 693  1192.714
 694  1286.61
 695  1328.289
 696  1405.234
 697  1277.202
 698  1270.077
 699  1292.547
 700  1441.948
 701  1475.955
 702  1475.931
 703  1415.352
 704  1340.138
 705  1303.064
 706  1403.135
 707  1631.979
 708  1582.778
 709  1514.798
 710  1415.082
 711  1369.965
 712  1137.121
 713  981.1957
 714  946.9785
 715  1153.427
 716  1247.459
 717  1185.719
 718  1093.163
 719  1218.441
 720  1367.545
 721  1518.487
 722  1520.259
 723  1575.516
 724  1436.063
 725  1411.434
 726  1330.27
 727  1362.018
 728  1401.913
 729  1396.803
 730  1310.259
 731  1197.179
 732  1046.498
 733  1045.383
 734  1088.896
 735  1064.712
 736  1014.724
 737  1070.63
 738  1268.701
 739  1562.114
 740  1602.817
 741  1738.04
 742  1737.69
 743  1826.999
 744  1603.13
 745  1346.004
 746  1331.826
 747  1396.426
 748  1429.338
 749  1295.971
 750  1130.384
 751  1087.102
 752  1162.41
 753  1215.771
 754  1313.642
 755  1317.851
 756  1524.293
 757  1587.604
 758  1651.345
 759  1554.062
 760  1543.826
 761  1480.93
 762  1374.75
 763  1164.469
 764  1169.156
 765  1115.325
 766  1235.736
 767  1131.206
 768  1146.723
 769  1113.306
 770  1298.375
 771  1472.914
 772  1492.03
 773  1535.74
 774  1636.607
 775  1601.25
 776  1384.245
 777  1256.216
 778  1274.941
 779  1327.387
 780  1330.436
 781  1390.681
 782  1268.411
 783  1163.433
 784  1191.981
 785  1236.536
 786  1263.344
 787  1322.952
 788  1402.601
 789  1389.867
 790  1308.664
 791  1352.878
 792  1378.871
 793  1249.443
 794  1242.252
 795  1244.46
 796  1231.602
 797  1064.781
 798  1033.254
 799  1072.791
 800  1064.917
 801  1111.074
 802  1323.278
 803  1365.184
 804  1243.41
 805  1136.143
 806  1263.438
 807  1387.931
 808  1368.377
 809  1244.188
 810  1238.15
 811  1134.24
 812  1046.306
 813  892.5643
 814  1012.189
 815  1013.372
 816  1068.476
 817  1115.175
 818  1140.794
 819  1033.544
 820  1148.926
 821  1366.849
 822  1453.105
 823  1437.035
 824  1365.413
 825  1505.594
 826  1518.266
 827  1480.706
 828  1378.925
 829  1407.158
 830  1362.352
 831  1255.449
 832  1155.639
 833  1145.689
 834  1143.725
 835  1125.91
 836  1112.807
 837  1117.957
 838  1235.033
 839  1410.648
 840  1449.486
 841  1335.77
 842  1104.608
 843  1089.734
 844  1233.241
 845  1294.053
 846  1320.788
 847  1211.334
 848  1261.455
 849  1194.198
 850  1163.689
 851  1144.622
 852  1200.002
 853  1247.9
 854  1204.079
 855  1293.656
 856  1354.01
 857  1446.596
 858  1391.796
 859  1269.406
 860  1104.528
 861  1064.553
 862  1193.42
 863  1280.214
 864  1309.634
 865  1261.931
 866  1298.054
 867  1252.177
 868  1209.046
 869  1214.331
 870  1337.445
 871  1426.408
 872  1466.496
 873  1431.291
 874  1419.619
 875  1321.279
 876  1347.37
 877  1394.546
 878  1227.43
 879  1048.987
 880  887.4217
 881  1096.629
 882  1199.872
 883  1306.236
 884  1309.873
 885  1353.81
 886  1370.245
 887  1461.263
 888  1542.024
 889  1660.299
 890  1575.662
 891  1503.136
 892  1392.999
 893  1340.324
 894  1272.762
 895  1243.542
 896  1205.465
 897  1207.627
 898  1078.533
 899  1011.229
 900  1064.236
 901  1189.099
 902  1244.078
 903  1322.339
 904  1503.374
 905  1583.129
 906  1651.285
 907  1749.637
 908  1820.79
 909  1629.848
 910  1409.03
 911  1337.534
 912  1299.399
 913  1205.534
 914  1017.621
 915  885.8977
 916  922.9522
 917  989.9799
 918  1255.048
 919  1393.7
 920  1589.729
 921  1623.734
 922  1708.705
 923  1488.727
 924  1390.137
 925  1255.042
 926  1427.464
 927  1399.181
 928  1292.854
 929  1184.744
 930  1048.571
 931  939.8863
 932  723.8285
 933  864.0615
 934  958.0173
 935  1240.573
 936  1343.818
 937  1534.196
 938  1552.403
 939  1628.953
 940  1581.652
 941  1533.73
 942  1342.568
 943  1259.479
 944  1077.905
 945  956.1006
 946  820.4755
 947  918.1057
 948  1008.511
 949  1112.097
 950  1062.684
 951  1181.457
 952  1322.534
 953  1457.45
 954  1537.291
 955  1543.489
 956  1580.917
 957  1415.499
 958  1384.145
 959  1214.794
 960  1154.969
 961  982.5236
 962  1050.726
 963  1046.31
 964  1013.598
 965  956.5338
 966  1028.394
 967  1136.703
 968  1209.544
 969  1278.537
 970  1447.835
 971  1474.514
 972  1571.104
 973  1587.938
 974  1632.736
 975  1359.634
 976  1289.672
 977  1139.055
 978  1251.902
 979  1159.761
 980  1032.141
 981  911.438
 982  899.7442
 983  1044.991
 984  1163.016
 985  1335.084
 986  1450.313
 987  1459.471
 988  1460.976
 989  1557.546
 990  1499.934
 991  1519.11
 992  1407.157
 993  1418.749
 994  1331.452
 995  1323.123
 996  1350.402
 997  1297.195
 998  1259.139
 999  1300.224
1000  1282.266
1001  1274.075
1002  1178.062
1003  1224.577
1004  1265.384
1005  1330.621
1006  1338.874
1007  1374.766
1008  1212.892
1009  1181.357
1010  1225.415
1011  1215.6
1012  1131.83
1013  1138.568
1014  1273.486
1015  1197.588
1016  1156.231
1017  1095.95
1018  1096.226
1019  1052.858
1020  1142.025
1021  1191.223
1022  1326.436
1023  1399.467
