# Input file       =  1183338248.11959_cleaned.dat
# Candidate        =  PSR_0332+5434
# Telescope        =  AR
# Epoch_topo       =  57940.044758328586
# Epoch_bary       =  N/A
# T_sample         =  0.002
# Data Folded      =  7340032
# Data Avg         =  0.107718575813383
# Data StdDev      =  4.17436690497748 
# Profile Bins     =  512
# Profile Avg      =  1544.26556014208 
# Profile StdDev   =  499.809624483637 
# Reduced chi-sqr  =  0.768
# Prob(Noise)      <  1   (~0.0 sigma)
# P_topo (ms)      =  714.485273777034  +/- 0.000118
# P'_topo (s/s)    =  -0                +/- 6.23e-11
# P''_topo (s/s^2) =  0                 +/- 2.75e-14
# P_bary (ms)      =  N/A
# P'_bary (s/s)    =  N/A
# P''_bary (s/s^2) =  N/A
# P_orb (s)        =  N/A
# asin(i)/c (s)    =  N/A
# eccentricity     =  N/A
# w (rad)          =  N/A
# T_peri           =  N/A
######################################################
   0  2112.937
   1  2205.047
   2  1565.671
   3  1423.298
   4  1612.15
   5  1593.651
   6  1084.483
   7  1137.763
   8  1161.343
   9  1023.11
  10  1658.37
  11  1953.081
  12  1258.111
  13  1169.521
  14  1051.978
  15  1292.379
  16  1379.871
  17  1343.198
  18  1900.245
  19  2046.225
  20  1737.076
  21  1668.835
  22  1885.356
  23  1880.947
  24  1436.629
  25  1615.459
  26  1778.347
  27  1636.037
  28  1433.577
  29  1790.396
  30  1721.491
  31  1903.821
  32  1541.015
  33  1508.672
  34  1347.118
  35  1621.262
  36  1838.468
  37  1484.297
  38  1415.33
  39  1344.97
  40  1302.327
  41  946.2505
  42  1019.784
  43  1220.606
  44  1268.846
  45  1228.073
  46  805.9284
  47  1282.058
  48  1459.102
  49  1837.215
  50  1501.822
  51  1360.916
  52  1442.542
  53  1796.901
  54  1615.373
  55  1715.298
  56  1697.84
  57  1372.365
  58  1405.487
  59  1444.34
  60  1431.875
  61  1040.771
  62  1079.777
  63  1387.924
  64  1928.76
  65  1835.902
  66  1732.993
  67  1499.107
  68  1394.704
  69  1150.17
  70  1404.159
  71  1370.824
  72  1472.701
  73  1579.563
  74  1804.209
  75  1577.901
  76  1690.174
  77  1514.688
  78  1091.51
  79  1131.567
  80  1570.718
  81  1587.581
  82  1298.023
  83  1445.452
  84  1482.998
  85  1583.329
  86  1476.992
  87  1453.939
  88  1656.693
  89  1489.049
  90  1581.749
  91  1431.187
  92  1201.955
  93  1101.638
  94  1317.858
  95  1268.642
  96  1338.627
  97  1658.695
  98  1634.124
  99  1583.988
 100  1764.173
 101  1475.996
 102  1468.147
 103  1461.437
 104  1187.188
 105  1102.744
 106  1088.649
 107  1802.706
 108  1568.642
 109  1766.732
 110  1676.435
 111  1685.477
 112  1264.679
 113  713.6129
 114  934.3755
 115  830.4028
 116  1449.241
 117  1857.228
 118  1799.586
 119  1298.737
 120  1428.81
 121  1373.111
 122  1333.244
 123  1525.828
 124  1302.743
 125  1606.503
 126  1335.408
 127  1437.624
 128  1370.86
 129  1806.708
 130  1688.204
 131  1303.057
 132  1471.098
 133  1359.903
 134  1216.745
 135  1247.042
 136  1283.789
 137  1670.024
 138  1710.048
 139  1964.36
 140  2163.807
 141  1840.941
 142  1442.663
 143  1464.635
 144  1364.578
 145  1406.737
 146  1430.003
 147  1751.057
 148  2088.936
 149  1738.581
 150  1490.84
 151  1620.905
 152  1584.33
 153  1272.154
 154  1104.948
 155  1560.242
 156  1782.163
 157  1438.025
 158  1580.631
 159  1820.727
 160  1362.282
 161  927.0471
 162  1197.071
 163  1364.29
 164  1345.809
 165  1225.91
 166  1737.724
 167  1747.736
 168  1056.923
 169  952.9316
 170  1611.825
 171  1547.619
 172  1443.162
 173  1472.938
 174  1518.207
 175  1362.969
 176  1497.895
 177  1239.188
 178  1069.632
 179  1377.721
 180  1797.694
 181  1794.885
 182  1581.475
 183  1643.619
 184  1495.193
 185  1310.953
 186  804.2324
 187  956.4241
 188  1372.286
 189  1183.584
 190  1458.565
 191  1614.572
 192  1594.82
 193  1365.346
 194  1298.139
 195  900.2743
 196  912.3114
 197  1284.83
 198  1400.294
 199  1624.512
 200  1987.382
 201  1978.684
 202  1973.002
 203  1670.276
 204  1601.623
 205  1589.427
 206  1607.343
 207  1851.532
 208  1588.143
 209  1361.007
 210  1273.336
 211  1693.297
 212  1694.819
 213  1609.798
 214  1856.243
 215  1757.1
 216  1605.493
 217  1426.993
 218  1661.608
 219  1716.626
 220  1731.141
 221  1618.662
 222  1898.035
 223  1884.438
 224  1900.172
 225  1708.474
 226  1642.205
 227  1787.425
 228  1622.694
 229  1978.291
 230  1796.755
 231  1733.485
 232  1753.101
 233  1728.352
 234  1405.046
 235  1178.811
 236  1318.313
 237  1643.186
 238  1983.162
 239  1714.251
 240  1492.635
 241  1428.042
 242  1174.323
 243  1382.383
 244  1769.616
 245  1801.977
 246  1893.943
 247  2033.357
 248  1818.437
 249  1615.631
 250  1681.624
 251  1517.147
 252  1368.376
 253  1227.644
 254  1579.007
 255  1554.823
 256  1561.318
 257  1607.616
 258  1536.733
 259  1523.952
 260  1316.619
 261  1168.361
 262  1000.203
 263  1260.49
 264  1314.073
 265  1504.542
 266  1542.54
 267  1656.159
 268  1441.704
 269  1433.128
 270  1356.265
 271  1251.647
 272  1351.859
 273  1567.329
 274  1682.093
 275  1867.583
 276  2035.414
 277  1836.32
 278  1173.069
 279  1045.858
 280  1530.332
 281  1750.37
 282  2278.894
 283  2044.88
 284  2085.896
 285  1547.351
 286  1553.536
 287  2065.455
 288  1935.484
 289  2005.036
 290  2124.848
 291  2255.385
 292  1737.344
 293  1410.031
 294  1470.082
 295  1552.021
 296  1562.909
 297  1410.73
 298  1551.24
 299  1563.983
 300  1933.825
 301  1758.011
 302  2101.211
 303  1987.013
 304  1556.53
 305  1412.13
 306  1368.467
 307  1554.213
 308  1205.08
 309  1464.828
 310  1749.424
 311  1471.765
 312  1519.073
 313  1413.923
 314  1696.05
 315  1829.523
 316  2226.926
 317  2237.197
 318  2163.146
 319  2586.425
 320  2986.365
 321  3470.582
 322  3491.629
 323  3051.331
 324  2261.883
 325  1380.605
 326  903.3175
 327  1070.806
 328  1034.172
 329  976.5688
 330  1233.144
 331  1556.019
 332  1707.61
 333  1523.134
 334  1485.366
 335  1781.425
 336  1666.567
 337  1322.218
 338  1515.167
 339  1863.053
 340  1738.365
 341  1441.656
 342  1258.002
 343  1403.118
 344  1441.64
 345  1203.799
 346  1204.055
 347  1466.588
 348  1420.766
 349  1613.92
 350  1388.052
 351  1467.818
 352  1582.091
 353  1289.685
 354  1334.263
 355  1560.595
 356  1738.101
 357  1803.124
 358  1465.528
 359  1308.912
 360  1116.684
 361  1360.664
 362  1465.932
 363  1519.818
 364  1819.448
 365  2217.632
 366  2059.729
 367  1594.757
 368  1316.321
 369  1422.913
 370  1806.865
 371  1791.698
 372  1658.625
 373  1622.448
 374  1801.252
 375  1391.575
 376  1456.507
 377  1549.383
 378  1476.658
 379  1490.671
 380  1449.252
 381  1564.84
 382  1276.357
 383  1697.236
 384  1526.43
 385  1510.81
 386  1379.186
 387  1408.453
 388  1544.405
 389  1177.727
 390  1549.05
 391  1484.811
 392  1341.979
 393  1248.591
 394  1304.063
 395  1543.857
 396  1725.27
 397  1583.331
 398  2084.657
 399  1930.671
 400  1708.052
 401  1530.387
 402  1586.63
 403  1369.713
 404  1309.442
 405  1723.781
 406  1963.339
 407  1710.823
 408  1357.404
 409  1299.464
 410  977.3521
 411  1208.924
 412  1448.993
 413  1747.984
 414  1559.42
 415  1786.227
 416  1888.98
 417  1596.48
 418  1791.939
 419  1772.166
 420  1697.737
 421  1602.252
 422  1943.561
 423  1905.78
 424  1160.138
 425  1282.78
 426  1334.521
 427  1716.137
 428  1757.824
 429  1727.386
 430  1894.933
 431  1731.012
 432  1582.262
 433  1274.593
 434  1737.951
 435  1665.88
 436  1711.4
 437  1653.548
 438  1771.384
 439  2032.98
 440  2042.415
 441  2191.749
 442  1444.338
 443  1333.521
 444  1424.021
 445  1283.04
 446  1333.356
 447  1833.517
 448  2116.468
 449  2008.538
 450  1660.52
 451  1354.504
 452  1452.105
 453  1512.617
 454  1521.114
 455  1431.229
 456  1571.847
 457  1700.924
 458  1722.111
 459  1871.74
 460  1578.712
 461  1438.229
 462  1555.076
 463  1745.319
 464  1851.25
 465  1764.988
 466  1507.897
 467  1602.383
 468  1578.822
 469  1563.623
 470  1693.655
 471  1674.074
 472  1339.149
 473  1217.826
 474  1295.637
 475  1171.868
 476  1404.214
 477  1068.145
 478  1009.489
 479  990.8229
 480  1343.36
 481  1579.705
 482  1455.742
 483  1414.64
 484  1319.525
 485  1330.516
 486  1231.088
 487  1123.002
 488  960.5232
 489  1176.053
 490  1500.96
 491  1354.205
 492  951.9852
 493  1254.583
 494  1528.349
 495  1599.174
 496  1607.639
 497  1576.064
 498  1684.858
 499  1626.986
 500  1421.013
 501  1761.863
 502  1616.252
 503  1722.428
 504  1595.124
 505  1695.311
 506  1336.964
 507  1086.892
 508  1354.979
 509  1402.431
 510  1387.684
 511  1427.697
