# Input file       =  1183109348.111727_cleaned.dat
# Candidate        =  PSR_0332+5434
# Telescope        =  AR
# Epoch_topo       =  57937.395452682023
# Epoch_bary       =  N/A
# T_sample         =  0.002
# Data Folded      =  7340032
# Data Avg         =  0.061126764934703
# Data StdDev      =  1.0000523201409  
# Profile Bins     =  512
# Profile Avg      =  876.36712214188  
# Profile StdDev   =  119.739300826099 
# Reduced chi-sqr  =  0.886
# Prob(Noise)      <  0.969   (~0.0 sigma)
# P_topo (ms)      =  714.487671185239  +/- 0.000375
# P'_topo (s/s)    =  -0                +/- 1.98e-10
# P''_topo (s/s^2) =  0                 +/- 8.73e-14
# P_bary (ms)      =  N/A
# P'_bary (s/s)    =  N/A
# P''_bary (s/s^2) =  N/A
# P_orb (s)        =  N/A
# asin(i)/c (s)    =  N/A
# eccentricity     =  N/A
# w (rad)          =  N/A
# T_peri           =  N/A
######################################################
   0  845.9027
   1  802.7634
   2  846.1115
   3  900.2954
   4  871.3736
   5  861.2812
   6  882.6521
   7  938.9885
   8  1020.123
   9  1008.379
  10  907.4167
  11  883.0282
  12  923.5435
  13  979.7929
  14  988.6746
  15  979.079
  16  899.4629
  17  984.8489
  18  993.0525
  19  930.6979
  20  935.4238
  21  872.926
  22  894.9477
  23  1063.304
  24  988.7682
  25  877.0873
  26  887.7274
  27  999.921
  28  1035.7
  29  849.4657
  30  905.3605
  31  854.8458
  32  852.4286
  33  884.7783
  34  993.2564
  35  858.6433
  36  809.1747
  37  781.639
  38  720.5924
  39  847.8429
  40  752.8934
  41  764.9763
  42  884.9384
  43  864.6591
  44  780.0643
  45  738.1844
  46  861.316
  47  917.1324
  48  953.1681
  49  970.2463
  50  890.9052
  51  888.2536
  52  875.9537
  53  839.3281
  54  914.4786
  55  1000.224
  56  1042.512
  57  907.7764
  58  882.1661
  59  925.9931
  60  869.2291
  61  930.7391
  62  851.002
  63  819.8608
  64  916.2532
  65  930.5308
  66  997.2273
  67  942.7722
  68  867.14
  69  924.2217
  70  1054.49
  71  895.5334
  72  890.8594
  73  919.4162
  74  958.2599
  75  1019.554
  76  954.8143
  77  926.6439
  78  911.7961
  79  838.7685
  80  818.6574
  81  763.025
  82  811.3846
  83  856.8481
  84  908.9418
  85  892.4512
  86  865.4514
  87  852.1832
  88  815.8718
  89  796.1876
  90  771.5743
  91  885.0005
  92  908.7907
  93  877.416
  94  866.8005
  95  951.2078
  96  968.6916
  97  875.0165
  98  967.0168
  99  919.8287
 100  938.4407
 101  915.8607
 102  827.7381
 103  816.701
 104  919.8308
 105  945.5017
 106  875.5153
 107  848.3539
 108  877.3362
 109  935.1995
 110  847.4156
 111  807.9037
 112  789.5525
 113  854.942
 114  943.8959
 115  869.5943
 116  819.7552
 117  880.8481
 118  805.3436
 119  766.9922
 120  817.4018
 121  794.2697
 122  770.4634
 123  911.6586
 124  899.2476
 125  800.4286
 126  833.2349
 127  904.6274
 128  919.5092
 129  813.9146
 130  737.5438
 131  884.879
 132  927.8863
 133  949.2318
 134  918.4085
 135  846.7554
 136  952.4151
 137  929.8174
 138  910.3727
 139  809.9828
 140  825.6443
 141  933.5039
 142  982.3371
 143  940.5344
 144  980.8047
 145  960.4712
 146  907.4995
 147  919.4891
 148  929.9269
 149  886.427
 150  826.7653
 151  833.2672
 152  878.7382
 153  787.619
 154  834.9056
 155  901.9621
 156  877.4956
 157  853.5892
 158  900.7812
 159  859.4888
 160  934.8693
 161  822.4283
 162  840.5709
 163  850.1154
 164  779.5904
 165  789.3565
 166  771.8623
 167  773.038
 168  834.2225
 169  916.2922
 170  923.648
 171  829.9594
 172  752.0645
 173  823.0706
 174  812.8041
 175  834.8129
 176  888.142
 177  893.1281
 178  787.6254
 179  749.0182
 180  847.9594
 181  871.7376
 182  920.1649
 183  900.6519
 184  859.5365
 185  919.9841
 186  884.0688
 187  795.6359
 188  810.9991
 189  743.5491
 190  788.9847
 191  753.9312
 192  738.7689
 193  781.3378
 194  747.4261
 195  737.039
 196  695.7655
 197  726.3021
 198  712.313
 199  691.4551
 200  803.1774
 201  791.7025
 202  709.3823
 203  735.6785
 204  762.1185
 205  795.9316
 206  852.5701
 207  810.4779
 208  761.6539
 209  813.954
 210  825.2674
 211  762.0433
 212  783.5988
 213  842.3677
 214  803.5908
 215  819.8014
 216  811.202
 217  844.3952
 218  932.4419
 219  968.8439
 220  916.3209
 221  879.3779
 222  839.5063
 223  933.6966
 224  949.4409
 225  893.738
 226  845.5857
 227  887.7254
 228  921.9088
 229  888.9963
 230  824.9934
 231  842.4271
 232  904.8116
 233  845.4716
 234  824.8931
 235  834.2796
 236  853.504
 237  874.2457
 238  885.6753
 239  891.7119
 240  883.4908
 241  829.5743
 242  839.0325
 243  864.8899
 244  744.2764
 245  743.1813
 246  852.2904
 247  891.7
 248  884.5121
 249  816.7241
 250  842.341
 251  910.1113
 252  907.8787
 253  929.5292
 254  847.4573
 255  755.5982
 256  875.9108
 257  946.6783
 258  985.3209
 259  983.1248
 260  941.3178
 261  940.2813
 262  1014.623
 263  1081.189
 264  1166.81
 265  1247.221
 266  1261.031
 267  1341.022
 268  1270.553
 269  1098.472
 270  998.8469
 271  908.604
 272  908.646
 273  968.1552
 274  927.0355
 275  892.8531
 276  849.7059
 277  900.923
 278  862.8353
 279  955.1303
 280  963.1472
 281  920.2665
 282  874.5628
 283  890.8715
 284  871.0806
 285  935.5891
 286  847.0814
 287  754.0804
 288  772.2373
 289  789.4103
 290  828.9934
 291  778.1404
 292  801.9816
 293  765.4498
 294  773.4828
 295  758.8151
 296  720.8672
 297  801.4163
 298  861.6826
 299  842.1404
 300  861.7994
 301  873.2797
 302  867.3807
 303  900.8201
 304  901.3752
 305  875.0938
 306  877.0822
 307  950.6182
 308  856.4151
 309  847.0919
 310  925.8151
 311  943.7519
 312  915.2567
 313  947.6828
 314  909.7409
 315  900.6199
 316  807.7032
 317  816.3898
 318  922.8498
 319  924.766
 320  900.5494
 321  809.6018
 322  647.2522
 323  791.5624
 324  826.1155
 325  881.554
 326  852.8716
 327  826.4823
 328  848.9726
 329  825.3892
 330  749.1311
 331  905.3867
 332  1001.497
 333  884.9757
 334  764.2217
 335  814.5533
 336  811.341
 337  840.043
 338  859.373
 339  956.6934
 340  993.5952
 341  892.4095
 342  918.3751
 343  915.0825
 344  864.1713
 345  896.1395
 346  874.9658
 347  893.8049
 348  871.8756
 349  854.2684
 350  909.0118
 351  884.0765
 352  912.291
 353  908.2277
 354  969.4071
 355  880.9884
 356  838.0251
 357  883.7703
 358  950.1544
 359  902.9213
 360  939.3328
 361  950.0109
 362  884.6285
 363  956.335
 364  929.8252
 365  946.4603
 366  856.6761
 367  853.5723
 368  886.3583
 369  906.4009
 370  880.0726
 371  881.0898
 372  834.4904
 373  762.51
 374  797.9924
 375  913.5386
 376  900.5129
 377  825.6744
 378  823.7454
 379  841.5215
 380  808.8342
 381  801.7582
 382  874.3222
 383  920.4277
 384  870.2382
 385  893.79
 386  846.1696
 387  829.6608
 388  873.369
 389  800.9995
 390  770.9223
 391  792.5584
 392  815.8265
 393  788.105
 394  833.5057
 395  854.3656
 396  772.4095
 397  891.5295
 398  876.6746
 399  894.4551
 400  885.3323
 401  870.0099
 402  987.9719
 403  947.403
 404  837.9914
 405  843.6466
 406  838.9604
 407  862.2384
 408  789.8591
 409  754.0513
 410  766.2832
 411  782.4768
 412  825.9941
 413  787.2418
 414  729.5
 415  897.2107
 416  968.0309
 417  923.4045
 418  928.1572
 419  891.7422
 420  810.9661
 421  777.6258
 422  792.8039
 423  720.371
 424  764.711
 425  795.9717
 426  750.3689
 427  827.6954
 428  825.0542
 429  887.6585
 430  888.3912
 431  775.8165
 432  745.192
 433  888.2037
 434  891.3586
 435  822.1925
 436  916.4648
 437  948.5154
 438  994.181
 439  914.1931
 440  906.1735
 441  897.6606
 442  860.7731
 443  971.4039
 444  977.8493
 445  929.4697
 446  1056.824
 447  1034.085
 448  972.7556
 449  1095.283
 450  1006.593
 451  953.4601
 452  935.9482
 453  970.1859
 454  975.4479
 455  952.8417
 456  906.6006
 457  975.8217
 458  1050.434
 459  1024.034
 460  877.3651
 461  1016.489
 462  912.1121
 463  852.6259
 464  837.7129
 465  897.7762
 466  850.2566
 467  816.4571
 468  809.7142
 469  828.1576
 470  812.7808
 471  819.2974
 472  757.3409
 473  792.0627
 474  807.4669
 475  833.0887
 476  878.6084
 477  907.4606
 478  876.801
 479  871.473
 480  940.9634
 481  932.5323
 482  824.2851
 483  900.988
 484  891.1904
 485  882.6686
 486  964.1089
 487  1044.41
 488  988.2537
 489  873.1389
 490  897.2905
 491  923.9512
 492  905.1145
 493  877.3915
 494  864.0824
 495  886.5023
 496  932.0444
 497  956.2829
 498  968.7501
 499  874.4923
 500  831.1547
 501  855.2627
 502  843.9197
 503  856.4957
 504  910.6112
 505  896.7455
 506  906.0391
 507  829.2091
 508  816.5062
 509  763.3851
 510  705.499
 511  804.5714
