# Input file       =  1183712136.10114_cleaned.dat
# Candidate        =  PSR_0332+5434
# Telescope        =  AR
# Epoch_topo       =  57944.372165522451
# Epoch_bary       =  N/A
# T_sample         =  0.002
# Data Folded      =  7340032
# Data Avg         =  0.503411148833817
# Data StdDev      =  7.78593533091802 
# Profile Bins     =  512
# Profile Avg      =  7216.68634644464 
# Profile StdDev   =  932.233678203956 
# Reduced chi-sqr  =  0.795
# Prob(Noise)      <  1   (~0.0 sigma)
# P_topo (ms)      =  714.482443051815  +/- 0.000213
# P'_topo (s/s)    =  -0                +/- 1.12e-10
# P''_topo (s/s^2) =  0                 +/- 4.96e-14
# P_bary (ms)      =  N/A
# P'_bary (s/s)    =  N/A
# P''_bary (s/s^2) =  N/A
# P_orb (s)        =  N/A
# asin(i)/c (s)    =  N/A
# eccentricity     =  N/A
# w (rad)          =  N/A
# T_peri           =  N/A
######################################################
   0  7447.023
   1  7795.634
   2  7507.425
   3  7298.988
   4  7094.042
   5  7198.348
   6  7121.24
   7  7281.823
   8  7106.836
   9  6689.292
  10  6700.482
  11  6742.106
  12  6189.738
  13  5941.175
  14  5808.42
  15  6031.034
  16  6322.188
  17  6249.438
  18  6424.131
  19  6796.891
  20  6770.428
  21  6913.784
  22  6767.375
  23  6973.274
  24  7380.64
  25  7211.993
  26  7076.101
  27  7296.982
  28  7556.461
  29  7430.276
  30  6639.491
  31  6668.032
  32  6389.55
  33  6594.588
  34  7118.035
  35  7378.372
  36  7328.77
  37  7153.358
  38  7165.678
  39  7638.681
  40  7395.082
  41  7341.3
  42  7270.942
  43  7014.203
  44  7028.792
  45  6909.634
  46  6948.2
  47  7039.741
  48  7015.998
  49  6945.078
  50  6827.872
  51  6777.129
  52  7067.297
  53  6935.901
  54  7214.588
  55  7430.192
  56  7200.991
  57  7397.449
  58  7688.728
  59  7562.368
  60  6800.852
  61  6790.11
  62  7152.956
  63  7273.91
  64  7236.985
  65  7048.607
  66  6806.674
  67  6872.612
  68  7080.002
  69  6873.065
  70  6914.455
  71  7196.846
  72  7262.12
  73  7406.632
  74  7525.062
  75  7829.26
  76  7900.865
  77  7670.264
  78  7428.074
  79  6842.654
  80  6726.113
  81  7020.05
  82  7210.562
  83  6430.551
  84  6338.491
  85  6414.273
  86  6775.466
  87  6877.432
  88  6855.535
  89  6845.262
  90  6885.706
  91  7076.761
  92  7017.936
  93  6404.536
  94  6640.5
  95  7093.797
  96  7641.018
  97  7827.272
  98  7453.533
  99  6974.274
 100  6792.817
 101  6691.266
 102  6431.057
 103  6458.833
 104  6779.205
 105  6937.935
 106  7486.273
 107  7457.01
 108  7552.871
 109  7448.399
 110  7421.129
 111  7546.02
 112  7488.054
 113  7663.572
 114  7693.705
 115  7615.007
 116  8078.333
 117  7858.898
 118  7355.948
 119  7555.136
 120  7992.871
 121  7962.246
 122  7351.534
 123  7729.189
 124  7665.746
 125  7856.094
 126  7838.08
 127  8064.219
 128  8313.471
 129  8289.283
 130  8470.381
 131  8379.77
 132  8473.355
 133  8118.752
 134  8068.328
 135  7934.142
 136  7838.82
 137  7542.978
 138  7499.633
 139  7463.125
 140  7351.851
 141  7066.177
 142  6848.714
 143  7059.029
 144  7725.116
 145  8106.287
 146  7717.106
 147  7168.442
 148  6961.553
 149  7192.653
 150  7345.232
 151  7252.846
 152  7388.748
 153  7419.549
 154  7270.943
 155  6897.606
 156  7003.045
 157  7021.59
 158  6965.767
 159  6936.134
 160  6551.146
 161  6504.238
 162  7194.763
 163  7652.605
 164  7250.782
 165  7114.672
 166  7403.713
 167  7415.861
 168  7638.855
 169  7314.216
 170  7295.58
 171  6904.163
 172  7344.539
 173  7607.78
 174  7250.714
 175  6906.412
 176  6891.02
 177  7356.672
 178  7436.277
 179  7682.327
 180  7461.713
 181  7595.628
 182  7537.284
 183  7375.581
 184  7352.85
 185  7356.97
 186  7092.102
 187  6858.851
 188  6652.417
 189  6760.041
 190  6749.383
 191  6515.5
 192  6437.536
 193  6455.22
 194  6315.743
 195  5983.084
 196  6760.13
 197  6953.336
 198  7064.913
 199  7114.157
 200  6920.834
 201  7193.305
 202  7393.675
 203  7898.939
 204  7746.953
 205  7676.205
 206  7565.082
 207  7280.024
 208  7064.114
 209  6796.917
 210  6794.968
 211  7076.682
 212  7677.276
 213  7802.595
 214  7680.567
 215  7959.608
 216  7740.69
 217  7766.223
 218  7514.274
 219  7394.773
 220  7736.387
 221  7699.147
 222  7104.276
 223  6968.087
 224  7055.32
 225  7392.57
 226  7263.435
 227  7191.73
 228  7156.191
 229  7187.838
 230  7302.572
 231  7177.776
 232  7240.513
 233  7309.143
 234  7479.811
 235  8029.393
 236  7960.564
 237  7819.548
 238  7748.75
 239  8066.3
 240  7870.323
 241  8144.427
 242  7919.764
 243  7551.267
 244  7151.124
 245  7192.402
 246  7263.449
 247  6983.702
 248  7178.497
 249  7122.139
 250  6938.745
 251  7354.943
 252  7427.625
 253  7612.407
 254  7657.481
 255  7824.916
 256  7994.539
 257  7705.575
 258  7560.477
 259  7632.954
 260  7769.058
 261  7331.801
 262  7423.754
 263  7843.801
 264  7659.572
 265  6914.988
 266  6723.848
 267  7160.243
 268  7085.709
 269  7362.741
 270  7073.267
 271  7092.556
 272  7276.014
 273  6845.325
 274  6736.673
 275  6671.281
 276  6710.975
 277  7298.686
 278  7750.905
 279  7368.387
 280  7310.39
 281  7273.904
 282  7244.35
 283  7181.675
 284  7317.775
 285  7201.538
 286  7043.983
 287  7225.336
 288  7640.078
 289  7549.511
 290  7459.261
 291  7805.853
 292  7792.882
 293  7924.235
 294  7973.294
 295  7892.585
 296  7758.792
 297  7883.444
 298  8202.563
 299  8306.233
 300  7956.691
 301  8135.702
 302  8432.783
 303  8261.932
 304  8587.414
 305  8617.058
 306  8519.027
 307  9013.777
 308  8447.569
 309  7824.232
 310  7791.352
 311  7886.706
 312  7803.115
 313  7584.148
 314  7721.55
 315  7465.601
 316  7971.909
 317  7341.594
 318  7247.562
 319  7735.408
 320  8458.095
 321  8573.324
 322  8566.89
 323  9030.245
 324  9408.723
 325  9870.351
 326  9886.86
 327  9776.959
 328  9444.181
 329  8715.587
 330  8178.8
 331  7814.391
 332  7724.615
 333  7576.355
 334  7674.632
 335  7505.637
 336  7228.365
 337  7109.465
 338  7537.2
 339  7408.141
 340  7555.458
 341  7858.076
 342  7581.307
 343  7339.4
 344  7483.913
 345  6861.215
 346  6640.593
 347  6667.503
 348  6364.262
 349  6427.798
 350  6750.41
 351  6457.551
 352  6036.605
 353  6047.692
 354  6611.602
 355  6571.023
 356  6457.64
 357  6216.398
 358  6956.274
 359  7191.858
 360  7376.362
 361  7002.49
 362  6575.777
 363  6426.827
 364  6596.558
 365  7052.535
 366  6656.569
 367  6497.116
 368  6557.671
 369  6375.604
 370  6325.055
 371  6711.473
 372  6931.264
 373  7459.239
 374  7192.534
 375  7162.292
 376  7235.759
 377  7254.156
 378  7644.527
 379  7839.878
 380  7584.967
 381  7099.667
 382  6796.013
 383  6796.365
 384  6749.945
 385  6608.322
 386  6482.731
 387  6147.344
 388  6415.557
 389  6729.638
 390  6583.545
 391  6568.181
 392  6625.502
 393  6777.464
 394  6715.153
 395  6604.607
 396  6962.927
 397  6907.441
 398  6750.864
 399  6964.422
 400  6674.971
 401  6448.314
 402  6283.555
 403  6442.607
 404  6300.114
 405  6477.051
 406  6360.855
 407  6521.666
 408  5714.496
 409  5717.002
 410  5973.063
 411  6504.638
 412  6523.869
 413  6514.662
 414  6212.156
 415  6133.33
 416  5941.112
 417  5983.787
 418  5842.281
 419  5760.783
 420  5927.706
 421  6150.557
 422  5951.436
 423  6355.863
 424  6543.725
 425  6691.039
 426  7040.738
 427  7154.335
 428  6794.089
 429  7131.435
 430  7342.455
 431  7401.434
 432  7168.439
 433  7044.253
 434  7307.497
 435  7117.521
 436  6718.205
 437  6487.756
 438  6680.803
 439  7167.561
 440  6964.694
 441  6983.508
 442  7091.626
 443  7262.373
 444  7185.286
 445  7239.585
 446  7414.348
 447  7697.988
 448  7566.469
 449  7462.448
 450  7424.693
 451  6937.841
 452  7014.112
 453  7388.769
 454  7796.319
 455  7584.747
 456  7476.333
 457  7255.605
 458  6695.478
 459  7325.847
 460  7056.988
 461  6648.753
 462  6730.984
 463  7228.28
 464  7578.503
 465  7268.614
 466  7025.428
 467  7063.873
 468  6798.278
 469  7223.564
 470  7106.912
 471  6915.832
 472  6900.276
 473  7101.887
 474  7357.741
 475  7356.942
 476  7361.161
 477  7172.855
 478  7609.834
 479  7974.075
 480  7570.164
 481  7506.454
 482  7422.116
 483  7542.71
 484  7849.6
 485  7904.975
 486  7610.229
 487  7262.126
 488  6978.67
 489  7132.913
 490  6767.511
 491  6425.562
 492  6701.989
 493  6662.999
 494  6431.579
 495  6439.085
 496  6441.601
 497  6538.745
 498  6467.83
 499  6812.226
 500  6713.187
 501  7238.062
 502  7871.291
 503  8008.612
 504  7357.057
 505  7501.188
 506  7493.395
 507  7281.214
 508  6884.455
 509  6872.422
 510  7162.681
 511  7071.478
