# Input file       =  1183195541.119305_cleaned.dat
# Candidate        =  PSR_0332+5434
# Telescope        =  AR
# Epoch_topo       =  57938.393056936402
# Epoch_bary       =  N/A
# T_sample         =  0.002
# Data Folded      =  7340032
# Data Avg         =  0.276642446925897
# Data StdDev      =  6.55828718214449 
# Profile Bins     =  256
# Profile Avg      =  7931.96710213037 
# Profile StdDev   =  1110.5022022718  
# Reduced chi-sqr  =  1.207
# Prob(Noise)      <  0.0131   (~2.2 sigma)
# P_topo (ms)      =  714.486895520917  +/- 0.000404
# P'_topo (s/s)    =  -0                +/- 2.13e-10
# P''_topo (s/s^2) =  0                 +/- 9.42e-14
# P_bary (ms)      =  N/A
# P'_bary (s/s)    =  N/A
# P''_bary (s/s^2) =  N/A
# P_orb (s)        =  N/A
# asin(i)/c (s)    =  N/A
# eccentricity     =  N/A
# w (rad)          =  N/A
# T_peri           =  N/A
######################################################
   0  7064.896
   1  7329.565
   2  7562.797
   3  8573.556
   4  7677.272
   5  6770.346
   6  7216.564
   7  6779.631
   8  7396.979
   9  6524.55
  10  6848.492
  11  6335.311
  12  6358.6
  13  7171.878
  14  7034.886
  15  7395.083
  16  7310.892
  17  7172.849
  18  7267.997
  19  6590.696
  20  6987.475
  21  6937.949
  22  7291.608
  23  6862.796
  24  6953.698
  25  7523.123
  26  6703.552
  27  6347.359
  28  5962.339
  29  6689.054
  30  7487.364
  31  7121.953
  32  7516.761
  33  7389.749
  34  8064.438
  35  6903.565
  36  6328.271
  37  7088.639
  38  7027.4
  39  7499.373
  40  7265.838
  41  7332.49
  42  7603.033
  43  7972.698
  44  7688.54
  45  6396.503
  46  6967.473
  47  6692.045
  48  7054.877
  49  6835.513
  50  5961.232
  51  8065.475
  52  7696.04
  53  7030.274
  54  6976.516
  55  7865.659
  56  8480.388
  57  7456.231
  58  8245.889
  59  8274.786
  60  9071.386
  61  9308.028
  62  8981.423
  63  7946.555
  64  7528.811
  65  7368.138
  66  7828.837
  67  6585.02
  68  7055.755
  69  7322.856
  70  7489.78
  71  7598.558
  72  7432.96
  73  8855.604
  74  8340.632
  75  9115.618
  76  8225.284
  77  8708.722
  78  8203.49
  79  8221.559
  80  8377.529
  81  8197.742
  82  8976.45
  83  7824.835
  84  8296.729
  85  8112.326
  86  8046.258
  87  8325.379
  88  8336.172
  89  6886.058
  90  6692.329
  91  6803.521
  92  7293.206
  93  7015.983
  94  7233.135
  95  7223.724
  96  7711.667
  97  7856.116
  98  6945.787
  99  7873.24
 100  7314.166
 101  8333.142
 102  8177.659
 103  8218.948
 104  8118.152
 105  8372.131
 106  8714.015
 107  8277.44
 108  8203.38
 109  7748.871
 110  7450.852
 111  6744.6
 112  6449.154
 113  6342.556
 114  5194.118
 115  5979.241
 116  6130.577
 117  6117.531
 118  6274.972
 119  7323.351
 120  7314.348
 121  8226.605
 122  7939.865
 123  9075.362
 124  7926.729
 125  8399.069
 126  8286.232
 127  7626.182
 128  8284.003
 129  7256.752
 130  7943.542
 131  7737.675
 132  7682.229
 133  7096.581
 134  6224.457
 135  6955.829
 136  6833.566
 137  6556.127
 138  6523.488
 139  7817.534
 140  7253.04
 141  5752.919
 142  6686.053
 143  7133.03
 144  7525.746
 145  7740.105
 146  7318.938
 147  7217.208
 148  7571.964
 149  8617.371
 150  7775.054
 151  7396.897
 152  7085.601
 153  7072.49
 154  8443.533
 155  7272.594
 156  7172.692
 157  7285.175
 158  7343.592
 159  9159.652
 160  8921.413
 161  9360.258
 162  10632.59
 163  11487.28
 164  12080.96
 165  10539.59
 166  9557.027
 167  8264.68
 168  9356.902
 169  9632.272
 170  9112.636
 171  8241.25
 172  9538.515
 173  9486.522
 174  8347.198
 175  8921.493
 176  9724.674
 177  9248.155
 178  8649.129
 179  8092.306
 180  8647.083
 181  8091.484
 182  8169.726
 183  9423.591
 184  8986.599
 185  9073.679
 186  9247.572
 187  9132.287
 188  9167.341
 189  8955.504
 190  9567.396
 191  9653.109
 192  9328.945
 193  8685.329
 194  8832.71
 195  8352.741
 196  7905.571
 197  8474.168
 198  8402.268
 199  8295.874
 200  8467.089
 201  9052.12
 202  9353.188
 203  8708.949
 204  8613.292
 205  8388.048
 206  8118.317
 207  8815.563
 208  9606.182
 209  9981.713
 210  9234.745
 211  9741.386
 212  10261.31
 213  9339.152
 214  9366.24
 215  8111.469
 216  9138.651
 217  9496.191
 218  8259.199
 219  8579.61
 220  8512.329
 221  9050.062
 222  8206.443
 223  8530.2
 224  7988.292
 225  7999.06
 226  9324.494
 227  8827.44
 228  8879.291
 229  9069.733
 230  9941.79
 231  9153.607
 232  9168.473
 233  9849.647
 234  9920.349
 235  9500.176
 236  8969.221
 237  7574.712
 238  7224.932
 239  7106.591
 240  7109.24
 241  6761.414
 242  7073.307
 243  7493.361
 244  6611.807
 245  6834.794
 246  6413.979
 247  7263.353
 248  7740.244
 249  7228.539
 250  7719.248
 251  7555.778
 252  7771.24
 253  7697.333
 254  8400.779
 255  7729.39
