# Input file       =  1183798301.101795_cleaned.dat
# Candidate        =  PSR_0332+5434
# Telescope        =  AR
# Epoch_topo       =  57945.369445622629
# Epoch_bary       =  N/A
# T_sample         =  0.002
# Data Folded      =  7340032
# Data Avg         =  0.0447575133802038
# Data StdDev      =  1.00004390249246 
# Profile Bins     =  512
# Profile Avg      =  641.593649493879 
# Profile StdDev   =  119.738292955492 
# Reduced chi-sqr  =  0.841
# Prob(Noise)      <  0.996   (~0.0 sigma)
# P_topo (ms)      =  714.481737552671  +/- 5.43e-05
# P'_topo (s/s)    =  -0                +/- 2.86e-11
# P''_topo (s/s^2) =  0                 +/- 1.26e-14
# P_bary (ms)      =  N/A
# P'_bary (s/s)    =  N/A
# P''_bary (s/s^2) =  N/A
# P_orb (s)        =  N/A
# asin(i)/c (s)    =  N/A
# eccentricity     =  N/A
# w (rad)          =  N/A
# T_peri           =  N/A
######################################################
   0  671.6526
   1  688.6826
   2  645.6467
   3  631.7109
   4  721.4808
   5  602.7359
   6  603.0267
   7  532.5519
   8  581.5316
   9  740.2999
  10  654.3307
  11  559.1526
  12  525.0246
  13  606.2814
  14  682.2919
  15  639.2974
  16  652.3608
  17  732.755
  18  738.5101
  19  644.4362
  20  590.7887
  21  580.8761
  22  689.76
  23  731.2111
  24  705.2317
  25  711.902
  26  656.2119
  27  608.8957
  28  688.0004
  29  720.3811
  30  558.3921
  31  588.928
  32  629.967
  33  647.2154
  34  591.5891
  35  534.0594
  36  540.2148
  37  578.6607
  38  695.3902
  39  582.4426
  40  527.6929
  41  516.103
  42  601.7698
  43  674.441
  44  711.2971
  45  658.108
  46  592.9328
  47  673.7556
  48  539.937
  49  437.9261
  50  503.3258
  51  628.1873
  52  743.8209
  53  697.2485
  54  611.75
  55  638.7803
  56  690.1093
  57  633.9133
  58  754.497
  59  796.1953
  60  693.8649
  61  625.507
  62  646.2839
  63  625.8699
  64  731.4025
  65  687.0983
  66  759.1498
  67  750.6104
  68  717.3206
  69  620.964
  70  571.6894
  71  702.2203
  72  644.3944
  73  602.0107
  74  640.667
  75  602.9879
  76  686.4909
  77  728.8571
  78  763.8785
  79  758.4664
  80  714.2349
  81  655.4496
  82  586.563
  83  605.067
  84  670.9297
  85  744.6431
  86  687.9482
  87  585.2812
  88  610.3019
  89  721.9741
  90  719.4753
  91  727.2924
  92  619.4249
  93  572.6724
  94  661.9996
  95  719.1901
  96  815.8434
  97  744.4211
  98  633.6196
  99  608.348
 100  569.2345
 101  622.5003
 102  670.2936
 103  687.8525
 104  791.7233
 105  803.8785
 106  705.9967
 107  712.6985
 108  707.8373
 109  706.8595
 110  808.4661
 111  773.1935
 112  685.411
 113  644.405
 114  671.9592
 115  668.9174
 116  577.913
 117  682.4379
 118  694.6959
 119  568.1541
 120  564.021
 121  574.744
 122  576.8725
 123  592.342
 124  730.6489
 125  689.0115
 126  550.7371
 127  514.1094
 128  641.2946
 129  659.7152
 130  658.3566
 131  568.5078
 132  580.9061
 133  617.8463
 134  621.3132
 135  602.3502
 136  649.304
 137  619.2244
 138  645.5872
 139  667.2603
 140  580.9821
 141  547.8898
 142  617.5568
 143  642.7783
 144  590.0908
 145  589.3362
 146  621.2901
 147  645.1758
 148  659.5901
 149  679.3317
 150  670.3873
 151  681.0468
 152  732.717
 153  739.0575
 154  669.2198
 155  737.5161
 156  614.0658
 157  643.8547
 158  666.8602
 159  649.7287
 160  729.6105
 161  729.6684
 162  702.7724
 163  649.1689
 164  602.1832
 165  582.6343
 166  519.2573
 167  591.5518
 168  570.131
 169  633.0179
 170  633.341
 171  625.0743
 172  661.7436
 173  610.7521
 174  545.1644
 175  555.4531
 176  578.7287
 177  600.139
 178  587.0477
 179  582.8939
 180  589.9453
 181  716.0201
 182  782.123
 183  708.4256
 184  636.0981
 185  676.9592
 186  605.7255
 187  681.1089
 188  732.1088
 189  678.0089
 190  634.4515
 191  584.8639
 192  593.2719
 193  598.5655
 194  667.6334
 195  663.2528
 196  694.076
 197  695.722
 198  735.5732
 199  647.4603
 200  777.4307
 201  813.7609
 202  664.7971
 203  638.2289
 204  669.4947
 205  619.7828
 206  700.4775
 207  642.3751
 208  581.1245
 209  599.4135
 210  625.2798
 211  608.408
 212  436.6942
 213  453.0577
 214  545.9916
 215  554.662
 216  472.0673
 217  494.3904
 218  396.9936
 219  507.7469
 220  687.3929
 221  663.8685
 222  559.9653
 223  557.2044
 224  643.6516
 225  720.1559
 226  592.4471
 227  536.7883
 228  546.701
 229  575.9741
 230  604.3963
 231  634.1508
 232  677.291
 233  564.5565
 234  605.0981
 235  632.4632
 236  582.7555
 237  576.3113
 238  636.4036
 239  723.7167
 240  651.993
 241  470.078
 242  514.364
 243  657.727
 244  679.5599
 245  630.163
 246  601.6065
 247  649.1182
 248  672.7889
 249  670.4924
 250  687.2468
 251  721.8566
 252  641.3086
 253  551.4513
 254  577.5103
 255  562.2392
 256  682.2256
 257  647.3406
 258  689.9838
 259  654.6264
 260  638.0959
 261  601.7121
 262  568.209
 263  637.9977
 264  603.6909
 265  501.3335
 266  496.8201
 267  642.5369
 268  724.4842
 269  725.8837
 270  715.7336
 271  644.5662
 272  702.9442
 273  803.1279
 274  754.7579
 275  699.4615
 276  612.2444
 277  670.4427
 278  669.4679
 279  664.9349
 280  653.4785
 281  732.8179
 282  574.0883
 283  642.1964
 284  613.2796
 285  535.2753
 286  492.6274
 287  572.881
 288  656.4364
 289  602.2167
 290  666.8461
 291  567.6273
 292  581.6143
 293  521.0569
 294  559.6813
 295  613.488
 296  633.412
 297  725.616
 298  491.0685
 299  480.4052
 300  627.9218
 301  604.4479
 302  611.593
 303  668.5879
 304  598.2654
 305  624.1045
 306  663.1769
 307  623.1163
 308  656.2951
 309  533.977
 310  574.8559
 311  677.7385
 312  637.4571
 313  657.2838
 314  668.6693
 315  639.683
 316  642.6754
 317  534.9044
 318  544.7743
 319  577.6926
 320  686.8553
 321  753.0821
 322  666.3884
 323  610.0494
 324  612.6442
 325  663.8638
 326  660.2468
 327  631.9627
 328  679.4601
 329  668.0395
 330  657.3071
 331  595.5385
 332  581.7653
 333  739.6685
 334  670.7661
 335  683.2507
 336  648.4901
 337  605.4935
 338  621.2921
 339  671.4509
 340  677.3555
 341  613.0005
 342  524.2095
 343  636.6968
 344  662.1183
 345  720.4489
 346  664.057
 347  578.0279
 348  628.9457
 349  543.6106
 350  613.4626
 351  565.6418
 352  609.9561
 353  710.7313
 354  708.6393
 355  690.5818
 356  759.5959
 357  719.0853
 358  609.8911
 359  619.8657
 360  648.2797
 361  581.279
 362  702.2206
 363  733.9957
 364  750.2888
 365  717.915
 366  469.4813
 367  584.0236
 368  609.7618
 369  561.7095
 370  644.0658
 371  710.1725
 372  685.3341
 373  673.7237
 374  584.1731
 375  614.2253
 376  625.0641
 377  738.8788
 378  676.8521
 379  611.3884
 380  657.3685
 381  740.7318
 382  621.2061
 383  592.165
 384  568.3588
 385  589.7048
 386  519.1507
 387  573.4955
 388  670.3356
 389  677.062
 390  563.3308
 391  598.5905
 392  677.6361
 393  601.0949
 394  452.1687
 395  460.2569
 396  630.3591
 397  639.4567
 398  562.3742
 399  559.5562
 400  685.2938
 401  673.6188
 402  637.1535
 403  591.9811
 404  564.7034
 405  663.0812
 406  702.722
 407  705.996
 408  680.0418
 409  676.6619
 410  650.7662
 411  682.6924
 412  674.3556
 413  619.9254
 414  716.051
 415  761.1646
 416  701.2651
 417  560.3695
 418  509.328
 419  652.394
 420  688.9535
 421  788.2103
 422  759.4958
 423  696.9716
 424  535.5608
 425  581.9398
 426  588.3939
 427  746.8181
 428  710.8262
 429  729.8273
 430  850.9589
 431  1006.297
 432  1033.2
 433  983.592
 434  1053.559
 435  1027.773
 436  753.0977
 437  612.5317
 438  684.0981
 439  704.1287
 440  624.6435
 441  702.2128
 442  673.2963
 443  654.3562
 444  749.3474
 445  819.8998
 446  699.4068
 447  590.744
 448  633.4774
 449  718.4023
 450  730.8889
 451  670.0402
 452  625.6735
 453  604.6487
 454  684.0483
 455  686.3511
 456  639.7369
 457  585.4734
 458  563.6378
 459  601.5716
 460  624.3918
 461  560.0401
 462  579.8585
 463  671.3243
 464  634.7672
 465  626.5146
 466  652.8682
 467  555.4634
 468  575.6857
 469  660.343
 470  561.7783
 471  555.8155
 472  529.0616
 473  586.3793
 474  668.1229
 475  654.4181
 476  641.5097
 477  499.4149
 478  545.3484
 479  608.6345
 480  624.4991
 481  562.6029
 482  509.0613
 483  585.0358
 484  538.8375
 485  652.3719
 486  660.2329
 487  683.2453
 488  663.7924
 489  478.002
 490  498.7322
 491  671.6523
 492  692.2886
 493  638.4135
 494  652.326
 495  668.67
 496  689.2022
 497  732.4495
 498  699.5152
 499  664.1179
 500  541.5837
 501  607.0814
 502  647.7218
 503  581.1349
 504  667.5173
 505  670.3429
 506  641.1425
 507  657.5226
 508  557.7144
 509  549.3655
 510  627.5825
 511  598.2281
