# Input file       =  1183783393.109526_cleaned.dat
# Candidate        =  PSR_0332+5434
# Telescope        =  AR
# Epoch_topo       =  57945.196899415809
# Epoch_bary       =  N/A
# T_sample         =  0.002
# Data Folded      =  7340032
# Data Avg         =  0.211322131257995
# Data StdDev      =  4.12899607977234 
# Profile Bins     =  1024
# Profile Avg      =  1513.01229798379 
# Profile StdDev   =  349.577497326023 
# Reduced chi-sqr  =  0.707
# Prob(Noise)      <  1   (~0.0 sigma)
# P_topo (ms)      =  714.481525307999  +/- 0.000371
# P'_topo (s/s)    =  -0                +/- 1.96e-10
# P''_topo (s/s^2) =  0                 +/- 8.63e-14
# P_bary (ms)      =  N/A
# P'_bary (s/s)    =  N/A
# P''_bary (s/s^2) =  N/A
# P_orb (s)        =  N/A
# asin(i)/c (s)    =  N/A
# eccentricity     =  N/A
# w (rad)          =  N/A
# T_peri           =  N/A
######################################################
   0  1516.445
   1  1374.637
   2  1213.443
   3  1192.052
   4  1221.774
   5  1412.195
   6  1453.551
   7  1490.452
   8  1397.476
   9  1396.939
  10  1381.8
  11  1419.759
  12  1481.473
  13  1478.62
  14  1447.404
  15  1292.761
  16  1222.45
  17  1355.829
  18  1464.286
  19  1480.594
  20  1421.608
  21  1402.922
  22  1360.811
  23  1311.556
  24  1336.452
  25  1387.018
  26  1356.245
  27  1380.93
  28  1470.127
  29  1414.351
  30  1364.593
  31  1373.864
  32  1397.995
  33  1508.682
  34  1552.585
  35  1742.195
  36  1696.571
  37  1570.385
  38  1514.242
  39  1504.546
  40  1511.962
  41  1451.022
  42  1539.711
  43  1638.152
  44  1551.581
  45  1521.818
  46  1499.423
  47  1467.576
  48  1511.364
  49  1495.671
  50  1564.923
  51  1522.924
  52  1566.144
  53  1538.779
  54  1556.428
  55  1560.679
  56  1599.444
  57  1595.582
  58  1601.253
  59  1489.522
  60  1604.167
  61  1764.856
  62  1852.589
  63  1785.431
  64  1767.533
  65  1811.657
  66  1737.437
  67  1657.409
  68  1691.021
  69  1718.903
  70  1673.939
  71  1564.43
  72  1514.053
  73  1568.527
  74  1562.07
  75  1524.522
  76  1582.699
  77  1607.158
  78  1581.628
  79  1491.357
  80  1471.815
  81  1407.964
  82  1366.234
  83  1434.179
  84  1537.043
  85  1544.201
  86  1461.428
  87  1395.91
  88  1361.728
  89  1489.5
  90  1563.106
  91  1626.589
  92  1611.137
  93  1669.515
  94  1701.114
  95  1677.163
  96  1477.446
  97  1404.499
  98  1426.535
  99  1535.787
 100  1480.385
 101  1516.663
 102  1429.555
 103  1361.816
 104  1237.193
 105  1246.45
 106  1279.897
 107  1376.476
 108  1385.215
 109  1447.494
 110  1424.22
 111  1632.749
 112  1537.018
 113  1567.943
 114  1488.397
 115  1527.145
 116  1560.53
 117  1565.239
 118  1584.43
 119  1563.885
 120  1549.189
 121  1549.646
 122  1423.383
 123  1424.917
 124  1331.307
 125  1351.572
 126  1356.937
 127  1473.059
 128  1573.685
 129  1697.253
 130  1669.141
 131  1643.192
 132  1494.25
 133  1455.919
 134  1391.48
 135  1480.926
 136  1433.279
 137  1477.088
 138  1568.361
 139  1641.903
 140  1621.016
 141  1484.988
 142  1432.154
 143  1426.651
 144  1490.914
 145  1402.297
 146  1378.179
 147  1362.453
 148  1398.495
 149  1432.749
 150  1417.71
 151  1583.219
 152  1631.824
 153  1823.075
 154  1835.51
 155  1813.284
 156  1757.47
 157  1704.576
 158  1700.566
 159  1690.87
 160  1691.842
 161  1716.421
 162  1828.768
 163  1770.903
 164  1678.7
 165  1599.922
 166  1663.167
 167  1709.286
 168  1732.765
 169  1749.714
 170  1717.859
 171  1731.38
 172  1709.706
 173  1692.61
 174  1652.228
 175  1589.307
 176  1525.524
 177  1508.757
 178  1586.062
 179  1640.463
 180  1637.583
 181  1540.812
 182  1503.577
 183  1427.547
 184  1529.469
 185  1634.625
 186  1732.736
 187  1647.405
 188  1610.105
 189  1535.09
 190  1551.653
 191  1510.275
 192  1520.259
 193  1456.895
 194  1491.186
 195  1416.682
 196  1315.608
 197  1306.577
 198  1409.08
 199  1484.59
 200  1472.133
 201  1500.093
 202  1515.248
 203  1602.397
 204  1673.926
 205  1614.101
 206  1455.575
 207  1450.475
 208  1494.816
 209  1523.777
 210  1465.662
 211  1519.165
 212  1553.538
 213  1582.661
 214  1648.413
 215  1707.925
 216  1728.606
 217  1620.337
 218  1517.223
 219  1426.676
 220  1445.658
 221  1483.838
 222  1550.496
 223  1644.852
 224  1694.222
 225  1590.453
 226  1496.328
 227  1537.798
 228  1634.761
 229  1693.351
 230  1723.958
 231  1699.861
 232  1571.514
 233  1510.535
 234  1484.773
 235  1591.804
 236  1612.464
 237  1575.794
 238  1588.847
 239  1697.596
 240  1668.449
 241  1628.532
 242  1599.368
 243  1712.646
 244  1741.434
 245  1810.498
 246  1775.165
 247  1663.406
 248  1502.014
 249  1435.773
 250  1503.337
 251  1499.582
 252  1553.577
 253  1620.256
 254  1677.322
 255  1715.16
 256  1518.875
 257  1411.274
 258  1282.226
 259  1388.859
 260  1494.659
 261  1559.793
 262  1519.288
 263  1475.958
 264  1468.159
 265  1510.541
 266  1534.379
 267  1524.194
 268  1538.697
 269  1490.746
 270  1452.834
 271  1452.102
 272  1378.207
 273  1347.462
 274  1288.99
 275  1287.602
 276  1304.697
 277  1331.294
 278  1359.582
 279  1413.809
 280  1435.337
 281  1353.76
 282  1232.495
 283  1218.782
 284  1280.99
 285  1308.312
 286  1348.008
 287  1448.254
 288  1374.014
 289  1272.727
 290  1191.225
 291  1261.295
 292  1430.3
 293  1561.358
 294  1536.727
 295  1550.498
 296  1597.874
 297  1580.943
 298  1456.642
 299  1417.158
 300  1529.268
 301  1604.515
 302  1575.996
 303  1534.894
 304  1532.605
 305  1516.421
 306  1420.584
 307  1448.258
 308  1599.978
 309  1721.082
 310  1696.494
 311  1644.698
 312  1618.193
 313  1569.286
 314  1533.293
 315  1481.391
 316  1524.635
 317  1473.802
 318  1466.404
 319  1574.147
 320  1660.025
 321  1662.657
 322  1539.513
 323  1512.553
 324  1594.992
 325  1764.226
 326  1826.99
 327  1741.679
 328  1620.546
 329  1601.43
 330  1682.508
 331  1755.783
 332  1743.728
 333  1677.352
 334  1580.144
 335  1591.783
 336  1549.097
 337  1538.545
 338  1417.916
 339  1475.654
 340  1560.174
 341  1667.938
 342  1561.931
 343  1441.118
 344  1417.241
 345  1402.61
 346  1381.185
 347  1382.357
 348  1375.322
 349  1372.399
 350  1412.481
 351  1566.362
 352  1619.052
 353  1536.045
 354  1392.99
 355  1349.528
 356  1370.108
 357  1416.716
 358  1408.719
 359  1379.082
 360  1341.646
 361  1349.699
 362  1452.533
 363  1531.729
 364  1537.739
 365  1430.068
 366  1404.747
 367  1467.078
 368  1522.538
 369  1428.634
 370  1331.727
 371  1226.187
 372  1262.324
 373  1299.45
 374  1326.963
 375  1414.059
 376  1427.355
 377  1353.648
 378  1330.843
 379  1366.871
 380  1390.65
 381  1384.868
 382  1299.545
 383  1421.887
 384  1484.558
 385  1487.103
 386  1265.374
 387  1114.376
 388  1142.43
 389  1220.631
 390  1233.527
 391  1208.612
 392  1166.715
 393  1222.425
 394  1181.317
 395  1291.203
 396  1347.129
 397  1452.623
 398  1397.441
 399  1371.378
 400  1412.387
 401  1427.87
 402  1467.281
 403  1470.345
 404  1310.721
 405  1289.188
 406  1188.373
 407  1286.824
 408  1337.567
 409  1352.325
 410  1253.856
 411  1151.763
 412  1257.073
 413  1405.529
 414  1467.155
 415  1517.31
 416  1536.99
 417  1614.459
 418  1551.942
 419  1487.055
 420  1445.8
 421  1441.832
 422  1393.02
 423  1407.942
 424  1391.527
 425  1403.814
 426  1412.323
 427  1528.445
 428  1514.787
 429  1461.307
 430  1269.522
 431  1181.668
 432  1198.777
 433  1185.276
 434  1266.331
 435  1247.521
 436  1293.867
 437  1249.991
 438  1293.725
 439  1255.825
 440  1365.486
 441  1350.403
 442  1344.862
 443  1258.829
 444  1248.906
 445  1266.113
 446  1244.613
 447  1316.111
 448  1320.581
 449  1328.345
 450  1384.037
 451  1459.736
 452  1422.195
 453  1441.566
 454  1435.3
 455  1508.112
 456  1562.118
 457  1568.7
 458  1699.989
 459  1650.283
 460  1682.397
 461  1511.996
 462  1459.056
 463  1348.603
 464  1349.499
 465  1390.05
 466  1346.353
 467  1297.897
 468  1376.68
 469  1400.158
 470  1422.758
 471  1393.335
 472  1483.171
 473  1549.529
 474  1611.917
 475  1663.901
 476  1641.269
 477  1650.628
 478  1555.772
 479  1482.114
 480  1379.11
 481  1415.492
 482  1465.12
 483  1424.349
 484  1381.729
 485  1387.406
 486  1523.259
 487  1526.129
 488  1560.903
 489  1497.59
 490  1633.925
 491  1616.415
 492  1633.369
 493  1603.071
 494  1591.765
 495  1644.593
 496  1636.952
 497  1710.25
 498  1620.857
 499  1598.677
 500  1557.614
 501  1505.902
 502  1511.159
 503  1572.594
 504  1581.068
 505  1592.271
 506  1622.629
 507  1751.807
 508  1730.945
 509  1574.3
 510  1513.555
 511  1523.389
 512  1572.124
 513  1591.657
 514  1681.206
 515  1703.318
 516  1703.868
 517  1622.522
 518  1540.096
 519  1427.183
 520  1305.993
 521  1333.017
 522  1367.728
 523  1420.382
 524  1439.857
 525  1479.76
 526  1516.199
 527  1555.454
 528  1637.762
 529  1572.866
 530  1511.101
 531  1513.344
 532  1529.533
 533  1486.616
 534  1364.085
 535  1314.838
 536  1295.514
 537  1423.519
 538  1479.874
 539  1417.872
 540  1401.602
 541  1477.179
 542  1622.858
 543  1670.966
 544  1547.21
 545  1482.737
 546  1387.706
 547  1458.638
 548  1439.374
 549  1371.108
 550  1421.376
 551  1517.063
 552  1514.455
 553  1448.959
 554  1335.992
 555  1381.387
 556  1411.13
 557  1464.408
 558  1464.107
 559  1408.507
 560  1442.148
 561  1484.126
 562  1513.04
 563  1417.211
 564  1322.668
 565  1308.794
 566  1395.276
 567  1561.651
 568  1609.706
 569  1661.796
 570  1683.082
 571  1655.747
 572  1674.893
 573  1656.704
 574  1612.663
 575  1555.101
 576  1506.062
 577  1475.795
 578  1547.885
 579  1530.358
 580  1547.893
 581  1568.823
 582  1656.621
 583  1698.436
 584  1667.766
 585  1654.575
 586  1631.924
 587  1620.787
 588  1632.801
 589  1610.036
 590  1611.835
 591  1558.49
 592  1468.479
 593  1451.46
 594  1462.125
 595  1537.453
 596  1442.378
 597  1486.438
 598  1481.54
 599  1603.764
 600  1610.315
 601  1562.728
 602  1451.358
 603  1357.004
 604  1537.974
 605  1643.535
 606  1643.824
 607  1605.423
 608  1567.643
 609  1613.715
 610  1631.889
 611  1711.6
 612  1551.582
 613  1426.875
 614  1366.167
 615  1520.854
 616  1547.401
 617  1586.04
 618  1577.013
 619  1556.507
 620  1380.678
 621  1358.752
 622  1335.261
 623  1369.069
 624  1401.702
 625  1526.793
 626  1576.094
 627  1660.693
 628  1613.145
 629  1596.007
 630  1515.455
 631  1514.795
 632  1468.14
 633  1452.728
 634  1548.841
 635  1631.878
 636  1633.338
 637  1635.027
 638  1610.749
 639  1579.508
 640  1646.444
 641  1699.403
 642  1701.69
 643  1626.514
 644  1638.72
 645  1735.859
 646  1891.057
 647  2016.11
 648  2207.465
 649  2203.614
 650  2310.344
 651  2296.891
 652  2379.323
 653  2445.39
 654  2509.121
 655  2395.272
 656  2264.51
 657  2047.65
 658  1990.344
 659  1927.589
 660  1795.855
 661  1644.973
 662  1469.677
 663  1485.498
 664  1551.938
 665  1559.05
 666  1563.253
 667  1507.693
 668  1576.724
 669  1529.873
 670  1584.263
 671  1626.733
 672  1674.729
 673  1628.682
 674  1647.988
 675  1611.194
 676  1566.761
 677  1512.092
 678  1544.181
 679  1452.098
 680  1498.385
 681  1589.706
 682  1625.454
 683  1599.751
 684  1581.866
 685  1527.213
 686  1467.796
 687  1423.756
 688  1427.628
 689  1424.458
 690  1408.964
 691  1513.038
 692  1595.029
 693  1598.152
 694  1533.215
 695  1492.506
 696  1472.358
 697  1461.751
 698  1334.93
 699  1369.6
 700  1483.548
 701  1608.523
 702  1626.704
 703  1637.696
 704  1626.771
 705  1642.747
 706  1675.6
 707  1656.68
 708  1689.032
 709  1587.528
 710  1692.395
 711  1633.33
 712  1706.235
 713  1715.339
 714  1708.416
 715  1627.55
 716  1597.802
 717  1576.875
 718  1648.411
 719  1692.429
 720  1808.369
 721  1846.26
 722  1879.081
 723  1886.498
 724  1896.059
 725  1804.915
 726  1715.924
 727  1678.532
 728  1741.513
 729  1703.511
 730  1654.256
 731  1561.826
 732  1490.983
 733  1433.89
 734  1535.506
 735  1679.777
 736  1783.823
 737  1741.526
 738  1637.936
 739  1526.25
 740  1530.208
 741  1610.345
 742  1603.509
 743  1577.619
 744  1486.986
 745  1444.294
 746  1426.726
 747  1503.95
 748  1530.527
 749  1466.335
 750  1535.06
 751  1562.258
 752  1636.84
 753  1554.995
 754  1564.667
 755  1546.342
 756  1576.705
 757  1542.396
 758  1570.759
 759  1613.989
 760  1584.328
 761  1542.295
 762  1529.089
 763  1535.172
 764  1498.51
 765  1395.923
 766  1335.627
 767  1354.831
 768  1469.475
 769  1470.085
 770  1542.258
 771  1587.106
 772  1586.833
 773  1558.157
 774  1441.81
 775  1350.187
 776  1306.629
 777  1299.698
 778  1361.058
 779  1420.292
 780  1440.367
 781  1357.555
 782  1327.864
 783  1411.247
 784  1464.674
 785  1451.671
 786  1496.574
 787  1531.329
 788  1489.979
 789  1441.088
 790  1431.176
 791  1429.223
 792  1362.089
 793  1304.478
 794  1289.137
 795  1295.887
 796  1362.686
 797  1270.655
 798  1239.958
 799  1269.818
 800  1337.213
 801  1519.08
 802  1515.756
 803  1464.73
 804  1340.911
 805  1306.357
 806  1321.093
 807  1337.665
 808  1376.606
 809  1383.381
 810  1372.9
 811  1294.477
 812  1282.486
 813  1301.393
 814  1380.421
 815  1362.897
 816  1257.304
 817  1210.201
 818  1272.559
 819  1290.261
 820  1272.716
 821  1241.231
 822  1289.632
 823  1440.512
 824  1502.129
 825  1462.109
 826  1467.457
 827  1568.783
 828  1705.045
 829  1697.834
 830  1565.069
 831  1471.108
 832  1538.867
 833  1685.546
 834  1714.251
 835  1729.297
 836  1757.083
 837  1789.801
 838  1803.046
 839  1742.886
 840  1748.943
 841  1749.914
 842  1738.027
 843  1638.837
 844  1505.282
 845  1419.924
 846  1415.975
 847  1338.389
 848  1333.179
 849  1343.175
 850  1484.838
 851  1518.991
 852  1565.335
 853  1511.702
 854  1472.643
 855  1436.174
 856  1469.96
 857  1455.151
 858  1530.741
 859  1521.881
 860  1423.411
 861  1253.046
 862  1230.788
 863  1289.862
 864  1359.365
 865  1269.225
 866  1250.845
 867  1340.759
 868  1363.78
 869  1342.762
 870  1296.103
 871  1313.211
 872  1373.173
 873  1379.661
 874  1370.906
 875  1269.577
 876  1344.973
 877  1433.303
 878  1568.762
 879  1563.51
 880  1504.624
 881  1377.77
 882  1363.843
 883  1480.371
 884  1601.089
 885  1604.605
 886  1513.898
 887  1463.259
 888  1345.856
 889  1306.729
 890  1154.556
 891  1240.595
 892  1331.481
 893  1448.679
 894  1343.41
 895  1355.476
 896  1412.774
 897  1447.457
 898  1346.534
 899  1234.747
 900  1181.825
 901  1224.498
 902  1349.696
 903  1361.968
 904  1300.931
 905  1219.573
 906  1330.056
 907  1452.076
 908  1507.959
 909  1471.737
 910  1538.753
 911  1610.759
 912  1650.414
 913  1675.4
 914  1665.242
 915  1588.251
 916  1462.31
 917  1444.472
 918  1485.556
 919  1559.758
 920  1623.423
 921  1664.046
 922  1596.561
 923  1611.532
 924  1690.997
 925  1756.756
 926  1750.938
 927  1742.568
 928  1721.55
 929  1639.679
 930  1586.326
 931  1590.197
 932  1615.296
 933  1738.029
 934  1838.561
 935  1917.217
 936  1854.787
 937  1829.605
 938  1790.376
 939  1799.588
 940  1751.056
 941  1698.155
 942  1636.735
 943  1537.575
 944  1475.695
 945  1507.912
 946  1534.892
 947  1582.327
 948  1582.083
 949  1630.758
 950  1628.416
 951  1653.738
 952  1624.819
 953  1440.45
 954  1447.585
 955  1560.641
 956  1695.7
 957  1695.303
 958  1532.872
 959  1465.265
 960  1446.721
 961  1455.164
 962  1542.868
 963  1599.338
 964  1748.664
 965  1573.051
 966  1500.652
 967  1391.217
 968  1372.756
 969  1372.437
 970  1329.114
 971  1263.08
 972  1210.931
 973  1332.042
 974  1432.94
 975  1469.85
 976  1488.522
 977  1504.067
 978  1392.555
 979  1393.789
 980  1356.257
 981  1477.048
 982  1423.439
 983  1484.371
 984  1496.141
 985  1448.423
 986  1353.835
 987  1326.629
 988  1381.708
 989  1530.118
 990  1569.009
 991  1536.145
 992  1522.257
 993  1467.128
 994  1417.802
 995  1423.518
 996  1453.933
 997  1403.563
 998  1386.37
 999  1446.536
1000  1527.293
1001  1589.381
1002  1545.983
1003  1574.912
1004  1598.201
1005  1561.048
1006  1427.382
1007  1448.533
1008  1465.723
1009  1604.223
1010  1599.859
1011  1520.622
1012  1439.121
1013  1413.464
1014  1420.648
1015  1421.339
1016  1517.535
1017  1613.779
1018  1611.497
1019  1469.523
1020  1403.634
1021  1432.573
1022  1530.455
1023  1632.525
