# Input file       =  1183525578.105013_cleaned.dat
# Candidate        =  PSR_0332+5434
# Telescope        =  AR
# Epoch_topo       =  57942.212929456167
# Epoch_bary       =  N/A
# T_sample         =  0.002
# Data Folded      =  7340032
# Data Avg         =  0.2753014823268  
# Data StdDev      =  4.30824935915569 
# Profile Bins     =  512
# Profile Avg      =  3947.04588636285 
# Profile StdDev   =  515.839777239968 
# Reduced chi-sqr  =  0.770
# Prob(Noise)      <  1   (~0.0 sigma)
# P_topo (ms)      =  714.483681905578  +/- 0.000475
# P'_topo (s/s)    =  -0                +/- 2.51e-10
# P''_topo (s/s^2) =  0                 +/- 1.11e-13
# P_bary (ms)      =  N/A
# P'_bary (s/s)    =  N/A
# P''_bary (s/s^2) =  N/A
# P_orb (s)        =  N/A
# asin(i)/c (s)    =  N/A
# eccentricity     =  N/A
# w (rad)          =  N/A
# T_peri           =  N/A
######################################################
   0  4390.078
   1  4602.542
   2  4370.404
   3  4260.3
   4  4105.339
   5  4117.08
   6  4011.786
   7  4063.264
   8  4182.357
   9  4201.677
  10  4094.432
  11  4203.293
  12  4190.884
  13  4093.985
  14  4147.354
  15  4226.645
  16  4389.962
  17  4249.901
  18  4076.68
  19  4089.29
  20  4112
  21  3957.901
  22  3970.954
  23  3681.639
  24  3795.302
  25  4193.036
  26  4031.39
  27  4174.018
  28  4045.709
  29  4346.536
  30  4220.994
  31  3846.734
  32  4036.751
  33  4039.902
  34  4063.579
  35  3800.919
  36  3737.21
  37  3891.374
  38  3567.957
  39  3420.871
  40  3377.122
  41  3425.123
  42  3491.312
  43  3806.55
  44  3518.427
  45  3551.947
  46  3823.248
  47  3999.168
  48  4183.363
  49  4270.958
  50  4107.062
  51  3954.008
  52  4011.32
  53  3902.718
  54  3972.697
  55  3951.105
  56  4040.87
  57  4179.935
  58  3778.234
  59  4117.137
  60  4025.873
  61  3626.558
  62  3760.595
  63  3649.306
  64  3511.541
  65  3805.136
  66  3997.63
  67  3912.647
  68  3512.639
  69  3356.323
  70  3682.363
  71  3356.303
  72  3341.852
  73  3530.607
  74  3548.509
  75  3463.446
  76  3800.998
  77  3554.381
  78  3329.718
  79  3753.357
  80  3719.542
  81  3500.243
  82  3801.617
  83  4037.814
  84  4226.958
  85  4050.144
  86  4267.486
  87  3955.253
  88  3810.444
  89  3751.59
  90  3840.38
  91  3910.092
  92  3811.54
  93  3704.763
  94  3972.309
  95  4328.717
  96  4215.653
  97  4100.857
  98  3902.293
  99  3966.336
 100  4147.308
 101  4434.961
 102  4364.785
 103  4219.725
 104  4406.316
 105  4314.579
 106  3921.488
 107  3721.377
 108  3932.732
 109  4295.1
 110  4200.63
 111  4310.195
 112  4315.81
 113  4314.016
 114  4506.949
 115  4322.921
 116  4173.738
 117  4018.016
 118  4025.902
 119  3885.82
 120  3989.895
 121  3999.29
 122  3900.963
 123  3543.513
 124  3311.53
 125  3711.793
 126  3842.87
 127  3625.36
 128  4062.136
 129  4061.582
 130  3893.972
 131  3815.91
 132  4154.442
 133  4218.226
 134  3877.791
 135  3967.091
 136  3968.246
 137  3980.863
 138  3981.477
 139  3866.501
 140  3999.855
 141  4116.891
 142  4064.828
 143  4075.704
 144  4364.904
 145  4069.643
 146  3604.947
 147  3798.202
 148  3998.348
 149  4087.276
 150  4192.377
 151  3986.565
 152  4033.506
 153  4314.938
 154  4300.716
 155  4307.404
 156  4007.477
 157  3968.886
 158  4104.89
 159  4012.007
 160  4162.645
 161  4148.509
 162  4125.709
 163  4107.306
 164  4047.833
 165  4068.157
 166  3989.523
 167  3758.018
 168  3557.526
 169  3721.715
 170  3755.05
 171  3806.825
 172  3705.706
 173  3967.223
 174  4354.174
 175  4130.339
 176  3738.171
 177  3500.545
 178  3546.419
 179  3875.101
 180  4352.479
 181  4374.949
 182  4159.534
 183  4327.207
 184  4110.146
 185  3973.656
 186  3936.973
 187  4044.235
 188  4148.759
 189  4054.321
 190  4344.25
 191  4100.052
 192  3909.467
 193  3681.772
 194  3756.641
 195  3978.171
 196  3595.733
 197  3510.3
 198  3851.021
 199  3906.096
 200  4036.642
 201  4083.451
 202  4147.863
 203  4005.273
 204  4169.288
 205  4281.858
 206  4066.276
 207  3868.017
 208  3614.12
 209  3720.562
 210  3431.982
 211  3474.378
 212  3506.545
 213  3747.61
 214  4207.226
 215  4301.825
 216  3925.246
 217  3486.245
 218  3526.096
 219  4006.199
 220  4242.182
 221  4039.222
 222  3985.978
 223  4184.809
 224  4449.41
 225  4307.626
 226  4300.747
 227  4261.04
 228  4055.004
 229  3864.013
 230  4027.474
 231  4206.861
 232  3790.302
 233  3803.878
 234  3678.913
 235  3828.385
 236  3976.046
 237  4165.267
 238  3993.14
 239  3757.997
 240  3539.008
 241  3506.248
 242  3725.118
 243  3771.214
 244  4019.107
 245  4141.913
 246  3832.553
 247  3702.066
 248  3885.307
 249  4000.134
 250  3957.075
 251  3880.637
 252  3952.183
 253  4158.234
 254  4295.183
 255  4064.657
 256  4154.465
 257  4229.763
 258  4257.056
 259  4125.186
 260  4168.672
 261  4224.39
 262  4154.708
 263  4077.789
 264  3942.769
 265  3995.523
 266  4217.134
 267  4165.529
 268  3798.12
 269  4039.316
 270  4134.27
 271  4149.47
 272  3715.372
 273  3928.293
 274  4056.966
 275  4018.981
 276  4158.253
 277  3978.732
 278  3820.322
 279  3732.808
 280  3408.969
 281  3465.355
 282  3828.263
 283  4209.967
 284  4152.342
 285  3925.257
 286  3528.577
 287  3795.686
 288  3823.471
 289  4064.765
 290  4354.883
 291  4119.978
 292  3849.417
 293  3919.533
 294  3654.791
 295  3815.794
 296  4132.056
 297  4512.25
 298  4283.281
 299  4162.208
 300  4229.296
 301  4249.688
 302  3851.052
 303  3889.475
 304  3844.171
 305  4088.374
 306  4208.844
 307  4381.487
 308  4121.926
 309  3953.094
 310  4032.355
 311  4151.449
 312  3830.408
 313  3688.45
 314  3842.231
 315  3883.962
 316  4103.78
 317  3843.089
 318  3992.268
 319  4193.658
 320  4301.343
 321  4574.244
 322  4369.677
 323  4394.375
 324  5122.467
 325  5858.589
 326  5926.351
 327  5920.634
 328  5465.871
 329  4797.69
 330  4532.404
 331  4508.963
 332  4292.212
 333  4043.063
 334  3891.191
 335  3810.84
 336  3996.291
 337  3872.342
 338  4078.591
 339  4228.039
 340  4286.882
 341  4046.96
 342  3906.239
 343  3739.757
 344  3521.588
 345  4108.107
 346  4009.396
 347  4047.958
 348  3740.616
 349  3656.561
 350  3669.085
 351  3587.417
 352  3447.031
 353  3533.909
 354  3467.084
 355  3207.131
 356  3477.836
 357  3858.64
 358  3738.378
 359  3605.284
 360  3556.431
 361  3600.757
 362  3737.06
 363  3777.777
 364  3969.62
 365  3631.61
 366  3820.57
 367  3938.52
 368  3767.471
 369  3821.23
 370  3781.788
 371  3866.269
 372  3861.949
 373  3581.486
 374  3479.902
 375  3518.707
 376  3681.108
 377  3756.934
 378  3638.573
 379  3703.597
 380  3928.457
 381  3784.247
 382  3883.542
 383  3921.25
 384  3648.881
 385  3376.611
 386  3312.743
 387  3457.217
 388  3321.833
 389  3555.341
 390  3383.592
 391  3351.941
 392  3446.392
 393  3745.623
 394  3701.709
 395  3656.521
 396  3751.583
 397  3879.496
 398  4060.855
 399  4114.047
 400  3860.198
 401  3798.355
 402  3810.719
 403  3562.719
 404  3570.002
 405  4028.006
 406  4122.508
 407  3595.157
 408  3764.732
 409  3887.331
 410  3689.078
 411  3794.682
 412  3997.382
 413  4092.149
 414  4190.776
 415  3898.558
 416  3673.872
 417  3363.71
 418  3795.144
 419  3810.92
 420  3932.305
 421  4329.89
 422  4081.682
 423  4017.718
 424  3557.215
 425  3492.732
 426  3515.564
 427  3695.568
 428  3648.857
 429  3702.294
 430  3678.8
 431  3556.047
 432  3602.884
 433  3720.654
 434  3960.442
 435  4067.12
 436  3832.151
 437  3679.821
 438  3550.304
 439  3895.299
 440  3988.105
 441  3936.431
 442  4023.054
 443  3698.772
 444  3209.45
 445  3646.193
 446  3337.984
 447  3396.461
 448  3533.924
 449  3391.554
 450  3526.166
 451  4067.017
 452  4389.487
 453  4164.208
 454  3993.166
 455  3821.062
 456  4133.412
 457  3699.559
 458  3696.861
 459  3860.034
 460  4068.549
 461  4163.639
 462  4043.624
 463  4094.96
 464  4299.914
 465  4219.944
 466  3598.334
 467  3614.326
 468  3920.936
 469  3914.149
 470  4023.207
 471  3781.268
 472  3900.662
 473  3908.515
 474  3454.856
 475  3625.514
 476  3659.701
 477  3514.901
 478  3545.233
 479  3750.436
 480  3954.245
 481  3914.274
 482  3677.049
 483  3721.458
 484  3943.85
 485  3803.157
 486  3849.05
 487  3839.08
 488  3904.328
 489  4028.615
 490  4164.386
 491  3814.761
 492  3920.406
 493  3897.249
 494  3787.08
 495  3813.216
 496  4092.492
 497  3970.743
 498  4171.489
 499  4275.033
 500  4012.039
 501  4032.433
 502  4075.734
 503  4382.041
 504  4493.671
 505  4510.746
 506  4488.326
 507  4882.125
 508  4692.139
 509  4452.011
 510  4482.088
 511  4347.983
