# Input file       =  1183109348.111727_cleaned.dat
# Candidate        =  PSR_0332+5434
# Telescope        =  AR
# Epoch_topo       =  57937.395452682023
# Epoch_bary       =  N/A
# T_sample         =  0.002
# Data Folded      =  7340032
# Data Avg         =  0.061126764934703
# Data StdDev      =  1.0000523201409  
# Profile Bins     =  512
# Profile Avg      =  876.367110865178 
# Profile StdDev   =  119.739300826099 
# Reduced chi-sqr  =  0.886
# Prob(Noise)      <  0.969   (~0.0 sigma)
# P_topo (ms)      =  714.487670341868  +/- 0.000375
# P'_topo (s/s)    =  -0                +/- 1.98e-10
# P''_topo (s/s^2) =  0                 +/- 8.73e-14
# P_bary (ms)      =  N/A
# P'_bary (s/s)    =  N/A
# P''_bary (s/s^2) =  N/A
# P_orb (s)        =  N/A
# asin(i)/c (s)    =  N/A
# eccentricity     =  N/A
# w (rad)          =  N/A
# T_peri           =  N/A
######################################################
   0  1319.11
   1  1326.358
   2  1161.364
   3  1034.894
   4  939.3007
   5  899.2455
   6  939.9391
   7  963.3529
   8  899.715
   9  855.1981
  10  889.7328
  11  874.3768
  12  910.1471
  13  977.0921
  14  923.1849
  15  896.4037
  16  882.7599
  17  881.181
  18  906.5786
  19  909.3621
  20  768.551
  21  765.8372
  22  770.9496
  23  837.0964
  24  790.7454
  25  798.6792
  26  766.858
  27  774.2374
  28  772.8284
  29  727.7349
  30  752.3635
  31  850.4209
  32  863.574
  33  837.6164
  34  881.6645
  35  858.2373
  36  893.0139
  37  912.02
  38  890.2002
  39  845.7579
  40  932.0759
  41  910.5561
  42  832.8159
  43  908.9135
  44  928.3693
  45  925.8314
  46  933.0444
  47  927.2121
  48  910.1402
  49  848.8351
  50  785.144
  51  892.3386
  52  931.2003
  53  916.6997
  54  865.8459
  55  692.2235
  56  708.1359
  57  826.6052
  58  851.8713
  59  890.827
  60  820.4738
  61  839.8297
  62  854.6106
  63  760.9423
  64  821.0884
  65  975.9207
  66  966.8116
  67  779.4427
  68  797.5646
  69  807.9599
  70  831.2399
  71  854.3687
  72  902.9883
  73  1008.269
  74  928.6616
  75  897.8035
  76  925.8928
  77  882.533
  78  875.585
  79  888.7506
  80  873.9037
  81  905.5412
  82  842.184
  83  899.4672
  84  880.1624
  85  905.6701
  86  903.4008
  87  950.4326
  88  933.5833
  89  846.2565
  90  852.0434
  91  932.4985
  92  923.2107
  93  911.8358
  94  963.0271
  95  908.0347
  96  912.3019
  97  961.9108
  98  928.0542
  99  901.9749
 100  843.9154
 101  868.049
 102  911.4482
 103  883.3386
 104  880.9715
 105  860.4839
 106  792.65
 107  763.1069
 108  876.9624
 109  919.8513
 110  854.4298
 111  812.9894
 112  836.0069
 113  837.1479
 114  792.4753
 115  834.2172
 116  911.7861
 117  888.8224
 118  875.9328
 119  885.9099
 120  819.7432
 121  871.6987
 122  833.2136
 123  775.6168
 124  769.0065
 125  815.3156
 126  795.298
 127  799.9598
 128  883.3978
 129  781.794
 130  838.8489
 131  900.1989
 132  861.0407
 133  906.3981
 134  852.3381
 135  939.3204
 136  1002.003
 137  862.9781
 138  848.0172
 139  832.47
 140  865.8384
 141  832.6621
 142  747.0009
 143  756.7743
 144  776.7569
 145  809.1978
 146  826.9603
 147  730.9106
 148  807.7802
 149  975.9566
 150  931.5895
 151  928.9169
 152  920.1989
 153  841.8903
 154  779.9147
 155  788.6592
 156  758.2849
 157  723.2496
 158  797.0502
 159  766.5841
 160  784.9028
 161  849.9506
 162  832.8857
 163  915.1715
 164  819.0247
 165  745.7856
 166  811.8193
 167  925.3586
 168  825.2798
 169  882.2026
 170  936.4971
 171  978.3055
 172  953.6854
 173  896.1301
 174  913.7269
 175  869.5274
 176  918.6911
 177  999.8886
 178  931.5665
 179  993.6664
 180  1066.17
 181  982.1493
 182  1037.683
 183  1078.262
 184  951.6061
 185  944.8125
 186  940.0988
 187  987.1906
 188  969.6873
 189  924.27
 190  935.424
 191  1017.867
 192  1064.939
 193  915.027
 194  953.5504
 195  981.8861
 196  861.6964
 197  833.9943
 198  874.1963
 199  882.317
 200  830.1917
 201  797.5223
 202  831.6361
 203  807.6488
 204  829.465
 205  768.7509
 206  784.5806
 207  800.6093
 208  833.69
 209  843.5797
 210  909.9041
 211  888.66
 212  862.676
 213  908.8033
 214  959.6154
 215  862.8312
 216  858.3987
 217  901.7943
 218  882.0826
 219  912.9692
 220  1026.117
 221  1028.251
 222  917.5134
 223  865.5302
 224  926.4715
 225  911.6218
 226  889.8089
 227  865.8787
 228  874.466
 229  908.756
 230  961.8507
 231  954.7195
 232  929.0581
 233  841.1636
 234  835.3799
 235  869.4985
 236  820.1577
 237  901.679
 238  895.0017
 239  914.2037
 240  859.7559
 241  815.8376
 242  808.3042
 243  706.7776
 244  759.8575
 245  839.4384
 246  819.3763
 247  815.0133
 248  892.5981
 249  875.5969
 250  875.2954
 251  862.9154
 252  925.2444
 253  969.7378
 254  1045.164
 255  932.3419
 256  896.9185
 257  885.9875
 258  968.3378
 259  968.7047
 260  1015.568
 261  917.8672
 262  939.4166
 263  1006.136
 264  949.6301
 265  948.3009
 266  897.9794
 267  854.8058
 268  999.3133
 269  1056.804
 270  915.8201
 271  853.7185
 272  939.5294
 273  1061.755
 274  915.6813
 275  879.0811
 276  887.3256
 277  847.6989
 278  854.1503
 279  959.6957
 280  931.1193
 281  810.3145
 282  808.8359
 283  723.8487
 284  805.8456
 285  809.0389
 286  716.9393
 287  847.4986
 288  889.6917
 289  834.796
 290  722.8062
 291  804.5485
 292  896.5471
 293  949.8224
 294  967.7916
 295  933.5549
 296  867.6773
 297  902.0693
 298  830.8575
 299  883.7781
 300  957.8743
 301  1043.207
 302  976.9512
 303  869.5223
 304  929.0684
 305  882.1924
 306  904.1982
 307  899.4935
 308  808.0491
 309  875.6044
 310  926.5914
 311  969.3654
 312  987.1288
 313  897.9311
 314  867.1162
 315  1028.94
 316  968.1523
 317  870.8492
 318  916.5215
 319  928.7551
 320  1005.775
 321  985.9293
 322  924.0492
 323  927.9203
 324  867.2123
 325  836.2865
 326  765.2487
 327  790.4177
 328  840.4266
 329  890.9046
 330  921.2483
 331  864.8361
 332  867.4973
 333  823.0756
 334  813.7268
 335  755.5397
 336  842.9156
 337  907.6319
 338  893.172
 339  858.315
 340  913.7319
 341  987.4229
 342  899.1108
 343  907.9112
 344  971.963
 345  906.6666
 346  950.8917
 347  846.5297
 348  822.1199
 349  864.3411
 350  957.9917
 351  906.2738
 352  851.9309
 353  849.8162
 354  920.1813
 355  895.0143
 356  826.2658
 357  788.9091
 358  817.7755
 359  904.6116
 360  919.4186
 361  829.064
 362  852.9532
 363  873.0765
 364  739.1053
 365  809.0137
 366  809.8583
 367  773.9866
 368  841.5828
 369  934.4661
 370  825.806
 371  816.6924
 372  873.2872
 373  927.8719
 374  868.1369
 375  737.8312
 376  813.3706
 377  932.9998
 378  928.9669
 379  970.8925
 380  842.5256
 381  906.9655
 382  941.8063
 383  933.3954
 384  854.1605
 385  798.3876
 386  879.2227
 387  976.8553
 388  958.2094
 389  948.6754
 390  1001.491
 391  913.6354
 392  922.8594
 393  912.2413
 394  923.9316
 395  840.5665
 396  826.7111
 397  870.9288
 398  832.3876
 399  788.2868
 400  876.9882
 401  903.5047
 402  841.0247
 403  888.2538
 404  863.2188
 405  923.391
 406  881.9277
 407  808.3846
 408  872.7988
 409  789.9175
 410  787.6404
 411  784.572
 412  760.4788
 413  814.9703
 414  872.7174
 415  938.5034
 416  883.2846
 417  763.4711
 418  788.2927
 419  823.7502
 420  812.7865
 421  866.0865
 422  907.6735
 423  848.5267
 424  725.7474
 425  811.9785
 426  875.0105
 427  889.3915
 428  933.0061
 429  860.491
 430  893.0761
 431  914.4288
 432  818.9075
 433  807.1912
 434  774.1749
 435  761.3065
 436  779.6744
 437  732.1239
 438  772.358
 439  764.3411
 440  744.7339
 441  703.8141
 442  706.9145
 443  735.2504
 444  682.0842
 445  756.5847
 446  813.373
 447  743.3338
 448  713.2486
 449  758.8185
 450  769.1681
 451  832.9202
 452  836.2569
 453  770.6877
 454  786.5581
 455  845.009
 456  782.7015
 457  759.4617
 458  824.6627
 459  833.7509
 460  797.0512
 461  834.9911
 462  799.3405
 463  907.6174
 464  947.8798
 465  951.9721
 466  895.3936
 467  848.0645
 468  883.884
 469  971.863
 470  911.6396
 471  862.9173
 472  855.658
 473  910.8785
 474  913.4277
 475  839.6251
 476  835.0788
 477  885.8594
 478  879.7441
 479  821.419
 480  827.7538
 481  853.9705
 482  851.4095
 483  885.9559
 484  888.1925
 485  899.0303
 486  849.8759
 487  815.9658
 488  876.3435
 489  793.9313
 490  735.0083
 491  795.5036
 492  898.6607
 493  868.8444
 494  862.0079
 495  805.1185
 496  910.8948
 497  895.1743
 498  930.0847
 499  891.9647
 500  781.7944
 501  804.7684
 502  926.8464
 503  967.9641
 504  991.3116
 505  962.1312
 506  924.1172
 507  985.0756
 508  1049.971
 509  1130.63
 510  1218.803
 511  1252.907
