# Input file       =  1183251928.112236_cleaned.dat
# Candidate        =  PSR_0332+5434
# Telescope        =  AR
# Epoch_topo       =  57939.045684169396
# Epoch_bary       =  N/A
# T_sample         =  0.002
# Data Folded      =  7143424
# Data Avg         =  0.0993400035936538
# Data StdDev      =  3.97439638048634 
# Profile Bins     =  512
# Profile Avg      =  1386.09208880455 
# Profile StdDev   =  469.450074632903 
# Reduced chi-sqr  =  0.762
# Prob(Noise)      <  1   (~0.0 sigma)
# P_topo (ms)      =  714.486036506182  +/- 0.000554
# P'_topo (s/s)    =  -0                +/- 3e-10
# P''_topo (s/s^2) =  0                 +/- 1.36e-13
# P_bary (ms)      =  N/A
# P'_bary (s/s)    =  N/A
# P''_bary (s/s^2) =  N/A
# P_orb (s)        =  N/A
# asin(i)/c (s)    =  N/A
# eccentricity     =  N/A
# w (rad)          =  N/A
# T_peri           =  N/A
######################################################
   0  1941.59
   1  1475.126
   2  1371.991
   3  1305.76
   4  1424.678
   5  1597.135
   6  1436.408
   7  1192.888
   8  997.8582
   9  1105.828
  10  1337.009
  11  1342.671
  12  1184.621
  13  1251.211
  14  1397.916
  15  1404.409
  16  1273.005
  17  1193.952
  18  1482.234
  19  1728.125
  20  1330.832
  21  1418.569
  22  1685.36
  23  1594.595
  24  1607.232
  25  1298.16
  26  1370.297
  27  1518.267
  28  1218.771
  29  1351.72
  30  1332.38
  31  1174.051
  32  1459.871
  33  1795.52
  34  1429.102
  35  1281.076
  36  1473.609
  37  1813.602
  38  1817.086
  39  1530.889
  40  1503.18
  41  1310.646
  42  1437.37
  43  1722.309
  44  1847.646
  45  1847.176
  46  1631.413
  47  1467.681
  48  1330.42
  49  1304.337
  50  1341.863
  51  1432.184
  52  1471.126
  53  1269.613
  54  1748.492
  55  1687.344
  56  1595.417
  57  1241.062
  58  1484.727
  59  1392.462
  60  1429.65
  61  1020.667
  62  1057.915
  63  1500.554
  64  1351.43
  65  1465.201
  66  1744.468
  67  2027.981
  68  1213.189
  69  1269.469
  70  1325.684
  71  1541.072
  72  1427.599
  73  1343.686
  74  1501.573
  75  1245.108
  76  1172.476
  77  1394.641
  78  1083.203
  79  968.1204
  80  1305.161
  81  1656.141
  82  1496.643
  83  1562.518
  84  1330.748
  85  1499.506
  86  1053.735
  87  939.5032
  88  1107.461
  89  1205.412
  90  1238.397
  91  1253.829
  92  1167.485
  93  1181.059
  94  1074.612
  95  989.4442
  96  1040.402
  97  1030.354
  98  1391.533
  99  1224.764
 100  1344.029
 101  1157.656
 102  1118.599
 103  762.0955
 104  1125.52
 105  1328.729
 106  1482.701
 107  1380.926
 108  1079.41
 109  1277.751
 110  1527.322
 111  1200.147
 112  1003.891
 113  1116.916
 114  1202.359
 115  1651.762
 116  1436.721
 117  1286.576
 118  1314.6
 119  1001.683
 120  1171.295
 121  1339.198
 122  1236.195
 123  966.6669
 124  974.8636
 125  1327.076
 126  1627.498
 127  1551.71
 128  1663.366
 129  1576.242
 130  1574.402
 131  1623.467
 132  1475.444
 133  1161.162
 134  1456.613
 135  1727.393
 136  1679.299
 137  1519.881
 138  1459.751
 139  1349.738
 140  1152.707
 141  993.9067
 142  1362.841
 143  1557.735
 144  1176.834
 145  1102.745
 146  1064.621
 147  1448.519
 148  1429.182
 149  1457.632
 150  1765.022
 151  1619.647
 152  1256.56
 153  1157.619
 154  941.7959
 155  1094.815
 156  1226.289
 157  1415.004
 158  1321.65
 159  1015.005
 160  978.5642
 161  853.4925
 162  1279.234
 163  1297.245
 164  1199.779
 165  1293.495
 166  1366.918
 167  1152.006
 168  758.3865
 169  1235.245
 170  1050.321
 171  1280.184
 172  1482.187
 173  1347.959
 174  1183.401
 175  932.5322
 176  1390.181
 177  1374.435
 178  1023.128
 179  967.1819
 180  1362.345
 181  1338.096
 182  1379.383
 183  1307.281
 184  1165.287
 185  1078.774
 186  811.0684
 187  1465.811
 188  1413.545
 189  1475.503
 190  1357.957
 191  1236.445
 192  1486.447
 193  1436.254
 194  1663.664
 195  1544.12
 196  1595.944
 197  1502.545
 198  1554.37
 199  1545.111
 200  1733.632
 201  1749.75
 202  1145.287
 203  1418.664
 204  1368.178
 205  1417.575
 206  1841.792
 207  1588.733
 208  1283.277
 209  1309.445
 210  1336.574
 211  1171.088
 212  1324.498
 213  1595.251
 214  1855.989
 215  1498.925
 216  1255.125
 217  1444.821
 218  1308.65
 219  1510.447
 220  1172.593
 221  859.979
 222  966.45
 223  1193.501
 224  1214.111
 225  1584.778
 226  1610.097
 227  1118.309
 228  824.4677
 229  1187.591
 230  1396.43
 231  1158.807
 232  1224.221
 233  958.221
 234  1484.331
 235  1567.696
 236  2015.745
 237  1885.488
 238  1831.236
 239  1479.382
 240  1148.626
 241  1326.406
 242  1337.745
 243  1396.521
 244  1326.301
 245  1255.109
 246  1418.576
 247  1775.6
 248  1477.766
 249  1155.511
 250  1168.121
 251  1293.316
 252  1441.484
 253  1352.854
 254  1612.945
 255  1525.996
 256  1232.343
 257  1346.153
 258  1457.749
 259  981.1453
 260  841.6046
 261  1057.507
 262  1404.524
 263  1670.656
 264  1197.984
 265  1095.168
 266  1248.958
 267  1389.48
 268  1400.536
 269  1377.346
 270  1317.172
 271  1194.885
 272  1325.516
 273  1171.44
 274  1493.65
 275  1244.995
 276  967.4115
 277  1233.927
 278  1482.923
 279  1310.433
 280  1182.14
 281  1195.316
 282  1399.477
 283  1490.817
 284  1268.146
 285  1214.799
 286  1322.964
 287  1243.235
 288  1517.875
 289  1271.605
 290  1427.79
 291  1407.899
 292  1279.581
 293  1339.363
 294  1164.454
 295  1017.56
 296  1009.367
 297  1222.1
 298  1417.683
 299  1115.54
 300  1335.717
 301  1369.142
 302  1163.668
 303  1528.431
 304  1522.454
 305  1233.359
 306  788.0126
 307  825.1102
 308  1258.542
 309  1568.396
 310  1549.861
 311  1122.782
 312  1167.667
 313  1375.102
 314  1580.941
 315  1622.884
 316  1633.926
 317  1471.565
 318  1447.868
 319  1574.402
 320  1700.773
 321  1729.3
 322  1516.476
 323  1482.32
 324  1347.623
 325  1506.009
 326  1476.807
 327  1682.923
 328  1513.051
 329  1320.704
 330  1681.9
 331  1617.714
 332  1488.896
 333  1268.037
 334  1411.485
 335  1681.455
 336  1386.271
 337  1713.249
 338  1771.494
 339  1592.494
 340  1361.459
 341  1103.428
 342  1011.473
 343  1551.316
 344  1546.458
 345  1503.006
 346  1411.937
 347  1011.768
 348  983.5299
 349  973.5278
 350  1106.841
 351  1302.583
 352  1261.766
 353  1576.183
 354  1492
 355  1141.178
 356  1158.401
 357  1342.616
 358  1248.531
 359  1247.292
 360  1216.965
 361  1209.609
 362  1679.424
 363  1539.358
 364  1497.753
 365  1594.448
 366  1591.744
 367  1540.559
 368  1359.827
 369  1250.057
 370  1504.501
 371  1558.123
 372  1401.134
 373  1490.963
 374  2067.102
 375  1915.923
 376  1604.979
 377  1133.29
 378  1322.339
 379  1829.557
 380  1505.131
 381  1750.16
 382  1709.087
 383  1639.164
 384  1844.153
 385  1588.689
 386  1946.947
 387  2251.485
 388  1776.037
 389  1840.757
 390  2890.059
 391  3131.244
 392  3343.096
 393  3353.836
 394  3041.014
 395  2161.703
 396  1660.316
 397  1624.374
 398  1201.164
 399  1191.246
 400  1236.439
 401  1436.91
 402  1183.654
 403  1446.737
 404  1603.748
 405  1447.777
 406  1434.678
 407  1279.733
 408  1673.519
 409  1409.846
 410  1167.589
 411  1298.989
 412  1307.734
 413  1302.067
 414  1238.4
 415  1077.975
 416  789.5402
 417  1108.82
 418  1161.235
 419  1057.629
 420  968.7887
 421  985.8591
 422  1198.481
 423  1163.686
 424  1093.119
 425  858.5472
 426  1013.725
 427  1078.929
 428  818.2098
 429  1261.259
 430  1414.94
 431  1471.426
 432  1603.715
 433  1631.61
 434  1749.063
 435  1260.646
 436  925.3257
 437  873.1473
 438  1071.137
 439  1435.724
 440  1363.422
 441  1086.225
 442  1351.509
 443  1425.911
 444  1022.166
 445  1146.525
 446  1301.543
 447  1424.311
 448  1751.314
 449  1541.704
 450  1383.459
 451  1371.797
 452  1374.293
 453  1191.441
 454  1091.401
 455  1216.452
 456  1186.155
 457  1287.949
 458  1073.536
 459  1597.842
 460  1411.502
 461  1618.882
 462  1537.974
 463  1640.103
 464  1844.192
 465  1749.193
 466  1533.114
 467  1388.678
 468  1135.534
 469  1210.5
 470  1349.221
 471  1104.872
 472  1223.857
 473  1758.296
 474  1665.799
 475  1659.997
 476  1573.657
 477  1689.697
 478  1567.942
 479  1581.058
 480  1668.426
 481  1509.464
 482  1596.613
 483  1715.106
 484  1417.839
 485  1404.517
 486  1308.384
 487  1488.236
 488  1541.385
 489  1443.225
 490  1530.411
 491  1506.736
 492  1168.501
 493  1091.943
 494  1682.415
 495  1479.112
 496  1733.105
 497  1570.068
 498  1424.723
 499  1435.974
 500  1331.696
 501  1467.389
 502  1180.326
 503  1296.825
 504  1350.819
 505  1355.96
 506  1370.624
 507  1313.806
 508  1467.588
 509  1353.09
 510  1397.06
 511  1296.882
