# Input file       =  1183783393.109526_cleaned.dat
# Candidate        =  PSR_0332+5434
# Telescope        =  AR
# Epoch_topo       =  57945.196899415809
# Epoch_bary       =  N/A
# T_sample         =  0.002
# Data Folded      =  7340032
# Data Avg         =  0.041052627583034
# Data StdDev      =  1.00013598660814 
# Profile Bins     =  512
# Profile Avg      =  588.074725879979 
# Profile StdDev   =  119.749318466265 
# Reduced chi-sqr  =  1.204
# Prob(Noise)      <  0.00102   (~3.1 sigma)
# P_topo (ms)      =  714.481524678166  +/- 0.000213
# P'_topo (s/s)    =  -0                +/- 1.13e-10
# P''_topo (s/s^2) =  0                 +/- 4.97e-14
# P_bary (ms)      =  N/A
# P'_bary (s/s)    =  N/A
# P''_bary (s/s^2) =  N/A
# P_orb (s)        =  N/A
# asin(i)/c (s)    =  N/A
# eccentricity     =  N/A
# w (rad)          =  N/A
# T_peri           =  N/A
######################################################
   0  1296.405
   1  1201.509
   2  965.0222
   3  845.1988
   4  633.1033
   5  538.4951
   6  587.1349
   7  509.0988
   8  553.3292
   9  664.7694
  10  648.4392
  11  651.0638
  12  616.2382
  13  568.3073
  14  640.3741
  15  703.7618
  16  615.8762
  17  535.7021
  18  507.0514
  19  609.5108
  20  684.4272
  21  634.9133
  22  604.5556
  23  551.4939
  24  699.9474
  25  663.7174
  26  672.4905
  27  630.4341
  28  639.7891
  29  747.1805
  30  732.127
  31  667.6508
  32  594.6772
  33  709.6721
  34  745.3027
  35  784.368
  36  722.1929
  37  694.5118
  38  746.3164
  39  605.1982
  40  530.6993
  41  658.121
  42  684.9836
  43  568.0652
  44  601.1566
  45  609.1639
  46  553.7094
  47  594.1177
  48  558.1376
  49  646.334
  50  656.173
  51  635.4744
  52  612.5399
  53  599.5657
  54  615.7689
  55  640.0109
  56  510.6116
  57  484.8011
  58  563.4347
  59  592.4664
  60  573.6171
  61  469.3164
  62  454.1476
  63  546.9603
  64  538.4252
  65  547.1398
  66  527.4243
  67  591.2617
  68  494.6063
  69  504.1
  70  507.7018
  71  604.2588
  72  594.122
  73  540.1591
  74  674.583
  75  685.6852
  76  585.6371
  77  601.541
  78  599.6282
  79  589.7452
  80  563.975
  81  555.6015
  82  486.1422
  83  519.4875
  84  450.0236
  85  562.7619
  86  604.0875
  87  593.4824
  88  677.7716
  89  578.1973
  90  640.3782
  91  673.3597
  92  698.6581
  93  631.7394
  94  653.1209
  95  611.8683
  96  501.7122
  97  449.2514
  98  467.3843
  99  597.1468
 100  560.9925
 101  532.8157
 102  550.5383
 103  580.798
 104  499.2527
 105  495.4603
 106  479.7971
 107  551.223
 108  604.4089
 109  528.5292
 110  540.3109
 111  508.668
 112  609.6648
 113  691.3057
 114  551.7029
 115  638.7404
 116  711.804
 117  619.077
 118  500.6718
 119  478.2586
 120  558.9401
 121  552.4506
 122  584.4637
 123  450.8838
 124  468.0897
 125  554.1056
 126  456.1797
 127  590.8824
 128  608.506
 129  627.7684
 130  666.3357
 131  604.0504
 132  512.8212
 133  602.6911
 134  629.9064
 135  559.0467
 136  652.4081
 137  674.0941
 138  612.2792
 139  548.5119
 140  613.2411
 141  729.8676
 142  706.872
 143  648.2562
 144  613.3209
 145  603.3399
 146  551.7997
 147  553.2994
 148  659.8675
 149  711.2714
 150  587.875
 151  643.7463
 152  721.1671
 153  606.1562
 154  577.4646
 155  705.0405
 156  678.5692
 157  531.7868
 158  534.7104
 159  465.028
 160  485.25
 161  612.6431
 162  556.363
 163  513.6132
 164  602.064
 165  633.5275
 166  541.2129
 167  512.4317
 168  620.5702
 169  648.294
 170  542.1365
 171  581.58
 172  580.1913
 173  552.3635
 174  566.7101
 175  621.6407
 176  583.6979
 177  492.3164
 178  598.0402
 179  592.0763
 180  511.6129
 181  532.5662
 182  615.0674
 183  544.9341
 184  512.4775
 185  606.8737
 186  502.6428
 187  428.9533
 188  562.1521
 189  646.4924
 190  623.2454
 191  628.1693
 192  655.3058
 193  531.8657
 194  549.9391
 195  610.1696
 196  502.3574
 197  411.9707
 198  459.9486
 199  514.8104
 200  524.8188
 201  446.7654
 202  527.0922
 203  711.03
 204  594.5582
 205  579.8981
 206  568.6357
 207  676.4109
 208  569.1201
 209  503.7311
 210  548.0925
 211  544.8542
 212  561.2515
 213  578.5937
 214  591.2312
 215  539.2086
 216  648.2952
 217  661.9471
 218  671.5443
 219  620.4318
 220  610.4138
 221  528.6385
 222  578.8701
 223  591.2062
 224  579.1033
 225  547.4225
 226  483.7844
 227  488.8319
 228  566.3007
 229  529.6445
 230  591.7663
 231  602.7143
 232  635.0028
 233  671.2241
 234  534.1992
 235  618.4638
 236  624.21
 237  497.5435
 238  433.8778
 239  512.2613
 240  469.5994
 241  600.2244
 242  526.8505
 243  542.4182
 244  664.8007
 245  675.5831
 246  656.4835
 247  504.797
 248  488.2531
 249  585.6851
 250  731.2957
 251  757.0643
 252  586.7528
 253  529.5227
 254  575.8603
 255  725.0258
 256  602.9289
 257  542.229
 258  526.6807
 259  510.7853
 260  549.1006
 261  618.0237
 262  758.7812
 263  722.6135
 264  632.0551
 265  617.2036
 266  657.0627
 267  626.134
 268  527.8876
 269  614.901
 270  695.8616
 271  641.7076
 272  639.7269
 273  592.0511
 274  578.6902
 275  611.2915
 276  599.0048
 277  549.4296
 278  681.3207
 279  707.2021
 280  591.2629
 281  596.2466
 282  574.2711
 283  505.5068
 284  410.3558
 285  527.0538
 286  566.9462
 287  690.7751
 288  652.9033
 289  532.9393
 290  577.8939
 291  583.2201
 292  627.4589
 293  708.8876
 294  683.642
 295  573.4812
 296  540.0167
 297  681.0333
 298  615.4754
 299  523.6974
 300  638.2072
 301  584.4514
 302  455.7409
 303  565.5656
 304  629.1941
 305  678.2471
 306  629.9539
 307  676.2938
 308  736.3091
 309  638.6429
 310  526.4186
 311  594.2926
 312  652.5562
 313  607.3208
 314  463.2556
 315  497.9234
 316  584.9693
 317  556.1713
 318  553.8516
 319  607.6017
 320  633.0952
 321  587.6946
 322  505.5482
 323  495.5594
 324  515.3627
 325  568.5809
 326  540.9595
 327  446.8755
 328  517.181
 329  657.0922
 330  576.7108
 331  543.3778
 332  646.3095
 333  736.2791
 334  695.681
 335  570.2764
 336  635.9938
 337  630.6849
 338  566.6438
 339  522.1946
 340  676.7337
 341  639.7537
 342  520.6365
 343  485.4009
 344  487.5501
 345  566.1399
 346  571.0847
 347  522.5003
 348  713.2589
 349  640.7667
 350  566.5889
 351  679.2795
 352  635.1149
 353  611.5332
 354  572.4667
 355  516.5272
 356  601.8594
 357  506.4122
 358  554.2919
 359  558.8454
 360  552.2086
 361  641.014
 362  579.401
 363  488.1802
 364  548.4079
 365  583.5387
 366  552.0101
 367  621.1157
 368  531.5814
 369  553.1578
 370  540.823
 371  439.461
 372  505.1285
 373  575.3506
 374  591.0453
 375  567.1031
 376  555.9579
 377  635.4062
 378  626.6915
 379  406.5502
 380  499.5754
 381  507.1179
 382  467.9299
 383  480.5499
 384  537.3063
 385  515.1206
 386  504.4028
 387  454.8369
 388  388.2261
 389  435.6776
 390  427.8869
 391  357.581
 392  523.7904
 393  573.5486
 394  640.5828
 395  528.322
 396  535.8848
 397  470.4918
 398  577.5826
 399  637.0083
 400  564.3809
 401  433.4064
 402  430.2538
 403  442.598
 404  445.8762
 405  498.5326
 406  576.3791
 407  497.9787
 408  443.3114
 409  499.2872
 410  489.2427
 411  554.9683
 412  555.0865
 413  663.7712
 414  729.6306
 415  736.2042
 416  615.8348
 417  522.5669
 418  500.9939
 419  475.722
 420  538.2462
 421  547.9979
 422  606.4098
 423  679.0522
 424  655.4778
 425  544.3976
 426  516.1105
 427  523.8829
 428  460.1493
 429  541.8782
 430  548.6535
 431  627.8738
 432  570.28
 433  545.5046
 434  601.2605
 435  564.3609
 436  535.0927
 437  603.3137
 438  628.7679
 439  746.8707
 440  575.9089
 441  557.2145
 442  648.6927
 443  696.8605
 444  657.4237
 445  487.1749
 446  441.8312
 447  528.8828
 448  561.2048
 449  625.008
 450  656.3257
 451  623.2551
 452  621.9929
 453  452.8086
 454  533.6119
 455  532.3604
 456  596.6237
 457  709.5238
 458  582.2012
 459  566.9031
 460  532.6628
 461  581.654
 462  505.4833
 463  470.9442
 464  561.1052
 465  542.2674
 466  610.9153
 467  542.3147
 468  441.425
 469  538.9785
 470  596.0525
 471  657.848
 472  598.6525
 473  542.687
 474  510.5858
 475  515.2897
 476  539.0091
 477  601.3226
 478  541.8831
 479  534.2454
 480  569.6157
 481  484.7269
 482  481.6947
 483  582.9751
 484  544.2457
 485  618.0068
 486  580.6512
 487  488.072
 488  643.2355
 489  597.6111
 490  596.2878
 491  678.2747
 492  536.4616
 493  580.3171
 494  696.8008
 495  667.2469
 496  505.5693
 497  509.8815
 498  639.1794
 499  737.7798
 500  673.0483
 501  653.7778
 502  632.2276
 503  688.3104
 504  679.8929
 505  638.6117
 506  722.285
 507  765.7291
 508  827.3487
 509  948.2252
 510  1068.345
 511  1180.475
