# Input file       =  1183180763.103634_cleaned.dat
# Candidate        =  PSR_0332+5434
# Telescope        =  AR
# Epoch_topo       =  57938.222015088359
# Epoch_bary       =  N/A
# T_sample         =  0.002
# Data Folded      =  7340032
# Data Avg         =  0.141105562465132
# Data StdDev      =  3.28997438776716 
# Profile Bins     =  512
# Profile Avg      =  2023.62314512793 
# Profile StdDev   =  393.918623049154 
# Reduced chi-sqr  =  1.300
# Prob(Noise)      <  5.41e-06   (~4.4 sigma)
# P_topo (ms)      =  714.486691840837  +/- 0.000168
# P'_topo (s/s)    =  -0                +/- 8.85e-11
# P''_topo (s/s^2) =  0                 +/- 3.91e-14
# P_bary (ms)      =  N/A
# P'_bary (s/s)    =  N/A
# P''_bary (s/s^2) =  N/A
# P_orb (s)        =  N/A
# asin(i)/c (s)    =  N/A
# eccentricity     =  N/A
# w (rad)          =  N/A
# T_peri           =  N/A
######################################################
   0  2020.775
   1  1559.705
   2  1588.97
   3  2173.243
   4  2072.899
   5  1848.868
   6  1853.234
   7  1911.394
   8  2255.743
   9  2361.882
  10  2161.608
  11  1905.477
  12  2043.839
  13  2261.225
  14  2207.459
  15  2052.483
  16  2129.651
  17  2289.632
  18  2408.242
  19  2664.771
  20  2557.876
  21  2411.677
  22  2086.296
  23  2240.59
  24  2308.82
  25  2352.552
  26  2381.575
  27  2504.329
  28  2499.042
  29  2106.742
  30  2062.188
  31  2275.027
  32  2333.786
  33  2272.382
  34  2298.113
  35  2369.776
  36  2272.553
  37  2245.916
  38  2370.914
  39  2591.259
  40  2593.865
  41  2728.592
  42  2643.238
  43  2286.177
  44  2023.824
  45  2357.802
  46  2536.472
  47  2294.27
  48  1947.408
  49  1934.674
  50  1977.579
  51  2200.771
  52  2070.27
  53  1920.091
  54  1763.952
  55  1982.727
  56  2159.689
  57  2094.979
  58  2084.744
  59  1876.153
  60  2349.037
  61  2308.5
  62  2239.761
  63  2266.368
  64  2079.208
  65  1772.814
  66  2087.521
  67  2260.223
  68  2209.754
  69  1894.195
  70  2121.662
  71  2215.044
  72  2328.361
  73  2300.973
  74  2107.547
  75  2150.123
  76  2271.925
  77  1923.88
  78  1906.045
  79  1965.6
  80  2047.485
  81  2153.803
  82  2108.671
  83  1774.78
  84  1828.028
  85  2145.385
  86  2143.881
  87  2056.149
  88  1948.692
  89  1957.455
  90  2401.056
  91  2141.715
  92  1853.295
  93  1725.262
  94  2200.502
  95  1970.34
  96  1675.378
  97  1864.559
  98  1851.531
  99  1895.96
 100  1979.784
 101  1992.571
 102  1925.465
 103  1864.389
 104  1643.428
 105  1464.423
 106  1646.763
 107  1865.538
 108  2029.57
 109  2073.163
 110  1721.471
 111  1607.134
 112  1577.949
 113  1700.928
 114  1793.551
 115  1754.094
 116  1789.489
 117  1847.016
 118  1813.56
 119  2003.595
 120  1876.617
 121  1656.008
 122  1575.037
 123  1903.436
 124  1852.298
 125  1691.364
 126  1877.427
 127  2161.574
 128  2085.063
 129  1837.847
 130  1885.03
 131  1882.588
 132  2118.125
 133  2104.879
 134  2035.899
 135  2116.06
 136  2063.948
 137  2187.628
 138  2492.608
 139  2100.987
 140  2076.846
 141  2132.745
 142  2044.159
 143  2054.932
 144  1695.058
 145  1975.761
 146  2081.574
 147  2054.585
 148  2186.705
 149  1962.495
 150  1783.317
 151  1719.379
 152  2020.62
 153  2031.297
 154  2156.346
 155  2332.048
 156  2302.863
 157  2303.791
 158  1867.756
 159  1808.203
 160  2181.102
 161  2152.355
 162  2144.172
 163  2189.868
 164  2076.399
 165  1792.355
 166  1538.559
 167  1431.41
 168  1348.806
 169  1767.83
 170  1858.145
 171  1763.307
 172  1822.719
 173  1960.241
 174  1715.538
 175  1754.216
 176  1803.117
 177  1950.14
 178  1858.777
 179  2031.119
 180  2067.033
 181  1739.196
 182  1647.595
 183  1868.781
 184  1940.137
 185  1904.743
 186  1538.522
 187  1836.381
 188  2121.696
 189  2167.512
 190  2380.549
 191  2179.579
 192  2353.698
 193  2446.784
 194  2263.436
 195  2186.645
 196  2202.942
 197  2319.862
 198  2255.675
 199  2411.418
 200  2175.535
 201  2209.218
 202  2004.656
 203  1503.373
 204  1676.926
 205  2040.039
 206  2029.83
 207  1757.385
 208  1737.827
 209  1995.817
 210  2032.438
 211  2056.702
 212  2037.966
 213  1791.272
 214  1785.028
 215  1879.701
 216  1638.108
 217  1787.096
 218  2019.437
 219  2438.462
 220  2254.328
 221  1954.717
 222  1871.963
 223  1868.864
 224  1939.633
 225  2084.85
 226  2047.165
 227  1950.729
 228  2183.593
 229  2237.879
 230  2035.251
 231  2108.29
 232  2120.73
 233  2148.46
 234  2242.465
 235  2247.934
 236  2162.664
 237  1826.371
 238  1902.825
 239  1864.215
 240  1555.875
 241  1685.656
 242  1856.883
 243  2143.266
 244  1999.345
 245  2058.601
 246  1742.835
 247  1993.736
 248  2393.297
 249  2310.112
 250  1994.496
 251  1887.375
 252  1985.562
 253  2254.217
 254  2404.798
 255  2427.273
 256  2065.713
 257  1973.757
 258  2234.594
 259  2200.937
 260  2093.103
 261  2130.568
 262  2057.755
 263  2153.771
 264  2128.153
 265  2101.264
 266  2412.002
 267  2126.075
 268  2020.387
 269  2273.137
 270  2300.995
 271  2171.403
 272  1941.798
 273  1888.018
 274  2139.364
 275  2031.537
 276  2295.389
 277  2078.156
 278  1970.087
 279  1909.63
 280  2031.334
 281  2000.719
 282  1636.303
 283  1963.66
 284  2255.68
 285  2185.429
 286  2033.866
 287  2139.577
 288  1972.516
 289  1376.313
 290  1609.7
 291  1796.144
 292  1957.216
 293  2208.799
 294  2294.42
 295  1977.986
 296  1830.042
 297  1705.372
 298  1757.418
 299  1796.28
 300  1966.448
 301  1990.103
 302  1857.937
 303  1549.314
 304  1707.67
 305  1913.663
 306  1852.018
 307  1715.747
 308  1770.987
 309  1900.649
 310  2116.105
 311  1883.353
 312  1656.429
 313  1676.114
 314  1923.872
 315  2305.585
 316  1947.143
 317  1981.213
 318  2046.11
 319  1865.003
 320  1971.48
 321  1550.551
 322  1159.051
 323  1105.558
 324  1552.621
 325  1852.12
 326  1765.358
 327  1732.188
 328  1471.646
 329  1496.215
 330  1633.302
 331  1622.249
 332  1389.236
 333  1662.056
 334  1736.741
 335  1657.553
 336  1343.044
 337  1074.477
 338  1285.489
 339  1522.946
 340  1758.85
 341  1748.301
 342  1898.477
 343  1970.936
 344  2130.41
 345  1954.819
 346  1984.65
 347  1932.688
 348  1949.5
 349  2107.608
 350  1679.402
 351  1657.996
 352  1925.192
 353  2223.674
 354  2223.768
 355  1734.654
 356  1769.684
 357  1851.645
 358  2172.957
 359  2459.663
 360  2463.054
 361  2417.587
 362  2226.46
 363  1987.107
 364  2358.49
 365  2280.375
 366  2225.168
 367  2282.107
 368  2323.913
 369  2105.472
 370  1759.566
 371  1887.138
 372  2085.985
 373  1912.169
 374  2106.765
 375  2436.584
 376  2306.088
 377  2678.256
 378  2859.607
 379  3130.244
 380  3884.364
 381  4123.962
 382  4162.868
 383  3924.785
 384  3253.606
 385  2749.224
 386  2224.725
 387  1926.747
 388  1762.019
 389  1918.625
 390  1900.723
 391  2026.597
 392  2095.792
 393  1916.483
 394  2035.098
 395  2218.136
 396  2201.576
 397  2123.41
 398  2501.185
 399  2241.049
 400  1909.578
 401  1776.961
 402  2078.92
 403  2125.434
 404  1871.259
 405  1975.29
 406  2322.565
 407  2167.485
 408  2133.926
 409  1994.488
 410  2136.726
 411  1970.079
 412  1770.552
 413  1888.34
 414  1847.93
 415  1762.933
 416  2090.502
 417  1656.59
 418  1640.404
 419  1711.538
 420  1894.046
 421  1900.905
 422  1677.606
 423  1628.693
 424  1779.012
 425  1978.209
 426  2002.141
 427  2010.21
 428  1941.57
 429  1999.034
 430  1914.058
 431  1928.588
 432  2129.538
 433  2151.931
 434  2595.263
 435  2482.479
 436  2291.707
 437  2355.594
 438  2402.685
 439  2387.793
 440  2333.859
 441  2332.145
 442  2260.037
 443  2238.58
 444  2289.533
 445  2178.686
 446  1861.147
 447  1727.741
 448  2031.81
 449  2419.586
 450  2304.755
 451  2165.768
 452  1880.265
 453  2153.206
 454  2002.774
 455  1679.302
 456  1439.707
 457  1433.202
 458  1898.565
 459  1799.026
 460  1780.505
 461  1887.1
 462  1894.139
 463  1785.187
 464  1422.973
 465  1692.287
 466  1745.18
 467  1681.716
 468  1627.981
 469  1686.616
 470  1700.808
 471  1677.017
 472  1459.129
 473  1795.565
 474  1889.847
 475  1716.481
 476  1712.743
 477  2002.001
 478  1862.576
 479  1633.727
 480  1872.177
 481  2184.955
 482  2086.016
 483  2244.806
 484  2140.116
 485  1826.139
 486  1771.145
 487  2241.441
 488  2149.116
 489  1971.169
 490  1777.723
 491  2143.512
 492  2170.878
 493  2093.163
 494  2109.696
 495  2001.881
 496  2226.861
 497  2228.842
 498  2075.331
 499  1929.651
 500  2032.045
 501  2034.429
 502  2201.313
 503  1860.886
 504  1709.529
 505  1616.296
 506  1795.86
 507  1981.76
 508  2038.44
 509  2280.754
 510  2407.38
 511  2135.741
