# Input file       =  1183970685.111763_cleaned.dat
# Candidate        =  PSR_0332+5434
# Telescope        =  AR
# Epoch_topo       =  57947.364630923184
# Epoch_bary       =  N/A
# T_sample         =  0.002
# Data Folded      =  7340032
# Data Avg         =  0.270114978760831
# Data StdDev      =  5.15808668716018 
# Profile Bins     =  1024
# Profile Avg      =  1936.26083857721 
# Profile StdDev   =  436.704467684444 
# Reduced chi-sqr  =  0.510
# Prob(Noise)      <  1   (~0.0 sigma)
# P_topo (ms)      =  714.480358208515  +/- 0.00049
# P'_topo (s/s)    =  -0                +/- 2.59e-10
# P''_topo (s/s^2) =  0                 +/- 1.14e-13
# P_bary (ms)      =  N/A
# P'_bary (s/s)    =  N/A
# P''_bary (s/s^2) =  N/A
# P_orb (s)        =  N/A
# asin(i)/c (s)    =  N/A
# eccentricity     =  N/A
# w (rad)          =  N/A
# T_peri           =  N/A
######################################################
   0  1750.953
   1  1930.001
   2  2128.414
   3  2034.404
   4  1995.031
   5  1902.567
   6  1875.406
   7  1701.093
   8  1648.996
   9  1783.189
  10  1861.806
  11  2032.855
  12  2101.381
  13  2033.887
  14  1965.179
  15  2036.839
  16  1973.008
  17  1954.334
  18  1949.366
  19  2093.74
  20  2026.353
  21  1996.24
  22  1934.745
  23  1991.763
  24  1966.651
  25  1905.118
  26  1779.11
  27  1752.433
  28  1791.003
  29  1933.055
  30  2020.042
  31  1962.825
  32  1916.384
  33  1911.606
  34  2078.144
  35  2130.865
  36  1994.981
  37  1953.576
  38  1923.037
  39  1862.935
  40  1810.897
  41  1879.761
  42  1925.598
  43  1966.435
  44  1994.236
  45  2149.013
  46  2038.38
  47  1911.33
  48  1867.941
  49  1839.198
  50  2004.607
  51  2063.684
  52  2114.835
  53  2007.052
  54  1948.603
  55  1835.424
  56  1801.91
  57  1807.976
  58  1978.56
  59  2135.154
  60  2255.61
  61  2134.972
  62  2033.66
  63  1936.751
  64  1919.503
  65  1856.441
  66  1707.686
  67  1698.032
  68  1730.714
  69  1869.921
  70  1877.619
  71  1966.214
  72  2036.608
  73  1917.201
  74  1739.564
  75  1639.861
  76  1639.568
  77  1690.088
  78  1679.408
  79  1725.211
  80  1732.118
  81  1639.301
  82  1746.795
  83  1821.348
  84  1882.543
  85  1804.224
  86  1805.78
  87  1716.291
  88  1641.624
  89  1644.359
  90  1597.877
  91  1618.411
  92  1716.77
  93  1786.73
  94  1835.826
  95  1718.158
  96  1723.82
  97  1675.973
  98  1831.526
  99  1998.865
 100  2076.956
 101  2069.365
 102  1859.712
 103  1808.15
 104  1603.133
 105  1475.955
 106  1350.621
 107  1383.258
 108  1422.62
 109  1586.717
 110  1674.35
 111  1812.507
 112  1876.022
 113  2002.165
 114  2029.675
 115  2058.789
 116  2028.976
 117  1955.813
 118  1968.688
 119  2024.327
 120  2016.558
 121  1850.055
 122  1742.755
 123  1777.912
 124  1738.114
 125  1778.187
 126  1852.849
 127  2223.25
 128  2326.133
 129  2297.491
 130  2220.582
 131  2130.191
 132  2098.198
 133  2098.707
 134  2153.236
 135  2058.186
 136  1933.135
 137  1967.15
 138  2008.397
 139  2115.785
 140  2187.157
 141  2155.184
 142  2034.762
 143  1859.493
 144  1767.846
 145  1766.924
 146  1874.998
 147  2009.904
 148  2050.376
 149  2008.353
 150  1865.35
 151  1891.428
 152  1974.441
 153  2094.388
 154  2153.653
 155  2132.199
 156  2053.909
 157  1960.788
 158  1844.964
 159  1712.927
 160  1853.264
 161  1824.824
 162  1869.747
 163  1825.255
 164  1921.11
 165  1914.382
 166  1810.582
 167  1869.907
 168  1926.267
 169  1970.861
 170  1872.566
 171  1894.439
 172  1911.951
 173  1869.957
 174  1779.627
 175  1871.511
 176  1889.667
 177  1904.101
 178  1897.367
 179  1931.814
 180  1896.588
 181  1791.609
 182  1848.359
 183  1983.178
 184  2218.088
 185  2285.035
 186  2152.702
 187  1797.382
 188  1607.287
 189  1586.31
 190  1761.983
 191  1833.921
 192  1948.49
 193  1945.385
 194  1834.174
 195  1785.099
 196  1802.963
 197  1830.062
 198  1882.962
 199  1949.352
 200  2054.398
 201  1991.647
 202  1963.559
 203  1922.108
 204  2073.459
 205  2113.416
 206  2096.87
 207  2041.875
 208  2038.344
 209  2005.703
 210  1971.34
 211  1928.851
 212  1959.188
 213  1879.801
 214  1808.4
 215  1783.61
 216  1755.667
 217  1687.008
 218  1603.64
 219  1662.244
 220  1705.241
 221  1810.478
 222  1844.4
 223  1868.256
 224  1794.259
 225  1868.56
 226  1833.625
 227  1838.1
 228  1886.63
 229  1926.16
 230  1925.388
 231  2036.249
 232  2134.344
 233  2076.385
 234  1886.096
 235  1817.547
 236  1922.558
 237  1996.528
 238  2023.942
 239  1974.544
 240  1925.643
 241  1951.663
 242  1876.998
 243  1890.254
 244  1926.392
 245  2019.149
 246  2090.509
 247  2011.639
 248  1930.453
 249  1880
 250  1942.579
 251  1979.986
 252  1955.953
 253  1853.204
 254  1745.228
 255  1654.858
 256  1685.926
 257  1797.116
 258  1810.157
 259  1824.473
 260  1964.491
 261  2107.97
 262  2101.731
 263  2043.842
 264  1986.457
 265  1872.492
 266  1893.966
 267  1681.279
 268  1583.015
 269  1527.38
 270  1716.917
 271  1812.035
 272  1698.904
 273  1729.876
 274  1726.582
 275  1738.34
 276  1677.96
 277  1669.903
 278  1781.903
 279  1856.812
 280  1911.854
 281  1996.396
 282  1850.196
 283  1770.279
 284  1725.558
 285  1836.186
 286  1879.348
 287  1848.861
 288  1882.179
 289  1952.873
 290  2016.56
 291  1969.056
 292  1916.114
 293  1854.1
 294  1825.199
 295  1802.214
 296  1918.769
 297  1863.21
 298  1769.424
 299  1612.369
 300  1682.68
 301  1908.116
 302  2032.215
 303  1977.942
 304  1939.92
 305  2043.715
 306  2227.849
 307  2162.157
 308  2011.605
 309  1776.42
 310  1819.722
 311  1865.803
 312  2068.088
 313  2066.786
 314  2092.048
 315  2124.829
 316  2071.723
 317  2091.21
 318  2161.277
 319  2119.766
 320  1999.278
 321  1816.789
 322  1792.634
 323  1799.08
 324  1892.208
 325  1999.963
 326  2082.635
 327  2025.794
 328  2006.116
 329  2034.68
 330  2048.027
 331  2037.455
 332  1971.924
 333  1949.017
 334  2034.837
 335  2149.611
 336  1977.798
 337  1885.318
 338  1857.619
 339  1883.911
 340  1818.715
 341  1909.428
 342  2045.246
 343  2043.774
 344  1928.187
 345  1792.517
 346  1890.969
 347  1923.335
 348  1910.708
 349  1874.756
 350  1951.746
 351  2069.296
 352  2013.177
 353  1925.586
 354  1959.308
 355  2022.074
 356  2149.963
 357  2171.323
 358  2298.09
 359  2182.341
 360  2129.718
 361  2049.161
 362  2088.672
 363  2076.425
 364  1998.849
 365  1990.712
 366  2029.15
 367  2125.172
 368  2190.809
 369  2287.042
 370  2266.659
 371  2297.793
 372  2232.462
 373  2163.582
 374  2164.246
 375  2135.396
 376  2191.17
 377  2137.34
 378  2123.893
 379  2161.561
 380  2248.852
 381  2155.245
 382  2102.49
 383  2030.684
 384  2149.031
 385  2038.828
 386  1972.152
 387  1745.756
 388  1664.269
 389  1597.283
 390  1594.626
 391  1633.452
 392  1790.793
 393  1891.98
 394  1935.497
 395  1956.957
 396  1920.648
 397  1796.323
 398  1741.909
 399  1793.029
 400  1890.177
 401  1732.361
 402  1619.844
 403  1612.498
 404  1634.179
 405  1647.362
 406  1770.563
 407  1952.155
 408  2055.351
 409  1876.551
 410  1803.975
 411  1934.885
 412  2112.314
 413  2018.863
 414  1984.907
 415  1902.626
 416  2026.762
 417  1983.564
 418  1926.87
 419  1886.139
 420  1865.89
 421  1894.317
 422  1866.896
 423  1803.26
 424  1852.196
 425  1926.686
 426  1978.057
 427  1868.448
 428  1710.547
 429  1723.451
 430  1839.328
 431  1846.183
 432  2019.106
 433  1975.791
 434  2061.28
 435  1823.669
 436  1805.794
 437  1708.332
 438  1658.974
 439  1709.129
 440  1700.699
 441  1727.274
 442  1646.256
 443  1693.324
 444  1706.405
 445  1752.436
 446  1752.304
 447  1622.151
 448  1838.219
 449  2004.4
 450  1958.288
 451  1783.121
 452  1851.259
 453  1976.126
 454  1928.698
 455  1803.646
 456  1858.712
 457  1898.431
 458  1908.169
 459  1904.677
 460  1906.118
 461  1867.633
 462  1908.495
 463  1901.52
 464  1934.149
 465  2006.23
 466  1992.276
 467  1967.219
 468  1939.487
 469  1960.357
 470  1979.85
 471  1908.387
 472  1941.165
 473  2127.479
 474  2153.139
 475  2124.809
 476  1987.69
 477  1957.733
 478  2083.414
 479  2107.754
 480  2105.678
 481  1981.369
 482  2021.08
 483  2017.389
 484  2132.902
 485  2090.773
 486  1957.089
 487  1701.418
 488  1710.827
 489  1820.462
 490  1926.097
 491  1937.263
 492  1921.773
 493  1882.238
 494  1880.914
 495  1963.948
 496  2065.342
 497  2118.638
 498  2306.645
 499  2274.601
 500  2131.286
 501  1892.002
 502  1871.476
 503  1818.877
 504  1745.719
 505  1643.181
 506  1656.795
 507  1765.075
 508  1828.648
 509  1923.36
 510  1968.875
 511  2058.341
 512  1970.557
 513  1923.806
 514  1784.651
 515  1907.974
 516  1932.675
 517  2123.319
 518  2103.096
 519  2019.394
 520  1859.157
 521  1897.784
 522  1955.711
 523  1881.625
 524  1910.616
 525  2019.768
 526  2107.468
 527  2041.124
 528  2134.505
 529  2149.264
 530  2038.02
 531  1992.547
 532  1982.755
 533  2021.57
 534  1949.881
 535  1973.783
 536  2000.844
 537  2020.26
 538  2023.99
 539  1996.16
 540  1997.058
 541  2129.309
 542  2240.247
 543  2296.098
 544  2190.356
 545  2167.696
 546  2095.603
 547  2062.127
 548  2094.439
 549  2117.885
 550  2062.138
 551  1990.763
 552  1925.653
 553  1888.757
 554  1897.346
 555  1870.347
 556  1869.329
 557  1887.688
 558  1878.158
 559  1964.837
 560  2007.651
 561  2080.512
 562  2016.754
 563  2058.902
 564  2257.541
 565  2188.935
 566  2151.982
 567  2121.545
 568  2179.7
 569  2156.853
 570  2088.582
 571  2118.146
 572  2158.546
 573  2102.034
 574  2052.978
 575  2120.789
 576  2140.701
 577  2108.252
 578  2113.146
 579  2131.097
 580  2083.377
 581  2039.192
 582  2135.404
 583  2161.522
 584  2043.864
 585  1978.232
 586  1982.688
 587  2000.84
 588  1974.085
 589  1915.946
 590  1932.984
 591  1993.523
 592  2027.009
 593  1947.832
 594  1903.177
 595  1921.728
 596  1963.986
 597  1955.45
 598  2082.013
 599  2260.216
 600  2285.134
 601  2152.072
 602  2165.678
 603  2161.085
 604  2076.09
 605  2001.452
 606  2110.34
 607  2073.747
 608  2095.142
 609  1914.442
 610  1868.617
 611  1752.547
 612  1655.401
 613  1706.24
 614  1703.427
 615  1765.624
 616  1791.505
 617  1960.782
 618  1910
 619  1832.061
 620  1693.021
 621  1728.571
 622  1710.205
 623  1771.602
 624  1843.411
 625  1918.25
 626  2001.304
 627  1879.387
 628  1871.746
 629  1724.049
 630  1659.351
 631  1670.691
 632  1772.272
 633  1854.631
 634  1810.098
 635  1934.265
 636  2043.267
 637  2155.965
 638  2186.6
 639  2088.171
 640  1883.665
 641  1893.465
 642  2035.901
 643  2170.957
 644  2253.228
 645  2306.24
 646  2398.445
 647  2380.903
 648  2339.3
 649  2552.393
 650  2641.962
 651  2918.678
 652  2975.559
 653  3032.205
 654  2836.734
 655  2639.92
 656  2547.011
 657  2443.029
 658  2481.768
 659  2416.298
 660  2291.124
 661  2111.64
 662  1923.759
 663  1967.699
 664  1922.052
 665  2005.092
 666  1994.197
 667  1966.212
 668  1920.363
 669  1877.372
 670  1898.82
 671  1876.269
 672  1958.766
 673  2020.363
 674  1960.736
 675  1822.151
 676  1708.581
 677  1781.952
 678  1823.032
 679  1825.279
 680  1724.698
 681  1733.31
 682  1838.59
 683  1887.93
 684  1977.089
 685  1892.346
 686  1759.484
 687  1579.192
 688  1563.709
 689  1646.111
 690  1709.917
 691  1741.262
 692  1721.6
 693  1680.481
 694  1730.267
 695  1727.353
 696  1807.261
 697  1671.826
 698  1699.853
 699  1724.525
 700  1885.783
 701  1801.476
 702  1750.632
 703  1775.742
 704  1855.031
 705  1826.092
 706  1776.111
 707  1681.751
 708  1721.399
 709  1915.143
 710  2089.906
 711  2109.806
 712  2035.429
 713  1980.693
 714  2047.882
 715  1973.983
 716  2049.531
 717  2019.607
 718  1976.166
 719  1856.772
 720  1880.329
 721  1794.837
 722  1905.409
 723  1867.923
 724  1886.021
 725  1852.317
 726  1916.398
 727  2138.248
 728  2203.656
 729  2255.475
 730  2229.463
 731  2206.243
 732  2110.237
 733  2079.153
 734  2075.033
 735  1902.072
 736  1757.594
 737  1719.744
 738  1828.723
 739  1836.883
 740  1978.831
 741  2011.539
 742  2037.193
 743  2064.774
 744  1934.505
 745  1806.833
 746  1627.527
 747  1692.763
 748  1817.193
 749  1994.119
 750  2001.539
 751  2050.582
 752  2080.391
 753  2142.187
 754  1953.717
 755  1769.979
 756  1742.652
 757  1801.283
 758  1784.069
 759  1727.079
 760  1668.725
 761  1763.251
 762  1869.628
 763  1935.682
 764  1937.79
 765  2073.507
 766  2046.412
 767  1946.108
 768  1890.977
 769  1944.295
 770  1895.716
 771  1826.924
 772  1595.415
 773  1621.424
 774  1665.493
 775  1853.79
 776  1946.274
 777  1921.782
 778  1936.08
 779  2034.697
 780  2082.178
 781  2126.387
 782  2113.625
 783  2009.867
 784  1863.472
 785  1831.945
 786  2009.132
 787  2046.349
 788  2017.086
 789  2002.646
 790  1998.46
 791  2013.073
 792  1912.164
 793  1968.364
 794  1931.694
 795  2046.394
 796  2017.432
 797  1995.93
 798  1859.931
 799  1775.17
 800  1907.181
 801  1981.101
 802  2052.775
 803  2096.368
 804  1995.959
 805  1897.675
 806  1785.755
 807  1929.033
 808  1881.387
 809  1765.85
 810  1749.911
 811  1781.159
 812  1835.174
 813  1822.816
 814  1928.35
 815  2029.76
 816  1878.089
 817  1793.386
 818  1705.665
 819  1707.552
 820  1512.371
 821  1466.638
 822  1618.56
 823  1722.467
 824  1899.797
 825  1829.826
 826  1814.274
 827  1824.757
 828  1975.24
 829  1940.146
 830  1819.945
 831  1812.897
 832  1764.876
 833  1819.235
 834  1823.477
 835  1869.408
 836  1976.475
 837  2032.103
 838  2049.864
 839  2012.468
 840  1927.263
 841  1791.605
 842  1850.998
 843  2049.763
 844  2120.355
 845  1977.72
 846  1922.98
 847  2005.457
 848  2069.25
 849  2024.43
 850  2027.344
 851  2067.44
 852  2110.999
 853  1990.405
 854  1946.895
 855  1913.969
 856  1934.371
 857  2036.987
 858  2059.646
 859  2063.492
 860  1995.106
 861  1991.451
 862  2042.328
 863  2035.22
 864  2031.427
 865  1943.87
 866  1926.804
 867  1941.552
 868  1984.593
 869  2003.546
 870  2016.335
 871  1978.204
 872  2000.11
 873  2052.488
 874  2106.535
 875  2162.46
 876  2191.667
 877  2171.378
 878  2085.513
 879  2125.157
 880  2146.37
 881  2118.558
 882  1962.184
 883  2079.085
 884  2120.536
 885  2164.885
 886  2142.928
 887  2215.971
 888  2199.41
 889  2059
 890  1918.862
 891  2025.109
 892  2048.514
 893  2115.099
 894  2008.5
 895  1968.571
 896  1887.282
 897  1812.39
 898  1825.292
 899  1853.067
 900  1869.664
 901  2070.298
 902  2196.64
 903  2201.89
 904  2080.167
 905  1901.588
 906  1828.389
 907  1871.254
 908  1847.17
 909  1892.025
 910  1923.014
 911  2024.411
 912  1996.073
 913  2043.141
 914  2011.211
 915  1985.857
 916  1921.656
 917  1988.473
 918  1901.257
 919  1898.682
 920  1877.598
 921  1895.329
 922  1938.304
 923  1835.552
 924  1844.015
 925  1982.878
 926  2009.21
 927  1876.787
 928  1791.214
 929  1826.051
 930  1879.186
 931  1871.823
 932  1850.595
 933  1776.678
 934  1790.991
 935  1935.288
 936  1896.385
 937  1882.353
 938  1834.808
 939  1905.945
 940  1940.187
 941  2014.722
 942  2021.874
 943  1963.408
 944  1861.979
 945  1906.734
 946  1854.337
 947  1841.568
 948  1911.718
 949  2020.591
 950  2007.367
 951  2007.176
 952  2033.838
 953  1950.845
 954  1761.584
 955  1775.989
 956  1916.286
 957  2021.73
 958  1933.516
 959  1898.643
 960  1900.614
 961  1918.131
 962  1918.318
 963  1875.462
 964  1830.543
 965  1820.411
 966  1908.495
 967  1959.891
 968  1976.968
 969  1972.512
 970  2154.268
 971  2199.39
 972  2081.143
 973  2030.183
 974  1976.527
 975  1975.565
 976  1923.271
 977  1867.27
 978  1978.558
 979  1943.893
 980  1954.973
 981  1888.585
 982  1894.082
 983  1810.618
 984  1739.665
 985  1898.719
 986  1917.531
 987  1806.474
 988  1648.328
 989  1692.898
 990  1758.633
 991  1825.111
 992  1787.566
 993  1770.127
 994  1709.178
 995  1771.262
 996  1954.273
 997  2002.179
 998  1925.746
 999  1831.174
1000  1872.934
1001  1788.816
1002  1616.402
1003  1541.966
1004  1616.697
1005  1743.6
1006  1809.083
1007  1864.222
1008  1976.659
1009  2078.834
1010  2019.082
1011  1919.173
1012  1817.745
1013  1865.651
1014  1883.932
1015  1925.82
1016  1938.214
1017  2004.064
1018  2107.39
1019  2085.609
1020  1960.191
1021  2054.506
1022  2022.065
1023  1887.229
