# Input file       =  1183180763.103634_cleaned.dat
# Candidate        =  PSR_0332+5434
# Telescope        =  AR
# Epoch_topo       =  57938.222015088359
# Epoch_bary       =  N/A
# T_sample         =  0.002
# Data Folded      =  7340032
# Data Avg         =  0.037891452720672
# Data StdDev      =  1.00002364194421 
# Profile Bins     =  512
# Profile Avg      =  543.351246521529 
# Profile StdDev   =  119.735867098532 
# Reduced chi-sqr  =  1.598
# Prob(Noise)      <  1.86e-16   (~8.1 sigma)
# P_topo (ms)      =  714.486691062487  +/- 0.000294
# P'_topo (s/s)    =  -0                +/- 1.55e-10
# P''_topo (s/s^2) =  0                 +/- 6.84e-14
# P_bary (ms)      =  N/A
# P'_bary (s/s)    =  N/A
# P''_bary (s/s^2) =  N/A
# P_orb (s)        =  N/A
# asin(i)/c (s)    =  N/A
# eccentricity     =  N/A
# w (rad)          =  N/A
# T_peri           =  N/A
######################################################
   0  1337.44
   1  1251.347
   2  1003.581
   3  793.2684
   4  615.2076
   5  507.1346
   6  466.3754
   7  546.449
   8  567.8647
   9  537.3701
  10  501.6179
  11  447.1026
  12  557.2756
  13  604.2952
  14  592.8807
  15  585.4548
  16  732.6584
  17  578.3565
  18  434.5927
  19  405.7141
  20  550.856
  21  594.0328
  22  498.5511
  23  554.6265
  24  633.1818
  25  522.5675
  26  557.0714
  27  512.3285
  28  551.2736
  29  516.6268
  30  475.0966
  31  523.7822
  32  515.1516
  33  461.7512
  34  593.6036
  35  434.205
  36  427.7411
  37  460.6264
  38  528.5833
  39  501.1859
  40  414.8588
  41  429.7475
  42  449.8199
  43  461.8828
  44  524.3625
  45  599.7021
  46  515.4863
  47  513.4789
  48  489.368
  49  479.6784
  50  530.0771
  51  520.7123
  52  688.9177
  53  635.6738
  54  583.0226
  55  642.5237
  56  616.6381
  57  597.6043
  58  594.5043
  59  609.2874
  60  570.8232
  61  542.3509
  62  542.5439
  63  559.3019
  64  468.0125
  65  411.5949
  66  516.8732
  67  682.4158
  68  662.7737
  69  578.1683
  70  489.4143
  71  568.2128
  72  517.9294
  73  450.8533
  74  379.0819
  75  377.8408
  76  516.1137
  77  476.3923
  78  484.1449
  79  557.1295
  80  531.8943
  81  466.0103
  82  379.8653
  83  511.7425
  84  511.4003
  85  460.5985
  86  411.3218
  87  455.7368
  88  490.0098
  89  496.1973
  90  378.8577
  91  487.3705
  92  514.7958
  93  430.224
  94  445.6762
  95  521.287
  96  507.7161
  97  471.472
  98  559.3771
  99  625.9861
 100  590.0756
 101  641.7753
 102  587.7855
 103  469.5471
 104  437.3661
 105  629.3627
 106  595.1792
 107  529.3875
 108  442.4793
 109  564.8701
 110  600.1252
 111  568.8521
 112  559.188
 113  565.8069
 114  621.1258
 115  597.5654
 116  610.1657
 117  562.407
 118  535.2836
 119  546.72
 120  580.4292
 121  469.1137
 122  439.7862
 123  418.8291
 124  488.9114
 125  518.4581
 126  554.5176
 127  671.0589
 128  690.3055
 129  587.3428
 130  550.2645
 131  417.7615
 132  420.1158
 133  584.5393
 134  545.3534
 135  489.1717
 136  504.7673
 137  525.4963
 138  660.6633
 139  700.8658
 140  610.0494
 141  504.0109
 142  511.7862
 143  589.6189
 144  541.2424
 145  514.5229
 146  553.4617
 147  620.8287
 148  638.0115
 149  755.6288
 150  740.1741
 151  655.2034
 152  524.0851
 153  546.0688
 154  613.9516
 155  669.5507
 156  675.4669
 157  674.8282
 158  664.885
 159  537.5135
 160  538.404
 161  611.1434
 162  578.3785
 163  564.0427
 164  638.9242
 165  684.9645
 166  603.9805
 167  573.4354
 168  600.6469
 169  716.2039
 170  709.6512
 171  752.806
 172  651.7502
 173  532.5482
 174  481.5641
 175  623.8839
 176  692.4213
 177  587.3094
 178  476.512
 179  477.6393
 180  504.758
 181  538.4475
 182  489.1721
 183  475.1069
 184  420.2498
 185  478.5593
 186  571.405
 187  569.332
 188  537.517
 189  470.5169
 190  664.5508
 191  589.7282
 192  554.912
 193  577.8228
 194  516.5903
 195  399.7307
 196  504.1335
 197  562.8688
 198  565.967
 199  435.2499
 200  495.766
 201  516.5722
 202  578.7573
 203  574.5945
 204  525.0847
 205  560.6947
 206  550.1494
 207  440.7225
 208  505.8962
 209  525.2416
 210  522.1422
 211  576.864
 212  531.2068
 213  392.6894
 214  445.8913
 215  560.238
 216  513.5859
 217  535.3419
 218  517.403
 219  498.4872
 220  664.2126
 221  566.0792
 222  471.1997
 223  398.0535
 224  579.2543
 225  481.2299
 226  401.2047
 227  473.3516
 228  462.5669
 229  457.9806
 230  503.1558
 231  537.7857
 232  530.7048
 233  509.9741
 234  432.1536
 235  367.9343
 236  396.2132
 237  476.9677
 238  524.6385
 239  533.6473
 240  432.5789
 241  421.6628
 242  409.2746
 243  443.9456
 244  466.3495
 245  451.2702
 246  481.7831
 247  490.3481
 248  431.7985
 249  532.0147
 250  476.0615
 251  369.7937
 252  354.2434
 253  505.51
 254  485.6743
 255  411.5025
 256  503.3958
 257  599.1855
 258  488.2118
 259  451.5989
 260  493.3887
 261  509.8851
 262  589.6301
 263  553.4556
 264  510.4822
 265  548.6082
 266  535.1223
 267  578.5909
 268  675.4469
 269  506.5456
 270  546.5269
 271  640.9573
 272  577.6819
 273  556.5211
 274  448.1696
 275  547.0379
 276  535.6308
 277  474.5683
 278  556.388
 279  499.633
 280  444.6816
 281  422.1943
 282  489.6517
 283  488.9266
 284  593.8318
 285  634.6999
 286  627.5924
 287  635.1318
 288  468.7649
 289  474.1034
 290  622.5881
 291  611.2645
 292  611.251
 293  635.4471
 294  619.961
 295  497.1684
 296  409.6818
 297  403.3582
 298  399.9962
 299  552.6039
 300  523.1699
 301  505.393
 302  517.5385
 303  565.2693
 304  499.4314
 305  508.6959
 306  514.4802
 307  589.6597
 308  549.2398
 309  597.2932
 310  623.1801
 311  473.4518
 312  428.425
 313  507.0587
 314  571.1489
 315  537.683
 316  332.0496
 317  470.9036
 318  609.6755
 319  643.1607
 320  696.6481
 321  582.4302
 322  678.1204
 323  697.2769
 324  602.9262
 325  587.8475
 326  581.487
 327  644.525
 328  658.7382
 329  687.5858
 330  632.7846
 331  616.5074
 332  562.0963
 333  384.0876
 334  432.2086
 335  546.3486
 336  588.8783
 337  537.0634
 338  481.47
 339  559.2014
 340  582.2984
 341  599.6726
 342  640.9006
 343  511.534
 344  492.2971
 345  539.5073
 346  475.2451
 347  523.6873
 348  526.5693
 349  671.2057
 350  630.9387
 351  581.1242
 352  505.2151
 353  475.8982
 354  472.8325
 355  553.0533
 356  552.3764
 357  518.3486
 358  589.6255
 359  573.8934
 360  554.7911
 361  598.559
 362  553.3497
 363  524.0894
 364  559.2558
 365  624.8417
 366  589.1942
 367  493.9082
 368  556.7144
 369  477.5243
 370  399.1907
 371  445.8864
 372  462.1406
 373  551.368
 374  550.8885
 375  593.9194
 376  471.6405
 377  548.2678
 378  679.6555
 379  636.6211
 380  532.5864
 381  543.1674
 382  536.8831
 383  626.1902
 384  684.9323
 385  745.4292
 386  554.6216
 387  496.6304
 388  629.6607
 389  580.5932
 390  572.6639
 391  585.8923
 392  569.8476
 393  611.3063
 394  594.6679
 395  567.485
 396  671.788
 397  551.9068
 398  531.9244
 399  670.7374
 400  675.7108
 401  627.8249
 402  499.6165
 403  516.3267
 404  609.067
 405  548.6641
 406  639.1564
 407  524.9829
 408  480.8475
 409  500.7304
 410  529.9733
 411  486.5046
 412  368.1693
 413  512.7131
 414  639.6331
 415  604.3179
 416  556.1959
 417  613.4601
 418  552.0635
 419  354.5132
 420  442.8842
 421  478.8327
 422  533.3349
 423  629.226
 424  634.9728
 425  525.3073
 426  484.143
 427  460.6266
 428  511.5188
 429  548.5939
 430  550.9758
 431  530.7283
 432  499.596
 433  424.1654
 434  501.9239
 435  538.8378
 436  488.33
 437  471.7215
 438  474.4122
 439  549.423
 440  613.5611
 441  536.2996
 442  472.6718
 443  416.8401
 444  524.1938
 445  673.1317
 446  545.9203
 447  574.282
 448  600.2552
 449  504.643
 450  547.7245
 451  401.7606
 452  266.7724
 453  282.694
 454  419.3223
 455  503.1336
 456  519.8332
 457  494.9337
 458  401.9655
 459  398.8839
 460  508.358
 461  495.445
 462  385.0591
 463  516.5099
 464  500.2911
 465  438.5641
 466  376.7588
 467  305.9208
 468  364.9624
 469  427.4074
 470  509.6348
 471  470.4812
 472  538.9895
 473  569.0555
 474  587.362
 475  545.0138
 476  565.8629
 477  526.0972
 478  529.5362
 479  556.168
 480  425.4469
 481  395.5873
 482  476.9842
 483  618.5552
 484  621.9556
 485  463.6237
 486  485.7732
 487  469.8889
 488  546.4183
 489  645.1965
 490  624.8448
 491  630.1404
 492  560.7686
 493  445.7791
 494  621.512
 495  542.674
 496  485.3614
 497  527.3736
 498  543.2411
 499  502.59
 500  407.8953
 501  465.4328
 502  519.6865
 503  434.7697
 504  543.4531
 505  692.4769
 506  636.2482
 507  796.7857
 508  865.3932
 509  994.8379
 510  1269.094
 511  1336.411
