# Input file       =  1183955774.111918_cleaned.dat
# Candidate        =  PSR_0332+5434
# Telescope        =  AR
# Epoch_topo       =  57947.192049906458
# Epoch_bary       =  N/A
# T_sample         =  0.002
# Data Folded      =  7340032
# Data Avg         =  0.238678885095786
# Data StdDev      =  3.76969379742383 
# Profile Bins     =  256
# Profile Avg      =  6840.81907634626 
# Profile StdDev   =  638.315027638154 
# Reduced chi-sqr  =  1.924
# Prob(Noise)      <  4.53e-17   (~8.3 sigma)
# P_topo (ms)      =  714.480141657311  +/- 0.000341
# P'_topo (s/s)    =  -0                +/- 1.8e-10
# P''_topo (s/s^2) =  0                 +/- 7.95e-14
# P_bary (ms)      =  N/A
# P'_bary (s/s)    =  N/A
# P''_bary (s/s^2) =  N/A
# P_orb (s)        =  N/A
# asin(i)/c (s)    =  N/A
# eccentricity     =  N/A
# w (rad)          =  N/A
# T_peri           =  N/A
######################################################
   0  6263.458
   1  6251.586
   2  7194.305
   3  6435.13
   4  5555.601
   5  6474.833
   6  6291.88
   7  6399.026
   8  7715.363
   9  7480.35
  10  7152.51
  11  7700.973
  12  7154.956
  13  6982.278
  14  6487.365
  15  6867.054
  16  6770.286
  17  6506.448
  18  7108.595
  19  7098.238
  20  6780.558
  21  7052.458
  22  6879.413
  23  7451.805
  24  6898.872
  25  7344.419
  26  7125.235
  27  7141.259
  28  7721.771
  29  7114.75
  30  6812.222
  31  6990.8
  32  6936.651
  33  6930.555
  34  6476.73
  35  6764.436
  36  6381.229
  37  6716.781
  38  7413.565
  39  7492.234
  40  8188.452
  41  8210.033
  42  7820.204
  43  7878.616
  44  7517.293
  45  6986.261
  46  5932.272
  47  6534.616
  48  6167.164
  49  6061.528
  50  4981.641
  51  5985.078
  52  6229.182
  53  5676.482
  54  6068.633
  55  6088.308
  56  6116.699
  57  6743.218
  58  5709.656
  59  6058.279
  60  6019.301
  61  5809.944
  62  6281.509
  63  5640.927
  64  5972.244
  65  6066.829
  66  5677.438
  67  5740.744
  68  5883.926
  69  6132.565
  70  5764.893
  71  5887.5
  72  6651.89
  73  5646.392
  74  5699.411
  75  6020.512
  76  5712.223
  77  6064.481
  78  5869.843
  79  5517.847
  80  5337.492
  81  6221.187
  82  6328.733
  83  6860.858
  84  6722.415
  85  6723.112
  86  6587.61
  87  6042.484
  88  6217.891
  89  5579.548
  90  6382.125
  91  6165.225
  92  6557.777
  93  7290.925
  94  7175.826
  95  7510.924
  96  7870.198
  97  6956.28
  98  6906.174
  99  7030.291
 100  6597.029
 101  6405.786
 102  6428.635
 103  6863.757
 104  6777.76
 105  6434.064
 106  6601.625
 107  6460.009
 108  7113.187
 109  7398.159
 110  7281.629
 111  7412.176
 112  7607.955
 113  7416.611
 114  7560.639
 115  8474.876
 116  7904.831
 117  7002.058
 118  6903.291
 119  6697.785
 120  6678.462
 121  6186.569
 122  6460.821
 123  6413.591
 124  6157.072
 125  6656.26
 126  7614.759
 127  7060.271
 128  7128.79
 129  7565.451
 130  7212.049
 131  6930.759
 132  6880.251
 133  6082.559
 134  6395.477
 135  5920.417
 136  6398.125
 137  6070.614
 138  5442.377
 139  5695.231
 140  5795.35
 141  6435.044
 142  6724.069
 143  6376.891
 144  6966
 145  6684.792
 146  7084.082
 147  7463.498
 148  6566.744
 149  7488.033
 150  6747.535
 151  6713.952
 152  7292.082
 153  6996.208
 154  7925.536
 155  7171.753
 156  7697.229
 157  6787.212
 158  7790.246
 159  8033.159
 160  8468.628
 161  9162.229
 162  11415.38
 163  11245.13
 164  9493.83
 165  7735.37
 166  6941.461
 167  7068.295
 168  7541.005
 169  7893.157
 170  7879.696
 171  7541.018
 172  7790.833
 173  7651.336
 174  6762.979
 175  6766.561
 176  7468.159
 177  6849.136
 178  7404.866
 179  7462.11
 180  6667.153
 181  6518.093
 182  6830.715
 183  6916.328
 184  6589.884
 185  6959.398
 186  6953.912
 187  6893.945
 188  7002.528
 189  6568.16
 190  6083.343
 191  6631.494
 192  7604.725
 193  7021.097
 194  7065.83
 195  7721.759
 196  7879.964
 197  7241.273
 198  7096.982
 199  6983.25
 200  6758.356
 201  7299.977
 202  7150.595
 203  7074.802
 204  7345.101
 205  7008.579
 206  7293.992
 207  6269.355
 208  6932.205
 209  6914.748
 210  5988.039
 211  6362.699
 212  6326.777
 213  6081.774
 214  6350.098
 215  6057.77
 216  6156.109
 217  6396.227
 218  6275.234
 219  6668.162
 220  6856.228
 221  7409.325
 222  7473.528
 223  6777.796
 224  7341.292
 225  7743.445
 226  6834.562
 227  6570.478
 228  6675.416
 229  7166.125
 230  7053.194
 231  6291.863
 232  6513.588
 233  6573.427
 234  6847.108
 235  7017.018
 236  7104.502
 237  6962.377
 238  7369.544
 239  7149.938
 240  6986.33
 241  6755.155
 242  6810.273
 243  6424.432
 244  6584.244
 245  6638.896
 246  6670.776
 247  6768.639
 248  6647.298
 249  6991.674
 250  7286.061
 251  6898.53
 252  7164.878
 253  6604.667
 254  6670.359
 255  6306.847
