# Input file       =  1183798301.101795_cleaned.dat
# Candidate        =  PSR_0332+5434
# Telescope        =  AR
# Epoch_topo       =  57945.369445622629
# Epoch_bary       =  N/A
# T_sample         =  0.002
# Data Folded      =  7340032
# Data Avg         =  0.0447575133802038
# Data StdDev      =  1.00004390249246 
# Profile Bins     =  512
# Profile Avg      =  641.59364735739  
# Profile StdDev   =  119.738292955492 
# Reduced chi-sqr  =  0.843
# Prob(Noise)      <  0.996   (~0.0 sigma)
# P_topo (ms)      =  714.481736882484  +/- 5.37e-05
# P'_topo (s/s)    =  -0                +/- 2.83e-11
# P''_topo (s/s^2) =  0                 +/- 1.25e-14
# P_bary (ms)      =  N/A
# P'_bary (s/s)    =  N/A
# P''_bary (s/s^2) =  N/A
# P_orb (s)        =  N/A
# asin(i)/c (s)    =  N/A
# eccentricity     =  N/A
# w (rad)          =  N/A
# T_peri           =  N/A
######################################################
   0  1000.833
   1  1086.624
   2  835.1716
   3  645.4355
   4  639.1528
   5  728.4916
   6  646.4007
   7  663.4197
   8  698.4349
   9  634.1915
  10  721.9632
  11  812.0149
  12  758.5932
  13  610.5317
  14  601.5123
  15  691.5146
  16  739.2762
  17  688.6072
  18  661.3771
  19  594.3609
  20  664.8643
  21  678.6717
  22  665.4696
  23  594.3878
  24  553.7128
  25  592.3794
  26  624.6999
  27  601.03
  28  535.7659
  29  660.7687
  30  655.3588
  31  616.4208
  32  657.9069
  33  588.0801
  34  557.7039
  35  639.4506
  36  608.6349
  37  536.0431
  38  549.3614
  39  552.2983
  40  653.5909
  41  647.8202
  42  669.986
  43  546.0948
  44  504.3188
  45  594.336
  46  624.0709
  47  587.8147
  48  517.4465
  49  553.353
  50  566.1838
  51  596.7245
  52  678.5567
  53  651.6263
  54  711.2321
  55  528.7697
  56  471.0008
  57  609.5931
  58  709.0083
  59  650.0303
  60  635.7195
  61  670.0009
  62  676.7272
  63  727.3079
  64  697.0287
  65  690.001
  66  590.741
  67  554.1801
  68  663.1044
  69  593.4676
  70  632.8823
  71  682.4567
  72  639.3254
  73  654.3629
  74  618.0922
  75  512.3408
  76  622.0647
  77  596.251
  78  644.1127
  79  693.2568
  80  661.0752
  81  617.2817
  82  705.1375
  83  657.7556
  84  596.8935
  85  563.439
  86  530.8714
  87  687.3753
  88  723.8445
  89  566.8303
  90  538.7878
  91  549.3232
  92  693.2297
  93  641.8831
  94  658.5915
  95  676.4227
  96  768.9774
  97  668.3605
  98  616.7457
  99  557.5681
 100  655.8501
 101  729.4446
 102  717.0295
 103  714.8715
 104  668.9064
 105  617.9455
 106  647.6813
 107  751.5322
 108  606.85
 109  549.6223
 110  634.8812
 111  623.8691
 112  643.9555
 113  528.3436
 114  558.4182
 115  525.7302
 116  689.4091
 117  623.8373
 118  538.4805
 119  515.2065
 120  548.8278
 121  671.8933
 122  683.9695
 123  709.7365
 124  589.3
 125  654.7765
 126  605.2715
 127  444.6966
 128  472.7958
 129  585.4025
 130  713.1007
 131  726.944
 132  642.2673
 133  610.1071
 134  699.196
 135  630.3791
 136  705.7333
 137  785.932
 138  758.3013
 139  623.5729
 140  669.6002
 141  602.0662
 142  713.3139
 143  690.092
 144  726.1699
 145  769.9476
 146  721.0676
 147  671.9233
 148  560.7052
 149  660.6442
 150  683.7587
 151  597.6917
 152  642.894
 153  608.1901
 154  655.9882
 155  717.8997
 156  754.321
 157  761.1472
 158  732.5003
 159  669.5465
 160  611.6119
 161  573.6143
 162  652.9258
 163  716.5508
 164  746.5276
 165  595.9295
 166  607.4878
 167  665.698
 168  740.9258
 169  712.0945
 170  678.6163
 171  567.4575
 172  623.3216
 173  700.2818
 174  801.7958
 175  790.353
 176  658.8779
 177  607.8516
 178  592.2731
 179  588.3912
 180  672.4201
 181  668.2276
 182  752.9865
 183  819.8589
 184  730.3304
 185  706.7607
 186  715.7982
 187  691.2376
 188  778.6124
 189  794.8093
 190  713.8215
 191  644.6408
 192  664.3022
 193  680.4748
 194  611.338
 195  615.7269
 196  729.9841
 197  597.4363
 198  565.9218
 199  576.3822
 200  573.6624
 201  573.8233
 202  687.399
 203  724.7906
 204  603.0583
 205  484.2344
 206  614.6995
 207  652.7053
 208  675.7794
 209  593.4125
 210  564.7027
 211  608.6177
 212  619.7797
 213  607.7083
 214  632.4032
 215  640.8338
 216  624.955
 217  665.189
 218  621.5202
 219  542.8455
 220  590.0344
 221  648.1711
 222  598.9037
 223  587.8434
 224  603.5772
 225  650.5893
 226  642.2783
 227  679.7996
 228  671.6735
 229  671.1841
 230  720.0202
 231  757.191
 232  674.6439
 233  726.8741
 234  658.7848
 235  610.1074
 236  672.3822
 237  647.7014
 238  691.4897
 239  748.0753
 240  707.8053
 241  680.4398
 242  602.3727
 243  600.799
 244  522.7034
 245  578.5005
 246  575.9005
 247  589.4107
 248  671.9009
 249  598.8889
 250  675.1106
 251  615.3453
 252  569.7323
 253  544.5748
 254  567.4643
 255  603.556
 256  589.6497
 257  588.2088
 258  579.3335
 259  663.495
 260  781.566
 261  750.9277
 262  635.8818
 263  671.3632
 264  625.715
 265  640.8089
 266  733.8606
 267  694.8791
 268  654.4244
 269  605.0219
 270  576.7686
 271  595.702
 272  640.1851
 273  674.5166
 274  689.7944
 275  674.8882
 276  748.5925
 277  658.1404
 278  715.0013
 279  828.4583
 280  727.5981
 281  625.2751
 282  680.894
 283  610.1023
 284  690.9573
 285  651.0722
 286  609.024
 287  579.7766
 288  625.8479
 289  629.4139
 290  497.2222
 291  412.22
 292  523.7025
 293  573.7019
 294  495.5782
 295  484.8267
 296  444.185
 297  417.6759
 298  646.4834
 299  685.5472
 300  603.3477
 301  541.4714
 302  605.2394
 303  710.6207
 304  640.6477
 305  541.3251
 306  547.1689
 307  558.017
 308  609.9091
 309  603.3426
 310  679.8182
 311  603.1273
 312  580.3448
 313  630.9557
 314  601.9339
 315  571.7186
 316  612.1677
 317  700.4883
 318  697.2683
 319  536.5433
 320  466.5209
 321  609.7532
 322  684.4396
 323  646.923
 324  615.3392
 325  624.6884
 326  668.8894
 327  665.9659
 328  675.0832
 329  720.0707
 330  681.4684
 331  572.2842
 332  561.6011
 333  554.3992
 334  649.1404
 335  667.4067
 336  675.3245
 337  668.9391
 338  635.7805
 339  636.847
 340  556.7526
 341  617.6772
 342  618.9213
 343  550.6898
 344  462.5115
 345  591.4376
 346  714.6927
 347  724.9606
 348  736.171
 349  654.0934
 350  668.6725
 351  783.4844
 352  771.6783
 353  719.4238
 354  640.281
 355  639.0418
 356  695.2438
 357  647.0764
 358  650.7141
 359  724.2383
 360  634.8229
 361  589.2683
 362  655.2025
 363  557.265
 364  507.8434
 365  515.501
 366  662.3006
 367  591.3999
 368  646.9138
 369  611.2335
 370  573.5129
 371  561.5189
 372  513.4308
 373  621.7607
 374  594.2009
 375  724.3774
 376  591.7651
 377  434.7957
 378  598.8716
 379  627.8947
 380  584.159
 381  676.9056
 382  616.639
 383  594.0247
 384  653.6773
 385  631.6087
 386  664.8187
 387  581.9144
 388  543.873
 389  641.3854
 390  670.8916
 391  622.3322
 392  674.4288
 393  644.9125
 394  646.3013
 395  595.3456
 396  505.8692
 397  587.0461
 398  620.2194
 399  765.7559
 400  690.6496
 401  631.7061
 402  599.6926
 403  645.716
 404  669.0847
 405  632.9565
 406  658.4005
 407  672.3912
 408  662.312
 409  637.033
 410  557.4424
 411  693.3401
 412  716.8263
 413  660.4606
 414  683.8193
 415  594.5908
 416  620.2708
 417  657.7474
 418  674.6508
 419  662.5171
 420  512.3497
 421  616.6599
 422  650.8455
 423  691.4591
 424  716.987
 425  568.0901
 426  644.9846
 427  545.053
 428  598.9318
 429  578.0734
 430  580.0276
 431  684.0201
 432  721.8006
 433  687.8126
 434  739.0162
 435  743.2473
 436  646.8451
 437  594.8273
 438  649.195
 439  596.9639
 440  647.9067
 441  757.1479
 442  727.178
 443  761.0893
 444  546.5508
 445  511.7449
 446  639.2111
 447  568.3568
 448  585.9141
 449  717.1566
 450  681.6313
 451  681.287
 452  618.8918
 453  600.331
 454  615.179
 455  701.5293
 456  718.4381
 457  622.868
 458  615.814
 459  742.874
 460  657.79
 461  607.9188
 462  563.3812
 463  590.5309
 464  551.7133
 465  534.9619
 466  635.8257
 467  687.1
 468  601.8411
 469  560.8533
 470  667.3345
 471  637.2273
 472  508.151
 473  422.8372
 474  585.1669
 475  654.6828
 476  603.1004
 477  536.7222
 478  636.395
 479  683.8893
 480  644.9722
 481  622.9783
 482  553.787
 483  629.8186
 484  699.4919
 485  706.881
 486  682.1876
 487  684.0883
 488  649.5181
 489  673.1329
 490  684.6645
 491  640.1167
 492  663.3453
 493  772.7156
 494  715.134
 495  634.2656
 496  469.856
 497  623.7123
 498  666.7535
 499  769.5142
 500  772.7925
 501  732.5016
 502  583.0801
 503  551.2726
 504  580.1514
 505  691.2221
 506  743.3721
 507  704.5545
 508  798.7061
 509  960.5797
 510  1032.053
 511  1011.619
