# Input file       =  1183611107.093294_cleaned.dat
# Candidate        =  PSR_0332+5434
# Telescope        =  AR
# Epoch_topo       =  57943.202848302011
# Epoch_bary       =  N/A
# T_sample         =  0.002
# Data Folded      =  7340032
# Data Avg         =  0.0409853097087338
# Data StdDev      =  1.00005254028772 
# Profile Bins     =  512
# Profile Avg      =  587.932054709448 
# Profile StdDev   =  119.739327184946 
# Reduced chi-sqr  =  1.381
# Prob(Noise)      <  2.25e-08   (~5.5 sigma)
# P_topo (ms)      =  714.482949795187  +/- 0.000327
# P'_topo (s/s)    =  -0                +/- 1.72e-10
# P''_topo (s/s^2) =  0                 +/- 7.61e-14
# P_bary (ms)      =  N/A
# P'_bary (s/s)    =  N/A
# P''_bary (s/s^2) =  N/A
# P_orb (s)        =  N/A
# asin(i)/c (s)    =  N/A
# eccentricity     =  N/A
# w (rad)          =  N/A
# T_peri           =  N/A
######################################################
   0  1247.833
   1  1151.406
   2  873.9985
   3  621.2819
   4  577.6519
   5  557.8016
   6  549.0154
   7  456.2441
   8  527.5755
   9  672.2962
  10  649.5656
  11  627.4417
  12  562.2346
  13  472.0956
  14  444.9019
  15  514.1468
  16  592.8289
  17  626.6512
  18  670.0928
  19  634.6426
  20  690.623
  21  670.6552
  22  592.4537
  23  581.9476
  24  517.5189
  25  474.4084
  26  553.9249
  27  574.4758
  28  584.6248
  29  663.454
  30  620.5572
  31  538.7952
  32  553.5081
  33  581.4265
  34  480.3732
  35  548.9714
  36  611.5759
  37  660.0984
  38  512.0805
  39  594.0101
  40  585.1949
  41  596.2178
  42  598.0837
  43  559.5279
  44  487.4195
  45  538.2497
  46  623.4039
  47  707.9263
  48  617.1213
  49  576.901
  50  533.6343
  51  588.8434
  52  607.9318
  53  775.4033
  54  616.0331
  55  624.8961
  56  578.7132
  57  562.1566
  58  671.8257
  59  755.5637
  60  683.3447
  61  801.2659
  62  776.0928
  63  628.4159
  64  635.0827
  65  753.7861
  66  678.2715
  67  630.4135
  68  672.2294
  69  575.9929
  70  614.4216
  71  726.6603
  72  740.9614
  73  616.9346
  74  721.5035
  75  647.2708
  76  529.5807
  77  552.3947
  78  525.8765
  79  564.2288
  80  474.7509
  81  681.5131
  82  626.7723
  83  639.8906
  84  544.7113
  85  528.924
  86  615.0881
  87  579.0886
  88  508.5224
  89  530.9366
  90  521.0043
  91  430.537
  92  449.9836
  93  496.5995
  94  427.4232
  95  417.4319
  96  572.7342
  97  475.8275
  98  486.1556
  99  688.7314
 100  565.6411
 101  587.0971
 102  478.4088
 103  501.5951
 104  559.5194
 105  490.7737
 106  554.9679
 107  403.2976
 108  505.9466
 109  561.647
 110  561.8076
 111  543.3904
 112  582.1246
 113  618.5299
 114  676.9828
 115  637.9935
 116  608.2325
 117  583.0858
 118  606.7019
 119  529.1652
 120  575.6857
 121  595.5692
 122  633.6011
 123  575.3605
 124  495.229
 125  444.7635
 126  498.1401
 127  656.1079
 128  577.4777
 129  606.4373
 130  641.9788
 131  642.9783
 132  668.3986
 133  626.1524
 134  586.6727
 135  594.7045
 136  575.3477
 137  566.0475
 138  500.0268
 139  503.7928
 140  516.9322
 141  634.5193
 142  650.6234
 143  650.7975
 144  621.1603
 145  704.9597
 146  601.9983
 147  537.4374
 148  664.0531
 149  660.2361
 150  701.5212
 151  631.8206
 152  587.4022
 153  608.5739
 154  621.9785
 155  607.0161
 156  500.6612
 157  569.6719
 158  629.4194
 159  618.8983
 160  710.6794
 161  689.4638
 162  582.2971
 163  562.9156
 164  615.265
 165  560.6591
 166  461.2005
 167  539.7903
 168  524.3076
 169  517.6848
 170  564.4863
 171  477.6343
 172  475.757
 173  466.0229
 174  523.8401
 175  503.3125
 176  464.6839
 177  463.5164
 178  546.2584
 179  531.422
 180  625.8573
 181  635.9786
 182  662.5919
 183  635.9722
 184  625.828
 185  611.686
 186  625.7597
 187  624.8633
 188  682.7314
 189  640.9795
 190  484.4546
 191  402.1584
 192  624.5508
 193  689.3108
 194  540.4296
 195  626.2606
 196  698.6432
 197  648.1051
 198  610.2781
 199  631.7908
 200  691.1715
 201  809.51
 202  773.6127
 203  667.6411
 204  731.8609
 205  747.8728
 206  740.5552
 207  681.019
 208  682.8079
 209  657.0856
 210  601.5954
 211  651.4462
 212  716.7992
 213  668.7213
 214  604.5144
 215  567.8188
 216  595.0324
 217  599.1932
 218  617.0496
 219  632.7185
 220  629.1191
 221  664.6432
 222  639.4214
 223  632.7
 224  612.3384
 225  621.201
 226  643.0819
 227  631.6384
 228  751.6711
 229  733.5585
 230  759.438
 231  734.9833
 232  740.334
 233  739.5494
 234  776.5693
 235  676.5005
 236  681.5315
 237  705.4327
 238  667.3818
 239  631.3572
 240  574.9426
 241  650.0411
 242  656.4788
 243  612.9528
 244  573.1017
 245  677.1948
 246  609.4086
 247  502.0439
 248  556.0732
 249  582.7714
 250  640.6548
 251  618.3224
 252  544.7711
 253  557.6793
 254  520.8565
 255  540.4852
 256  497.2188
 257  520.266
 258  552.2556
 259  621.3284
 260  698.6769
 261  616.0497
 262  542.0695
 263  577.8899
 264  497.0846
 265  493.253
 266  496.1083
 267  556.9409
 268  661.6672
 269  681.6411
 270  551.1475
 271  527.5247
 272  531.9615
 273  622.4628
 274  667.0253
 275  677.506
 276  634.9484
 277  599.5704
 278  555.0761
 279  602.5698
 280  604.4592
 281  656.135
 282  717.7323
 283  753.5413
 284  741.5032
 285  662.5233
 286  609.9456
 287  564.2551
 288  622.4073
 289  649.4782
 290  648.6746
 291  595.4839
 292  552.3318
 293  569.8939
 294  585.7662
 295  537.8276
 296  534.4952
 297  475.7691
 298  581.4654
 299  562.5327
 300  574.4465
 301  694.6251
 302  576.0894
 303  579.1988
 304  664.4841
 305  651.8934
 306  570.3641
 307  475.1754
 308  560.821
 309  510.58
 310  455.3329
 311  488.3915
 312  523.1345
 313  567.0225
 314  529.3826
 315  536.5605
 316  563.3272
 317  602.8382
 318  601.7583
 319  698.1194
 320  735.939
 321  739.6367
 322  666.4907
 323  737.5038
 324  726.0571
 325  763.9883
 326  724.6719
 327  724.2377
 328  725.1509
 329  692.2426
 330  605.2062
 331  581.619
 332  543.9057
 333  618.2359
 334  685.3077
 335  591.3544
 336  494.5633
 337  549.0349
 338  523.9496
 339  470.8941
 340  458.6387
 341  627.6745
 342  655.5571
 343  567.2721
 344  501.772
 345  368.686
 346  470.2675
 347  443.1023
 348  420.8729
 349  359.7834
 350  460.6182
 351  528.7507
 352  459.8641
 353  568.0113
 354  621.4886
 355  575.2369
 356  598.5002
 357  590.006
 358  665.6659
 359  581.1787
 360  548.7883
 361  567.8102
 362  561.9102
 363  553.5709
 364  619.5433
 365  641.415
 366  695.3407
 367  675.5139
 368  647.8271
 369  574.5992
 370  586.7479
 371  616.2552
 372  559.027
 373  476.6129
 374  469.3878
 375  504.3451
 376  550.877
 377  619.8898
 378  649.0728
 379  569.4046
 380  514.2998
 381  522.8466
 382  486.6389
 383  423.8072
 384  418.0237
 385  475.3347
 386  503.2649
 387  443.3822
 388  312.0317
 389  365.3109
 390  394.5539
 391  438.167
 392  476.8669
 393  412.2397
 394  387.5419
 395  379.1548
 396  454.9606
 397  501.1458
 398  509.8144
 399  522.4125
 400  498.2883
 401  444.4194
 402  497.969
 403  534.05
 404  682.1125
 405  656.3786
 406  651.9207
 407  582.1182
 408  603.2069
 409  642.3815
 410  576.2822
 411  582.3317
 412  675.1552
 413  674.9865
 414  539.4822
 415  601.8862
 416  565.2586
 417  535.9293
 418  540.0582
 419  593.303
 420  586.5126
 421  619.1031
 422  565.28
 423  549.6274
 424  548.2161
 425  474.2316
 426  412.1141
 427  474.3308
 428  570.717
 429  630.8013
 430  571.9724
 431  525.4153
 432  507.649
 433  439.5157
 434  537.9894
 435  598.1497
 436  573.4041
 437  456.4978
 438  541.629
 439  489.3367
 440  508.928
 441  399.1895
 442  359.4724
 443  353.3882
 444  505.917
 445  556.7718
 446  556.7273
 447  470.0745
 448  510.346
 449  442.0338
 450  510.8408
 451  571.0515
 452  473.6413
 453  458.5605
 454  490.9933
 455  587.2576
 456  650.6516
 457  550.6438
 458  475.8031
 459  452.9278
 460  499.7933
 461  527.6014
 462  454.7297
 463  562.1027
 464  588.4191
 465  534.252
 466  498.6633
 467  510.0257
 468  513.0717
 469  572.7629
 470  624.4137
 471  611.4634
 472  569.9751
 473  578.1342
 474  495.1049
 475  454.556
 476  536.7401
 477  517.6408
 478  476.5727
 479  503.4729
 480  469.6582
 481  474.33
 482  581.0068
 483  628.7106
 484  582.1304
 485  591.1456
 486  513.2894
 487  600.8884
 488  675.4123
 489  678.335
 490  741.5164
 491  804.0272
 492  719.1974
 493  693.3409
 494  686.6913
 495  603.1832
 496  586.5248
 497  617.5891
 498  602.2313
 499  532.7149
 500  558.7869
 501  553.2928
 502  526.6566
 503  620.5396
 504  625.6154
 505  591.1412
 506  646.7466
 507  723.0596
 508  776.261
 509  832.7128
 510  1121.699
 511  1223.035
