# Input file       =  1183626022.165991_cleaned.dat
# Candidate        =  PSR_0332+5434
# Telescope        =  AR
# Epoch_topo       =  57943.375476458226
# Epoch_bary       =  N/A
# T_sample         =  0.002
# Data Folded      =  7340032
# Data Avg         =  0.257263212265181
# Data StdDev      =  5.57383701840907 
# Profile Bins     =  1024
# Profile Avg      =  1844.11271503131 
# Profile StdDev   =  471.903571171716 
# Reduced chi-sqr  =  0.599
# Prob(Noise)      <  1   (~0.0 sigma)
# P_topo (ms)      =  714.483159783427  +/- 0.000627
# P'_topo (s/s)    =  -0                +/- 3.31e-10
# P''_topo (s/s^2) =  0                 +/- 1.46e-13
# P_bary (ms)      =  N/A
# P'_bary (s/s)    =  N/A
# P''_bary (s/s^2) =  N/A
# P_orb (s)        =  N/A
# asin(i)/c (s)    =  N/A
# eccentricity     =  N/A
# w (rad)          =  N/A
# T_peri           =  N/A
######################################################
   0  1550.005
   1  1671.847
   2  1758.16
   3  1801.385
   4  1720.488
   5  1755.469
   6  1697.816
   7  1678.725
   8  1701.007
   9  1743.071
  10  1712.067
  11  1561.849
  12  1596.98
  13  1800.384
  14  1832.036
  15  1815.26
  16  1742.427
  17  1821.549
  18  1674.686
  19  1410.16
  20  1331.853
  21  1529.806
  22  1661.409
  23  1538.702
  24  1434.028
  25  1426.759
  26  1473.291
  27  1397.471
  28  1466.672
  29  1553.447
  30  1638.535
  31  1665.255
  32  1565.756
  33  1495.138
  34  1439.899
  35  1424.464
  36  1426.238
  37  1410.455
  38  1494.08
  39  1639.114
  40  1675.143
  41  1575.634
  42  1525.577
  43  1561.267
  44  1679.483
  45  1729.921
  46  1794.746
  47  1768.064
  48  1667.759
  49  1657.291
  50  1709.324
  51  1825.336
  52  1806.185
  53  1791.667
  54  1757.9
  55  1791.82
  56  1804.585
  57  1749.392
  58  1625.504
  59  1685.534
  60  1763.91
  61  1909.323
  62  1985.8
  63  2041.347
  64  2023.443
  65  1952.065
  66  1891.096
  67  1857.708
  68  1733.395
  69  1668.253
  70  1492.416
  71  1531.147
  72  1473.371
  73  1615.523
  74  1646.962
  75  1696.154
  76  1714.346
  77  1731.602
  78  1725.998
  79  1790.915
  80  1809.609
  81  1802.024
  82  1776.451
  83  1805.052
  84  1829.901
  85  1854.249
  86  1899.627
  87  1938.289
  88  1944.603
  89  1967.572
  90  1934.045
  91  2010.882
  92  1977.49
  93  2013.759
  94  2055.521
  95  2067.671
  96  2094.016
  97  2104.099
  98  2194.443
  99  2193.874
 100  2210.339
 101  1988.588
 102  2017.564
 103  2002.221
 104  2083.254
 105  1903.813
 106  1835.635
 107  1807.821
 108  1895.383
 109  1947.369
 110  2138.123
 111  2152.749
 112  2116.674
 113  2080.048
 114  2143.957
 115  2248.73
 116  2171.547
 117  2040.045
 118  1774.398
 119  1722.222
 120  1691.024
 121  1757.881
 122  1755.073
 123  1762.896
 124  1854.494
 125  1892.844
 126  1750.272
 127  1515.28
 128  1381.452
 129  1501.192
 130  1559.38
 131  1542.855
 132  1574.881
 133  1730.329
 134  1801.969
 135  1887.733
 136  1781.999
 137  1775.443
 138  1718.872
 139  1719.736
 140  1707.923
 141  1680.172
 142  1637.29
 143  1522.115
 144  1561.764
 145  1534.815
 146  1596.507
 147  1600.057
 148  1660.348
 149  1644.883
 150  1728.829
 151  1794.025
 152  1713.736
 153  1630.976
 154  1595.326
 155  1633.179
 156  1631.813
 157  1647.68
 158  1610.015
 159  1684.567
 160  1660.73
 161  1720.473
 162  1781.591
 163  1853.336
 164  1894.903
 165  1823.026
 166  1822.097
 167  1826.823
 168  1806.628
 169  1903.773
 170  1839.681
 171  1878.13
 172  1869.185
 173  1861.083
 174  1809.395
 175  1815.007
 176  1884.824
 177  1936.611
 178  1989.356
 179  2037.845
 180  2024.93
 181  1813.421
 182  1696.44
 183  1759.462
 184  1913.643
 185  1950.176
 186  1807.294
 187  1811.575
 188  1866.047
 189  1930.738
 190  1962.056
 191  1835.027
 192  1858.947
 193  1926.958
 194  1898.173
 195  1781.156
 196  1714.201
 197  1757.348
 198  1819.107
 199  1790.784
 200  1792.777
 201  1789.175
 202  1824.98
 203  1881.593
 204  1914.139
 205  1904.65
 206  1878.429
 207  1777.112
 208  1638.448
 209  1519.287
 210  1600.349
 211  1672.028
 212  1737.395
 213  1705.746
 214  1688.055
 215  1758.976
 216  1733.287
 217  1760.094
 218  1853.025
 219  1828.624
 220  1705.624
 221  1690.598
 222  1672.308
 223  1709.404
 224  1668.496
 225  1800.966
 226  1886.127
 227  1946.456
 228  1942.971
 229  1800.429
 230  1666.564
 231  1859.306
 232  1856.75
 233  1875.943
 234  1722.767
 235  1655.14
 236  1722.38
 237  1778.328
 238  1847.47
 239  1870.028
 240  1860.783
 241  1870.944
 242  1828.579
 243  1810.626
 244  1741.837
 245  1831.834
 246  1967.439
 247  1968.588
 248  1928.938
 249  1958.526
 250  1911.046
 251  1848.311
 252  1695.37
 253  1752.352
 254  1756.054
 255  1831.311
 256  1981.951
 257  1935.625
 258  1905.513
 259  1844.568
 260  1979.11
 261  2133.249
 262  2138.673
 263  2042.952
 264  1971.127
 265  1959.156
 266  1913.027
 267  1929.164
 268  1838.354
 269  1799.659
 270  1807.079
 271  1804.101
 272  1822.879
 273  1761.313
 274  1678.064
 275  1562.52
 276  1590.863
 277  1759.381
 278  1775.608
 279  1739.511
 280  1802.895
 281  1968.521
 282  2104.605
 283  1930.542
 284  1877.256
 285  1764.706
 286  1823.099
 287  1909.201
 288  1992.617
 289  2028.011
 290  1820.189
 291  1737.886
 292  1769.981
 293  1925.441
 294  1957.756
 295  1946.429
 296  1959.351
 297  1820.993
 298  1703.91
 299  1678.14
 300  1726.9
 301  1753.867
 302  1767.532
 303  1754.236
 304  1684.353
 305  1604.347
 306  1698.402
 307  1743.085
 308  1835.179
 309  1817.958
 310  1956.584
 311  1961.648
 312  1819.502
 313  1585.159
 314  1470.417
 315  1513.163
 316  1609.584
 317  1626.327
 318  1626.018
 319  1618.334
 320  1666.509
 321  1761.441
 322  1766.096
 323  1729.542
 324  1745.57
 325  1708.742
 326  1794.742
 327  1793.292
 328  1881.422
 329  1781.484
 330  1697.531
 331  1571.334
 332  1624.019
 333  1614.462
 334  1684.456
 335  1650.638
 336  1682.956
 337  1598.445
 338  1532.202
 339  1568.61
 340  1648.563
 341  1669.162
 342  1610.674
 343  1648.683
 344  1746.622
 345  1695.736
 346  1806.304
 347  1890.241
 348  1969.469
 349  2005.441
 350  2052.839
 351  2167.523
 352  2088.597
 353  2022.416
 354  2009.01
 355  2058.286
 356  2081.364
 357  2020.675
 358  1877.006
 359  1741.894
 360  1765.349
 361  1867.19
 362  1921.594
 363  1930.207
 364  2019.144
 365  2014.679
 366  2011.762
 367  1927.928
 368  1810.47
 369  1717.478
 370  1700.809
 371  1711.938
 372  1634.059
 373  1655.655
 374  1679.682
 375  1662.124
 376  1580.064
 377  1700.601
 378  1867.505
 379  1950.96
 380  1840.677
 381  1898.994
 382  1842.779
 383  1718.743
 384  1602.879
 385  1584.048
 386  1472.061
 387  1541.898
 388  1533.536
 389  1635.296
 390  1708.735
 391  1786.426
 392  1843.56
 393  1758.36
 394  1765.091
 395  1797.562
 396  1935.106
 397  1931.13
 398  2008.566
 399  2086.898
 400  2026.642
 401  1950.708
 402  1845.205
 403  1761.789
 404  1643.955
 405  1598.664
 406  1679.272
 407  1608.969
 408  1457.564
 409  1418.337
 410  1475.704
 411  1570.562
 412  1471.641
 413  1584.93
 414  1653.868
 415  1640.656
 416  1634.402
 417  1664.799
 418  1763.564
 419  1682.023
 420  1555.203
 421  1389.384
 422  1446.961
 423  1528.722
 424  1668.36
 425  1728.825
 426  1721.03
 427  1753.702
 428  1763.324
 429  1879.407
 430  1960.485
 431  2025.569
 432  1994.107
 433  2005.764
 434  1998.416
 435  1901.728
 436  1859.597
 437  1997.903
 438  2109.226
 439  2216.169
 440  2066.385
 441  1983.243
 442  1830.912
 443  1854.338
 444  1945.682
 445  1976.135
 446  2000.983
 447  1950.02
 448  2038.131
 449  2038.506
 450  1977.308
 451  2010.575
 452  2103.489
 453  2111.167
 454  2134.318
 455  2040.297
 456  2038.352
 457  2058.201
 458  2059.075
 459  1977.484
 460  1835.877
 461  1954.638
 462  1987.539
 463  1937.02
 464  1832.184
 465  1850.209
 466  1865.32
 467  1920.409
 468  1993.937
 469  2009.481
 470  1945.801
 471  1908.83
 472  1921.891
 473  1996.445
 474  2008.704
 475  1981.442
 476  2039.407
 477  1961.932
 478  1800.105
 479  1654.348
 480  1685.207
 481  1813.931
 482  1827.044
 483  1794.997
 484  1684.542
 485  1661.293
 486  1708.17
 487  1791.196
 488  1855.94
 489  1854.105
 490  1862.526
 491  1824.572
 492  1891.795
 493  1872.58
 494  1903.039
 495  1989.178
 496  2010.962
 497  2140.735
 498  2058.469
 499  2072.234
 500  1912.825
 501  1840.22
 502  1750.844
 503  1788.404
 504  1913.092
 505  2075.389
 506  2148.418
 507  2088.156
 508  2005.558
 509  2034.127
 510  2122.524
 511  2082.314
 512  2168.999
 513  2203.045
 514  2182.422
 515  2152.27
 516  2173.938
 517  2176.844
 518  2136.308
 519  2126.956
 520  2233.529
 521  2308.919
 522  2319.049
 523  2236.278
 524  2121.75
 525  1951.068
 526  1904.739
 527  1842.365
 528  1858.8
 529  2050.142
 530  2123.133
 531  2094.393
 532  2010.71
 533  1951.311
 534  2024.894
 535  2040.617
 536  1922.751
 537  1932.426
 538  1997.746
 539  2142.915
 540  2036.867
 541  2060.883
 542  2074.234
 543  2091.542
 544  2032.67
 545  1924.283
 546  1776.671
 547  1568.9
 548  1466.518
 549  1447.091
 550  1573.088
 551  1701.212
 552  1799.044
 553  1795.036
 554  1834.282
 555  1780.941
 556  1789.701
 557  1646.927
 558  1592.1
 559  1535.959
 560  1563.142
 561  1659.949
 562  1718.446
 563  1652.921
 564  1623.373
 565  1628.815
 566  1607.354
 567  1731.525
 568  1711.791
 569  1852.08
 570  1758.852
 571  1824.3
 572  1715.346
 573  1743.98
 574  1749.982
 575  1954.927
 576  1996.467
 577  1894.844
 578  1681.083
 579  1663.769
 580  1777.127
 581  1802.524
 582  1868.828
 583  1827.168
 584  1776.675
 585  1736.154
 586  1665.409
 587  1737.04
 588  1803.123
 589  1977.155
 590  2055.663
 591  1976.012
 592  2032.401
 593  2082.233
 594  2169.596
 595  2179.445
 596  2198.933
 597  2229.421
 598  2163.253
 599  2116.779
 600  2086.222
 601  2040.801
 602  2045.485
 603  2043.015
 604  2074.301
 605  2022.267
 606  2035.902
 607  2116.588
 608  2204.14
 609  2203.98
 610  2240.761
 611  2218.767
 612  2232.057
 613  2175.26
 614  2208.174
 615  2275.841
 616  2187.549
 617  2102.554
 618  2158.374
 619  2219.806
 620  2180.725
 621  2072.242
 622  2155.469
 623  2205.552
 624  2245.258
 625  2206.125
 626  2121.335
 627  2080.113
 628  2234.267
 629  2335.365
 630  2235.188
 631  2105.79
 632  2191.79
 633  2216.709
 634  2161.06
 635  2031.968
 636  2107.811
 637  2081.761
 638  2230.622
 639  2184.318
 640  2270.239
 641  2209.598
 642  2172.23
 643  2167.331
 644  2158.589
 645  2210.398
 646  2247.375
 647  2380.964
 648  2400.648
 649  2471.379
 650  2510.2
 651  2664.572
 652  2830.711
 653  2926.536
 654  2995.667
 655  2874.036
 656  2650.259
 657  2355.066
 658  2135.19
 659  1966.427
 660  1890.437
 661  1712.042
 662  1574.903
 663  1548.044
 664  1744.414
 665  1862.424
 666  1955.187
 667  1944.724
 668  1895.821
 669  1892.153
 670  1927.724
 671  1944.355
 672  1861.634
 673  1835.388
 674  1834.967
 675  1898.205
 676  1941.546
 677  1909.813
 678  1863.994
 679  1936.618
 680  2132.67
 681  2282.666
 682  2237.515
 683  2134.399
 684  2012.514
 685  1983.189
 686  1990.229
 687  1997.067
 688  2008.554
 689  2030.374
 690  2084.069
 691  2161.389
 692  2061.398
 693  1908.093
 694  1855.849
 695  1898.142
 696  1956.058
 697  2047.595
 698  2137.195
 699  2113.617
 700  1963.65
 701  1768.314
 702  1629.839
 703  1582.716
 704  1662.062
 705  1719.363
 706  1676.174
 707  1566.873
 708  1544.439
 709  1660.366
 710  1792.333
 711  1804.575
 712  1781.557
 713  1657.163
 714  1553.339
 715  1498.301
 716  1487.363
 717  1472.813
 718  1699.181
 719  1774.327
 720  1771.977
 721  1621.306
 722  1733.33
 723  1820.508
 724  1849.327
 725  1626.731
 726  1616.569
 727  1602.116
 728  1549.322
 729  1513.088
 730  1575.445
 731  1632.563
 732  1541.153
 733  1421.995
 734  1440.776
 735  1490.554
 736  1585.411
 737  1606.179
 738  1692.555
 739  1712.682
 740  1797.755
 741  1702.309
 742  1717.922
 743  1676.205
 744  1613.187
 745  1586.397
 746  1610.183
 747  1590.818
 748  1565.38
 749  1660.63
 750  1799.861
 751  1830.908
 752  1762.619
 753  1734.047
 754  1770.392
 755  1802.953
 756  1813.037
 757  1731.082
 758  1690.383
 759  1726.108
 760  1922.243
 761  1911.768
 762  1793.185
 763  1786.328
 764  1829.559
 765  1865.702
 766  1796.383
 767  1934.791
 768  1974.309
 769  1950.023
 770  1913.937
 771  1937.734
 772  1903.878
 773  1810.016
 774  1742.022
 775  1841.135
 776  2025.064
 777  2064.884
 778  2067.886
 779  2024.596
 780  2123.074
 781  2157.864
 782  2233.651
 783  2189.124
 784  2146.081
 785  1989.477
 786  1969.351
 787  1915.58
 788  1869.777
 789  1756.984
 790  1654.987
 791  1677.975
 792  1729.175
 793  1900.789
 794  1900.827
 795  1940.723
 796  1904.471
 797  2012.248
 798  1950.08
 799  1865.952
 800  1827.538
 801  1796.984
 802  1788.846
 803  1769.908
 804  1820.915
 805  1745.378
 806  1655.044
 807  1630.044
 808  1694.152
 809  1731.86
 810  1777.458
 811  1780.264
 812  1772.169
 813  1757.674
 814  1711.291
 815  1687.3
 816  1749.723
 817  1838.369
 818  1860.878
 819  1705.615
 820  1639.296
 821  1625.583
 822  1737.215
 823  1784.381
 824  1766.112
 825  1691.246
 826  1685.913
 827  1693.549
 828  1695.609
 829  1577.287
 830  1574.342
 831  1654.177
 832  1720.484
 833  1776.083
 834  1759.272
 835  1800.191
 836  1760.421
 837  1767.863
 838  1749.63
 839  1783.38
 840  1834.679
 841  1817.528
 842  1783.904
 843  1764.592
 844  1794.878
 845  1898.724
 846  1937.156
 847  1969.504
 848  1898.808
 849  1887.09
 850  1782.19
 851  1732.107
 852  1816.984
 853  1786.429
 854  1729.617
 855  1782.309
 856  1811.575
 857  1893.657
 858  1901.729
 859  1930.525
 860  1947.751
 861  1880.825
 862  1889.612
 863  1934.6
 864  1848.461
 865  1777.976
 866  1778.558
 867  1902.521
 868  1859.555
 869  1866.751
 870  1952.544
 871  2051.425
 872  2010.267
 873  1955.256
 874  1921.693
 875  1883.296
 876  1830.484
 877  1855.954
 878  1884.844
 879  1852.906
 880  1919.675
 881  1898.388
 882  1813.32
 883  1725.19
 884  1748.258
 885  1875.125
 886  1945.519
 887  2063.325
 888  2032.678
 889  1962.159
 890  1832.694
 891  1756.089
 892  1774.386
 893  1715.603
 894  1672.436
 895  1613.15
 896  1662.051
 897  1781.332
 898  1857.908
 899  1831.767
 900  1897.037
 901  1858.714
 902  1873.664
 903  1904.127
 904  1964.417
 905  2074.737
 906  1996.501
 907  2027.993
 908  1981.671
 909  2008.651
 910  1927.446
 911  1922.938
 912  1906.04
 913  1718.077
 914  1845.392
 915  1801.128
 916  2045.208
 917  1799.124
 918  1832.691
 919  1753.855
 920  1876.469
 921  1861.671
 922  1931.622
 923  1991.929
 924  2065.617
 925  2081.013
 926  2106.052
 927  2108.73
 928  2009.753
 929  1950.879
 930  1919.578
 931  1814.696
 932  1725.496
 933  1655.41
 934  1616.988
 935  1673.665
 936  1783.455
 937  1881.726
 938  2011.401
 939  2125.437
 940  2168.617
 941  2156.314
 942  2065.688
 943  2091.49
 944  2024.011
 945  1983.885
 946  2044.589
 947  1956.229
 948  1981.37
 949  1874.161
 950  1834.473
 951  1724.653
 952  1853.604
 953  1884.366
 954  1858.828
 955  1836.005
 956  1913.172
 957  1876.422
 958  1853.139
 959  1754.953
 960  1743.001
 961  1713.428
 962  1753.579
 963  1734.154
 964  1634.137
 965  1569.938
 966  1553.501
 967  1532.162
 968  1608.775
 969  1740.582
 970  1836.44
 971  1764.702
 972  1653.216
 973  1757.248
 974  1762.691
 975  1825.795
 976  1719.69
 977  1708.075
 978  1694.623
 979  1761.756
 980  1854.853
 981  1818.608
 982  1857.461
 983  1894.496
 984  1932.47
 985  1833.69
 986  1810.5
 987  1704.109
 988  1797.11
 989  1740.309
 990  1622.699
 991  1641.997
 992  1721.565
 993  1688.473
 994  1533.243
 995  1631.143
 996  1728.439
 997  1773.601
 998  1703.68
 999  1624.036
1000  1543.804
1001  1567.493
1002  1638.042
1003  1802.719
1004  1890.295
1005  1942.014
1006  1887.303
1007  1839.513
1008  1867.941
1009  1941.476
1010  1908.131
1011  1829.186
1012  1755.529
1013  1689.053
1014  1685.532
1015  1682.436
1016  1843.405
1017  2008.237
1018  1964.152
1019  1980.921
1020  1858.381
1021  1824.965
1022  1707.704
1023  1639.059
