# Input file       =  1183251928.112236_cleaned.dat
# Candidate        =  PSR_0332+5434
# Telescope        =  AR
# Epoch_topo       =  57939.045684169396
# Epoch_bary       =  N/A
# T_sample         =  0.002
# Data Folded      =  7143424
# Data Avg         =  0.0993400035936538
# Data StdDev      =  3.97439638048634 
# Profile Bins     =  1024
# Profile Avg      =  693.046044402273 
# Profile StdDev   =  331.951331201456 
# Reduced chi-sqr  =  0.708
# Prob(Noise)      <  1   (~0.0 sigma)
# P_topo (ms)      =  714.486036506182  +/- 0.000552
# P'_topo (s/s)    =  -0                +/- 2.99e-10
# P''_topo (s/s^2) =  0                 +/- 1.36e-13
# P_bary (ms)      =  N/A
# P'_bary (s/s)    =  N/A
# P''_bary (s/s^2) =  N/A
# P_orb (s)        =  N/A
# asin(i)/c (s)    =  N/A
# eccentricity     =  N/A
# w (rad)          =  N/A
# T_peri           =  N/A
######################################################
   0  805.5974
   1  846.8269
   2  963.8481
   3  1057.846
   4  882.6899
   5  584.3685
   6  507.7
   7  638.9698
   8  691.4614
   9  653.8543
  10  692.7589
  11  789.874
  12  796.3109
  13  709.963
  14  673.4171
  15  695.0685
  16  655.709
  17  775.2466
  18  723.983
  19  653.009
  20  493.0523
  21  592.0953
  22  683.2144
  23  699.3904
  24  680.1108
  25  539.5061
  26  460.3029
  27  433.5034
  28  605.7957
  29  623.8302
  30  749.535
  31  793.56
  32  879.3275
  33  696.9623
  34  769.0048
  35  767.1129
  36  780.2062
  37  655.6891
  38  660.4685
  39  778.5408
  40  702.8367
  41  520.5641
  42  430.7052
  43  456.4497
  44  519.4717
  45  521.8843
  46  642.2339
  47  585.1608
  48  602.0474
  49  605.706
  50  667.1893
  51  631.7511
  52  569.2228
  53  582.6649
  54  586.5037
  55  579.8181
  56  595.668
  57  552.9212
  58  511.0306
  59  496.0378
  60  474.6115
  61  518.0322
  62  520.5327
  63  508.0645
  64  585.6797
  65  753.0308
  66  622.4748
  67  626.0878
  68  642.6281
  69  683.4996
  70  624.7986
  71  562.3652
  72  628.2757
  73  567.7329
  74  443.586
  75  364.1386
  76  421.0445
  77  551.9286
  78  638.3613
  79  647.5872
  80  717.2975
  81  708.0472
  82  810.663
  83  690.3798
  84  612.9584
  85  520.4738
  86  507.919
  87  639.8992
  88  731.8921
  89  770.8347
  90  715.5196
  91  594.6307
  92  540.5018
  93  487.495
  94  567.0028
  95  517.7618
  96  583.9376
  97  571.1475
  98  724.2714
  99  851.2305
 100  805.2447
 101  733.7304
 102  608.4572
 103  604.949
 104  719.4964
 105  651.788
 106  601.7303
 107  485.1262
 108  522.9392
 109  601.8215
 110  589.4117
 111  696.226
 112  661.0151
 113  649.6592
 114  536.887
 115  480.8011
 116  459.1019
 117  479.304
 118  571.2598
 119  656.4304
 120  737.0418
 121  839.3928
 122  815.7348
 123  757.1627
 124  797.6176
 125  826.9662
 126  833.9954
 127  776.4298
 128  794.0059
 129  783.3688
 130  790.559
 131  815.6315
 132  815.6867
 133  764.9661
 134  600.379
 135  594.0681
 136  599.598
 137  734.4218
 138  802.7321
 139  871.8521
 140  886.5369
 141  819.8977
 142  804.6522
 143  750.3374
 144  757.1261
 145  734.8825
 146  704.5464
 147  677.7375
 148  630.0115
 149  566.9915
 150  516.9376
 151  468.3202
 152  571.0025
 153  650.8265
 154  791.2529
 155  787.2469
 156  733.2371
 157  555.9639
 158  591.3214
 159  552.7302
 160  494.544
 161  530.6447
 162  634.804
 163  714.8475
 164  743.6596
 165  705.4055
 166  718.7538
 167  733.8105
 168  759.0021
 169  898.0856
 170  927.8286
 171  816.9426
 172  686.5678
 173  608.9423
 174  653.7164
 175  579.7479
 176  501.9706
 177  477.6633
 178  483.8151
 179  542.2776
 180  573.3233
 181  596.0307
 182  670.1572
 183  698.6168
 184  738.8558
 185  658.6581
 186  613.5513
 187  467.643
 188  512.9172
 189  481.7035
 190  456.1038
 191  379.7478
 192  543.4797
 193  598.0333
 194  725.8221
 195  625.0027
 196  645.5573
 197  575.7293
 198  593.3445
 199  638.8942
 200  714.2827
 201  653.0677
 202  666.5485
 203  566.0759
 204  518.1339
 205  295.8455
 206  482.8226
 207  624.9067
 208  656.7239
 209  484.5244
 210  538.8668
 211  649.9014
 212  718.7224
 213  725.8397
 214  713.0417
 215  693.3799
 216  643.8539
 217  609.2379
 218  482.7393
 219  456.7831
 220  577.8385
 221  712.2378
 222  703.7313
 223  712.0638
 224  610.2863
 225  542.1238
 226  410.1413
 227  478.1566
 228  575.7713
 229  709.7903
 230  693.663
 231  668.4036
 232  673.7587
 233  700.1129
 234  683.3492
 235  652.7468
 236  604.6493
 237  597.1393
 238  550.9055
 239  566.5005
 240  445.9399
 241  337.6053
 242  561.7566
 243  722.8221
 244  854.5756
 245  675.7908
 246  678.5556
 247  716.9953
 248  767.6212
 249  662.4723
 250  648.1044
 251  566.2025
 252  691.6503
 253  735.833
 254  800.2784
 255  678.6855
 256  745.6688
 257  814.3785
 258  881.8828
 259  723.0178
 260  796.7035
 261  788.6293
 262  767.7686
 263  722.1405
 264  802.7102
 265  766.5283
 266  754.1424
 267  767.9356
 268  848.9275
 269  863.6206
 270  884.1828
 271  936.8652
 272  718.7808
 273  557.5244
 274  524.5208
 275  723.381
 276  784.1323
 277  675.1122
 278  630.3148
 279  706.2586
 280  824.3669
 281  924.7665
 282  926.5693
 283  825.5308
 284  647.143
 285  631.4694
 286  678.6686
 287  640.7584
 288  674.0933
 289  657.9487
 290  659.1353
 291  578.9224
 292  595.6005
 293  683.2443
 294  690.3485
 295  819.5322
 296  819.0747
 297  946.832
 298  894.6948
 299  782.7725
 300  601.1384
 301  610.4706
 302  726.8322
 303  730.1254
 304  660.3179
 305  644.9778
 306  690.0858
 307  781.7996
 308  727.9401
 309  599.5263
 310  455.0229
 311  408.1704
 312  442.2132
 313  467.3749
 314  560.5499
 315  593.5748
 316  593.7638
 317  591.4913
 318  698.7145
 319  824.902
 320  820.9376
 321  839.2061
 322  677.7342
 323  628.9681
 324  364.1766
 325  406.6649
 326  483.4994
 327  586.1815
 328  721.1461
 329  694.2689
 330  624.8264
 331  562.9429
 332  625.2663
 333  660.8675
 334  464.6905
 335  480.6827
 336  581.8976
 337  778.0466
 338  718.4802
 339  773.3127
 340  919.2322
 341  1036.642
 342  994.8157
 343  906.4522
 344  980.6099
 345  891.4788
 346  848.1041
 347  724.0699
 348  715.2261
 349  559.3782
 350  544.428
 351  628.8945
 352  753.9877
 353  662.1521
 354  642.2328
 355  691.7811
 356  738.1755
 357  667.4616
 358  604.627
 359  578.9727
 360  707.2621
 361  673.6041
 362  817.4092
 363  865.2356
 364  893.8539
 365  717.541
 366  663.1986
 367  576.6877
 368  542.4339
 369  602.308
 370  616.5901
 371  666.6208
 372  631.7825
 373  741.392
 374  688.3566
 375  668.1771
 376  721.147
 377  823.6873
 378  848.0582
 379  768.0577
 380  682.3561
 381  636.4435
 382  561.6904
 383  667.9798
 384  757.061
 385  776.5854
 386  571.7853
 387  509.0366
 388  443.2642
 389  438.9607
 390  397.8243
 391  550.8273
 392  595.5644
 393  690.8384
 394  794.944
 395  882.7933
 396  747.389
 397  604.2126
 398  508.8302
 399  560.9166
 400  553.5172
 401  615.7603
 402  700.1162
 403  692.0959
 404  659.8005
 405  697.581
 406  733.6319
 407  683.1644
 408  671.5551
 409  647.6397
 410  641.707
 411  588.9926
 412  625.0189
 413  686.4653
 414  615.7646
 415  546.5483
 416  662.9909
 417  750.2148
 418  766.3985
 419  638.6836
 420  492.6048
 421  477.6727
 422  497.8885
 423  601.4807
 424  721.6191
 425  768.9002
 426  708.597
 427  625.0062
 428  660.8403
 429  621.6472
 430  530.9415
 431  595.2106
 432  646.986
 433  692.216
 434  725.2246
 435  734.0427
 436  754.4005
 437  622.1119
 438  623.0498
 439  610.0176
 440  600.8149
 441  692.3183
 442  598.4381
 443  639.093
 444  626.0221
 445  809.0745
 446  744.5356
 447  636.0759
 448  598.5794
 449  741.3395
 450  771.3474
 451  723.8781
 452  585.5118
 453  669.4404
 454  651.5576
 455  696.1755
 456  642.3641
 457  553.5398
 458  552.281
 459  496.4429
 460  511.3262
 461  484.3951
 462  560.765
 463  589.3901
 464  713.576
 465  691.2983
 466  630.972
 467  557.4002
 468  539.9791
 469  662.6501
 470  743.3726
 471  708.116
 472  612.1888
 473  538.4708
 474  692.6812
 475  754.7672
 476  799.0903
 477  764.0171
 478  731.8361
 479  673.8222
 480  415.9999
 481  410.1169
 482  362.63
 483  394.6448
 484  498.2116
 485  600.7113
 486  752.2881
 487  780.4562
 488  813.1196
 489  815.7888
 490  689.9913
 491  577.5195
 492  460.8389
 493  596.3006
 494  650.3263
 495  666.4988
 496  720.0699
 497  815.2979
 498  796.9007
 499  819.5933
 500  812.4355
 501  857.9277
 502  761.0217
 503  734.2382
 504  722.2365
 505  705.3391
 506  763.9086
 507  782.2747
 508  826.4982
 509  845.5627
 510  888.4537
 511  847.5198
 512  819.6981
 513  719.2833
 514  826.2346
 515  698.962
 516  705.0106
 517  600.9744
 518  794.948
 519  755.9053
 520  690.6609
 521  727.4664
 522  829.3882
 523  842.2238
 524  848.7177
 525  727.5541
 526  717.4169
 527  603.3165
 528  769.443
 529  830.6819
 530  880.804
 531  807.5714
 532  759.4252
 533  749.4697
 534  681.3892
 535  653.478
 536  583.2701
 537  700.6956
 538  823.8492
 539  838.6686
 540  803.5431
 541  671.2264
 542  699.7226
 543  864.017
 544  958.8221
 545  912.3632
 546  780.3724
 547  822.7156
 548  734.1616
 549  727.3489
 550  602.7348
 551  549.6166
 552  490.9091
 553  464.5349
 554  634.3464
 555  779.4036
 556  816.4652
 557  801.2128
 558  717.0553
 559  772.9119
 560  729.3825
 561  728.9105
 562  645.8661
 563  482.8169
 564  487.405
 565  464.4097
 566  507.192
 567  489.6135
 568  483.1163
 569  564.6833
 570  581.6002
 571  653.8502
 572  691.8032
 573  585.5676
 574  679.778
 575  775.3118
 576  887.1165
 577  742.4156
 578  613.455
 579  571.2678
 580  558.1329
 581  574.3665
 582  624.6962
 583  676.4594
 584  664.785
 585  626.8755
 586  598.9581
 587  609.2922
 588  658.6821
 589  625.5059
 590  545.5193
 591  593.9907
 592  727.371
 593  867.7133
 594  807.5958
 595  788.96
 596  717.6657
 597  753.3146
 598  747.2903
 599  830.2385
 600  820.7776
 601  775.2383
 602  798.1415
 603  774.7758
 604  773.2885
 605  670.1276
 606  585.0994
 607  648.5019
 608  639.7189
 609  738.7271
 610  825.248
 611  761.0134
 612  766.2702
 613  724.168
 614  659.4835
 615  750.2859
 616  862.4658
 617  1085.041
 618  996.517
 619  942.2945
 620  940.1259
 621  810.1062
 622  684.8594
 623  526.0192
 624  575.9084
 625  618.813
 626  833.023
 627  956.7059
 628  805.9307
 629  743.0711
 630  803.0309
 631  887.673
 632  870.6016
 633  827.0742
 634  882.3865
 635  797.9692
 636  824.6966
 637  947.186
 638  941.1244
 639  772.8757
 640  758.1125
 641  966.7127
 642  1136.833
 643  1159.962
 644  992.7443
 645  941.617
 646  744.0315
 647  892.2861
 648  1188.162
 649  1450.611
 650  1577.553
 651  1533.532
 652  1614.766
 653  1676.38
 654  1688.446
 655  1715.967
 656  1586.263
 657  1581.702
 658  1312.139
 659  1119.451
 660  873.6997
 661  821.3105
 662  851.8425
 663  844.0378
 664  716.2003
 665  559.1536
 666  563.6715
 667  616.7964
 668  584.5547
 669  617.7868
 670  667.0263
 671  717.1528
 672  734.0422
 673  563.4674
 674  571.8958
 675  701.1294
 676  918.9776
 677  784.8812
 678  696.6337
 679  689.1317
 680  805.7219
 681  723.8386
 682  600.2346
 683  627.8033
 684  736.5195
 685  841.5013
 686  859.8887
 687  689.0552
 688  623.574
 689  540.1667
 690  659.0206
 691  634.421
 692  648.069
 693  624.852
 694  702.0388
 695  669.3044
 696  601.6337
 697  615.4084
 698  610.4163
 699  564.8176
 700  424.2415
 701  394.1423
 702  442.2158
 703  573.4259
 704  582.3789
 705  603.235
 706  533.8474
 707  552.8537
 708  478.6577
 709  528.6337
 710  461.6435
 711  473.8415
 712  547.9176
 713  600.3768
 714  590.8326
 715  610.1969
 716  551.5623
 717  592.2123
 718  469.566
 719  423.7718
 720  403.6509
 721  485.3504
 722  628.2205
 723  557.3377
 724  397.5874
 725  334.5149
 726  610.9113
 727  596.3352
 728  677.7763
 729  680.5141
 730  753.0691
 731  751.0884
 732  728.6932
 733  806.7361
 734  852.7569
 735  795.3286
 736  863.7019
 737  850.8947
 738  847.8033
 739  596.6005
 740  533.7197
 741  434.1196
 742  434.5257
 743  405.7537
 744  518.1573
 745  515.1595
 746  570.5817
 747  683.6958
 748  869.4891
 749  692.7689
 750  546.0848
 751  530.8468
 752  575.6541
 753  686.5195
 754  704.3179
 755  747.496
 756  587.4496
 757  534.9142
 758  487.4952
 759  606.4006
 760  614.8528
 761  686.4429
 762  600.4468
 763  728.6627
 764  751.0223
 765  930.5333
 766  875.0284
 767  782.3233
 768  682.1392
 769  707.533
 770  685.9545
 771  701.6071
 772  666.9924
 773  696.6168
 774  665.1628
 775  616.7216
 776  536.4663
 777  539.7223
 778  579.9173
 779  633.9753
 780  525.1808
 781  577.7047
 782  703.7982
 783  652.1315
 784  538.0173
 785  481.3986
 786  706.7773
 787  828.2009
 788  772.122
 789  687.0039
 790  702.3545
 791  805.7113
 792  831.3849
 793  751.2471
 794  783.7925
 795  766.5529
 796  921.321
 797  889.1552
 798  998.8725
 799  875.1832
 800  765.6118
 801  762.6572
 802  766.7993
 803  695.5906
 804  609.2692
 805  543.1685
 806  626.6219
 807  583.407
 808  672.002
 809  677.5063
 810  641.5764
 811  554.0284
 812  514.452
 813  618.2269
 814  704.2913
 815  890.5861
 816  931.1456
 817  842.9987
 818  747.3339
 819  841.0738
 820  860.7076
 821  781.345
 822  766.7678
 823  851.0477
 824  865.6334
 825  812.8555
 826  711.9247
 827  780.4391
 828  846.2432
 829  861.3603
 830  771.8966
 831  755.9948
 832  743.9878
 833  783.3847
 834  892.0784
 835  850.67
 836  792.03
 837  683.495
 838  720.6278
 839  714.4741
 840  676.2215
 841  643.2267
 842  672.1467
 843  705.0359
 844  844.4702
 845  748.4989
 846  733.4937
 847  702.9081
 848  769.1689
 849  764.0976
 850  734.2517
 851  756.3939
 852  721.927
 853  604.6791
 854  415.8289
 855  509.4873
 856  794.609
 857  899.6727
 858  752.0989
 859  710.9049
 860  834.1511
 861  886.6924
 862  797.2855
 863  797.0317
 864  721.166
 865  761.3629
 866  668.9881
 867  741.3094
 868  676.9757
 869  666.6406
 870  719.7608
 871  729.2688
 872  677.3513
 873  574.0085
 874  619.5034
 875  661.3714
 876  644.0348
 877  680.2953
 878  689.4291
 879  702.7951
 880  620.278
 881  683.2322
 882  700.7584
 883  624.892
 884  720.8521
 885  712.874
 886  745.0966
 887  671.7064
 888  698.8884
 889  754.2744
 890  558.7524
 891  646.7225
 892  807.0714
 893  1033.621
 894  881.3292
 895  733.5369
 896  702.2772
 897  672.8083
 898  658.4282
 899  621.1751
 900  675.2929
 901  707.15
 902  734.9357
 903  835.0627
 904  800.541
 905  710.2469
 906  637.4307
 907  587.9965
 908  594.1188
 909  479.7856
 910  472.7889
 911  553.3028
 912  658.7816
 913  672.4448
 914  661.3421
 915  689.2814
 916  603.1196
 917  610.9501
 918  580.063
 919  642.7365
 920  618.8854
 921  704.1647
 922  769.582
 923  692.8395
 924  634.0646
 925  642.038
 926  652.4584
 927  611.4957
 928  575.1931
 929  735.7548
 930  856.0933
 931  886.4115
 932  780.7369
 933  671.0096
 934  606.8679
 935  692.8121
 936  850.5013
 937  876.4214
 938  730.5826
 939  812.2023
 940  859.2397
 941  824.9057
 942  667.1523
 943  604.6155
 944  718.1479
 945  661.0254
 946  772.9012
 947  733.6808
 948  731.09
 949  565.0795
 950  607.2711
 951  687.8869
 952  706.5158
 953  632.661
 954  663.3945
 955  549.3771
 956  614.1176
 957  677.4353
 958  925.2798
 959  920.9136
 960  808.0284
 961  725.2782
 962  634.8412
 963  647.2392
 964  653.1943
 965  751.7916
 966  802.1002
 967  907.5059
 968  984.6943
 969  885.0291
 970  812.0284
 971  746.3266
 972  811.5374
 973  773.9666
 974  630.2324
 975  688.4109
 976  661.3903
 977  734.2892
 978  721.1927
 979  902.9587
 980  910.2942
 981  929.9263
 982  900.7748
 983  945.2558
 984  907.8349
 985  826.4878
 986  758.7604
 987  747.0574
 988  647.563
 989  674.8083
 990  661.0375
 991  662.8908
 992  621.3228
 993  658.8226
 994  761.8975
 995  688.3212
 996  735.2827
 997  718.8211
 998  723.6099
 999  588.5904
1000  734.2894
1001  869.1543
1002  927.3105
1003  809.8422
1004  841.1208
1005  788.5521
1006  753.4294
1007  543.787
1008  704.3552
1009  729.0278
1010  746.2942
1011  674.3431
1012  720.9583
1013  728.4384
1014  633.5589
1015  506.4794
1016  474.6736
1017  493.8403
1018  659.4125
1019  752.5403
1020  770.9467
1021  685.912
1022  612.744
1023  747.4606
