# Input file       =  1183195541.119305_cleaned.dat
# Candidate        =  PSR_0332+5434
# Telescope        =  AR
# Epoch_topo       =  57938.393056936402
# Epoch_bary       =  N/A
# T_sample         =  0.002
# Data Folded      =  7340032
# Data Avg         =  0.276642446925897
# Data StdDev      =  6.55828718214449 
# Profile Bins     =  1024
# Profile Avg      =  1982.99177553829 
# Profile StdDev   =  555.2511011359   
# Reduced chi-sqr  =  0.838
# Prob(Noise)      <  1   (~0.0 sigma)
# P_topo (ms)      =  714.486895550596  +/- 2.38e-05
# P'_topo (s/s)    =  -0                +/- 1.26e-11
# P''_topo (s/s^2) =  0                 +/- 5.54e-15
# P_bary (ms)      =  N/A
# P'_bary (s/s)    =  N/A
# P''_bary (s/s^2) =  N/A
# P_orb (s)        =  N/A
# asin(i)/c (s)    =  N/A
# eccentricity     =  N/A
# w (rad)          =  N/A
# T_peri           =  N/A
######################################################
   0  1656.635
   1  1688.34
   2  1918.93
   3  1825.248
   4  1868.9
   5  1741.9
   6  1879.419
   7  1883.464
   8  1860.201
   9  1885.032
  10  1874.68
  11  2081.902
  12  2035.808
  13  2244.594
  14  2168.964
  15  2179.798
  16  1935.334
  17  1977.298
  18  1850.358
  19  1652.498
  20  1599.365
  21  1652.292
  22  1814.103
  23  1638.809
  24  1757.486
  25  1774.944
  26  1948.705
  27  1820.142
  28  1637.022
  29  1662.946
  30  1666.369
  31  1887.696
  32  1791.79
  33  1959.449
  34  1770.69
  35  1831.189
  36  1652.336
  37  1641.516
  38  1568.68
  39  1593.791
  40  1667.871
  41  1645.408
  42  1855.733
  43  1629.31
  44  1604.427
  45  1492.846
  46  1682.11
  47  1475.258
  48  1496.41
  49  1583.017
  50  1696.283
  51  1732.879
  52  1621.423
  53  1934.063
  54  1780.557
  55  1933.9
  56  1663.566
  57  1881.965
  58  1721.989
  59  1682.603
  60  1741.489
  61  1846.981
  62  2029.056
  63  1883.743
  64  1866.899
  65  1703.677
  66  1860.526
  67  1763.563
  68  1790.702
  69  1729.326
  70  1865.936
  71  1827.042
  72  1792.376
  73  1837.731
  74  1784.049
  75  1896.894
  76  1549.882
  77  1642.224
  78  1554.846
  79  1829.421
  80  1714.483
  81  1746.749
  82  1758.23
  83  1744.715
  84  1715.068
  85  1625.808
  86  1835.224
  87  1770.898
  88  1814.922
  89  1724.986
  90  1865.516
  91  1874.302
  92  1749.12
  93  1655.018
  94  1657.363
  95  1765.143
  96  1620.516
  97  1720.324
  98  1785.073
  99  1967.423
 100  1879.431
 101  1895.777
 102  1853.49
 103  1837.277
 104  1752.826
 105  1634.02
 106  1650.801
 107  1402.66
 108  1508.76
 109  1493.739
 110  1784.119
 111  1682.674
 112  1541.439
 113  1486.943
 114  1377.611
 115  1519.623
 116  1535.113
 117  1785.029
 118  1716.241
 119  1832.971
 120  1869.333
 121  2031.645
 122  1818.315
 123  1662.747
 124  1548.295
 125  1801.027
 126  1977.869
 127  1958.366
 128  1865.074
 129  1768.185
 130  1913.039
 131  1834.492
 132  1882.914
 133  1780.255
 134  1901.76
 135  1891.506
 136  1965.805
 137  2162.716
 138  1986.385
 139  2000.223
 140  1747.323
 141  1788.103
 142  1553.163
 143  1747.501
 144  1756.935
 145  1557.595
 146  1445.998
 147  1400.815
 148  1668.395
 149  1767.877
 150  1944.41
 151  1882.086
 152  1813.302
 153  1669.03
 154  1742.154
 155  1723.872
 156  1871.753
 157  1871.628
 158  1884.52
 159  1972.385
 160  1779.788
 161  1869.071
 162  1698.818
 163  1944.69
 164  1780.325
 165  1842.259
 166  1860.945
 167  1823.962
 168  1842.425
 169  1803.332
 170  2042.734
 171  1929.696
 172  2002.206
 173  1942.716
 174  2072.272
 175  1908.558
 176  1987.544
 177  1960.123
 178  1851.225
 179  1824.198
 180  1666.703
 181  1652.583
 182  1408.98
 183  1642.484
 184  1698.662
 185  1864.441
 186  1755.153
 187  1682.892
 188  1614.669
 189  1656.613
 190  1781.313
 191  1557.679
 192  1698.163
 193  1737.987
 194  1954.766
 195  1730.933
 196  1776.497
 197  1710.43
 198  1711.98
 199  1489.14
 200  1391.127
 201  1440.432
 202  1543.071
 203  1858.425
 204  1914.549
 205  2066.911
 206  2063.821
 207  2132.142
 208  2016.332
 209  1880.958
 210  1845.503
 211  1763.544
 212  1753.026
 213  1710.263
 214  1805.763
 215  1671.164
 216  1804.827
 217  1737.726
 218  1781.482
 219  1619.766
 220  1770.712
 221  2069.747
 222  2118.041
 223  2197.475
 224  2039.296
 225  2221.059
 226  2091.377
 227  2105.523
 228  1754.833
 229  1837.099
 230  1851.848
 231  1969.805
 232  2076.277
 233  2042.451
 234  2157.917
 235  1982.149
 236  2119.533
 237  1953.641
 238  2134.196
 239  2126.812
 240  2308.72
 241  2256.862
 242  2259.16
 243  2338.052
 244  2194.617
 245  2370.293
 246  2314.087
 247  2549.582
 248  2360.202
 249  2235.444
 250  2097.547
 251  2054.727
 252  1983.285
 253  1891.904
 254  2073.44
 255  1988.093
 256  2067.859
 257  1779.372
 258  1800.036
 259  1711.7
 260  1847.564
 261  1821.223
 262  1856.253
 263  1893.56
 264  1974.95
 265  2079.845
 266  1896.085
 267  1853.912
 268  1606.205
 269  1723.502
 270  1556.648
 271  1686.952
 272  1674.713
 273  1746.443
 274  1839.993
 275  1913.124
 276  1966.428
 277  1715.213
 278  1791.214
 279  1696.679
 280  1853.263
 281  1817.701
 282  1971.076
 283  1938.023
 284  1740.947
 285  1849.193
 286  1984.583
 287  2119.693
 288  1883.321
 289  1873.578
 290  1694.831
 291  1998.697
 292  2125.86
 293  2342.144
 294  2294.956
 295  2129.092
 296  2130.632
 297  2005.029
 298  2103.88
 299  2055.797
 300  2338.494
 301  2289.354
 302  2356.39
 303  2138.588
 304  2073.457
 305  1920.642
 306  2014.745
 307  2330.685
 308  2244.579
 309  2212.734
 310  2004.91
 311  2152.528
 312  2013.024
 313  2084.392
 314  2022.715
 315  2099.154
 316  2085.657
 317  1971.985
 318  2069.007
 319  2071.321
 320  2239.678
 321  2128.366
 322  1998.508
 323  1854.625
 324  1969.287
 325  2087.435
 326  2126.189
 327  2188.63
 328  2244.622
 329  2383.804
 330  2164.474
 331  2137.115
 332  1877.831
 333  2046.697
 334  1885.713
 335  2055.645
 336  2016.276
 337  2137.79
 338  2053.862
 339  2076.95
 340  2179.667
 341  1984.09
 342  1995.655
 343  1857.063
 344  2082.25
 345  1965.545
 346  2029.204
 347  1998.32
 348  2074.53
 349  2085.343
 350  2035.189
 351  2229.887
 352  2115.92
 353  2175.74
 354  1961.592
 355  1957.263
 356  1715.649
 357  1759.347
 358  1656.989
 359  1641.535
 360  1660.353
 361  1640.53
 362  1780.994
 363  1544.111
 364  1730.773
 365  1643.387
 366  1785.086
 367  1711.6
 368  1883.107
 369  1909.48
 370  1764.012
 371  1710.833
 372  1663.27
 373  1781.542
 374  1751.174
 375  2061.873
 376  1870.134
 377  1819.589
 378  1640.977
 379  1766.528
 380  1819.154
 381  1889.471
 382  1770.161
 383  1667.718
 384  1845.235
 385  1949.235
 386  2114.269
 387  1860.796
 388  1985.824
 389  1992.797
 390  1995.331
 391  1827.174
 392  1639.537
 393  1791.157
 394  1715.509
 395  1853.511
 396  1783.894
 397  2085.758
 398  2064.152
 399  2075.36
 400  1862.419
 401  1714.595
 402  1820.688
 403  1801.584
 404  2033.245
 405  2032.558
 406  2275.397
 407  2105.295
 408  2154.912
 409  2013.92
 410  2003.638
 411  1858.307
 412  1941.328
 413  2121.838
 414  2106.768
 415  2250.073
 416  2057.253
 417  2077.765
 418  1895.064
 419  1990.039
 420  2058.776
 421  2191.471
 422  2109.997
 423  2061.174
 424  2138.999
 425  2175.45
 426  2269.523
 427  2167.122
 428  2201.539
 429  1948.74
 430  2030.708
 431  1969.819
 432  2027.573
 433  2054.815
 434  2059.25
 435  2100.499
 436  1936.038
 437  1954.031
 438  1860.573
 439  1981.787
 440  1887.028
 441  1932.593
 442  1799.999
 443  1738.47
 444  1726.028
 445  1640.73
 446  1704.779
 447  1620.348
 448  1783.777
 449  1572.145
 450  1529.988
 451  1438.095
 452  1662.492
 453  1671.053
 454  1542.481
 455  1448.699
 456  1315.76
 457  1330.347
 458  1190.505
 459  1354.09
 460  1424.038
 461  1594.117
 462  1506.734
 463  1566.061
 464  1520.28
 465  1558.772
 466  1544.436
 467  1465.923
 468  1586.062
 469  1509.804
 470  1566.442
 471  1351.378
 472  1479.736
 473  1483.467
 474  1751.002
 475  1771.375
 476  1797.114
 477  1797.828
 478  1854.362
 479  2027.895
 480  1859.409
 481  1819.779
 482  1675.22
 483  1972.748
 484  2049.824
 485  2129.688
 486  2078.55
 487  1907.349
 488  1894.843
 489  1868.512
 490  2138.365
 491  2121.348
 492  2258.383
 493  2233.306
 494  2346.449
 495  2301.411
 496  2187.643
 497  2010.439
 498  1738.27
 499  1739.553
 500  1885.704
 501  2244.99
 502  2221.662
 503  2322.147
 504  2160.905
 505  2136.242
 506  1884.562
 507  1964.19
 508  1929.32
 509  1789.206
 510  1917.396
 511  2009.854
 512  2255.873
 513  2039.758
 514  2057.291
 515  1758.823
 516  1821.755
 517  1774.598
 518  1846.886
 519  1855.124
 520  1933.542
 521  2052.095
 522  1989.649
 523  2091.752
 524  1893.439
 525  1983.001
 526  1848.845
 527  2036.439
 528  1918.624
 529  1960.419
 530  1875.755
 531  1824.596
 532  1828.534
 533  1709.458
 534  1845.567
 535  1523.094
 536  1658.887
 537  1454.656
 538  1585.678
 539  1515.653
 540  1737.483
 541  1783.492
 542  1754.315
 543  1830.728
 544  1820.791
 545  1788.038
 546  1571.303
 547  1542.603
 548  1505.361
 549  1709.862
 550  1718.089
 551  1750.305
 552  1551.569
 553  1478.734
 554  1732.804
 555  1777.422
 556  1999.935
 557  1856.114
 558  2050.953
 559  1841.907
 560  1837.619
 561  1821.315
 562  1814.965
 563  1761.005
 564  1532.381
 565  1454.58
 566  1246.416
 567  1388.313
 568  1406.116
 569  1741.255
 570  1851.494
 571  1995.045
 572  1851.111
 573  1792.85
 574  1673.516
 575  1626.46
 576  1758.943
 577  1817.557
 578  2085.847
 579  2025.423
 580  1977.66
 581  1859.802
 582  1897.925
 583  2003.057
 584  1874.794
 585  1816.328
 586  1721.388
 587  1832.9
 588  1722.144
 589  1838.265
 590  1777.471
 591  1954.478
 592  1834.809
 593  1909.758
 594  1913.606
 595  1928.678
 596  2151.476
 597  2200.835
 598  2261.372
 599  1906.35
 600  1976.588
 601  1931.467
 602  2000.055
 603  1821.868
 604  1760.87
 605  1866.239
 606  1866.807
 607  2021.703
 608  1847.785
 609  1796.21
 610  1618.433
 611  1732.198
 612  1751.805
 613  1753.495
 614  1764.909
 615  1906.488
 616  2134.563
 617  2147.144
 618  2155.324
 619  2061.685
 620  1983.767
 621  1748.289
 622  1684.339
 623  1620.504
 624  1714.917
 625  1741.101
 626  1856.803
 627  2052.643
 628  1888.805
 629  1895.958
 630  1605.534
 631  1745.809
 632  1607.432
 633  1860.355
 634  2021.215
 635  2120.127
 636  2260.659
 637  2283.698
 638  2409.687
 639  2188.971
 640  2253.931
 641  2167.23
 642  2254.836
 643  2241.813
 644  2349.481
 645  2266.204
 646  2364.759
 647  2550.96
 648  2657.72
 649  2770.115
 650  2527.016
 651  2854.188
 652  2731.455
 653  3000.104
 654  2828.283
 655  3025.963
 656  2961.842
 657  2965.811
 658  3098.887
 659  3063.361
 660  2906.496
 661  2496.43
 662  2447.941
 663  2240.961
 664  2378.94
 665  2383.277
 666  2451.883
 667  2360.215
 668  2188.727
 669  2079.595
 670  1864.361
 671  1999.55
 672  2061.351
 673  2439.421
 674  2520.533
 675  2666.309
 676  2362.402
 677  2288.18
 678  2419.376
 679  2486.126
 680  2388.962
 681  2178.989
 682  2245.057
 683  2084.796
 684  2109.532
 685  1934.051
 686  2111.683
 687  2128.601
 688  2319.114
 689  2366.969
 690  2461.097
 691  2627.399
 692  2517.263
 693  2341.181
 694  2220.436
 695  2208.885
 696  2126.125
 697  2077.186
 698  2023.559
 699  2091.99
 700  2137.839
 701  2193.053
 702  2382.965
 703  2322.806
 704  2470.448
 705  2360.228
 706  2520.696
 707  2305.806
 708  2340.955
 709  2199.366
 710  2354.889
 711  2397.57
 712  2291.179
 713  2196.781
 714  1956.023
 715  2050.462
 716  2009.435
 717  2128.729
 718  1973.288
 719  1984.145
 720  1997.495
 721  2217.217
 722  2290.239
 723  2293.658
 724  2209.615
 725  1978.122
 726  1849.776
 727  1744.262
 728  1990.86
 729  1970.825
 730  2185.864
 731  2308.157
 732  2393.634
 733  2360.224
 734  2275.973
 735  2404.694
 736  2217.967
 737  2300.272
 738  2121.158
 739  2406.795
 740  2245.474
 741  2245.391
 742  2225.758
 743  2410.739
 744  2422.115
 745  2234.747
 746  2251.663
 747  2143.71
 748  2313.586
 749  2186.43
 750  2381.981
 751  2318.745
 752  2235.745
 753  2245.696
 754  2297.298
 755  2412.405
 756  2174.759
 757  2216.523
 758  2196.296
 759  2403.787
 760  2247.124
 761  2450.988
 762  2421.532
 763  2523.292
 764  2497.1
 765  2393.384
 766  2360.352
 767  2265.777
 768  2361.729
 769  2352.587
 770  2358.023
 771  2169.078
 772  2188.971
 773  2191.557
 774  2123.103
 775  2218.794
 776  2093.867
 777  2273.611
 778  2167.356
 779  2394.553
 780  2060.281
 781  2091.541
 782  1956.896
 783  2105.902
 784  2001.625
 785  1956.32
 786  1931.879
 787  1949.477
 788  2106.811
 789  2096.611
 790  2240.831
 791  2122.589
 792  2343.579
 793  2106.964
 794  1943.298
 795  1803.323
 796  2014.947
 797  2127.879
 798  2108.362
 799  2307.608
 800  2192.976
 801  2150.331
 802  1894.935
 803  2212.173
 804  2321.368
 805  2381.73
 806  2152.849
 807  2239.725
 808  2304.877
 809  2311.33
 810  2381.17
 811  2343.693
 812  2255.504
 813  2004.58
 814  2138.537
 815  2284.22
 816  2200.107
 817  2095.605
 818  2060.142
 819  2178.543
 820  2041.537
 821  2181.185
 822  2033.925
 823  2159.414
 824  1943.79
 825  2036.741
 826  2012.004
 827  2191.625
 828  2271.531
 829  2198.246
 830  2150.653
 831  2155.288
 832  2371.233
 833  2358.558
 834  2508.164
 835  2473.352
 836  2503.28
 837  2476.917
 838  2527.006
 839  2437.208
 840  2323.497
 841  2347.932
 842  2219.082
 843  2302.424
 844  2241.272
 845  2550.353
 846  2543.359
 847  2638.328
 848  2583.214
 849  2588.083
 850  2587.058
 851  2315.314
 852  2419.521
 853  2257.791
 854  2342.452
 855  2255.926
 856  2371.175
 857  2336.449
 858  2424.567
 859  2145.424
 860  2040.259
 861  1925.93
 862  2024.132
 863  2169.821
 864  2105.5
 865  2368.092
 866  2353.533
 867  2523.257
 868  2347.319
 869  2364.516
 870  2386.038
 871  2197.133
 872  2038.284
 873  1940.06
 874  2157.037
 875  2104.945
 876  2295.771
 877  2060.777
 878  2148.604
 879  1988.593
 880  2155.3
 881  2115.534
 882  2160.433
 883  2169.332
 884  2202.819
 885  2341.477
 886  2236.786
 887  2353.976
 888  2132.275
 889  2055.567
 890  1906.34
 891  1980.923
 892  2046.86
 893  2139.668
 894  2286.838
 895  2089.459
 896  2120.931
 897  1908.028
 898  2010.931
 899  1793.545
 900  1864.793
 901  1966.948
 902  2091.073
 903  2342.071
 904  2320.658
 905  2415.034
 906  2230.302
 907  2421.918
 908  2197.726
 909  2276.629
 910  2088.396
 911  2130.354
 912  2065.557
 913  2219.844
 914  2333.344
 915  2395.233
 916  2379.042
 917  2047.39
 918  2270.487
 919  2300.148
 920  2608.231
 921  2485.005
 922  2465.47
 923  2394.953
 924  2259.959
 925  2357.496
 926  2175.069
 927  2380.817
 928  2220.177
 929  2333.107
 930  2223.608
 931  2503.678
 932  2405.326
 933  2483.637
 934  2475.536
 935  2451.702
 936  2513.967
 937  2454.778
 938  2561.762
 939  2280.552
 940  2470.859
 941  2287.38
 942  2401.5
 943  2306.354
 944  2351.877
 945  2272.836
 946  2130.929
 947  2094.178
 948  1895.46
 949  1969.686
 950  1759.182
 951  1909.448
 952  1742.25
 953  1939.595
 954  1741.599
 955  1728.624
 956  1707.755
 957  1726.709
 958  1914.573
 959  1722.44
 960  1813.291
 961  1654.208
 962  1833.641
 963  1885.182
 964  1848.131
 965  1617.916
 966  1519.989
 967  1657.414
 968  1711.937
 969  1795.467
 970  1767.386
 971  1993.422
 972  1861.184
 973  1997.356
 974  1741.255
 975  1801.847
 976  1612.747
 977  1646.598
 978  1649.946
 979  1650.345
 980  1785.226
 981  1708.861
 982  1704.583
 983  1532.217
 984  1641.378
 985  1594.762
 986  1612.225
 987  1544.695
 988  1661.616
 989  1799.534
 990  1976.161
 991  2107.878
 992  1980.513
 993  2010.588
 994  1788.806
 995  1892.757
 996  1828.015
 997  1866.425
 998  1767.602
 999  1720.637
1000  1995.898
1001  1911.496
1002  2018.11
1003  1775.87
1004  1887.004
1005  1776.083
1006  2002.952
1007  1905.777
1008  2003.938
1009  1892.442
1010  1945.707
1011  2003.289
1012  1847.021
1013  1989.029
1014  1865.12
1015  2029.035
1016  1891.884
1017  2205.226
1018  2209.167
1019  2184.16
1020  1963.813
1021  2001.559
1022  1870.238
1023  1639.952
