# Input file       =  1183611107.093294_cleaned.dat
# Candidate        =  PSR_0332+5434
# Telescope        =  AR
# Epoch_topo       =  57943.202848302011
# Epoch_bary       =  N/A
# T_sample         =  0.002
# Data Folded      =  7340032
# Data Avg         =  0.172191337524315
# Data StdDev      =  3.74479716402893 
# Profile Bins     =  1024
# Profile Avg      =  1235.10424397158 
# Profile StdDev   =  317.049664204816 
# Reduced chi-sqr  =  1.024
# Prob(Noise)      <  0.289   (~0.6 sigma)
# P_topo (ms)      =  714.482950495916  +/- 0.000316
# P'_topo (s/s)    =  -0                +/- 1.67e-10
# P''_topo (s/s^2) =  0                 +/- 7.36e-14
# P_bary (ms)      =  N/A
# P'_bary (s/s)    =  N/A
# P''_bary (s/s^2) =  N/A
# P_orb (s)        =  N/A
# asin(i)/c (s)    =  N/A
# eccentricity     =  N/A
# w (rad)          =  N/A
# T_peri           =  N/A
######################################################
   0  1395.51
   1  1339.524
   2  1282.702
   3  1268.116
   4  1405.708
   5  1453.662
   6  1476.691
   7  1423.195
   8  1322.024
   9  1197.214
  10  1074.31
  11  1063.425
  12  1094.866
  13  1373.766
  14  1512.478
  15  1577.094
  16  1396.295
  17  1356.759
  18  1298.854
  19  1393.002
  20  1440.505
  21  1529.248
  22  1459.979
  23  1449.294
  24  1347.11
  25  1358.749
  26  1276.049
  27  1324.399
  28  1307.609
  29  1322.584
  30  1398.434
  31  1553.151
  32  1543.874
  33  1517.853
  34  1398.578
  35  1387.134
  36  1371.109
  37  1467.434
  38  1463.828
  39  1478.837
  40  1469.572
  41  1517.209
  42  1423.344
  43  1367.35
  44  1381.208
  45  1382.878
  46  1369.873
  47  1357.474
  48  1349.589
  49  1306.157
  50  1195.333
  51  1186.213
  52  1266.724
  53  1307.263
  54  1331.13
  55  1269.907
  56  1289.88
  57  1254.244
  58  1196.039
  59  1165.618
  60  1183.554
  61  1249.689
  62  1266.369
  63  1237.195
  64  1278.158
  65  1266.383
  66  1262.404
  67  1280.756
  68  1322.291
  69  1308.016
  70  1322.237
  71  1336.59
  72  1331.285
  73  1315.557
  74  1323.379
  75  1327.78
  76  1343.382
  77  1303.161
  78  1303.537
  79  1307.173
  80  1357.567
  81  1389.861
  82  1323.745
  83  1344.281
  84  1319.741
  85  1436.349
  86  1484.319
  87  1471.594
  88  1483.375
  89  1558.546
  90  1607.19
  91  1534.335
  92  1522.639
  93  1571.064
  94  1529.823
  95  1506.254
  96  1522.287
  97  1496.726
  98  1547.081
  99  1446.146
 100  1420.912
 101  1436.659
 102  1529.033
 103  1531.944
 104  1462.228
 105  1453.296
 106  1443.631
 107  1414.804
 108  1308.074
 109  1209.976
 110  1242.638
 111  1307.907
 112  1344.747
 113  1349.188
 114  1327.238
 115  1280.881
 116  1136.133
 117  1110.555
 118  1168.261
 119  1283.46
 120  1318.432
 121  1290.512
 122  1227.768
 123  1154.474
 124  1174.558
 125  1267.467
 126  1267.665
 127  1233.793
 128  1288.43
 129  1302.214
 130  1364.424
 131  1293.264
 132  1271.319
 133  1147.711
 134  1107.561
 135  1171.674
 136  1146.931
 137  1058.346
 138  1048.45
 139  1056.064
 140  1117.099
 141  1058.279
 142  1037.963
 143  1036.099
 144  1079.629
 145  1132.042
 146  1166.556
 147  1287.526
 148  1340.987
 149  1359.188
 150  1310.19
 151  1218.223
 152  1167.103
 153  1088.313
 154  1148.901
 155  1132.775
 156  1124.483
 157  1049.799
 158  1057.485
 159  1084.799
 160  1115.346
 161  1070.896
 162  1129.609
 163  1185.271
 164  1250.518
 165  1328.098
 166  1426.739
 167  1381.227
 168  1268.583
 169  1136.414
 170  1058.177
 171  1124.845
 172  1184.765
 173  1198.693
 174  1280.364
 175  1314.751
 176  1349.968
 177  1357.378
 178  1420.849
 179  1467.091
 180  1445.453
 181  1356.716
 182  1347.362
 183  1280.22
 184  1208.695
 185  1146.84
 186  1208.3
 187  1347.165
 188  1325.939
 189  1351.72
 190  1362.947
 191  1415.292
 192  1425.61
 193  1535.951
 194  1487.693
 195  1536.803
 196  1499.416
 197  1549.041
 198  1477.262
 199  1375.752
 200  1305.691
 201  1313.789
 202  1255.249
 203  1187.172
 204  1186.584
 205  1249.022
 206  1332.248
 207  1346.649
 208  1348.256
 209  1366.641
 210  1277.696
 211  1255.221
 212  1214.472
 213  1230.538
 214  1248.179
 215  1272.786
 216  1250.539
 217  1184.153
 218  1111.999
 219  1124.203
 220  1133.467
 221  1167.944
 222  1108.926
 223  1065.051
 224  1004.019
 225  1140.002
 226  1191.047
 227  1238.001
 228  1194.996
 229  1172.019
 230  1284.298
 231  1352.349
 232  1319.573
 233  1268.762
 234  1232.462
 235  1259.588
 236  1266.049
 237  1289.334
 238  1326.581
 239  1378.507
 240  1308.456
 241  1305.783
 242  1146.275
 243  1084.001
 244  1073.91
 245  1173.611
 246  1244.178
 247  1240.727
 248  1130.085
 249  1099.203
 250  1031.456
 251  1160.894
 252  1185.12
 253  1262.41
 254  1187.463
 255  1246.143
 256  1217.978
 257  1206.56
 258  1178.086
 259  1154.819
 260  1127.758
 261  1252.095
 262  1326.383
 263  1409.2
 264  1299.804
 265  1373.172
 266  1415.479
 267  1524.845
 268  1504.877
 269  1535.97
 270  1497.876
 271  1543.382
 272  1477.861
 273  1444.891
 274  1396.945
 275  1476.91
 276  1522.669
 277  1465.114
 278  1456.67
 279  1493.101
 280  1555.876
 281  1458.911
 282  1433.67
 283  1375.346
 284  1381.332
 285  1338.639
 286  1414.235
 287  1400.126
 288  1346.145
 289  1234.829
 290  1215.756
 291  1186.406
 292  1172.946
 293  1111.288
 294  1138.253
 295  1167.95
 296  1322.184
 297  1399.214
 298  1445.141
 299  1296.481
 300  1106.309
 301  1029.405
 302  1011.297
 303  1051.276
 304  1075
 305  1074.157
 306  1124.118
 307  1073.686
 308  1012.373
 309  926.8086
 310  1103.659
 311  1312.263
 312  1387.277
 313  1324.765
 314  1188.723
 315  1103.59
 316  1055.955
 317  1001.291
 318  943.6169
 319  824.2877
 320  903.2178
 321  960.2234
 322  972.3576
 323  935.709
 324  870.5152
 325  944.4119
 326  876.4368
 327  827.1456
 328  815.8174
 329  940.4672
 330  1032.486
 331  1014.383
 332  973.2612
 333  938.1027
 334  1002.801
 335  1113.539
 336  1229.816
 337  1253.695
 338  1194.188
 339  1153.14
 340  1175.663
 341  1138.219
 342  1133.956
 343  1077.503
 344  1255.705
 345  1245.409
 346  1234.553
 347  1170.856
 348  1181.795
 349  1152.475
 350  1139.693
 351  1170.162
 352  1271.897
 353  1229.41
 354  1197.468
 355  1229.07
 356  1277.315
 357  1327.674
 358  1317.639
 359  1298.307
 360  1339.629
 361  1413.431
 362  1500.865
 363  1404.357
 364  1401.479
 365  1408.917
 366  1408.943
 367  1332.056
 368  1315.328
 369  1334.208
 370  1295.553
 371  1286.415
 372  1266.824
 373  1198.876
 374  1166.039
 375  1051.393
 376  1066.838
 377  1034.348
 378  1090.459
 379  1175.359
 380  1146.442
 381  1173.951
 382  1151.679
 383  1208.428
 384  1270.979
 385  1272.313
 386  1196.281
 387  1140.192
 388  1139.526
 389  1093.235
 390  1095.829
 391  1096.818
 392  1122.134
 393  1040.22
 394  999.2963
 395  958.907
 396  871.7058
 397  913.0007
 398  857.8458
 399  940.5677
 400  948.3723
 401  1031.304
 402  1047.565
 403  1013.956
 404  932.6921
 405  893.2753
 406  835.5941
 407  909.9919
 408  938.1042
 409  958.7397
 410  879.7463
 411  936.4632
 412  975.3381
 413  996.0461
 414  942.6
 415  957.4195
 416  925.3728
 417  981.291
 418  948.7107
 419  929.9609
 420  916.4112
 421  964.0958
 422  996.3525
 423  1040.886
 424  1065.592
 425  1102.087
 426  1068.961
 427  1110.178
 428  1091.823
 429  1071.777
 430  1005.846
 431  981.2355
 432  1064.261
 433  1102.952
 434  1105.773
 435  1107.602
 436  1245.935
 437  1344.763
 438  1383.751
 439  1351.845
 440  1348.791
 441  1268.516
 442  1259.479
 443  1176.142
 444  1138.055
 445  1243.604
 446  1336.644
 447  1346.883
 448  1216.964
 449  1137.58
 450  1184.428
 451  1123.043
 452  1241.955
 453  1305.701
 454  1402.272
 455  1355.709
 456  1163.735
 457  1068.934
 458  1117.433
 459  1188.903
 460  1176.479
 461  1154.452
 462  1181.38
 463  1112.528
 464  1011.412
 465  1074.217
 466  1161.322
 467  1264.263
 468  1253.877
 469  1242.922
 470  1214.203
 471  1282.365
 472  1217.485
 473  1179.206
 474  1071.684
 475  1134.415
 476  1164.832
 477  1153.062
 478  1112.23
 479  1020.209
 480  956.4856
 481  972.7505
 482  1002.946
 483  1141.228
 484  1126.959
 485  1260.737
 486  1318.751
 487  1292.439
 488  1230.903
 489  1131.202
 490  1099.379
 491  1040.129
 492  1032.465
 493  1036.84
 494  974.1633
 495  944.0852
 496  913.4174
 497  1042.767
 498  1171.813
 499  1165.683
 500  1135.099
 501  1167.564
 502  1076.099
 503  981.1854
 504  960.1344
 505  1109.667
 506  1046.784
 507  1005.584
 508  938.7918
 509  991.742
 510  958.3972
 511  850.9634
 512  823.2425
 513  827.9536
 514  826.642
 515  829.7376
 516  920.0484
 517  1069.269
 518  1118.358
 519  1073.724
 520  1122.261
 521  1136.128
 522  1069.25
 523  1009.727
 524  997.0858
 525  1120.84
 526  1173.499
 527  1095.06
 528  982.9217
 529  1049.945
 530  1177.964
 531  1233.889
 532  1099.365
 533  1046.417
 534  1043.514
 535  1080.196
 536  1069.555
 537  1053.228
 538  1047.56
 539  1184.806
 540  1246.157
 541  1313.095
 542  1222.214
 543  1162.024
 544  1123.79
 545  1063.634
 546  990.4947
 547  953.8972
 548  963.7227
 549  967.3586
 550  1074.9
 551  1087.775
 552  1053.385
 553  996.0922
 554  1009.992
 555  1062.152
 556  1081.932
 557  1095.611
 558  1098.394
 559  1026.677
 560  1019.883
 561  961.8696
 562  1044.848
 563  1057.883
 564  1090.794
 565  1029.518
 566  1092.294
 567  1173.574
 568  1184.275
 569  1178.526
 570  1162.195
 571  1103.429
 572  1090.981
 573  1078.976
 574  1148.237
 575  1190.632
 576  1182.484
 577  1110.006
 578  963.9495
 579  957.7258
 580  1041.964
 581  1112.682
 582  1117.798
 583  1118.158
 584  1050.608
 585  1049.095
 586  1011.566
 587  1055.954
 588  1046.162
 589  1034.062
 590  1008.206
 591  1070.977
 592  1183.014
 593  1231.934
 594  1263.137
 595  1297.577
 596  1267.483
 597  1223.651
 598  1250.72
 599  1250.344
 600  1234.755
 601  1186.803
 602  1191.536
 603  1280.268
 604  1393.464
 605  1435.951
 606  1449.159
 607  1446.186
 608  1458.5
 609  1463.198
 610  1560.063
 611  1597.444
 612  1608.253
 613  1490.061
 614  1435.8
 615  1412.411
 616  1441.106
 617  1400.973
 618  1288.41
 619  1282.487
 620  1216.866
 621  1293.545
 622  1293.895
 623  1363.388
 624  1292.836
 625  1279.799
 626  1225.147
 627  1113.968
 628  1054.063
 629  1085.24
 630  1132.128
 631  1137.448
 632  1028.478
 633  1086.305
 634  1137.713
 635  1178.012
 636  1291.126
 637  1283.962
 638  1287.838
 639  1233.269
 640  1317.823
 641  1338.721
 642  1365.471
 643  1419.11
 644  1499.907
 645  1453.271
 646  1408.527
 647  1498.404
 648  1744.992
 649  1986.816
 650  2135.347
 651  2189.053
 652  2163.061
 653  2158.707
 654  2108.351
 655  2004.395
 656  1863.87
 657  1653.603
 658  1488.949
 659  1249.015
 660  1179.351
 661  1166.67
 662  1179.583
 663  1170.528
 664  1115.757
 665  1136.108
 666  1214.584
 667  1116.057
 668  1003.047
 669  1162.264
 670  1271.772
 671  1423.881
 672  1294.889
 673  1396.371
 674  1316.893
 675  1326.004
 676  1309.322
 677  1206.427
 678  1220.882
 679  1088.97
 680  1093.581
 681  1055.488
 682  1151.905
 683  1275.688
 684  1382.667
 685  1442.586
 686  1375.281
 687  1396.894
 688  1435.778
 689  1434.129
 690  1476.599
 691  1383.951
 692  1395.577
 693  1409.896
 694  1531.737
 695  1450.686
 696  1358.894
 697  1338.198
 698  1351.055
 699  1351.288
 700  1267.14
 701  1241.197
 702  1178.771
 703  1175.776
 704  1161.178
 705  1205.963
 706  1277.894
 707  1266.775
 708  1259.994
 709  1282.042
 710  1311.923
 711  1383.112
 712  1363.389
 713  1315.159
 714  1237.397
 715  1189.474
 716  1154.059
 717  1131.394
 718  1252.64
 719  1280.381
 720  1120.38
 721  1045.137
 722  1098.565
 723  1176.206
 724  1180.076
 725  1202.423
 726  1348.07
 727  1394.084
 728  1257.615
 729  1103.135
 730  1162.413
 731  1282.541
 732  1330.491
 733  1292.451
 734  1261.264
 735  1257.131
 736  1184.517
 737  1261.906
 738  1237.957
 739  1315.365
 740  1249.3
 741  1233.176
 742  1156.409
 743  1197.906
 744  1282.093
 745  1296.925
 746  1341.251
 747  1418.996
 748  1423.436
 749  1353.916
 750  1244.009
 751  1222.025
 752  1163.558
 753  1156.222
 754  1169.436
 755  1317.953
 756  1282.229
 757  1337.999
 758  1410.156
 759  1591.458
 760  1496.62
 761  1355.591
 762  1258.821
 763  1312.94
 764  1358.087
 765  1343.455
 766  1307.473
 767  1177.561
 768  1269.352
 769  1391.366
 770  1541.839
 771  1642.273
 772  1640.998
 773  1535.849
 774  1517.5
 775  1601.184
 776  1744.337
 777  1645.371
 778  1522.927
 779  1382.119
 780  1328.009
 781  1350.412
 782  1458.192
 783  1553.772
 784  1596.489
 785  1528.744
 786  1476.637
 787  1446.822
 788  1414.007
 789  1436.198
 790  1378.021
 791  1304.313
 792  1322.456
 793  1354.14
 794  1371.461
 795  1417.916
 796  1542.808
 797  1527.554
 798  1336.891
 799  1244.616
 800  1336.1
 801  1433.566
 802  1547.432
 803  1436.126
 804  1330.655
 805  1167.657
 806  1152.256
 807  1218.188
 808  1143.353
 809  1149.345
 810  1164.418
 811  1255.274
 812  1152.116
 813  1045.565
 814  1144.87
 815  1355.488
 816  1460.765
 817  1351.609
 818  1305.64
 819  1321.48
 820  1197.433
 821  1089.389
 822  1091.94
 823  1149.229
 824  1162.073
 825  1226.632
 826  1337.977
 827  1270.74
 828  1150.137
 829  1075.4
 830  1110.876
 831  1125.921
 832  1201.461
 833  1151.489
 834  1058.034
 835  951.6367
 836  1009.492
 837  1086.946
 838  1171.526
 839  1165.026
 840  1096.649
 841  1013.621
 842  926.272
 843  890.9977
 844  1009.995
 845  1144.277
 846  1150
 847  1018.466
 848  975.4805
 849  972.9728
 850  1128.916
 851  1287.513
 852  1375.853
 853  1179.972
 854  1129.89
 855  1234.048
 856  1201.606
 857  1129.423
 858  968.2209
 859  1044.502
 860  1083.596
 861  1122.196
 862  1086.472
 863  1074.1
 864  1101.17
 865  1222.218
 866  1188.021
 867  1088.484
 868  1031.057
 869  1167.083
 870  1266.651
 871  1246.157
 872  1254.814
 873  1252.856
 874  1181.481
 875  1130.274
 876  1145.317
 877  1247.086
 878  1230.471
 879  1254.634
 880  1317.82
 881  1378.538
 882  1366.036
 883  1321.576
 884  1331.002
 885  1330.746
 886  1221.853
 887  1227.788
 888  1206.167
 889  1249.901
 890  1151.766
 891  1103.001
 892  1129.979
 893  1207.853
 894  1245.745
 895  1242.603
 896  1285.447
 897  1328.108
 898  1317.894
 899  1238.568
 900  1221.97
 901  1134.912
 902  1137.419
 903  999.8196
 904  942.3689
 905  975.5204
 906  1174.802
 907  1351.06
 908  1270.823
 909  1224.223
 910  1201.705
 911  1202.609
 912  1192.249
 913  1206.805
 914  1181.462
 915  1193.581
 916  1157.02
 917  1220.004
 918  1235.222
 919  1266.968
 920  1202.651
 921  1219.984
 922  1225.919
 923  1239.075
 924  1120.494
 925  1102.998
 926  1156.927
 927  1157.55
 928  1035.406
 929  1028.038
 930  985.5561
 931  992.9001
 932  964.2581
 933  980.5077
 934  1100.222
 935  1201.208
 936  1352.826
 937  1326.382
 938  1345.473
 939  1352.642
 940  1363.54
 941  1268.538
 942  1276.573
 943  1449.883
 944  1465.624
 945  1407.133
 946  1197.226
 947  1212.959
 948  1299.799
 949  1399.279
 950  1500.033
 951  1524.392
 952  1526.631
 953  1542.904
 954  1542.98
 955  1462.483
 956  1360.473
 957  1315.458
 958  1369.981
 959  1371.708
 960  1350.157
 961  1361.589
 962  1426.609
 963  1409.876
 964  1339.692
 965  1227.437
 966  1229.606
 967  1230.33
 968  1302.926
 969  1313.791
 970  1310.472
 971  1239.754
 972  1265.65
 973  1354.725
 974  1436.742
 975  1402.135
 976  1314.305
 977  1239.616
 978  1233.6
 979  1229.282
 980  1280.293
 981  1242.75
 982  1255.904
 983  1205.823
 984  1159.386
 985  996.6322
 986  1020.424
 987  1081.289
 988  1206.718
 989  1131.526
 990  1118.076
 991  1121.055
 992  1261.331
 993  1242.395
 994  1193.976
 995  1069.695
 996  1092.274
 997  1074.498
 998  1099.109
 999  1076.433
1000  1070.119
1001  1120.32
1002  1132.538
1003  1131.351
1004  1038.265
1005  1074.495
1006  1072.379
1007  1031.931
1008  1049.539
1009  1170.462
1010  1221.321
1011  1174.407
1012  1251.134
1013  1367.467
1014  1365.533
1015  1331.346
1016  1350.46
1017  1363.062
1018  1316.637
1019  1317.593
1020  1268.513
1021  1335.276
1022  1295.508
1023  1374.799
