# Input file       =  1183596519.103687_cleaned.dat
# Candidate        =  PSR_0332+5434
# Telescope        =  AR
# Epoch_topo       =  57943.034005829708
# Epoch_bary       =  N/A
# T_sample         =  0.002
# Data Folded      =  7143424
# Data Avg         =  0.11947323858456 
# Data StdDev      =  4.67463035523744 
# Profile Bins     =  512
# Profile Avg      =  1666.89281844459 
# Profile StdDev   =  552.160720536614 
# Reduced chi-sqr  =  0.690
# Prob(Noise)      <  1   (~0.0 sigma)
# P_topo (ms)      =  714.483060232738  +/- 5.57e-05
# P'_topo (s/s)    =  -0                +/- 3.02e-11
# P''_topo (s/s^2) =  0                 +/- 1.37e-14
# P_bary (ms)      =  N/A
# P'_bary (s/s)    =  N/A
# P''_bary (s/s^2) =  N/A
# P_orb (s)        =  N/A
# asin(i)/c (s)    =  N/A
# eccentricity     =  N/A
# w (rad)          =  N/A
# T_peri           =  N/A
######################################################
   0  1499.902
   1  1461.871
   2  1075.14
   3  1530.247
   4  1212.642
   5  1427.552
   6  1931.818
   7  1924.105
   8  1646.166
   9  1090.316
  10  1581.714
  11  1471.102
  12  1502.053
  13  1600.412
  14  1506.656
  15  1454.617
  16  1705.372
  17  1720.873
  18  1320.264
  19  1276.268
  20  1162.866
  21  1263.745
  22  1417.345
  23  1658.765
  24  1846.207
  25  1647.369
  26  1455.097
  27  1082.854
  28  1128.493
  29  1561.578
  30  1525.299
  31  1764.137
  32  2049.787
  33  1720.706
  34  1450.792
  35  1729.471
  36  1760.963
  37  1437.53
  38  2006.85
  39  1835.283
  40  2274.633
  41  1753.556
  42  1825.964
  43  1951.119
  44  1117.602
  45  1427.316
  46  1525.239
  47  2170.772
  48  2073.69
  49  1861.408
  50  1939.141
  51  1877.826
  52  1553.712
  53  1760.629
  54  2047.207
  55  1902.613
  56  1708.207
  57  1841.065
  58  1911.171
  59  1450.53
  60  1582.751
  61  1982.821
  62  2234.594
  63  1939.936
  64  1787.485
  65  1931.374
  66  1840.181
  67  1764.411
  68  1557.467
  69  1466.57
  70  1604.779
  71  1772.577
  72  2031.476
  73  2046.102
  74  1533.664
  75  1660.143
  76  1539.346
  77  1570.515
  78  1829.389
  79  1837.36
  80  2220.043
  81  2049.748
  82  1870.503
  83  1806.17
  84  1900.13
  85  1851.043
  86  2002.474
  87  2050.939
  88  1869.909
  89  1849.266
  90  1716.602
  91  1813.746
  92  1582.477
  93  994.7166
  94  1117.213
  95  1650.069
  96  2243.69
  97  1845.448
  98  1941.672
  99  2049.331
 100  1743.545
 101  1601.479
 102  1868.384
 103  1610.654
 104  1392.875
 105  1969.104
 106  1816.331
 107  1519.961
 108  1523.452
 109  1481.263
 110  1228.717
 111  1258.682
 112  1798.575
 113  1921.834
 114  2247.144
 115  2071.75
 116  1901.437
 117  1881.284
 118  1449.196
 119  1207.758
 120  1698.661
 121  2218.502
 122  2195.281
 123  2337.42
 124  2416.596
 125  1759.667
 126  1670.527
 127  1754.686
 128  1233.804
 129  1525.779
 130  1569.823
 131  1782.712
 132  1864.441
 133  1694.513
 134  1818.381
 135  1758.873
 136  1482.461
 137  1469.671
 138  1893.388
 139  2283.141
 140  2028.412
 141  1769.567
 142  1519.614
 143  1934.55
 144  2141.49
 145  1871.549
 146  1989.437
 147  2038.094
 148  1764.98
 149  1924.981
 150  2089.426
 151  2010.451
 152  1678.08
 153  2043.073
 154  2087.46
 155  1822.128
 156  2042.713
 157  2178.892
 158  1857.784
 159  1154.11
 160  1269.684
 161  1610.218
 162  1557.218
 163  1704.379
 164  1937.143
 165  1845.28
 166  1717.07
 167  1085.398
 168  1353.961
 169  1594.994
 170  2077.628
 171  2387.77
 172  2257.483
 173  1614.492
 174  1689.417
 175  1420.962
 176  1276.666
 177  1397.408
 178  1514.807
 179  1925.036
 180  1776.226
 181  1747.838
 182  1101.851
 183  1228.236
 184  964.0446
 185  1449.814
 186  1709.86
 187  1659.843
 188  1782.569
 189  1482.111
 190  1605.032
 191  1385.503
 192  1348.158
 193  1603.746
 194  2092.716
 195  1514.958
 196  1712.339
 197  1671.693
 198  2096.436
 199  1803.474
 200  1456.7
 201  1623.753
 202  1392.411
 203  1573.596
 204  1712.382
 205  2113.846
 206  1829.175
 207  1761.512
 208  1703.046
 209  1950.537
 210  1475.159
 211  1476.589
 212  1638.301
 213  1682.024
 214  1607.579
 215  1642.402
 216  1729.902
 217  1466.178
 218  1566.59
 219  1527.797
 220  1789.441
 221  1705.56
 222  1724.484
 223  1794.94
 224  1458.767
 225  1518.816
 226  1326.289
 227  2045.483
 228  1887.446
 229  1699.536
 230  1851.278
 231  1726.95
 232  1425.955
 233  1229.651
 234  1447.965
 235  1889.318
 236  1660.559
 237  1748.66
 238  1899.686
 239  1771.033
 240  1461.875
 241  1413.229
 242  1426.398
 243  1164.749
 244  1540.109
 245  1975.306
 246  1913.057
 247  1834.438
 248  1771.993
 249  1520.264
 250  1328.179
 251  989.27
 252  1429.227
 253  1987.116
 254  1968.944
 255  1738.666
 256  1210.026
 257  1440.438
 258  1118.962
 259  1858.922
 260  1857.499
 261  1547.589
 262  1474.942
 263  1439.516
 264  1567.344
 265  1590.464
 266  1736.598
 267  1458.729
 268  1672.76
 269  1572.415
 270  1657.17
 271  1442.418
 272  1279.173
 273  1194.966
 274  1312.28
 275  1631.249
 276  1695.126
 277  1257.888
 278  1318.902
 279  1731.485
 280  1887.479
 281  1886.158
 282  2246.294
 283  1830.156
 284  1218.572
 285  1346.208
 286  1967.566
 287  1951.732
 288  1836.782
 289  1997.172
 290  1821.78
 291  938.5076
 292  1298.058
 293  1649.753
 294  2248.883
 295  1960.656
 296  1759.843
 297  1457.685
 298  1472.89
 299  1257.184
 300  1473.44
 301  1774.022
 302  1474.443
 303  1665.893
 304  1570.265
 305  1300.742
 306  1197.225
 307  1197.172
 308  1260.647
 309  1621.563
 310  1688.694
 311  1712.205
 312  1701.422
 313  1592.548
 314  1549.16
 315  1762.962
 316  1332.899
 317  1249.766
 318  1280.779
 319  1667.309
 320  1930.044
 321  1749.61
 322  1496.484
 323  1370.1
 324  1261.5
 325  1229.475
 326  1404.686
 327  1500.102
 328  1813.318
 329  1380.748
 330  1340.198
 331  1509.176
 332  1102.681
 333  1684.137
 334  1526.473
 335  1480.842
 336  1102.44
 337  1518.768
 338  1987.655
 339  1531.854
 340  1249.884
 341  1461.719
 342  1158.997
 343  1614.443
 344  1595.619
 345  1662.45
 346  1830.571
 347  1428.607
 348  1167.771
 349  1383.62
 350  1304.803
 351  1345.954
 352  1669.461
 353  1713.54
 354  1457.181
 355  1574.984
 356  1421.91
 357  1302.663
 358  1460.406
 359  1831.573
 360  1479.028
 361  1352.994
 362  1683.935
 363  1867.038
 364  1501.215
 365  1335.068
 366  1557.788
 367  1825.723
 368  1852.016
 369  1727.01
 370  1982.188
 371  1781.516
 372  1393.026
 373  1581.128
 374  1480.094
 375  1554.349
 376  1580.074
 377  1516.697
 378  1976.813
 379  1924.805
 380  1468.722
 381  1428.425
 382  1415.431
 383  1378.351
 384  1467.776
 385  2051.109
 386  2302.127
 387  1902.652
 388  1794.709
 389  1875.382
 390  1440.015
 391  1162.482
 392  1286.684
 393  1432.124
 394  1818.443
 395  2076.493
 396  1740.423
 397  1812.66
 398  1343.043
 399  1264.897
 400  1490.987
 401  1300.208
 402  1236.397
 403  1346.036
 404  1704.974
 405  1099.447
 406  681.4423
 407  1531.444
 408  1743.292
 409  1606.255
 410  1760.9
 411  1662.576
 412  1132.444
 413  1141.189
 414  1263.999
 415  1360.965
 416  1557.568
 417  1445.041
 418  2037.438
 419  1797.363
 420  1729.253
 421  1934.798
 422  1808.538
 423  1674.016
 424  2005.823
 425  2266.922
 426  2902.516
 427  3583.759
 428  3280.93
 429  3509.156
 430  3159.371
 431  2538.286
 432  2058.372
 433  2131.787
 434  2293.674
 435  1947.635
 436  1627.972
 437  1811.142
 438  1586.634
 439  1584.659
 440  1463.883
 441  1626.944
 442  1456.178
 443  1544.458
 444  1627.709
 445  1899.277
 446  1799.91
 447  1394.054
 448  1899.137
 449  1603.199
 450  1096.788
 451  1353.352
 452  1941.409
 453  1877.581
 454  1462.151
 455  1162.059
 456  766.2725
 457  1104.731
 458  1412.139
 459  2103.157
 460  2016.183
 461  2150.729
 462  1784.683
 463  1552.51
 464  1848.61
 465  1647.007
 466  1712.965
 467  2188.964
 468  2219.541
 469  2220.847
 470  2138.949
 471  1765.474
 472  1333.829
 473  1422.609
 474  1583.62
 475  1569.001
 476  1913.039
 477  2225.394
 478  2050.42
 479  1365.878
 480  1389.652
 481  1671.385
 482  1584.971
 483  1856.618
 484  1871.694
 485  1890.956
 486  1483.76
 487  1579.505
 488  1525.823
 489  1461.408
 490  1500.394
 491  1620.781
 492  1534.348
 493  1634.54
 494  1633.016
 495  1635.613
 496  1726.067
 497  1451.2
 498  1569.036
 499  1656.872
 500  2116.013
 501  1880.567
 502  1727.753
 503  2051.611
 504  1764.806
 505  1402.414
 506  1587.279
 507  1477.377
 508  1647.908
 509  1495.43
 510  1528.82
 511  1515.498
