# Input file       =  1183955774.111918_cleaned.dat
# Candidate        =  PSR_0332+5434
# Telescope        =  AR
# Epoch_topo       =  57947.192049906458
# Epoch_bary       =  N/A
# T_sample         =  0.002
# Data Folded      =  7340032
# Data Avg         =  0.238678885095786
# Data StdDev      =  3.76969379742383 
# Profile Bins     =  1024
# Profile Avg      =  1710.2047690791  
# Profile StdDev   =  319.157513819077 
# Reduced chi-sqr  =  1.290
# Prob(Noise)      <  8.74e-10   (~6.0 sigma)
# P_topo (ms)      =  714.480141414046  +/- 0.000337
# P'_topo (s/s)    =  -0                +/- 1.78e-10
# P''_topo (s/s^2) =  0                 +/- 7.84e-14
# P_bary (ms)      =  N/A
# P'_bary (s/s)    =  N/A
# P''_bary (s/s^2) =  N/A
# P_orb (s)        =  N/A
# asin(i)/c (s)    =  N/A
# eccentricity     =  N/A
# w (rad)          =  N/A
# T_peri           =  N/A
######################################################
   0  1449.11
   1  1538.636
   2  1716.614
   3  1707.31
   4  1656.019
   5  1522.506
   6  1456.88
   7  1538.814
   8  1715.094
   9  1880.987
  10  1860.339
  11  1900.322
  12  1752.93
  13  1592.214
  14  1434.362
  15  1396.456
  16  1372.073
  17  1355.591
  18  1398.794
  19  1504.041
  20  1622.509
  21  1654.296
  22  1638.605
  23  1561.064
  24  1571.355
  25  1567.847
  26  1605.091
  27  1556.916
  28  1570.119
  29  1625.865
  30  1621.822
  31  1619.201
  32  1743.564
  33  2026.799
  34  2107.806
  35  2019.844
  36  1919.238
  37  1869.105
  38  1808.404
  39  1773.71
  40  1824.579
  41  1818.261
  42  1740.279
  43  1788.822
  44  1956.454
  45  1977.783
  46  1934.091
  47  1824.163
  48  1803.009
  49  1790.338
  50  1750.862
  51  1807.195
  52  1751.776
  53  1755.232
  54  1715.959
  55  1681.067
  56  1572.701
  57  1575.201
  58  1659.614
  59  1706.031
  60  1741.428
  61  1733.199
  62  1708.373
  63  1667.499
  64  1664.473
  65  1716.747
  66  1692.425
  67  1707.495
  68  1638.857
  69  1573.394
  70  1606.996
  71  1743.013
  72  1789.516
  73  1759.16
  74  1765.528
  75  1813.271
  76  1883.787
  77  1794.719
  78  1676.436
  79  1674.783
  80  1703.103
  81  1712.779
  82  1675.29
  83  1683.724
  84  1741.238
  85  1794.267
  86  1788.401
  87  1753.47
  88  1681.446
  89  1721.46
  90  1749.679
  91  1731.399
  92  1819.28
  93  1862.583
  94  1950.553
  95  1853.491
  96  1731.157
  97  1657.328
  98  1706.861
  99  1841.244
 100  1807.882
 101  1822.195
 102  1841.269
 103  1856.241
 104  1843.432
 105  1783.623
 106  1720.691
 107  1642.725
 108  1674.506
 109  1843.073
 110  1875.929
 111  1921.04
 112  1900.529
 113  1940.014
 114  1962.23
 115  1860.396
 116  1808.01
 117  1766.536
 118  1762.95
 119  1742.487
 120  1749.014
 121  1754.23
 122  1632.403
 123  1603.788
 124  1714.801
 125  1792.934
 126  1801.68
 127  1790.708
 128  1721.774
 129  1728.183
 130  1695.71
 131  1726.029
 132  1791.04
 133  1789.905
 134  1751.946
 135  1529.717
 136  1562.994
 137  1591.04
 138  1724.191
 139  1630.991
 140  1652.237
 141  1703.752
 142  1743.919
 143  1658.495
 144  1569.724
 145  1545.577
 146  1624.696
 147  1705.658
 148  1748.625
 149  1658.086
 150  1593.401
 151  1751.457
 152  1887.722
 153  1899.213
 154  1823.568
 155  1806.652
 156  1872.278
 157  1876.708
 158  1881.86
 159  1921.806
 160  1965.073
 161  2081.842
 162  2108.759
 163  2133.967
 164  2144.298
 165  2040.437
 166  1972.776
 167  2001.642
 168  2037.05
 169  1948.555
 170  1873.161
 171  1917.978
 172  1970.834
 173  1955.988
 174  1966.245
 175  2024.983
 176  1926.281
 177  1880.305
 178  1787.386
 179  1832.587
 180  1814.442
 181  1809.754
 182  1656.016
 183  1538.003
 184  1484.228
 185  1483.34
 186  1480.263
 187  1485.741
 188  1528.401
 189  1714.132
 190  1737.834
 191  1573.242
 192  1521.252
 193  1558.244
 194  1560.507
 195  1513.117
 196  1530.352
 197  1582.207
 198  1486.681
 199  1370.056
 200  1177.324
 201  1186.942
 202  1250.585
 203  1421.305
 204  1482.384
 205  1506.914
 206  1505.543
 207  1551.031
 208  1586.076
 209  1590.769
 210  1504.302
 211  1502.07
 212  1502.528
 213  1402.187
 214  1363.445
 215  1384.298
 216  1489.298
 217  1516.832
 218  1542.177
 219  1608.653
 220  1565.424
 221  1526.83
 222  1451.683
 223  1480.799
 224  1472.715
 225  1553.27
 226  1552.772
 227  1624.68
 228  1686.029
 229  1753.836
 230  1686.515
 231  1545.022
 232  1454.187
 233  1352.001
 234  1397.083
 235  1522.313
 236  1581.542
 237  1526.827
 238  1443.964
 239  1469.339
 240  1531.768
 241  1508.887
 242  1508.747
 243  1478.269
 244  1458.71
 245  1456.544
 246  1442.494
 247  1468.164
 248  1487.419
 249  1628.953
 250  1643.43
 251  1511.493
 252  1340.172
 253  1328.661
 254  1488.692
 255  1476.201
 256  1435.816
 257  1414.32
 258  1578.618
 259  1624.991
 260  1640.854
 261  1457.344
 262  1434.481
 263  1442.047
 264  1442.428
 265  1354.975
 266  1439.115
 267  1435.849
 268  1515.945
 269  1402.35
 270  1416.009
 271  1384.394
 272  1489.461
 273  1484.253
 274  1468.539
 275  1490.742
 276  1501.423
 277  1522.696
 278  1560.702
 279  1588.164
 280  1561.62
 281  1411.441
 282  1343.428
 283  1307.892
 284  1346.548
 285  1424.025
 286  1611.141
 287  1739.075
 288  1762.713
 289  1715.159
 290  1568.025
 291  1431.696
 292  1381.795
 293  1386.168
 294  1461.071
 295  1437.684
 296  1445.214
 297  1365.118
 298  1411.585
 299  1499.289
 300  1542.808
 301  1508.739
 302  1492.913
 303  1437.33
 304  1393.503
 305  1441.966
 306  1469.929
 307  1407.996
 308  1444.898
 309  1533.792
 310  1586.865
 311  1560.756
 312  1491.995
 313  1420.997
 314  1433.834
 315  1481.839
 316  1463.894
 317  1370.807
 318  1297.796
 319  1290.538
 320  1327.551
 321  1333.87
 322  1311.614
 323  1473.685
 324  1498.039
 325  1602.554
 326  1576.364
 327  1591.446
 328  1550.732
 329  1532.945
 330  1585.624
 331  1756.157
 332  1842.145
 333  1789.479
 334  1573.693
 335  1528.021
 336  1609.159
 337  1742.805
 338  1752.814
 339  1724.177
 340  1741.843
 341  1688.633
 342  1635.489
 343  1589.724
 344  1699.064
 345  1691.335
 346  1627.286
 347  1493.027
 348  1493.419
 349  1492.169
 350  1551.901
 351  1538.193
 352  1566.702
 353  1560.256
 354  1574.822
 355  1531.318
 356  1489.578
 357  1370.849
 358  1276.63
 359  1385.767
 360  1565.533
 361  1692.72
 362  1639.024
 363  1515.742
 364  1526.589
 365  1551.979
 366  1551.356
 367  1529.646
 368  1501.482
 369  1651.926
 370  1780.075
 371  1754.298
 372  1752.664
 373  1840.08
 374  1909.02
 375  1817.644
 376  1772.919
 377  1795.714
 378  1792.32
 379  1819.624
 380  1856.329
 381  1880.494
 382  1890.632
 383  1987.444
 384  2026.385
 385  2012.357
 386  1907.744
 387  1805.26
 388  1748.969
 389  1762.195
 390  1688.624
 391  1727.774
 392  1665.578
 393  1728.111
 394  1746.373
 395  1785.389
 396  1780.43
 397  1767.423
 398  1764.44
 399  1690.213
 400  1658.253
 401  1595.548
 402  1672.969
 403  1637.517
 404  1662.189
 405  1569.29
 406  1558.356
 407  1585.928
 408  1593.562
 409  1620.61
 410  1592.739
 411  1660.21
 412  1692.221
 413  1749.745
 414  1744.225
 415  1702.558
 416  1663.955
 417  1690.348
 418  1728.559
 419  1678.281
 420  1611.301
 421  1577.803
 422  1587.236
 423  1621.258
 424  1596.314
 425  1634.432
 426  1687.502
 427  1722.348
 428  1606.685
 429  1586.647
 430  1597.488
 431  1687.532
 432  1736.423
 433  1824.331
 434  1819.922
 435  1742.514
 436  1866.408
 437  1909.663
 438  1854.792
 439  1780.234
 440  1793.565
 441  1832.24
 442  1836.332
 443  1862.974
 444  1888.117
 445  1868.649
 446  1804.766
 447  1845.977
 448  1872.693
 449  1888.793
 450  1971.269
 451  1881.431
 452  1883.125
 453  1774.216
 454  1904.941
 455  1851.651
 456  1889.473
 457  1878.678
 458  1879.417
 459  1966.104
 460  2044.662
 461  2164.701
 462  2173.961
 463  2218.046
 464  2090.81
 465  1950.644
 466  1850.746
 467  1814.544
 468  1811.977
 469  1754.77
 470  1705.579
 471  1632.897
 472  1668.5
 473  1759.974
 474  1776.078
 475  1762.696
 476  1710.41
 477  1670.351
 478  1658.349
 479  1587.013
 480  1639.534
 481  1723.252
 482  1698.031
 483  1591.672
 484  1508.686
 485  1561.015
 486  1534.351
 487  1601.885
 488  1622.446
 489  1651.612
 490  1591.997
 491  1576.671
 492  1561.767
 493  1525.452
 494  1685.2
 495  1719.347
 496  1691.062
 497  1483.325
 498  1411.568
 499  1458.658
 500  1509.576
 501  1621.916
 502  1800.185
 503  1973.968
 504  1967.713
 505  1897.547
 506  1856.893
 507  1771.439
 508  1715.42
 509  1778.831
 510  1814.104
 511  1714.989
 512  1727.37
 513  1742.962
 514  1876.424
 515  1914.869
 516  1995.955
 517  1921.733
 518  1805.275
 519  1782.143
 520  1824.362
 521  1814.086
 522  1803.001
 523  1715.119
 524  1744.588
 525  1702.419
 526  1759.181
 527  1743.986
 528  1705.111
 529  1684.044
 530  1757.892
 531  1731.297
 532  1527.462
 533  1448.268
 534  1474.419
 535  1562.686
 536  1589.223
 537  1620.16
 538  1633.005
 539  1493.007
 540  1430.922
 541  1397.644
 542  1529.177
 543  1636.776
 544  1611.225
 545  1608.976
 546  1579.979
 547  1535.305
 548  1551.17
 549  1542.962
 550  1521.077
 551  1361.772
 552  1319.296
 553  1338.147
 554  1382.144
 555  1493.806
 556  1480.121
 557  1432.669
 558  1382.863
 559  1331.022
 560  1385.828
 561  1445.535
 562  1505.545
 563  1592.183
 564  1666.451
 565  1666.945
 566  1535.99
 567  1522.199
 568  1637.082
 569  1686.693
 570  1793.397
 571  1679.375
 572  1608.086
 573  1527.679
 574  1591.746
 575  1677.262
 576  1750.603
 577  1797.756
 578  1693.455
 579  1674.019
 580  1665.641
 581  1646.452
 582  1688.021
 583  1728.292
 584  1792.021
 585  1781.76
 586  1744.21
 587  1825.743
 588  1895.685
 589  1882.465
 590  1852.779
 591  1791.018
 592  1668.958
 593  1581.538
 594  1571.623
 595  1758.614
 596  1820.807
 597  1917.554
 598  1914.392
 599  1843.159
 600  1705.588
 601  1668.248
 602  1663.242
 603  1599.144
 604  1661.135
 605  1656.987
 606  1732.187
 607  1763.342
 608  1817.859
 609  1871.616
 610  1798.051
 611  1806.282
 612  1719.981
 613  1720.498
 614  1767.186
 615  1812.069
 616  1949.645
 617  2046.483
 618  2033.953
 619  1914.777
 620  1781.542
 621  1738.6
 622  1769.413
 623  1901.773
 624  2014.093
 625  2006.586
 626  1858.458
 627  1690.68
 628  1692.57
 629  1657.519
 630  1713.603
 631  1803.201
 632  1901.293
 633  1981.28
 634  1988.413
 635  2043.855
 636  2013.56
 637  2031.418
 638  1962.961
 639  2048.531
 640  2087.47
 641  2124.99
 642  2107.93
 643  2212.608
 644  2264.331
 645  2252.824
 646  2297.711
 647  2531.166
 648  2747.144
 649  2979.903
 650  2912.182
 651  2910.375
 652  2868.116
 653  2862.804
 654  2766.988
 655  2598.904
 656  2536.636
 657  2375.308
 658  2238.24
 659  2065.059
 660  2036.395
 661  1940.662
 662  1869.078
 663  1735.954
 664  1726.919
 665  1687.152
 666  1746.899
 667  1817.041
 668  1804.794
 669  1727.034
 670  1750.905
 671  1751.172
 672  1790.985
 673  1884.964
 674  1958.648
 675  2069.473
 676  2035.648
 677  1973.946
 678  1899.595
 679  1911.716
 680  1969.552
 681  1991.556
 682  1975.943
 683  1943.167
 684  1838.463
 685  1855.838
 686  1897.05
 687  1979.336
 688  1908.921
 689  1967.75
 690  1920.757
 691  1988.01
 692  1933.47
 693  1976.184
 694  1872.734
 695  1756.792
 696  1654.966
 697  1752.671
 698  1694.353
 699  1565.735
 700  1535.225
 701  1716.424
 702  1814.065
 703  1852.597
 704  1892.166
 705  1930.464
 706  1857.412
 707  1696.687
 708  1599.763
 709  1682.815
 710  1817.875
 711  1847.929
 712  1826.39
 713  1819.563
 714  1887.374
 715  1869.601
 716  1876.389
 717  1872.358
 718  1863.021
 719  1852.465
 720  1755.848
 721  1636.698
 722  1578.056
 723  1579.565
 724  1635.966
 725  1634.757
 726  1633.765
 727  1617.104
 728  1705.907
 729  1738.55
 730  1717.573
 731  1692.352
 732  1782.171
 733  1785.068
 734  1706.938
 735  1600.926
 736  1569.412
 737  1617.977
 738  1740.079
 739  1771.361
 740  1781.727
 741  1720.326
 742  1708.389
 743  1707.639
 744  1777.207
 745  1775.098
 746  1699.549
 747  1660.787
 748  1654.464
 749  1684.756
 750  1795.063
 751  1867.415
 752  1912.094
 753  1729.48
 754  1650.92
 755  1576.067
 756  1640.598
 757  1639.14
 758  1669.724
 759  1609.787
 760  1451.724
 761  1456.007
 762  1565.786
 763  1677.796
 764  1664.328
 765  1594.771
 766  1675.402
 767  1752.439
 768  1871.852
 769  1914.082
 770  1940.769
 771  1889.82
 772  1792.483
 773  1708.627
 774  1705.447
 775  1760.469
 776  1760.159
 777  1761.393
 778  1753.698
 779  1828.442
 780  1922.643
 781  1935.981
 782  1959.697
 783  2005.495
 784  2019.102
 785  1981.677
 786  1914.083
 787  1913.71
 788  1845.996
 789  1801.62
 790  1769.126
 791  1746.962
 792  1802.023
 793  1774.009
 794  1765.287
 795  1778.713
 796  1821.166
 797  1757.634
 798  1689.733
 799  1615.764
 800  1566.632
 801  1673.745
 802  1792.038
 803  1858.638
 804  1794.307
 805  1785.286
 806  1864.27
 807  1824.291
 808  1815.104
 809  1773.724
 810  1783.698
 811  1731.031
 812  1789.954
 813  1766.897
 814  1790.803
 815  1755.059
 816  1872.08
 817  1883.072
 818  1835.924
 819  1679.572
 820  1676.701
 821  1721.677
 822  1853.158
 823  1895.577
 824  1917.148
 825  1911.869
 826  1726.395
 827  1537.883
 828  1489.76
 829  1555.851
 830  1614.771
 831  1727.526
 832  1710.982
 833  1731.23
 834  1753.661
 835  1770.853
 836  1781.492
 837  1702.531
 838  1665.815
 839  1655.771
 840  1588.667
 841  1458.46
 842  1420.419
 843  1476.558
 844  1536.715
 845  1617.572
 846  1632.807
 847  1630.944
 848  1599.66
 849  1577.98
 850  1574.93
 851  1544.221
 852  1514.643
 853  1469.687
 854  1520.278
 855  1597.663
 856  1626.529
 857  1570.665
 858  1578.114
 859  1529.612
 860  1511.811
 861  1499.282
 862  1532.195
 863  1531.973
 864  1519.985
 865  1502.471
 866  1604.226
 867  1523.792
 868  1549.986
 869  1624.242
 870  1664.719
 871  1613.777
 872  1616.886
 873  1619.607
 874  1543.053
 875  1381.702
 876  1549.09
 877  1726.558
 878  1798.471
 879  1775.666
 880  1761.801
 881  1719.52
 882  1670.963
 883  1668.579
 884  1771.736
 885  1850.674
 886  1944.38
 887  1999.297
 888  1975.726
 889  1904.339
 890  1721.667
 891  1706.501
 892  1653.045
 893  1678.826
 894  1710.023
 895  1811.472
 896  1794.23
 897  1788.869
 898  1852.315
 899  1998.579
 900  2057.197
 901  1953.602
 902  1840.668
 903  1770.072
 904  1768.408
 905  1712.594
 906  1650.121
 907  1643.852
 908  1638.531
 909  1706.991
 910  1616.242
 911  1597.138
 912  1567.194
 913  1698.539
 914  1705.519
 915  1785.787
 916  1816.66
 917  1839.496
 918  1743.867
 919  1725.469
 920  1763.246
 921  1777.229
 922  1787.169
 923  1680.247
 924  1548.574
 925  1478.01
 926  1599.939
 927  1688.021
 928  1695.638
 929  1619.689
 930  1577.682
 931  1569.507
 932  1575.834
 933  1635.029
 934  1700.357
 935  1730.264
 936  1658.85
 937  1714.197
 938  1728.773
 939  1750.809
 940  1745.444
 941  1737.737
 942  1808.636
 943  1757.415
 944  1815.159
 945  1750.436
 946  1802.47
 947  1668.613
 948  1630.686
 949  1718.681
 950  1849.877
 951  1880.319
 952  1852.641
 953  1844.856
 954  1828.873
 955  1807.081
 956  1821.651
 957  1775.08
 958  1766.84
 959  1751.437
 960  1710.168
 961  1709.286
 962  1774.978
 963  1826.086
 964  1764.929
 965  1729.329
 966  1568.881
 967  1569.906
 968  1671.899
 969  1757.718
 970  1754.317
 971  1682.996
 972  1644.345
 973  1587.094
 974  1569.874
 975  1572.51
 976  1606.942
 977  1635.357
 978  1692.567
 979  1701.662
 980  1614.795
 981  1613.806
 982  1678.965
 983  1788.117
 984  1735.868
 985  1607.772
 986  1613.077
 987  1652.495
 988  1640.939
 989  1688.131
 990  1730.339
 991  1725.663
 992  1636.424
 993  1658.354
 994  1654.764
 995  1688.098
 996  1720.902
 997  1778.137
 998  1770.78
 999  1771.683
1000  1762.116
1001  1868.313
1002  1846.211
1003  1858.508
1004  1736.595
1005  1714.774
1006  1656.156
1007  1753.795
1008  1819.997
1009  1817.236
1010  1737.845
1011  1744.767
1012  1673.354
1013  1631.489
1014  1622.308
1015  1651.426
1016  1691.292
1017  1702.563
1018  1658.324
1019  1562.274
1020  1543.961
1021  1623.252
1022  1599.529
1023  1485
