# Input file       =  1184315356.111366_cleaned.dat
# Candidate        =  PSR_0332+5434
# Telescope        =  AR
# Epoch_topo       =  57951.353878603775
# Epoch_bary       =  N/A
# T_sample         =  0.002
# Data Folded      =  7340032
# Data Avg         =  0.0420712559375956
# Data StdDev      =  1.00020093256636 
# Profile Bins     =  512
# Profile Avg      =  603.067135537126 
# Profile StdDev   =  119.757094643044 
# Reduced chi-sqr  =  1.262
# Prob(Noise)      <  5.09e-05   (~3.9 sigma)
# P_topo (ms)      =  714.477722634376  +/- 0.000306
# P'_topo (s/s)    =  -0                +/- 1.62e-10
# P''_topo (s/s^2) =  0                 +/- 7.14e-14
# P_bary (ms)      =  N/A
# P'_bary (s/s)    =  N/A
# P''_bary (s/s^2) =  N/A
# P_orb (s)        =  N/A
# asin(i)/c (s)    =  N/A
# eccentricity     =  N/A
# w (rad)          =  N/A
# T_peri           =  N/A
######################################################
   0  1294.233
   1  1176.09
   2  999.5836
   3  864.7333
   4  739.2385
   5  665.7381
   6  577.2003
   7  695.8405
   8  687.0682
   9  659.2068
  10  604.2881
  11  559.5118
  12  652.4274
  13  668.1724
  14  641.2374
  15  694.1016
  16  783.9513
  17  780.1238
  18  631.8903
  19  681.765
  20  713.4203
  21  716.0456
  22  601.1243
  23  700.398
  24  780.866
  25  640.6202
  26  563.7823
  27  537.4044
  28  621.3877
  29  619.3563
  30  586.7021
  31  738.9641
  32  675.5717
  33  597.2545
  34  512.4216
  35  540.0054
  36  574.5306
  37  481.1395
  38  628.4753
  39  505.3062
  40  536.0087
  41  637.5542
  42  561.5872
  43  609.4386
  44  694.3517
  45  660.3234
  46  478.443
  47  494.6036
  48  506.1549
  49  531.4822
  50  620.6384
  51  648.1095
  52  677.1226
  53  589.9134
  54  472.9238
  55  621.7646
  56  599.9103
  57  579.2799
  58  515.4206
  59  481.6586
  60  562.0639
  61  635.314
  62  580.8667
  63  566.9911
  64  647.0981
  65  714.3726
  66  609.6491
  67  626.8192
  68  686.8698
  69  658.4101
  70  658.6262
  71  604.8747
  72  525.7192
  73  464.6033
  74  557.7741
  75  622.517
  76  511.2528
  77  567.9047
  78  618.3243
  79  576.8166
  80  595.5642
  81  557.5751
  82  575.2688
  83  529.6501
  84  546.8708
  85  464.0757
  86  566.7545
  87  676.8572
  88  554.3012
  89  490.697
  90  583.9483
  91  675.1437
  92  726.6663
  93  734.5474
  94  752.9462
  95  686.1886
  96  661.6818
  97  692.8202
  98  646.2492
  99  644.1877
 100  575.6254
 101  703.0035
 102  703.7035
 103  657.2476
 104  712.2737
 105  664.3607
 106  734.5714
 107  776.6927
 108  683.1055
 109  613.5024
 110  705.2834
 111  584.8389
 112  653.868
 113  683.9694
 114  688.2534
 115  745.1022
 116  623.0936
 117  668.8942
 118  651.7151
 119  642.9341
 120  661.242
 121  765.3187
 122  724.2586
 123  629.2362
 124  670.5946
 125  718.2292
 126  664.3251
 127  547.9037
 128  552.9855
 129  642.8326
 130  558.7983
 131  586.4714
 132  595.7181
 133  593.3818
 134  505.3846
 135  578.7305
 136  625.2509
 137  536.4985
 138  566.6104
 139  666.3119
 140  603.6235
 141  653.1405
 142  637.1812
 143  661.8677
 144  646.6353
 145  641.6688
 146  587.2927
 147  595.3481
 148  710.981
 149  648.2049
 150  635.9543
 151  646.0062
 152  614.2593
 153  584.3202
 154  630.2764
 155  547.8655
 156  615.0139
 157  628.3403
 158  658.915
 159  616.3773
 160  681.814
 161  753.6725
 162  680.2143
 163  465.1077
 164  490.9007
 165  567.5287
 166  608.9187
 167  625.3654
 168  615.8032
 169  700.1075
 170  599.3638
 171  589.6821
 172  546.6505
 173  505.9176
 174  472.5333
 175  526.7151
 176  493.6234
 177  510.7525
 178  567.4686
 179  636.412
 180  649.3286
 181  605.4457
 182  551.046
 183  490.2147
 184  452.7191
 185  395.1946
 186  549.2164
 187  560.3696
 188  527.1525
 189  617.8365
 190  733.8505
 191  634.2924
 192  577.9048
 193  600.7682
 194  565.6975
 195  642.3265
 196  724.8781
 197  685.2263
 198  642.041
 199  684.6799
 200  710.6723
 201  680.6445
 202  680.9634
 203  687.8625
 204  662.0699
 205  628.9302
 206  594.9719
 207  519.3693
 208  623.1092
 209  625.8942
 210  562.2159
 211  660.4872
 212  673.0806
 213  753.5059
 214  630.3795
 215  650.7096
 216  650.4827
 217  567.6263
 218  561.2615
 219  555.6992
 220  562.8446
 221  640.3602
 222  585.575
 223  562.5654
 224  617.9962
 225  489.78
 226  512.6551
 227  580.189
 228  638.1274
 229  582.3511
 230  534.0839
 231  502.3279
 232  400.4003
 233  396.6477
 234  466.4123
 235  529.1448
 236  629.7661
 237  705.6855
 238  596.8555
 239  603.811
 240  626.7787
 241  488.4056
 242  556.8085
 243  490.513
 244  644.2826
 245  553.7233
 246  624.132
 247  645.0836
 248  573.1852
 249  470.9648
 250  444.7768
 251  466.5987
 252  413.3867
 253  372.6396
 254  441.5983
 255  513.9433
 256  602.4474
 257  560.3784
 258  498.729
 259  534.3098
 260  498.0488
 261  497.9455
 262  495.7446
 263  587.7617
 264  668.5146
 265  651.1752
 266  555.9785
 267  497.839
 268  560.5119
 269  502.8401
 270  486.6115
 271  513.0371
 272  549.4188
 273  517.2573
 274  511.282
 275  530.9106
 276  471.7949
 277  571.655
 278  487.0143
 279  548.6423
 280  598.1932
 281  556.9206
 282  621.9517
 283  705.5491
 284  617.4796
 285  450.7559
 286  514.6155
 287  531.2166
 288  543.5128
 289  701.5993
 290  663.2398
 291  517.0599
 292  509.5686
 293  643.7706
 294  681.5518
 295  650.889
 296  614.1302
 297  686.5053
 298  586.0206
 299  576.0458
 300  596.6624
 301  706.3378
 302  718.6979
 303  666.7061
 304  637.9784
 305  640.4713
 306  625.4006
 307  620.6316
 308  582.1212
 309  590.7456
 310  590.049
 311  495.0671
 312  524.9803
 313  570.3299
 314  571.2255
 315  536.4759
 316  645.5281
 317  659.2801
 318  529.3693
 319  553.0135
 320  582.4235
 321  579.6776
 322  516.0351
 323  655.9583
 324  617.7682
 325  505.9514
 326  559.299
 327  581.4115
 328  477.6819
 329  573.2622
 330  600.6362
 331  593.4001
 332  642.4071
 333  641.3075
 334  537.5365
 335  510.2118
 336  557.0619
 337  529.138
 338  511.467
 339  511.1036
 340  549.093
 341  616.6873
 342  540.3862
 343  620.3929
 344  586.5139
 345  528.7659
 346  532.5614
 347  584.1857
 348  608.4753
 349  499.407
 350  573.0229
 351  644.9471
 352  501.9022
 353  518.9816
 354  570.48
 355  620.6269
 356  554.0054
 357  520.5967
 358  562.9733
 359  503.0066
 360  555.6047
 361  562.0862
 362  609.8855
 363  691.4838
 364  650.4559
 365  688.562
 366  618.5158
 367  574.591
 368  677.4197
 369  762.6712
 370  641.7292
 371  638.1391
 372  669.2161
 373  618.6169
 374  627.1947
 375  657.6086
 376  670.7985
 377  708.3973
 378  764.2532
 379  697.4217
 380  630.4628
 381  595.2088
 382  534.6882
 383  477.2522
 384  569.4065
 385  613.5602
 386  599.0261
 387  530.8713
 388  523.6874
 389  404.5918
 390  449.8406
 391  532.7963
 392  507.9733
 393  509.1024
 394  524.382
 395  639.7298
 396  754.3362
 397  567.4985
 398  478.8084
 399  539.9225
 400  455.6196
 401  554.3102
 402  607.3014
 403  756.2271
 404  596.5674
 405  513.4616
 406  671.0481
 407  678.7536
 408  522.1233
 409  578.9197
 410  517.2007
 411  536.6658
 412  614.7137
 413  550.8189
 414  600.1439
 415  691
 416  490.6834
 417  461.2624
 418  523.684
 419  428.7891
 420  337.288
 421  404.309
 422  578.3601
 423  531.1791
 424  603.9957
 425  598.1525
 426  514.7924
 427  592.7667
 428  632.7076
 429  613.9496
 430  575.5958
 431  760.4236
 432  729.2922
 433  625.4761
 434  670.589
 435  666.7034
 436  671.111
 437  763.8673
 438  625.1703
 439  521.2899
 440  493.0792
 441  522.8514
 442  655.3315
 443  635.0407
 444  592.9859
 445  613.4912
 446  651.215
 447  619.5433
 448  607.1997
 449  534.1128
 450  586.9877
 451  606.0024
 452  643.0292
 453  490.4442
 454  538.769
 455  708.895
 456  590.8082
 457  702.8844
 458  657.7682
 459  579.1206
 460  552.7706
 461  534.8442
 462  538.9916
 463  667.1356
 464  697.0007
 465  610.7747
 466  640.557
 467  581.2051
 468  605.8865
 469  611.9206
 470  561.7798
 471  613.0297
 472  612.7439
 473  616.3638
 474  578.2679
 475  461.4904
 476  551.6793
 477  564.553
 478  526.9346
 479  605.6276
 480  592.6795
 481  477.3943
 482  538.3297
 483  583.3708
 484  576.702
 485  462.1133
 486  527.8912
 487  577.7305
 488  466.1465
 489  506.8308
 490  702.7856
 491  683.5697
 492  618.431
 493  616.9495
 494  526.3716
 495  528.2424
 496  600.7679
 497  665.0269
 498  609.0433
 499  498.6944
 500  596.454
 501  646.6177
 502  685.1139
 503  534.6764
 504  638.0359
 505  787.4426
 506  739.9776
 507  739.5507
 508  784.3568
 509  903.4612
 510  1101.499
 511  1239.449
