# Input file       =  1184918446.155724_cleaned.dat
# Candidate        =  PSR_0332+5434
# Telescope        =  AR
# Epoch_topo       =  57958.334087450508
# Epoch_bary       =  N/A
# T_sample         =  0.002
# Data Folded      =  7340032
# Data Avg         =  0.22433265577378 
# Data StdDev      =  4.6558864920572  
# Profile Bins     =  256
# Profile Avg      =  6432.9147069855  
# Profile StdDev   =  788.372338593808 
# Reduced chi-sqr  =  1.686
# Prob(Noise)      <  4.46e-11   (~6.5 sigma)
# P_topo (ms)      =  714.47357254225   +/- 0.000612
# P'_topo (s/s)    =  -0                +/- 3.23e-10
# P''_topo (s/s^2) =  0                 +/- 1.43e-13
# P_bary (ms)      =  N/A
# P'_bary (s/s)    =  N/A
# P''_bary (s/s^2) =  N/A
# P_orb (s)        =  N/A
# asin(i)/c (s)    =  N/A
# eccentricity     =  N/A
# w (rad)          =  N/A
# T_peri           =  N/A
######################################################
   0  6794.21
   1  6701.913
   2  6024.572
   3  6737.556
   4  7442.083
   5  7376.8
   6  7704.544
   7  7208.542
   8  6860.728
   9  7150.742
  10  7330.83
  11  6966.118
  12  7018.33
  13  6588.644
  14  6835.347
  15  6993.579
  16  6839.315
  17  6660.665
  18  6698.823
  19  6092.146
  20  4879.82
  21  6593.139
  22  6724.295
  23  5672.265
  24  5363.771
  25  6097.251
  26  6712.496
  27  7158.446
  28  6806.562
  29  6895.534
  30  7307.159
  31  6852.517
  32  7035.647
  33  6145.889
  34  6642.832
  35  6601.219
  36  6673.354
  37  6141.172
  38  6571.725
  39  6257.17
  40  6409.625
  41  6254.103
  42  6012.716
  43  6130.283
  44  6623.736
  45  6248.447
  46  6892.983
  47  6634.184
  48  6325.396
  49  6760.539
  50  7496.452
  51  7040.535
  52  6745.837
  53  7072.775
  54  6624.684
  55  6500.1
  56  6707.277
  57  6913.148
  58  6586.996
  59  5485.964
  60  6710.411
  61  7127.453
  62  6896.21
  63  6543.777
  64  6534.342
  65  6489.829
  66  5462.82
  67  6195.32
  68  6212.706
  69  6047.313
  70  6825.315
  71  6366.185
  72  5950.456
  73  5971.043
  74  6177.374
  75  6381.253
  76  5980.719
  77  5959.983
  78  6646.283
  79  5939.457
  80  6216.668
  81  5514.585
  82  6045.012
  83  5931.038
  84  5362.891
  85  6139.434
  86  6658.244
  87  6337.808
  88  6099.885
  89  6150.603
  90  6421.06
  91  6428.465
  92  6835.038
  93  7816.364
  94  7101.817
  95  6724.072
  96  7647.776
  97  7436.29
  98  6411.321
  99  6696.445
 100  6988.53
 101  7316.765
 102  6399.091
 103  6280.189
 104  7275.166
 105  7307.294
 106  6848.809
 107  7022.359
 108  7719.137
 109  7621.271
 110  6315.824
 111  6811.278
 112  6709.58
 113  6682.971
 114  6728.705
 115  6984.29
 116  7393.898
 117  6762.571
 118  6508.467
 119  6558.61
 120  6399.183
 121  6943.916
 122  7715.491
 123  7481.52
 124  8094.039
 125  7631.157
 126  7321.324
 127  7832.618
 128  7090.819
 129  7348.524
 130  7474.125
 131  7992.587
 132  8297.448
 133  8086.154
 134  7483.825
 135  7789.949
 136  7294.207
 137  7344.557
 138  8050.171
 139  7609.051
 140  7964.84
 141  7255.516
 142  6992.112
 143  6336.373
 144  5675.03
 145  5753.041
 146  6024.961
 147  5818.489
 148  6611.538
 149  7280.646
 150  7621.479
 151  6948.201
 152  6698.352
 153  7377.649
 154  7611.125
 155  6630.648
 156  6743.769
 157  6346.812
 158  6033.036
 159  6959.703
 160  7050.477
 161  8189.738
 162  10267.48
 163  9812.246
 164  7374.123
 165  6249.179
 166  5863.639
 167  5799.219
 168  5505.099
 169  5812.17
 170  6082.577
 171  5925.916
 172  4931.222
 173  4916.135
 174  6358.117
 175  5801.718
 176  5982.955
 177  5968.578
 178  5511.793
 179  5038.026
 180  4734.724
 181  5019.662
 182  5207.447
 183  4637.883
 184  4926.353
 185  5395.306
 186  5030.38
 187  4419.255
 188  4564.232
 189  4825.85
 190  4478.497
 191  5061.674
 192  5013.674
 193  5172.916
 194  5408.03
 195  5501.298
 196  5521.058
 197  5125.104
 198  4668.589
 199  5814.436
 200  5468.912
 201  4909.816
 202  6057.368
 203  6333.818
 204  5688.41
 205  5740.602
 206  5883.698
 207  6494.003
 208  6013.437
 209  5828.862
 210  6290.04
 211  5621.015
 212  5792.13
 213  5459.272
 214  5244.053
 215  4288.154
 216  4312.769
 217  5054.929
 218  5882.964
 219  5478.588
 220  5850.998
 221  6186.277
 222  6779.409
 223  6281.116
 224  5786.751
 225  5202.062
 226  5179.324
 227  5723.549
 228  5549.071
 229  5518.245
 230  5490.23
 231  6089.642
 232  5357.72
 233  5276.835
 234  5726.296
 235  5604.443
 236  5435.802
 237  6283.908
 238  6571.922
 239  6600.024
 240  6428.443
 241  6416.369
 242  6796.441
 243  7137.605
 244  7459.968
 245  7695.344
 246  7527.06
 247  7502.167
 248  7136.355
 249  7438.259
 250  6491.956
 251  6961.899
 252  6466.85
 253  6469.899
 254  6323.915
 255  6055.014
