# Input file       =  1184372028.105099_cleaned.dat
# Candidate        =  PSR_0332+5434
# Telescope        =  AR
# Epoch_topo       =  57952.009804457164
# Epoch_bary       =  N/A
# T_sample         =  0.002
# Data Folded      =  7143424
# Data Avg         =  0.107962619240926
# Data StdDev      =  4.39315371114754 
# Profile Bins     =  512
# Profile Avg      =  1506.38676834224 
# Profile StdDev   =  518.913097772009 
# Reduced chi-sqr  =  0.623
# Prob(Noise)      <  1   (~0.0 sigma)
# P_topo (ms)      =  714.476959324488  +/- 0.000116
# P'_topo (s/s)    =  -0                +/- 6.28e-11
# P''_topo (s/s^2) =  0                 +/- 2.85e-14
# P_bary (ms)      =  N/A
# P'_bary (s/s)    =  N/A
# P''_bary (s/s^2) =  N/A
# P_orb (s)        =  N/A
# asin(i)/c (s)    =  N/A
# eccentricity     =  N/A
# w (rad)          =  N/A
# T_peri           =  N/A
######################################################
   0  836.9841
   1  1343.041
   2  1539.797
   3  1526.038
   4  1777.568
   5  1604.569
   6  1779.214
   7  1237.601
   8  1280.569
   9  1124.563
  10  945.8469
  11  1063.148
  12  1364.14
  13  1581.911
  14  1089.506
  15  1366.792
  16  1441.653
  17  1621.004
  18  1498.511
  19  1248.13
  20  1269.202
  21  1430.657
  22  1703.987
  23  1358.198
  24  1354.333
  25  1504.227
  26  1528.319
  27  1619.438
  28  1449.016
  29  1261.261
  30  1290.921
  31  1180.857
  32  1249.496
  33  1493.627
  34  1845.296
  35  2041.201
  36  1338.707
  37  1680.498
  38  1569.17
  39  1870.358
  40  1497.471
  41  1312.738
  42  1278.261
  43  1602.567
  44  1667.599
  45  1074.541
  46  1529.892
  47  1688.853
  48  1593.639
  49  1684.422
  50  1944.198
  51  1557.305
  52  1441.748
  53  1275.735
  54  1525.343
  55  1496.553
  56  1413.565
  57  1927.919
  58  1664.278
  59  1633.044
  60  1577.748
  61  1209.963
  62  1193.308
  63  1420.237
  64  1572.805
  65  1673.792
  66  1702.209
  67  1662.836
  68  1493.715
  69  1364.008
  70  1517.626
  71  1584.749
  72  1606.732
  73  1530.165
  74  1637.883
  75  1609.553
  76  1336.048
  77  1561.894
  78  1434.015
  79  1372.169
  80  1532.995
  81  1260.615
  82  1071.926
  83  1052.546
  84  1229.132
  85  1304.263
  86  1684.872
  87  1547.82
  88  1755.806
  89  1784.91
  90  1239.026
  91  1271.981
  92  1355.452
  93  1381.705
  94  1792.383
  95  1617.918
  96  1535.874
  97  1876.88
  98  1527.026
  99  1421.652
 100  1597.198
 101  1587.413
 102  1128.957
 103  1255.161
 104  1503.205
 105  1315.745
 106  1265.365
 107  1232.944
 108  1263.871
 109  1413.508
 110  1690.344
 111  1595.877
 112  1482.729
 113  1154.428
 114  870.9792
 115  1212.863
 116  1643.75
 117  1717.969
 118  1605.53
 119  1922.281
 120  1535.585
 121  1492.589
 122  1827.286
 123  1332.788
 124  1503.143
 125  1522.88
 126  1062.827
 127  1356.128
 128  1547.129
 129  1119.924
 130  1189.029
 131  1664.438
 132  1665.096
 133  1819.538
 134  2016.26
 135  1745.776
 136  1242.558
 137  1522.405
 138  1584.507
 139  1435.533
 140  1358.192
 141  1394.454
 142  1813.556
 143  1604.025
 144  1467.655
 145  1404.782
 146  1309.046
 147  1365.044
 148  1432.026
 149  1731.282
 150  1909.229
 151  1869.23
 152  1940.411
 153  1590.486
 154  1233.814
 155  770.5933
 156  1256.078
 157  1516.635
 158  1495.22
 159  1272.768
 160  1138.463
 161  1169.118
 162  1152.354
 163  1424.943
 164  1858.599
 165  1658.409
 166  1695.51
 167  1382.107
 168  1320.204
 169  1281.849
 170  1400.592
 171  1230.071
 172  1501.766
 173  1558.243
 174  1773.552
 175  1551.167
 176  1240.233
 177  1216.958
 178  1443.964
 179  1213.851
 180  1208.829
 181  1518.484
 182  1937.237
 183  1811.85
 184  1738.005
 185  1660.39
 186  1451.464
 187  1055.581
 188  1090.987
 189  1681.209
 190  1605.377
 191  1166.19
 192  1115.243
 193  1481.463
 194  1499.027
 195  1540.876
 196  1458.272
 197  1375.764
 198  1378.462
 199  1331.661
 200  1348.94
 201  1809.99
 202  1589.055
 203  1920.276
 204  2164.662
 205  1540.111
 206  1343.302
 207  1666.717
 208  1289.459
 209  1428.197
 210  1397.952
 211  1493.196
 212  1679.087
 213  1265.531
 214  1462.53
 215  1728.749
 216  1878.337
 217  1567.006
 218  1289.227
 219  1480.792
 220  1583.491
 221  1413.908
 222  1492.42
 223  1798.462
 224  1899.742
 225  1622.833
 226  1714.579
 227  1644.958
 228  1711.367
 229  1519.483
 230  1765.789
 231  1517.872
 232  1376.362
 233  1579.462
 234  1487.892
 235  1264.929
 236  955.2628
 237  1501.613
 238  1402.43
 239  1349.503
 240  1417.859
 241  1400.307
 242  1285.835
 243  1152.081
 244  1291.316
 245  1411.276
 246  987.3193
 247  1095.108
 248  1821.338
 249  2030.727
 250  2082.393
 251  1838.509
 252  1775.794
 253  1320.138
 254  1088.249
 255  1541.504
 256  1467.774
 257  1397.972
 258  1720.36
 259  1699.83
 260  1882.349
 261  1593.444
 262  1173.926
 263  1064.62
 264  1249.269
 265  1352.722
 266  1760.374
 267  1765.694
 268  1576.951
 269  1533.961
 270  1473.326
 271  1580.617
 272  1506.532
 273  1312.879
 274  1424.777
 275  1433.864
 276  1401.033
 277  1601.842
 278  1360.878
 279  1507.07
 280  1295.597
 281  1285.195
 282  1665.055
 283  1557.626
 284  1173.551
 285  1431.509
 286  1647.501
 287  1245.197
 288  1427.386
 289  1530.321
 290  1472.824
 291  1752.867
 292  1429.357
 293  1776.046
 294  1469.659
 295  1661.804
 296  1672.55
 297  1675.576
 298  1555.937
 299  1110.206
 300  1632.915
 301  1631.061
 302  1737.23
 303  1488.97
 304  1318.436
 305  1171.956
 306  876.6099
 307  1107.945
 308  1553.073
 309  1463.449
 310  1469.853
 311  1563.529
 312  1342.284
 313  1762.563
 314  1941.012
 315  1732.359
 316  1231.233
 317  1392.212
 318  1424.324
 319  1412.944
 320  1365.147
 321  1513.54
 322  2258.993
 323  1951.969
 324  1536.398
 325  1418.255
 326  1463.682
 327  1574.687
 328  1210.615
 329  1462.742
 330  1787.949
 331  1814.919
 332  1716.534
 333  2138.076
 334  1906.734
 335  1740.601
 336  1738.057
 337  1172.943
 338  1519.555
 339  1674.87
 340  1521.614
 341  1434.492
 342  1280.522
 343  1587.066
 344  1816.619
 345  1495.622
 346  1532.924
 347  1519.478
 348  1477.48
 349  1122.476
 350  1248.436
 351  1623.295
 352  1630.754
 353  1426.072
 354  1396.844
 355  1680.326
 356  1624.763
 357  1509.281
 358  1506.465
 359  1039.696
 360  1254.687
 361  1261.979
 362  1652.923
 363  1616.343
 364  1547.085
 365  1590.024
 366  1433.504
 367  1458.895
 368  1254.463
 369  1488.229
 370  1303.715
 371  1242.371
 372  1231.804
 373  1325.816
 374  1418.396
 375  1571.25
 376  1780.551
 377  1579.576
 378  1365.524
 379  1143.628
 380  1286.948
 381  1435.439
 382  1034.45
 383  1189.218
 384  1857.716
 385  1881.632
 386  1259.94
 387  1079.324
 388  1158.715
 389  1457.434
 390  1694.129
 391  1741.686
 392  1593.707
 393  1614.988
 394  1182.891
 395  1353.483
 396  1535.37
 397  1699.601
 398  2016.858
 399  1490.762
 400  1216.604
 401  1361.155
 402  1353.272
 403  1469.058
 404  1669.874
 405  1571.937
 406  1635.075
 407  1206.876
 408  1122.696
 409  1520.092
 410  1529.184
 411  1624.229
 412  1187.468
 413  1208.438
 414  1299.946
 415  1671.066
 416  1354.458
 417  1579.201
 418  1848.247
 419  1600.689
 420  1491.031
 421  1717.417
 422  1776.958
 423  1105.539
 424  1258.068
 425  1211.556
 426  1449.214
 427  1690.116
 428  1714.426
 429  2077.815
 430  1874.607
 431  1482.426
 432  1682.794
 433  1838.785
 434  1787.504
 435  1922.092
 436  2550.015
 437  3353.204
 438  3519.932
 439  3167.292
 440  3239.419
 441  2351.565
 442  1774.658
 443  1677.424
 444  1468.055
 445  1130.076
 446  1544.11
 447  1843.854
 448  1893.758
 449  1776.175
 450  1550.711
 451  1808.071
 452  1230.605
 453  1412.856
 454  1569.15
 455  1282.524
 456  1118.254
 457  1212.844
 458  1807.098
 459  1944.432
 460  1896.242
 461  1166.74
 462  1035.592
 463  1284.037
 464  1467.168
 465  1459.291
 466  1420.205
 467  1368.482
 468  1184.931
 469  1274.084
 470  1303.13
 471  1565.522
 472  1555.28
 473  1905.183
 474  1977.695
 475  1544.423
 476  1328.786
 477  1420.365
 478  1195.328
 479  1396.909
 480  2135.048
 481  1734.408
 482  1682.656
 483  1577.825
 484  1680.964
 485  1246.089
 486  1297.289
 487  1493.786
 488  1872.142
 489  2040.575
 490  1606.586
 491  1499.335
 492  1209.916
 493  1707.382
 494  1900.727
 495  1594.564
 496  1626.482
 497  1206.397
 498  1471.66
 499  1387.181
 500  1270.355
 501  1305.25
 502  1614.408
 503  1479.069
 504  1221.934
 505  991.8293
 506  843.6747
 507  1209.642
 508  1250.566
 509  1434.361
 510  1371.463
 511  1154.865
