# Input file       =  1184458115.111231_cleaned.dat
# Candidate        =  PSR_0332+5434
# Telescope        =  AR
# Epoch_topo       =  57953.006181842953
# Epoch_bary       =  N/A
# T_sample         =  0.002
# Data Folded      =  7208960
# Data Avg         =  0.116541836955796
# Data StdDev      =  4.48003675930363 
# Profile Bins     =  512
# Profile Avg      =  1640.95124117104 
# Profile StdDev   =  531.597469383689 
# Reduced chi-sqr  =  0.604
# Prob(Noise)      <  1   (~0.0 sigma)
# P_topo (ms)      =  714.476337243961  +/- 6.85e-05
# P'_topo (s/s)    =  -0                +/- 3.68e-11
# P''_topo (s/s^2) =  0                 +/- 1.65e-14
# P_bary (ms)      =  N/A
# P'_bary (s/s)    =  N/A
# P''_bary (s/s^2) =  N/A
# P_orb (s)        =  N/A
# asin(i)/c (s)    =  N/A
# eccentricity     =  N/A
# w (rad)          =  N/A
# T_peri           =  N/A
######################################################
   0  1177.297
   1  1201.834
   2  1605.996
   3  1856.411
   4  1871.533
   5  1790.956
   6  1685.392
   7  1534.531
   8  1194.595
   9  1812.669
  10  1717.399
  11  1613.369
  12  1605.102
  13  1533.385
  14  1654.722
  15  1584.466
  16  1492.533
  17  1788.509
  18  1682.095
  19  1185.053
  20  1317.251
  21  1838.555
  22  1757.357
  23  1325.353
  24  1526.159
  25  1714.458
  26  1630.727
  27  1387.068
  28  2136.369
  29  2112.001
  30  1807.511
  31  1592.516
  32  1425.474
  33  1338.02
  34  1255.527
  35  1336.08
  36  1740.151
  37  1876.058
  38  1462.9
  39  1814.742
  40  1830.209
  41  1262.529
  42  1561.889
  43  1393.874
  44  1345.207
  45  1492.64
  46  1602.541
  47  1300.556
  48  1358.194
  49  1656.023
  50  1531.557
  51  1660.802
  52  1373.048
  53  1597.084
  54  1873.473
  55  1684.884
  56  1806.005
  57  1572.814
  58  1148.3
  59  880.2578
  60  1148.67
  61  1516.351
  62  1698.885
  63  1784.827
  64  1700.988
  65  1542.644
  66  889.7293
  67  634.6354
  68  1051.993
  69  1772.445
  70  1835.888
  71  1750.383
  72  1561.146
  73  1695.75
  74  1376.35
  75  1089.191
  76  1301.758
  77  1220.38
  78  1270.763
  79  1690.012
  80  1689.365
  81  1890.566
  82  1771.753
  83  1641.001
  84  1314.639
  85  1350.63
  86  1527.035
  87  1699.435
  88  1867.388
  89  1741.715
  90  1685.343
  91  1777.044
  92  1348.678
  93  1467.447
  94  1299.537
  95  1336.807
  96  1616.87
  97  1512.195
  98  1487.125
  99  1791.142
 100  1675.799
 101  1614.53
 102  1871.606
 103  1474.591
 104  1636.556
 105  2019.829
 106  1750.862
 107  1684.874
 108  1695.607
 109  1722.567
 110  1497.056
 111  1470.391
 112  1800.285
 113  2003.182
 114  1377.475
 115  1241.825
 116  1305.649
 117  968.9586
 118  1345.18
 119  1512.16
 120  2095.607
 121  2138.239
 122  2016.325
 123  1557.143
 124  1418.952
 125  1219.03
 126  1314.646
 127  1677.26
 128  2012.641
 129  1648.488
 130  1646.985
 131  1399.664
 132  1476.446
 133  1656.249
 134  1592.824
 135  1905.157
 136  1806.421
 137  1685.857
 138  1984.354
 139  1736.824
 140  1645.493
 141  1284.115
 142  1100.851
 143  1272.522
 144  1669.162
 145  1732.056
 146  1998.04
 147  2100.01
 148  1383.95
 149  1219.161
 150  1302.19
 151  1163.092
 152  1511.017
 153  1865.578
 154  1771.727
 155  1853.828
 156  1826.272
 157  1893.524
 158  2031.393
 159  1594.898
 160  1705.22
 161  1527.687
 162  1450.617
 163  1343.322
 164  1313.631
 165  1442.114
 166  1558.905
 167  1700.098
 168  1530.506
 169  1624.399
 170  1663.305
 171  1784.209
 172  1928.491
 173  1862.138
 174  1534.334
 175  1202.551
 176  1348.683
 177  1700.064
 178  1668.574
 179  1630.224
 180  1634.225
 181  1286.094
 182  1656.928
 183  1713.5
 184  1411.386
 185  1922.717
 186  1916.885
 187  2174.035
 188  1727.945
 189  1778.551
 190  1480.525
 191  1314.27
 192  1621.468
 193  1420.384
 194  1740.617
 195  1706.354
 196  1725.493
 197  1692.171
 198  1599.13
 199  1558.631
 200  1514.305
 201  1791.268
 202  2164.407
 203  1842.515
 204  1952.348
 205  1922.553
 206  1466.71
 207  1403.008
 208  1491.471
 209  1584.276
 210  1461.076
 211  1780.437
 212  1933.381
 213  1841.276
 214  1647.421
 215  1388.813
 216  1506.289
 217  1355.043
 218  1466.678
 219  1977.582
 220  2170.858
 221  1882.122
 222  1913.54
 223  2023.611
 224  1764.609
 225  1337.459
 226  1506.349
 227  1475.882
 228  1237.891
 229  1519.658
 230  1714.873
 231  1668.173
 232  1480.776
 233  1421.84
 234  1526.652
 235  1613.031
 236  1817.141
 237  1658.366
 238  1738.038
 239  1243.514
 240  1257.278
 241  1324.664
 242  1428.74
 243  1851.638
 244  1792.054
 245  1917.96
 246  1324.457
 247  1338.1
 248  1108.551
 249  1565.408
 250  1869.575
 251  1975.577
 252  2077.87
 253  2079.581
 254  1773.691
 255  1486.265
 256  1683.798
 257  1556.636
 258  1434.38
 259  1464.674
 260  1669.701
 261  1534.045
 262  1548.974
 263  1904.182
 264  1497.677
 265  1550.424
 266  1656.814
 267  2024.866
 268  1972.38
 269  1898.418
 270  2249.801
 271  1863.554
 272  1479.022
 273  1455.38
 274  1462.63
 275  1488.93
 276  1806.385
 277  1730.93
 278  1556.238
 279  1655.836
 280  1549.173
 281  1344.962
 282  1460.341
 283  1738.666
 284  1753.012
 285  1633.813
 286  1711.014
 287  1939.682
 288  1786.987
 289  1574.826
 290  1641.482
 291  1469.112
 292  1464.917
 293  1775.56
 294  1742.988
 295  1706.846
 296  1847.418
 297  1728.149
 298  1459.933
 299  1419.342
 300  2115.029
 301  2003.175
 302  1855.238
 303  2056.331
 304  1866.901
 305  1557.73
 306  1288.133
 307  2093.916
 308  1785.384
 309  1568.959
 310  1858.643
 311  1778.813
 312  1593.527
 313  1558.704
 314  1541.602
 315  1749.299
 316  1506.586
 317  1586.772
 318  2119.292
 319  2167.881
 320  1877.5
 321  1879.894
 322  2168.687
 323  2311.473
 324  2707.791
 325  3217.328
 326  3474.7
 327  3477.358
 328  2786.37
 329  1933.695
 330  1575.192
 331  1244.399
 332  1307.659
 333  1462.195
 334  2080.562
 335  2142.279
 336  1979.969
 337  1655.995
 338  1752.806
 339  1328.353
 340  1192.227
 341  1567.374
 342  1552.192
 343  1707.227
 344  1788.824
 345  1888.199
 346  1492.415
 347  1474.832
 348  1857.084
 349  1670.908
 350  1664.045
 351  1946.849
 352  2190.465
 353  1917.833
 354  1862.728
 355  2009.077
 356  1769.703
 357  1493.598
 358  1382.518
 359  1610.084
 360  2019.109
 361  2117.186
 362  1660.628
 363  1848.003
 364  1651.451
 365  1797.685
 366  1948.877
 367  2105.553
 368  1809.199
 369  1903.488
 370  1981.959
 371  1764.347
 372  1566.821
 373  1530.034
 374  1723.218
 375  1366.46
 376  1052.097
 377  1327.661
 378  1702.413
 379  1719.309
 380  1911.696
 381  1733.532
 382  1825.593
 383  1508.036
 384  1487.888
 385  1687.986
 386  1719.526
 387  2050.806
 388  2036.037
 389  1751.402
 390  1401.642
 391  1332.608
 392  1467.61
 393  1339.252
 394  1790.317
 395  1542.397
 396  1265.886
 397  1468.072
 398  1440.08
 399  1328.061
 400  1942.432
 401  2151.548
 402  1641.651
 403  1858.186
 404  1814.225
 405  1425.751
 406  1580.043
 407  1385.757
 408  1433.886
 409  1594.031
 410  1786.329
 411  1538.519
 412  1288.773
 413  1223.47
 414  1457.776
 415  1319.137
 416  1456.542
 417  1525.696
 418  1861.496
 419  1782.724
 420  1714.41
 421  1812.868
 422  1876.305
 423  1835.574
 424  1467.836
 425  1742.664
 426  1585.771
 427  1441.338
 428  1436.061
 429  1783.391
 430  1933.313
 431  1838.155
 432  1853.136
 433  1881.485
 434  1732.306
 435  1582.515
 436  1946.009
 437  2070.669
 438  1749.054
 439  1493.003
 440  1701.356
 441  1535.743
 442  1835.058
 443  1741.064
 444  1680.938
 445  1824.408
 446  1511.091
 447  1504.255
 448  1235.647
 449  1129.056
 450  1194.85
 451  1585.644
 452  1905.238
 453  1560.464
 454  1633.657
 455  972.9109
 456  1568.296
 457  1654.757
 458  1579.548
 459  1689.711
 460  1564.355
 461  1467.423
 462  1691.255
 463  1560.357
 464  1402.362
 465  1354.298
 466  1607.522
 467  1811.997
 468  1952.21
 469  1794.998
 470  1694.109
 471  1679.571
 472  1377.993
 473  1372.595
 474  1237.037
 475  1453.807
 476  1851.397
 477  1612.958
 478  1438.211
 479  959.3035
 480  1173.877
 481  1574.491
 482  1606.619
 483  1723.666
 484  1822.018
 485  1620.521
 486  1348.536
 487  1293.004
 488  1653.635
 489  1677.157
 490  1836.571
 491  1616.76
 492  1800.958
 493  1610.88
 494  1375.805
 495  994.1887
 496  1036.049
 497  1166.496
 498  1302.357
 499  1679.056
 500  2276.714
 501  2256.638
 502  1761.857
 503  1842.269
 504  1419.515
 505  1161.489
 506  1097.422
 507  1900.096
 508  1857.433
 509  1727.856
 510  1882.142
 511  1551.045
