# Input file       =  1184315356.111366_cleaned.dat
# Candidate        =  PSR_0332+5434
# Telescope        =  AR
# Epoch_topo       =  57951.353878603775
# Epoch_bary       =  N/A
# T_sample         =  0.002
# Data Folded      =  7340032
# Data Avg         =  0.282767522227783
# Data StdDev      =  5.40260070974888 
# Profile Bins     =  1024
# Profile Avg      =  2026.80853012851 
# Profile StdDev   =  457.406013151251 
# Reduced chi-sqr  =  0.759
# Prob(Noise)      <  1   (~0.0 sigma)
# P_topo (ms)      =  714.477723692926  +/- 0.00024
# P'_topo (s/s)    =  -0                +/- 1.27e-10
# P''_topo (s/s^2) =  0                 +/- 5.59e-14
# P_bary (ms)      =  N/A
# P'_bary (s/s)    =  N/A
# P''_bary (s/s^2) =  N/A
# P_orb (s)        =  N/A
# asin(i)/c (s)    =  N/A
# eccentricity     =  N/A
# w (rad)          =  N/A
# T_peri           =  N/A
######################################################
   0  2039.969
   1  2079.161
   2  2005.958
   3  1866.609
   4  1906.659
   5  1913.246
   6  2045.304
   7  2009.466
   8  2119.035
   9  2188.445
  10  2255.618
  11  2268.343
  12  2173.713
  13  2161.715
  14  2177.422
  15  2158.519
  16  2011.571
  17  2017.805
  18  2120.267
  19  2277.529
  20  2267.258
  21  2235.763
  22  2214.298
  23  2299.765
  24  2314.002
  25  2275.869
  26  2241.829
  27  2317.049
  28  2259.741
  29  2210.62
  30  2102.017
  31  2092.55
  32  2064.703
  33  2184.519
  34  2222.639
  35  2109.441
  36  2167.875
  37  2168.876
  38  2301.733
  39  2158.397
  40  2250.562
  41  2012.989
  42  2007.337
  43  1994.521
  44  2225.405
  45  2145.519
  46  2071.778
  47  1982.334
  48  2028.647
  49  2082.725
  50  2254.125
  51  2315.407
  52  2292.752
  53  2274.864
  54  2493.108
  55  2584.948
  56  2365.021
  57  2196.365
  58  2283.918
  59  2129.064
  60  2149.559
  61  2098.222
  62  2121.132
  63  1991.114
  64  1983.14
  65  2040.223
  66  1962.913
  67  1974.629
  68  2050.802
  69  2059.096
  70  2099.682
  71  2177.673
  72  2126.271
  73  2031.249
  74  2051.483
  75  2095.318
  76  1976.395
  77  1783.131
  78  1661.893
  79  1746.845
  80  1701.176
  81  1639.818
  82  1758.186
  83  1918.431
  84  1937.641
  85  1895.391
  86  1956.626
  87  1966.473
  88  1910.406
  89  1935.614
  90  1931.281
  91  1854.3
  92  1722.453
  93  1692.241
  94  1525.745
  95  1500.529
  96  1525.096
  97  1731.972
  98  1850.646
  99  1978.375
 100  2143.206
 101  2332.551
 102  2292.119
 103  2227.412
 104  2258.833
 105  2208.396
 106  2193.775
 107  2258.569
 108  2287.111
 109  2070.294
 110  1890.402
 111  2014.848
 112  2078.149
 113  2018.76
 114  1847.083
 115  2025.414
 116  2271.215
 117  2368.046
 118  2157.416
 119  2131.319
 120  2201.707
 121  2402.918
 122  2408.353
 123  2353.363
 124  2234.324
 125  2115.057
 126  2111.695
 127  2035.328
 128  1913.832
 129  1964.446
 130  1936.406
 131  1906.931
 132  1774.816
 133  1703.402
 134  1638.414
 135  1631.788
 136  1791.609
 137  1853.006
 138  1918.841
 139  2056.136
 140  2301.573
 141  2433.726
 142  2242.403
 143  1946.785
 144  1669.51
 145  1591.149
 146  1717.048
 147  1742.704
 148  1775.298
 149  1777.832
 150  1715.904
 151  1725.265
 152  1849.656
 153  1999.745
 154  2071.231
 155  2104.44
 156  2230.281
 157  2261.018
 158  2263.576
 159  2206.557
 160  1998.032
 161  1871.881
 162  1879.787
 163  1918.337
 164  2012.44
 165  1763.78
 166  1636.333
 167  1666.004
 168  1685.04
 169  1780.193
 170  1819.005
 171  2007.946
 172  1969.533
 173  1985.805
 174  1984.127
 175  1992.782
 176  2066.553
 177  2010.327
 178  1981.174
 179  1848.903
 180  1964.072
 181  2045.556
 182  2177.719
 183  2135.171
 184  1945.542
 185  1883.54
 186  1953.584
 187  2251.381
 188  2236.395
 189  2325.756
 190  2115.818
 191  2081.63
 192  2092.946
 193  2191.965
 194  2206.697
 195  2163.61
 196  2083.798
 197  1950.142
 198  1823.078
 199  1841.378
 200  1902.332
 201  1980.628
 202  1982.302
 203  2108.803
 204  2142.355
 205  2182.219
 206  2331.287
 207  2362.032
 208  2349.105
 209  2061.021
 210  1955.933
 211  1913.863
 212  1885.058
 213  1975.168
 214  2097.888
 215  2266.668
 216  2180.452
 217  2219.428
 218  2232.197
 219  2162.186
 220  2045.873
 221  2035.783
 222  2071.041
 223  1977.015
 224  1943.1
 225  1911.928
 226  1939.192
 227  2059.933
 228  2079.811
 229  2042.977
 230  2100.505
 231  2261.191
 232  2248.374
 233  2087.9
 234  2029.594
 235  2076.979
 236  2010.502
 237  2015.78
 238  2140.291
 239  2223.634
 240  2189.436
 241  2097.991
 242  2090.868
 243  1968.597
 244  1831.986
 245  1882.505
 246  1968.514
 247  1910.805
 248  1914.708
 249  1910.248
 250  1670.598
 251  1621.796
 252  1671.664
 253  1952.054
 254  1805.275
 255  1979.414
 256  2004.984
 257  2076.78
 258  1961.579
 259  2002.102
 260  2151.07
 261  2303.754
 262  2289.117
 263  2185.169
 264  2011.462
 265  1912.123
 266  1993.377
 267  2166.754
 268  2198.828
 269  2089.234
 270  2025.584
 271  1927.202
 272  1855.449
 273  1858.763
 274  2013.668
 275  1973.369
 276  1941.052
 277  1861.507
 278  1812.035
 279  1835.49
 280  1924.205
 281  2109.546
 282  2088.86
 283  1952.897
 284  1843.151
 285  1894.976
 286  2021.134
 287  2050.278
 288  2067.19
 289  2024.32
 290  1939.656
 291  1903.72
 292  1937.543
 293  2000.041
 294  2144.695
 295  2082.237
 296  1961.011
 297  1780.161
 298  1904.777
 299  2068.263
 300  1983.731
 301  1940.278
 302  1950.772
 303  1913.795
 304  1971.16
 305  1991.384
 306  2011.166
 307  1882.48
 308  1956.487
 309  2188.057
 310  2239.726
 311  2075.306
 312  1991.013
 313  1984.384
 314  2102.712
 315  2154.541
 316  2162.424
 317  2051.083
 318  1881.099
 319  1961.081
 320  1986.982
 321  2054.141
 322  2079.191
 323  2193.456
 324  2195.74
 325  2151.76
 326  1980.27
 327  1901.579
 328  1900.555
 329  1887.687
 330  1923.422
 331  1845.239
 332  1683.343
 333  1619.816
 334  1724.299
 335  1787.671
 336  1945.071
 337  1967.423
 338  2180.489
 339  2153.144
 340  2056.202
 341  1840.077
 342  1782.565
 343  1800.429
 344  1811.953
 345  1755.177
 346  1622.583
 347  1707.288
 348  1792.343
 349  1790.022
 350  1820.096
 351  1881.201
 352  2087.681
 353  2102.893
 354  2228.958
 355  2104.323
 356  2089.748
 357  2123.93
 358  2217.098
 359  2275.458
 360  2164.354
 361  2080.38
 362  1857.148
 363  1880.284
 364  1919.556
 365  2104.807
 366  2181.218
 367  2234.248
 368  2086.003
 369  2058.022
 370  2142.914
 371  2252.316
 372  2286.6
 373  2229.716
 374  2076.923
 375  1992.922
 376  2003.505
 377  2083.342
 378  2182.975
 379  2273.277
 380  2322.136
 381  2350.659
 382  2393.146
 383  2362.937
 384  2339.035
 385  2318.334
 386  2195.625
 387  2044.724
 388  1989.287
 389  2001.798
 390  2130.68
 391  2146.1
 392  2144.226
 393  1828.613
 394  1718.526
 395  1780.199
 396  1912.987
 397  1862.085
 398  1938.084
 399  1848.684
 400  1759.034
 401  1607.656
 402  1623.742
 403  1809.598
 404  1796.591
 405  1646.224
 406  1626.696
 407  1582.282
 408  1586.44
 409  1505.737
 410  1537.44
 411  1498.804
 412  1381.51
 413  1471.456
 414  1516.179
 415  1509.34
 416  1621.37
 417  1639.695
 418  1924.785
 419  2117.285
 420  2361.667
 421  2299.326
 422  2029.766
 423  1928.569
 424  1704.01
 425  1780.198
 426  1730.661
 427  1808.297
 428  1706.732
 429  1752.568
 430  1812.998
 431  1870.304
 432  1883.964
 433  2070.86
 434  2187.495
 435  2236.273
 436  1969.536
 437  1829.834
 438  1793.089
 439  1971.193
 440  2207.898
 441  2402.693
 442  2262.438
 443  2153.405
 444  1946.952
 445  2075.977
 446  2021.387
 447  2018.206
 448  1911.163
 449  1900.2
 450  1976.175
 451  2074.553
 452  2067.568
 453  2066.259
 454  1951.49
 455  1950.89
 456  1942.51
 457  2106.464
 458  2210.531
 459  2008.124
 460  1749.515
 461  1651.26
 462  1935.078
 463  1977.408
 464  2003.416
 465  1868.013
 466  1790.958
 467  1701.652
 468  1589.746
 469  1550.378
 470  1604.245
 471  1837.221
 472  2042.741
 473  1965.573
 474  1838.958
 475  1865.86
 476  2017.092
 477  2020.385
 478  1927.363
 479  1792.486
 480  1767.483
 481  1744.834
 482  1883.494
 483  1942.589
 484  1998.528
 485  2024.827
 486  2112.276
 487  2265.641
 488  2128.31
 489  2059.879
 490  2152.076
 491  2330.676
 492  2311.418
 493  2114.797
 494  2057.721
 495  2016.245
 496  2060.043
 497  2074.377
 498  2121.149
 499  2113.051
 500  2158.843
 501  2149.908
 502  2299.426
 503  2361.87
 504  2212.388
 505  2019.201
 506  2012.221
 507  1940.674
 508  1862.528
 509  1803.704
 510  1903.818
 511  1853.481
 512  1840.789
 513  1795.939
 514  1733.457
 515  1753.754
 516  1739.865
 517  1859.702
 518  1929.202
 519  1837.598
 520  1907.703
 521  1898.967
 522  1891.747
 523  1779.988
 524  1862.411
 525  1729.971
 526  1756.089
 527  1718.061
 528  1812.865
 529  1734.995
 530  1691.574
 531  1783.676
 532  1896.635
 533  1861.77
 534  1807.331
 535  1782.617
 536  1912.408
 537  1974.896
 538  2110.408
 539  1939.461
 540  1777.335
 541  1812.261
 542  2039.24
 543  2068.521
 544  1993.327
 545  1886.964
 546  1864.656
 547  1923.156
 548  1963.325
 549  1972.754
 550  1890.695
 551  1871.122
 552  1917.544
 553  2005.809
 554  2137.79
 555  2074.16
 556  2290.14
 557  2200.515
 558  2097.688
 559  1959.467
 560  2018.708
 561  1985.833
 562  1891.962
 563  1891.459
 564  1897.988
 565  1857.491
 566  1836.601
 567  1803.386
 568  1852.021
 569  1803.075
 570  1960.256
 571  2041.355
 572  2067.964
 573  1932.897
 574  2029.918
 575  2083.032
 576  2089.189
 577  1847.554
 578  1843.534
 579  1918.309
 580  2032.597
 581  2013.438
 582  1991.816
 583  1814.533
 584  1671.348
 585  1544.49
 586  1705.438
 587  1753.585
 588  1804.829
 589  1804.236
 590  1630.555
 591  1640.898
 592  1694.64
 593  1804.735
 594  1824.615
 595  1824.397
 596  1743.06
 597  1696.725
 598  1605.941
 599  1672.428
 600  1705.181
 601  1784.448
 602  1822.776
 603  1681.422
 604  1570.09
 605  1571.134
 606  1665.439
 607  1805.712
 608  2011.331
 609  2191.913
 610  2230.7
 611  2109.341
 612  2000.178
 613  2030.174
 614  2083.894
 615  1909.269
 616  1883.958
 617  1725.917
 618  1888.239
 619  1812.31
 620  1848.835
 621  1944.046
 622  2074.124
 623  2174.888
 624  2106.868
 625  2046.128
 626  1815.204
 627  1763.693
 628  1834.22
 629  1980.429
 630  1979.269
 631  2023.002
 632  2177.861
 633  2137.833
 634  2009.132
 635  1988.209
 636  2113.207
 637  2138.482
 638  2346.502
 639  2248.638
 640  2247.681
 641  2253.746
 642  2383.973
 643  2494.417
 644  2504.472
 645  2454.826
 646  2624.775
 647  2717.671
 648  2823.961
 649  2924.172
 650  3123.062
 651  3126.272
 652  3003.989
 653  3034.516
 654  3003.701
 655  2861.868
 656  2730.423
 657  2709.236
 658  2578.005
 659  2397.822
 660  2291.313
 661  2245.037
 662  1998.067
 663  1865.633
 664  1843.717
 665  1946.565
 666  2030.751
 667  2139.177
 668  2242.609
 669  2160.506
 670  2033.523
 671  1905.032
 672  1773.938
 673  1689.26
 674  1577.064
 675  1716.706
 676  1736.855
 677  1922.102
 678  1911.819
 679  1859.606
 680  1832.931
 681  1736.788
 682  1840.076
 683  1846.219
 684  2044.019
 685  2155.491
 686  2177.903
 687  1976.758
 688  1917.672
 689  2013.406
 690  2041.226
 691  2136.395
 692  2190.942
 693  2102.152
 694  2010.157
 695  2017.344
 696  1998.759
 697  1938.956
 698  2009.076
 699  2301.793
 700  2356.33
 701  2163.215
 702  2011.192
 703  1991.932
 704  1919.719
 705  1910.846
 706  1899.204
 707  1916.618
 708  1865.084
 709  1822.787
 710  1891.952
 711  1895.432
 712  1902.889
 713  1985.674
 714  2198.802
 715  2271.643
 716  2106.234
 717  2000.437
 718  1934.849
 719  2016.299
 720  1855.326
 721  1720.386
 722  1829.35
 723  1941.47
 724  1930.419
 725  1728.61
 726  1533.495
 727  1744.052
 728  1807.804
 729  1937.624
 730  1695.961
 731  1650.303
 732  1712.817
 733  1915.114
 734  2198.687
 735  2226.386
 736  2141.157
 737  2038.962
 738  2072.45
 739  2113.878
 740  2062.727
 741  2168.834
 742  2255.556
 743  2136.928
 744  1977.809
 745  1702.885
 746  1790.556
 747  1862.65
 748  1975.449
 749  1968.585
 750  1950.271
 751  2082.648
 752  2169.237
 753  2282.234
 754  2146.302
 755  2176.197
 756  2143.914
 757  2203.149
 758  2094.474
 759  1970.553
 760  1765.759
 761  1834.881
 762  2029.061
 763  2142.887
 764  2019.993
 765  1956.961
 766  1904.202
 767  1892.756
 768  1849.009
 769  1748.565
 770  1817.109
 771  1848.472
 772  1895.151
 773  1866.61
 774  1891.675
 775  1860.049
 776  1798.518
 777  1745.954
 778  1829.147
 779  1906.773
 780  1983.346
 781  2180.436
 782  2169.071
 783  2186.719
 784  1991.386
 785  2034.642
 786  2041.991
 787  2123.84
 788  2224.699
 789  2197.856
 790  2198.714
 791  2065.919
 792  2123.661
 793  2044.206
 794  1944.451
 795  1939.999
 796  1864.621
 797  1907.357
 798  1808.884
 799  1901.737
 800  2089.419
 801  2198.312
 802  2303.999
 803  2108.385
 804  1938.975
 805  1951.514
 806  2106.791
 807  2226.954
 808  2237.76
 809  2174.611
 810  2110.058
 811  2003.281
 812  2050.365
 813  1993.025
 814  1904.304
 815  1865.912
 816  1926.45
 817  2047.842
 818  2027.384
 819  2069.787
 820  2080.513
 821  1977.909
 822  1876.812
 823  1790.084
 824  1940.37
 825  2010.524
 826  2105.681
 827  1966.91
 828  1862.476
 829  1834.86
 830  1829.208
 831  1817.123
 832  1962.301
 833  2243.421
 834  2178.8
 835  2104.957
 836  2086.97
 837  2192.203
 838  2092.393
 839  2105.533
 840  2181.334
 841  2265.033
 842  2179.464
 843  2140.644
 844  2228.434
 845  2320.494
 846  2311.443
 847  2279.931
 848  2203.31
 849  2079.618
 850  2088.246
 851  1998.87
 852  2026.566
 853  2090.327
 854  2337.583
 855  2447.005
 856  2403.346
 857  2373.984
 858  2221.238
 859  2309.946
 860  2342.193
 861  2308.436
 862  2346.885
 863  2293.111
 864  2412.551
 865  2462.821
 866  2579.951
 867  2536.933
 868  2446.973
 869  2350.983
 870  2115.337
 871  2076.427
 872  2236.195
 873  2175.479
 874  2055.34
 875  1964.303
 876  2191.024
 877  2293.073
 878  2332.032
 879  2267.556
 880  2327.371
 881  2494.166
 882  2543.941
 883  2615.714
 884  2381.967
 885  2235.086
 886  2286.57
 887  2354.016
 888  2304.239
 889  2229.808
 890  2236.705
 891  2342.082
 892  2273.573
 893  2381.887
 894  2462.098
 895  2501.489
 896  2436.329
 897  2351.573
 898  2239.65
 899  2168.252
 900  2250.411
 901  2259.67
 902  2230.227
 903  2112.968
 904  2159.659
 905  2113.55
 906  2001.224
 907  1928.474
 908  2019.404
 909  2188.845
 910  2213.839
 911  2176.51
 912  2091.555
 913  2144.761
 914  2065.708
 915  2127.511
 916  2203.561
 917  2221.807
 918  2241.538
 919  2184.205
 920  1968.154
 921  1898.202
 922  1883.326
 923  2079.006
 924  2086.969
 925  2030.832
 926  1988.983
 927  2013.415
 928  2030.996
 929  2130.549
 930  2289.416
 931  2373.816
 932  2295.918
 933  2147.818
 934  2121.266
 935  2155.125
 936  2197.497
 937  2188.939
 938  2270.926
 939  2192.466
 940  2142.532
 941  2106.663
 942  2157.606
 943  2173.424
 944  1957.108
 945  1961.997
 946  2032.18
 947  2349.315
 948  2438.711
 949  2349.436
 950  2200.877
 951  2194.09
 952  2159.315
 953  2081.888
 954  1944.246
 955  1849.951
 956  1876
 957  1886.561
 958  1883.293
 959  1905.291
 960  1952.603
 961  1901.576
 962  1839.125
 963  1848.812
 964  1960.571
 965  2007.196
 966  2058.749
 967  2124.271
 968  2120.464
 969  2056.08
 970  2062.324
 971  2089.765
 972  2156.691
 973  2159.233
 974  2219.704
 975  2250.613
 976  2076.704
 977  1957.881
 978  1759.842
 979  1705.407
 980  1811.691
 981  1995.855
 982  2211.521
 983  2249.077
 984  2233.311
 985  2171.209
 986  2310.385
 987  2295.414
 988  2200.667
 989  2380.846
 990  2413.131
 991  2282.445
 992  2167.852
 993  2068.136
 994  2040.26
 995  2016.564
 996  1964.862
 997  1929.879
 998  1800.41
 999  1873.899
1000  1864.198
1001  1919.415
1002  2020.993
1003  2008.767
1004  1872.954
1005  1745.349
1006  1783.392
1007  1830.576
1008  1896.811
1009  1887.991
1010  2057.062
1011  2034.198
1012  2030.513
1013  1999.487
1014  1995.136
1015  1995.328
1016  2050.59
1017  1781.059
1018  1684.354
1019  1651.137
1020  1789.877
1021  1690.184
1022  1756.952
1023  1863.648
