# Input file       =  1184229138.101258_cleaned.dat
# Candidate        =  PSR_0332+5434
# Telescope        =  AR
# Epoch_topo       =  57950.355984968264
# Epoch_bary       =  N/A
# T_sample         =  0.002
# Data Folded      =  7340032
# Data Avg         =  0.210374349604536
# Data StdDev      =  4.75090918129868 
# Profile Bins     =  1024
# Profile Avg      =  1507.95149598987 
# Profile StdDev   =  402.231174245433 
# Reduced chi-sqr  =  0.783
# Prob(Noise)      <  1   (~0.0 sigma)
# P_topo (ms)      =  714.478364952825  +/- 0.000726
# P'_topo (s/s)    =  -0                +/- 3.83e-10
# P''_topo (s/s^2) =  0                 +/- 1.69e-13
# P_bary (ms)      =  N/A
# P'_bary (s/s)    =  N/A
# P''_bary (s/s^2) =  N/A
# P_orb (s)        =  N/A
# asin(i)/c (s)    =  N/A
# eccentricity     =  N/A
# w (rad)          =  N/A
# T_peri           =  N/A
######################################################
   0  1460.943
   1  1598.546
   2  1595.969
   3  1624.855
   4  1576.05
   5  1590.85
   6  1600.345
   7  1565.552
   8  1450.375
   9  1363.588
  10  1204.8
  11  1189.627
  12  1127.07
  13  1227.271
  14  1302.189
  15  1328.005
  16  1286.56
  17  1445.783
  18  1450.439
  19  1421.142
  20  1346.089
  21  1403.507
  22  1314.597
  23  1347.955
  24  1396.055
  25  1480.116
  26  1535.106
  27  1537.887
  28  1487.956
  29  1359.014
  30  1336.866
  31  1350.039
  32  1434.229
  33  1509.269
  34  1522.231
  35  1676.573
  36  1662.07
  37  1642.199
  38  1547.307
  39  1518.768
  40  1552.711
  41  1479.614
  42  1511.082
  43  1484.713
  44  1439.811
  45  1473.022
  46  1577.268
  47  1809.641
  48  1920.819
  49  2005.441
  50  1938.256
  51  1842.473
  52  1713.825
  53  1846.464
  54  1805.242
  55  1781.8
  56  1576.822
  57  1589.571
  58  1631.421
  59  1694.319
  60  1593.184
  61  1552.374
  62  1570.483
  63  1686.834
  64  1703.049
  65  1696.87
  66  1682.336
  67  1677.446
  68  1609.338
  69  1540.375
  70  1486.429
  71  1466.731
  72  1462.163
  73  1517.699
  74  1503.283
  75  1515.26
  76  1512.271
  77  1634.397
  78  1569.319
  79  1508.28
  80  1429.004
  81  1490.482
  82  1483.589
  83  1565.829
  84  1582.509
  85  1608.674
  86  1613.33
  87  1554.38
  88  1592.211
  89  1533.836
  90  1613.021
  91  1492.573
  92  1459.954
  93  1413.816
  94  1484.861
  95  1544.964
  96  1582.795
  97  1527.87
  98  1403.87
  99  1321.307
 100  1306.323
 101  1330.996
 102  1369.369
 103  1390.525
 104  1489.022
 105  1612.385
 106  1659.698
 107  1667.955
 108  1644.488
 109  1600.746
 110  1528.965
 111  1579.641
 112  1608.785
 113  1572.805
 114  1484.487
 115  1523.067
 116  1654.958
 117  1744.3
 118  1701.957
 119  1712.056
 120  1617.261
 121  1495.846
 122  1426.221
 123  1435.285
 124  1465.98
 125  1469.909
 126  1564.79
 127  1622.179
 128  1654.902
 129  1659.441
 130  1593.24
 131  1622.177
 132  1617.737
 133  1770.828
 134  1815.025
 135  1753.899
 136  1701.393
 137  1512.007
 138  1439.911
 139  1447.552
 140  1598.43
 141  1571.626
 142  1614.127
 143  1634.386
 144  1606.319
 145  1487.555
 146  1519.05
 147  1657.437
 148  1655.245
 149  1593.9
 150  1452.858
 151  1521.678
 152  1610.538
 153  1737.36
 154  1627.641
 155  1518.881
 156  1452.362
 157  1451.378
 158  1337.887
 159  1250.488
 160  1345.543
 161  1346.326
 162  1238.644
 163  1123.852
 164  1202.464
 165  1354.942
 166  1242.811
 167  1203.725
 168  1200.874
 169  1309.093
 170  1352.25
 171  1337.883
 172  1363.17
 173  1353.603
 174  1437.621
 175  1394.786
 176  1397.429
 177  1423.455
 178  1492.458
 179  1500.248
 180  1387.252
 181  1309.092
 182  1250.089
 183  1262.081
 184  1248.395
 185  1267.862
 186  1296.647
 187  1405.835
 188  1379.705
 189  1314.483
 190  1419.415
 191  1583.92
 192  1554.347
 193  1370.557
 194  1247.033
 195  1287.196
 196  1256.509
 197  1274.505
 198  1376.935
 199  1509.897
 200  1555.814
 201  1494.652
 202  1330.661
 203  1208.176
 204  1239.581
 205  1266.686
 206  1325.106
 207  1420.319
 208  1505.026
 209  1476.097
 210  1370.057
 211  1423.734
 212  1394.331
 213  1285.909
 214  1268.503
 215  1367.518
 216  1529.756
 217  1586.955
 218  1584.512
 219  1476.648
 220  1423.863
 221  1367.592
 222  1412.585
 223  1430.244
 224  1521.04
 225  1540.124
 226  1573.908
 227  1519.236
 228  1524.596
 229  1487.333
 230  1482.103
 231  1277.957
 232  1264.659
 233  1227.44
 234  1391.043
 235  1430.381
 236  1426.396
 237  1335.307
 238  1335.265
 239  1320.195
 240  1425.15
 241  1407.696
 242  1471.667
 243  1304.029
 244  1388.096
 245  1414.518
 246  1567.472
 247  1583.185
 248  1507.005
 249  1392.44
 250  1436.043
 251  1419.665
 252  1331.13
 253  1332.392
 254  1338.008
 255  1467.191
 256  1447.913
 257  1536.822
 258  1473.617
 259  1495.48
 260  1434.565
 261  1431.247
 262  1409.293
 263  1426.942
 264  1408.197
 265  1282.402
 266  1268.929
 267  1338.588
 268  1339.374
 269  1263.689
 270  1267.839
 271  1418.268
 272  1466.714
 273  1462.688
 274  1298.439
 275  1260.5
 276  1309.437
 277  1367.502
 278  1433.278
 279  1439.044
 280  1306.059
 281  1154.565
 282  1096.231
 283  1227.615
 284  1326.584
 285  1310.949
 286  1296.831
 287  1308.417
 288  1389.989
 289  1419.061
 290  1370.687
 291  1312.24
 292  1315.89
 293  1202.447
 294  1187.862
 295  1201.136
 296  1298.473
 297  1377.586
 298  1451.247
 299  1462.312
 300  1273.094
 301  1205.05
 302  1183.936
 303  1266.286
 304  1340.043
 305  1342.054
 306  1392.764
 307  1390.806
 308  1440.539
 309  1333.284
 310  1292.594
 311  1306.293
 312  1295.604
 313  1422.09
 314  1430.494
 315  1376.491
 316  1322.432
 317  1226.869
 318  1360.958
 319  1419.463
 320  1439.556
 321  1379.266
 322  1282.437
 323  1228.552
 324  1205.146
 325  1298.803
 326  1325.308
 327  1347.124
 328  1378.346
 329  1432.058
 330  1308.657
 331  1225.251
 332  1159.413
 333  1118.509
 334  1107.958
 335  1264.972
 336  1352.769
 337  1364.822
 338  1316.174
 339  1320.788
 340  1433.867
 341  1343.082
 342  1314.418
 343  1313.035
 344  1393.431
 345  1344.302
 346  1325.363
 347  1324.9
 348  1374.699
 349  1337.206
 350  1364.276
 351  1465.59
 352  1455.492
 353  1373.47
 354  1333.533
 355  1380.62
 356  1369.322
 357  1359.288
 358  1430.61
 359  1476.949
 360  1476.977
 361  1492.522
 362  1511.095
 363  1451.668
 364  1360.271
 365  1285.187
 366  1164.865
 367  1118.331
 368  1198.08
 369  1277.605
 370  1309.546
 371  1264.935
 372  1349.721
 373  1468.1
 374  1500.834
 375  1489.992
 376  1545.773
 377  1657.322
 378  1635.663
 379  1602.865
 380  1552.928
 381  1401.664
 382  1296.491
 383  1262.202
 384  1435.347
 385  1512.501
 386  1557.956
 387  1474.215
 388  1454.287
 389  1547.685
 390  1628.405
 391  1650.608
 392  1434.934
 393  1294.638
 394  1217.664
 395  1249.127
 396  1313.107
 397  1426.088
 398  1466.447
 399  1436.097
 400  1593.763
 401  1641.06
 402  1783.087
 403  1749.343
 404  1702.2
 405  1575.998
 406  1567.344
 407  1469.597
 408  1394.926
 409  1254.219
 410  1336.126
 411  1379.126
 412  1446.141
 413  1495.636
 414  1461.804
 415  1629.225
 416  1644.517
 417  1612.056
 418  1507.419
 419  1493.853
 420  1477.925
 421  1423.963
 422  1399.919
 423  1328.477
 424  1256.118
 425  1178.474
 426  1347.518
 427  1413.542
 428  1333.058
 429  1329.408
 430  1392.319
 431  1505.371
 432  1481.406
 433  1511.964
 434  1479.07
 435  1495.825
 436  1350.35
 437  1287.989
 438  1189.141
 439  1170.663
 440  1149.162
 441  1156.745
 442  1244.16
 443  1293.702
 444  1289.953
 445  1420.734
 446  1362.793
 447  1475.131
 448  1584.033
 449  1570.392
 450  1538.707
 451  1363.262
 452  1307.163
 453  1424.514
 454  1646.313
 455  1696.925
 456  1706.696
 457  1618.853
 458  1588.262
 459  1440.588
 460  1353.933
 461  1374.957
 462  1479.704
 463  1566.1
 464  1575.105
 465  1443.615
 466  1401.538
 467  1393.398
 468  1357.006
 469  1390.805
 470  1503.241
 471  1572.762
 472  1622.383
 473  1684.114
 474  1715.143
 475  1535.125
 476  1449.786
 477  1502.214
 478  1616.727
 479  1550.612
 480  1529.365
 481  1402.611
 482  1407.859
 483  1431.139
 484  1687.7
 485  1794.953
 486  1822.445
 487  1721.535
 488  1627.224
 489  1461.995
 490  1415.851
 491  1390.805
 492  1337.232
 493  1389.963
 494  1444.899
 495  1534.766
 496  1467.662
 497  1363.156
 498  1342.818
 499  1426.236
 500  1589.115
 501  1477.083
 502  1442.698
 503  1369.059
 504  1464.025
 505  1406.924
 506  1369.107
 507  1237.537
 508  1353.789
 509  1408.364
 510  1551.961
 511  1486.352
 512  1426.696
 513  1283.867
 514  1314.852
 515  1295.057
 516  1205.975
 517  1173.569
 518  1176.894
 519  1332.356
 520  1454.355
 521  1578.368
 522  1704.006
 523  1725.858
 524  1668.464
 525  1628.635
 526  1652.112
 527  1679.203
 528  1567.171
 529  1474.11
 530  1431.025
 531  1419.753
 532  1474.868
 533  1569.596
 534  1751.295
 535  1763.8
 536  1737.537
 537  1750.465
 538  1876.68
 539  1837.641
 540  1833.208
 541  1675.975
 542  1695.202
 543  1727.028
 544  1809.163
 545  1833.392
 546  1838.322
 547  1789.426
 548  1764.917
 549  1558.34
 550  1358.466
 551  1211.846
 552  1244.139
 553  1413.379
 554  1604.134
 555  1695.282
 556  1651.426
 557  1526.154
 558  1447.285
 559  1378.827
 560  1478.657
 561  1509.594
 562  1578.222
 563  1532.855
 564  1480.285
 565  1424.416
 566  1408.719
 567  1417.175
 568  1332.665
 569  1325.02
 570  1443.953
 571  1439.276
 572  1329.89
 573  1338.852
 574  1355.283
 575  1524.773
 576  1518.84
 577  1632.503
 578  1499.928
 579  1454.01
 580  1459.01
 581  1529.511
 582  1536.948
 583  1562.103
 584  1527.377
 585  1423.459
 586  1358.041
 587  1424.329
 588  1502.902
 589  1587.132
 590  1565.223
 591  1624.528
 592  1497.816
 593  1508.454
 594  1325.327
 595  1447.302
 596  1610.938
 597  1746.432
 598  1810.094
 599  1737.164
 600  1725.93
 601  1613.718
 602  1636.358
 603  1508.8
 604  1485.084
 605  1510.894
 606  1640.248
 607  1649.206
 608  1609
 609  1586.272
 610  1583.637
 611  1520.034
 612  1428.02
 613  1522.876
 614  1577.512
 615  1607.288
 616  1673.093
 617  1709.84
 618  1760.866
 619  1596.717
 620  1554.709
 621  1553.282
 622  1499.361
 623  1443.07
 624  1316.027
 625  1359.11
 626  1408.602
 627  1465.09
 628  1459.277
 629  1610.051
 630  1815.986
 631  1799.722
 632  1684.193
 633  1756.842
 634  1817.137
 635  1797.337
 636  1699.183
 637  1777.615
 638  1887.708
 639  1904.864
 640  1821.222
 641  1672.676
 642  1631.914
 643  1696.053
 644  1973.683
 645  2057.092
 646  2202.046
 647  2323.141
 648  2518.638
 649  2631.132
 650  2676.392
 651  2699.869
 652  2612.272
 653  2520.383
 654  2560.7
 655  2580.734
 656  2542.597
 657  2278.761
 658  2173.206
 659  2042.269
 660  1931.43
 661  1738.655
 662  1698.443
 663  1792.919
 664  1716.869
 665  1793.667
 666  1805.284
 667  1788.834
 668  1703.647
 669  1708.094
 670  1677.208
 671  1635.98
 672  1539.281
 673  1613.242
 674  1672.236
 675  1677.628
 676  1761.536
 677  1820.785
 678  1824.933
 679  1789.674
 680  1700.485
 681  1651.962
 682  1597.28
 683  1718.325
 684  1815.242
 685  1834.538
 686  1785.619
 687  1767.965
 688  1692.54
 689  1687.525
 690  1815.369
 691  1842.125
 692  1719.477
 693  1598.757
 694  1575.05
 695  1521.557
 696  1475.56
 697  1575.182
 698  1649.474
 699  1681.1
 700  1587.402
 701  1540.34
 702  1461.629
 703  1349.849
 704  1400.137
 705  1500.37
 706  1679.374
 707  1742.692
 708  1713.197
 709  1617.69
 710  1479.319
 711  1474.352
 712  1442.347
 713  1429.874
 714  1392.375
 715  1450.239
 716  1494.889
 717  1555.991
 718  1461.948
 719  1299.649
 720  1240.643
 721  1346.508
 722  1385.938
 723  1438.065
 724  1390.155
 725  1427.362
 726  1459.664
 727  1576.565
 728  1515.792
 729  1593.05
 730  1687.933
 731  1821.344
 732  1797.536
 733  1809.932
 734  1781.327
 735  1809.616
 736  1780.678
 737  1804.044
 738  1679.435
 739  1747.673
 740  1699.091
 741  1772.679
 742  1668.964
 743  1583.899
 744  1569.086
 745  1617.148
 746  1619.528
 747  1568.552
 748  1450.223
 749  1445.87
 750  1488.729
 751  1546.038
 752  1507.887
 753  1482.169
 754  1517.625
 755  1564.478
 756  1582.753
 757  1524.007
 758  1614.364
 759  1532.961
 760  1547.501
 761  1410.966
 762  1577.928
 763  1642.408
 764  1685.318
 765  1693.974
 766  1799.431
 767  1874.216
 768  1746.775
 769  1559.357
 770  1549.266
 771  1651.605
 772  1682.067
 773  1739.127
 774  1689.964
 775  1666.417
 776  1570.784
 777  1615.178
 778  1644.522
 779  1591.866
 780  1533.49
 781  1506.657
 782  1525.647
 783  1474.281
 784  1488.912
 785  1551.49
 786  1632.31
 787  1599.454
 788  1570.624
 789  1442.152
 790  1351.225
 791  1403.293
 792  1612.836
 793  1600.853
 794  1608.133
 795  1576.358
 796  1564.343
 797  1458.833
 798  1413.086
 799  1460.792
 800  1549.951
 801  1493.942
 802  1556.552
 803  1462.816
 804  1533.37
 805  1436.272
 806  1414.522
 807  1390.696
 808  1383.713
 809  1485.392
 810  1515.701
 811  1432.737
 812  1418.289
 813  1303.296
 814  1250.604
 815  1186.165
 816  1397.343
 817  1437.508
 818  1507.764
 819  1398.473
 820  1451.157
 821  1422.767
 822  1451.279
 823  1445.745
 824  1380.515
 825  1259.594
 826  1231.482
 827  1377.706
 828  1514.919
 829  1611.408
 830  1664.459
 831  1705.594
 832  1650.069
 833  1632.213
 834  1607.764
 835  1569.691
 836  1478.187
 837  1447.48
 838  1459.7
 839  1490.492
 840  1526.839
 841  1600.33
 842  1718.098
 843  1710.824
 844  1736.283
 845  1598.467
 846  1414.781
 847  1343.822
 848  1361.899
 849  1410.341
 850  1372.845
 851  1441.968
 852  1497.083
 853  1588.857
 854  1595.968
 855  1554.129
 856  1551.693
 857  1468.094
 858  1488.094
 859  1542.907
 860  1521.922
 861  1493.443
 862  1504.104
 863  1500.097
 864  1377.301
 865  1294.688
 866  1380.518
 867  1605.859
 868  1695.833
 869  1716.407
 870  1654.821
 871  1606.651
 872  1572.885
 873  1606.579
 874  1695.029
 875  1715.308
 876  1802.102
 877  1854.184
 878  1792.08
 879  1669.175
 880  1508.352
 881  1474.17
 882  1343.062
 883  1364.214
 884  1370.515
 885  1471.698
 886  1461.657
 887  1496.77
 888  1562.062
 889  1528.088
 890  1421.065
 891  1397.377
 892  1435.823
 893  1486.985
 894  1504.264
 895  1510.953
 896  1428.1
 897  1325.002
 898  1122.345
 899  1211.864
 900  1381.579
 901  1511.508
 902  1329.968
 903  1332.25
 904  1383.438
 905  1506.579
 906  1478.445
 907  1472.211
 908  1440.578
 909  1516.83
 910  1522.292
 911  1403.891
 912  1372.326
 913  1451.148
 914  1673.716
 915  1771.915
 916  1674.489
 917  1554.589
 918  1485.139
 919  1487.577
 920  1512.777
 921  1555.183
 922  1638.443
 923  1644.249
 924  1666.871
 925  1552.561
 926  1589.164
 927  1617.878
 928  1602.048
 929  1593.297
 930  1683.686
 931  1682.508
 932  1656.639
 933  1657.02
 934  1660.981
 935  1590.191
 936  1469.095
 937  1599.922
 938  1719.957
 939  1721.156
 940  1756.93
 941  1795.205
 942  1854.612
 943  1888.415
 944  1874.77
 945  1905.844
 946  1757.054
 947  1704.032
 948  1685.702
 949  1696.484
 950  1730.943
 951  1701.474
 952  1594.71
 953  1514.512
 954  1467.329
 955  1481.96
 956  1483.916
 957  1514.996
 958  1584.493
 959  1469.212
 960  1318.148
 961  1263.425
 962  1299.037
 963  1162.897
 964  1232.093
 965  1232.275
 966  1322.11
 967  1339.238
 968  1338.5
 969  1420.243
 970  1372.325
 971  1299.334
 972  1206.958
 973  1251.28
 974  1457.142
 975  1508.156
 976  1496.662
 977  1451.487
 978  1479.345
 979  1384.949
 980  1389.26
 981  1494.616
 982  1518.7
 983  1336.029
 984  1264.707
 985  1371.527
 986  1570.396
 987  1608.211
 988  1556.581
 989  1475.69
 990  1359.554
 991  1330.204
 992  1392.949
 993  1359.38
 994  1410.585
 995  1475.205
 996  1557.016
 997  1555.712
 998  1411.473
 999  1421.729
1000  1521.043
1001  1437.997
1002  1377.617
1003  1308.556
1004  1324.708
1005  1260.07
1006  1257.562
1007  1341.616
1008  1314.027
1009  1368.764
1010  1414.308
1011  1514.499
1012  1319.872
1013  1202.265
1014  1239.422
1015  1371.187
1016  1472.603
1017  1423.091
1018  1463.584
1019  1540.778
1020  1583.817
1021  1562.565
1022  1449.35
1023  1386.854
