# Input file       =  1184372028.105099_cleaned.dat
# Candidate        =  PSR_0332+5434
# Telescope        =  AR
# Epoch_topo       =  57952.009804457164
# Epoch_bary       =  N/A
# T_sample         =  0.002
# Data Folded      =  7143424
# Data Avg         =  0.107962619240926
# Data StdDev      =  4.39315371114754 
# Profile Bins     =  512
# Profile Avg      =  1506.38676833028 
# Profile StdDev   =  518.913097772009 
# Reduced chi-sqr  =  0.620
# Prob(Noise)      <  1   (~0.0 sigma)
# P_topo (ms)      =  714.476959219455  +/- 0.000117
# P'_topo (s/s)    =  -0                +/- 6.32e-11
# P''_topo (s/s^2) =  0                 +/- 2.87e-14
# P_bary (ms)      =  N/A
# P'_bary (s/s)    =  N/A
# P''_bary (s/s^2) =  N/A
# P_orb (s)        =  N/A
# asin(i)/c (s)    =  N/A
# eccentricity     =  N/A
# w (rad)          =  N/A
# T_peri           =  N/A
######################################################
   0  1310.432
   1  825.643
   2  1090.259
   3  1539.429
   4  1756.401
   5  1493.322
   6  1991.812
   7  1594.678
   8  1482.804
   9  1822.782
  10  1395.394
  11  1475.856
  12  1572.611
  13  1135.882
  14  1294.706
  15  1516.762
  16  1230.155
  17  1117.458
  18  1552.92
  19  1683.778
  20  1810.525
  21  1893.198
  22  1915.07
  23  1355.219
  24  1335.491
  25  1696.954
  26  1436.052
  27  1333.564
  28  1389.53
  29  1672.519
  30  1684.11
  31  1567.958
  32  1359.101
  33  1344.267
  34  1343.687
  35  1450.691
  36  1553.346
  37  2044.511
  38  1728.366
  39  1995.794
  40  1670.075
  41  1308.512
  42  935.8306
  43  1063.539
  44  1486.131
  45  1561.315
  46  1307.385
  47  1125.289
  48  1222.741
  49  1043.453
  50  1330.045
  51  1861.499
  52  1627.671
  53  1736.967
  54  1487.486
  55  1291.459
  56  1289.219
  57  1406.874
  58  1170.875
  59  1514.394
  60  1500.683
  61  1695.081
  62  1744.92
  63  1228.916
  64  1226.264
  65  1408.136
  66  1263.127
  67  1212.649
  68  1399.609
  69  1823.872
  70  1874.566
  71  1803.87
  72  1610.626
  73  1646.447
  74  1117.131
  75  983.7017
  76  1590.353
  77  1680.384
  78  1200.125
  79  1165.399
  80  1285.457
  81  1572.802
  82  1540.775
  83  1434.754
  84  1396.301
  85  1407.855
  86  1319.028
  87  1360.741
  88  1681.212
  89  1611.064
  90  1837.081
  91  2119.937
  92  1770.235
  93  1328.429
  94  1594.562
  95  1453.12
  96  1348.083
  97  1431.864
  98  1389.915
  99  1758.207
 100  1256.26
 101  1431.83
 102  1666.647
 103  1803.203
 104  1802.843
 105  1185.584
 106  1484.997
 107  1530.359
 108  1517.397
 109  1324.138
 110  1825.636
 111  1856.29
 112  1704.804
 113  1728.258
 114  1569.147
 115  1828.389
 116  1477.965
 117  1717.448
 118  1621.106
 119  1409.674
 120  1482.881
 121  1604.84
 122  1306.939
 123  933.0992
 124  1450.072
 125  1348.576
 126  1426.814
 127  1383.285
 128  1407.993
 129  1317.212
 130  1230.197
 131  1168.995
 132  1468.937
 133  1090.64
 134  877.8782
 135  1750.607
 136  1914.062
 137  2120.992
 138  1944.459
 139  1775.524
 140  1492.909
 141  1057.988
 142  1400.331
 143  1518.701
 144  1455.585
 145  1536.483
 146  1795.528
 147  1811.919
 148  1702.95
 149  1323.443
 150  1018.554
 151  1224.968
 152  1310.844
 153  1631.925
 154  1741.181
 155  1754.191
 156  1435.687
 157  1535.008
 158  1550.247
 159  1541.174
 160  1352.237
 161  1384.723
 162  1417.115
 163  1420.601
 164  1575.409
 165  1344.644
 166  1582.163
 167  1238.04
 168  1345.286
 169  1542.802
 170  1648.523
 171  1210.569
 172  1348.276
 173  1628.704
 174  1385.066
 175  1392.838
 176  1453.459
 177  1528.182
 178  1654.634
 179  1489.38
 180  1713.315
 181  1553.339
 182  1569.728
 183  1696.049
 184  1690.038
 185  1577.817
 186  1280.185
 187  1326.931
 188  1735.207
 189  1698.253
 190  1573.746
 191  1394.928
 192  1201.593
 193  950.8286
 194  996.4987
 195  1454.119
 196  1464.014
 197  1496.073
 198  1529.529
 199  1375.291
 200  1702.585
 201  1836.764
 202  1926.469
 203  1300.007
 204  1346.402
 205  1417.703
 206  1432.044
 207  1308.672
 208  1490.641
 209  2047.853
 210  2095.323
 211  1681.42
 212  1364.014
 213  1464.559
 214  1597.227
 215  1273.7
 216  1304.685
 217  1794.674
 218  1787.862
 219  1679.301
 220  2075.234
 221  1943.033
 222  1836.981
 223  1779.07
 224  1241.032
 225  1421.303
 226  1627.964
 227  1594.047
 228  1511.225
 229  1283.457
 230  1414.141
 231  1914.585
 232  1480.14
 233  1585.267
 234  1486.624
 235  1492.827
 236  1238.484
 237  1172.893
 238  1520.006
 239  1719.921
 240  1482.346
 241  1237.134
 242  1795.7
 243  1484.083
 244  1594.372
 245  1539.194
 246  1140.15
 247  1179.49
 248  1302.777
 249  1460.472
 250  1677.969
 251  1618.629
 252  1491.365
 253  1573.498
 254  1394.697
 255  1265.864
 256  1499.251
 257  1348.195
 258  1264.534
 259  1239.22
 260  1292.433
 261  1330.227
 262  1608.297
 263  1645.874
 264  1714.9
 265  1450.266
 266  1127.539
 267  1282.608
 268  1367.907
 269  1186.417
 270  1022.483
 271  1732.901
 272  1874.603
 273  1556.583
 274  941.9993
 275  1203.532
 276  1386.424
 277  1599.852
 278  1791.664
 279  1605.618
 280  1634.674
 281  1316.051
 282  1277.789
 283  1418.57
 284  1677.001
 285  1969.375
 286  1662.223
 287  1341.941
 288  1194.516
 289  1434.076
 290  1387.835
 291  1657.054
 292  1559.907
 293  1696.833
 294  1266.575
 295  1122.891
 296  1444.891
 297  1445.004
 298  1729.117
 299  1238.288
 300  1193.829
 301  1255.146
 302  1611.847
 303  1386.432
 304  1540.361
 305  1747.11
 306  1762.301
 307  1496.799
 308  1582.813
 309  1882.337
 310  1265.259
 311  1096.583
 312  1319.858
 313  1323.991
 314  1670.833
 315  1733.066
 316  1934.999
 317  1963.234
 318  1600.64
 319  1516.646
 320  1846.964
 321  1832.983
 322  1810.519
 323  2306.736
 324  3248.878
 325  3431.049
 326  3326.796
 327  3225.799
 328  2634.999
 329  1924.815
 330  1637.967
 331  1628.846
 332  1118.368
 333  1419.602
 334  1753.565
 335  2018.975
 336  1739.451
 337  1562.349
 338  1822.279
 339  1318.452
 340  1370.862
 341  1579.553
 342  1344.838
 343  1192.361
 344  1105.487
 345  1632.677
 346  1981.122
 347  1920.725
 348  1352.855
 349  1030.958
 350  1138.069
 351  1485.958
 352  1464.432
 353  1434.426
 354  1368.567
 355  1290.212
 356  1125.412
 357  1357.374
 358  1491.016
 359  1484.276
 360  1960.378
 361  1833.859
 362  1816.154
 363  1258.021
 364  1488.045
 365  1234.954
 366  1309.839
 367  1941.8
 368  1886.015
 369  1743.008
 370  1464.562
 371  1811.606
 372  1283.283
 373  1257.016
 374  1443.609
 375  1744.669
 376  2028.346
 377  1763.744
 378  1487.912
 379  1230.57
 380  1580.801
 381  1853.178
 382  1700.356
 383  1656.154
 384  1304.699
 385  1347.314
 386  1483.574
 387  1226.69
 388  1348.29
 389  1576.619
 390  1450.485
 391  1417.347
 392  935.6216
 393  887.6581
 394  1155.452
 395  1200.769
 396  1394.474
 397  1400.49
 398  1222.173
 399  880.9826
 400  1218.301
 401  1447.852
 402  1568.307
 403  1709.636
 404  1616.966
 405  1794.591
 406  1365.06
 407  1176.89
 408  1318.484
 409  922.9321
 410  976.2346
 411  1324.753
 412  1486.6
 413  1313.304
 414  1239.927
 415  1381.554
 416  1632.248
 417  1550.679
 418  1340.387
 419  1175.555
 420  1467.709
 421  1494.303
 422  1665.636
 423  1181.413
 424  1539.296
 425  1566.115
 426  1503.342
 427  1594.564
 428  1213.361
 429  1339.534
 430  1171.879
 431  1250.758
 432  1342.996
 433  1774.583
 434  2115.013
 435  1379.363
 436  1669.481
 437  1507.679
 438  1880.203
 439  1623.448
 440  1326.345
 441  1229.389
 442  1558.332
 443  1674.583
 444  1234.964
 445  1386.845
 446  1644.551
 447  1687.641
 448  1595.715
 449  1896.163
 450  1708.623
 451  1443.792
 452  1270.672
 453  1493.401
 454  1528.445
 455  1297.062
 456  1914.001
 457  1712.661
 458  1661.907
 459  1600.924
 460  1257.621
 461  1173.034
 462  1364.992
 463  1533.78
 464  1675.295
 465  1731.831
 466  1565.297
 467  1726.183
 468  1213.134
 469  1520.656
 470  1624.117
 471  1576.131
 472  1566.733
 473  1630.044
 474  1583.328
 475  1405.825
 476  1504.702
 477  1436.124
 478  1440.638
 479  1450.887
 480  1395.512
 481  1108.747
 482  1028.543
 483  1139.186
 484  1306.502
 485  1576.766
 486  1573.497
 487  1730.652
 488  1725.438
 489  1495.014
 490  1158.562
 491  1400.136
 492  1298.566
 493  1716.941
 494  1668.212
 495  1534.033
 496  1856.186
 497  1603.002
 498  1482.349
 499  1456.291
 500  1659.862
 501  1358.767
 502  1027.491
 503  1547.459
 504  1357.96
 505  1217.607
 506  1318.912
 507  1211.504
 508  1306.358
 509  1695.583
 510  1617.724
 511  1521.56
