# Input file       =  1184645147.110282_cleaned.dat
# Candidate        =  PSR_0332+5434
# Telescope        =  AR
# Epoch_topo       =  57955.170904054190
# Epoch_bary       =  N/A
# T_sample         =  0.002
# Data Folded      =  7340032
# Data Avg         =  0.101534656197016
# Data StdDev      =  3.10779701278928 
# Profile Bins     =  1024
# Profile Avg      =  727.16615026567  
# Profile StdDev   =  263.118656675516 
# Reduced chi-sqr  =  1.628
# Prob(Noise)      <  1.72e-33   (~12.0 sigma)
# P_topo (ms)      =  714.475040119196  +/- 0.000452
# P'_topo (s/s)    =  -0                +/- 2.39e-10
# P''_topo (s/s^2) =  0                 +/- 1.05e-13
# P_bary (ms)      =  N/A
# P'_bary (s/s)    =  N/A
# P''_bary (s/s^2) =  N/A
# P_orb (s)        =  N/A
# asin(i)/c (s)    =  N/A
# eccentricity     =  N/A
# w (rad)          =  N/A
# T_peri           =  N/A
######################################################
   0  854.4997
   1  769.8221
   2  780.6603
   3  759.3489
   4  721.9591
   5  640.5638
   6  635.8881
   7  596.7497
   8  550.8333
   9  596.8828
  10  637.9664
  11  712.1163
  12  701.5037
  13  697.1594
  14  607.5657
  15  537.6581
  16  600.3057
  17  808.0739
  18  929.1621
  19  919.2338
  20  832.2303
  21  835.8768
  22  786.2142
  23  833.0106
  24  773.0787
  25  779.016
  26  750.6721
  27  746.4998
  28  649.9583
  29  596.9746
  30  639.704
  31  743.7593
  32  774.6382
  33  793.9198
  34  785.9199
  35  804.5456
  36  762.0853
  37  647.0427
  38  555.6954
  39  570.8248
  40  679.9476
  41  783.4393
  42  760.5343
  43  764.3369
  44  676.8683
  45  584.7237
  46  527.1772
  47  585.3884
  48  711.0179
  49  689.2913
  50  615.3013
  51  634.7261
  52  661.2162
  53  750.423
  54  725.4886
  55  835.2994
  56  822.2518
  57  755.0626
  58  705.633
  59  691.9618
  60  718.0512
  61  684.6808
  62  672.1343
  63  735.5635
  64  798.8435
  65  849.0226
  66  821.4885
  67  841.7939
  68  988.826
  69  974.0078
  70  891.8747
  71  831.5718
  72  873.22
  73  949.6169
  74  936.8144
  75  873.4681
  76  837.7979
  77  855.5238
  78  957.3929
  79  932.1359
  80  918.4921
  81  898.4651
  82  894.6567
  83  854.0707
  84  839.5489
  85  896.6885
  86  834.6941
  87  708.1836
  88  594.7314
  89  615.0598
  90  618.0356
  91  596.4185
  92  669.7488
  93  761.403
  94  783.6175
  95  721.4985
  96  661.816
  97  663.2681
  98  546.9965
  99  515.3182
 100  520.4465
 101  622.2208
 102  817.7298
 103  934.1075
 104  926.9044
 105  792.111
 106  678.2691
 107  704.6274
 108  716.7215
 109  738.0861
 110  733.4854
 111  743.0718
 112  804.27
 113  754.946
 114  738.949
 115  752.864
 116  771.7234
 117  804.9015
 118  868.3662
 119  821.0674
 120  733.1654
 121  684.6754
 122  723.238
 123  734.4482
 124  784.9087
 125  827.2425
 126  949.9351
 127  959.0118
 128  895.5628
 129  825.1072
 130  910.067
 131  1035.857
 132  999.4127
 133  833.785
 134  706.9612
 135  714.777
 136  773.715
 137  738.5065
 138  677.8986
 139  735.0017
 140  775.6623
 141  756.7148
 142  626.5422
 143  625.2714
 144  593.7668
 145  671.0708
 146  689.7161
 147  720.0674
 148  733.3072
 149  733.2054
 150  785.3905
 151  750.7577
 152  671.6263
 153  566.4556
 154  501.9349
 155  426.588
 156  401.0934
 157  473.7669
 158  586.4169
 159  657.7773
 160  695.7364
 161  648.8084
 162  610.8714
 163  506.6523
 164  593.9382
 165  667.3471
 166  713.7953
 167  619.058
 168  449.8422
 169  412.8923
 170  491.7187
 171  568.7017
 172  628.8757
 173  556.7035
 174  603.1846
 175  597.6382
 176  539.8929
 177  504.0243
 178  563.0877
 179  666.3314
 180  662.204
 181  634.0968
 182  632.3821
 183  686.6192
 184  740.3643
 185  779.78
 186  830.3754
 187  797.2045
 188  834.0331
 189  762.7019
 190  753.6421
 191  617.4388
 192  630.1129
 193  746.7228
 194  842.3067
 195  768.7961
 196  674.4877
 197  720.0797
 198  743.4519
 199  786.0889
 200  763.6908
 201  792.2302
 202  727.7101
 203  691.5078
 204  665.787
 205  661.3671
 206  664.67
 207  750.4543
 208  830.5175
 209  831.3616
 210  748.625
 211  777.1862
 212  848.5949
 213  901.3193
 214  824.6954
 215  792.8076
 216  772.4505
 217  746.7244
 218  763.6463
 219  711.6902
 220  712.8167
 221  760.1257
 222  774.963
 223  728.122
 224  654.2675
 225  676.3926
 226  738.4399
 227  679.1213
 228  637.2623
 229  618.8455
 230  663.9155
 231  625.4536
 232  672.6523
 233  661.2191
 234  732.3179
 235  753.8042
 236  773.3186
 237  743.7645
 238  783.8107
 239  886.9077
 240  976.649
 241  956.4413
 242  962.2415
 243  827.1266
 244  771.0925
 245  716.9064
 246  697.5862
 247  684.1006
 248  750.8755
 249  830.5886
 250  755.3633
 251  599.5381
 252  622.5735
 253  673.8909
 254  741.0361
 255  706.7703
 256  707.3185
 257  701.6815
 258  633.526
 259  581.7335
 260  610.439
 261  631.4059
 262  653.527
 263  757.6525
 264  838.8256
 265  832.5881
 266  698.7367
 267  688.0687
 268  699.2723
 269  714.6051
 270  587.78
 271  617.8941
 272  680.4175
 273  835.9357
 274  825.0032
 275  876.8834
 276  922.3496
 277  898.0728
 278  805.3495
 279  697.5908
 280  737.9619
 281  819.2656
 282  756.0673
 283  624.3023
 284  571.7485
 285  557.3775
 286  629.8179
 287  619.2849
 288  655.129
 289  687.219
 290  759.7294
 291  840.3463
 292  745.8291
 293  677.9427
 294  617.0889
 295  651.6047
 296  641.3212
 297  668.3
 298  738.7173
 299  709.2987
 300  694.8467
 301  627.0657
 302  653.8701
 303  653.7722
 304  616.97
 305  654.9537
 306  688.9716
 307  720.8922
 308  696.6727
 309  690.7437
 310  737.5646
 311  788.5181
 312  735.3025
 313  611.751
 314  589.6944
 315  596.7041
 316  621.1078
 317  654.2318
 318  639.5729
 319  574.8517
 320  536.2313
 321  656.3037
 322  666.205
 323  542.311
 324  513.2194
 325  540.2423
 326  628.9391
 327  592.4662
 328  549.6595
 329  456.9099
 330  528.0707
 331  623.5398
 332  608.5854
 333  540.8162
 334  455.7464
 335  555.4947
 336  613.7106
 337  683.9427
 338  648.6696
 339  557.7401
 340  497.4291
 341  512.4588
 342  570.2461
 343  596.1828
 344  538.7332
 345  544.9328
 346  595.8024
 347  697.8146
 348  636.3481
 349  573.3548
 350  606.4893
 351  693.7682
 352  757.4103
 353  725.1704
 354  640.7288
 355  662.5936
 356  689.0161
 357  734.1785
 358  696.0581
 359  613.0966
 360  553.3016
 361  546.4448
 362  670.7291
 363  623.0733
 364  570.3541
 365  493.4744
 366  508.1612
 367  528.9764
 368  501.5332
 369  499.8815
 370  514.2741
 371  530.7314
 372  551.7669
 373  535.2701
 374  565.4712
 375  572.0858
 376  531.3977
 377  480.9631
 378  477.2982
 379  464.2409
 380  459.1319
 381  514.3738
 382  516.5679
 383  519.8931
 384  489.4974
 385  503.8638
 386  458.4485
 387  443.0484
 388  394.2356
 389  418.1967
 390  466.626
 391  590.7368
 392  633.9595
 393  615.092
 394  650.2944
 395  630.7285
 396  633.3842
 397  649.3226
 398  633.3796
 399  576.6404
 400  558.9817
 401  603.9438
 402  711.8
 403  729.5471
 404  781.1074
 405  737.5323
 406  603.6364
 407  542.0645
 408  570.1834
 409  678.4641
 410  579.7866
 411  578.9725
 412  442.5966
 413  447.6725
 414  493.7639
 415  593.5089
 416  689.1401
 417  737.8658
 418  797.9492
 419  758.983
 420  727.6902
 421  770.9837
 422  774.3512
 423  743.827
 424  685.0438
 425  560.6907
 426  462.1012
 427  453.9709
 428  560.122
 429  580.8071
 430  574.601
 431  544.994
 432  497.2367
 433  519.246
 434  485.4229
 435  566.5556
 436  520.4407
 437  563.9213
 438  573.8741
 439  625.504
 440  725.2542
 441  638.2263
 442  492.1495
 443  450.8937
 444  495.5599
 445  560.452
 446  549.4745
 447  491.7033
 448  420.3036
 449  390.9321
 450  477.0941
 451  544.4457
 452  529.6755
 453  474.2602
 454  505.506
 455  569.1199
 456  620.3801
 457  556.3553
 458  517.2131
 459  544.4916
 460  555.3785
 461  611.5339
 462  605.7764
 463  680.325
 464  651.9476
 465  742.86
 466  665.2184
 467  686.2732
 468  649.2781
 469  671.3387
 470  632.4624
 471  671.4966
 472  699.5798
 473  705.7172
 474  666.8603
 475  656.8879
 476  678.512
 477  710.9647
 478  727.8077
 479  792.0302
 480  848.5888
 481  874.3707
 482  765.8431
 483  710.0634
 484  653.1313
 485  589.862
 486  575.0117
 487  540.0024
 488  606.406
 489  666.0634
 490  723.9853
 491  733.4562
 492  632.2429
 493  630.6893
 494  624.0792
 495  640.7318
 496  622.6667
 497  668.5604
 498  707.7899
 499  728.2364
 500  653.0623
 501  633.295
 502  620.3901
 503  561.3228
 504  540.0551
 505  589.1423
 506  735.4296
 507  761.1325
 508  734.8482
 509  600.7585
 510  523.6927
 511  430.7617
 512  393.4375
 513  456.4709
 514  641.2891
 515  677.4159
 516  712.7079
 517  682.2114
 518  740.487
 519  618.9524
 520  647.7686
 521  632.0899
 522  694.6118
 523  655.577
 524  722.445
 525  791.27
 526  791.8909
 527  696.118
 528  602.8277
 529  557.7416
 530  602.1961
 531  609.2265
 532  530.701
 533  567.45
 534  624.0878
 535  695.2712
 536  626.2698
 537  670.8473
 538  694.4528
 539  717.2449
 540  600.9813
 541  624.7972
 542  665.2087
 543  840.6259
 544  899.3923
 545  842.1411
 546  776.4846
 547  730.8335
 548  749.7457
 549  726.5103
 550  729.5894
 551  745.5546
 552  772.8544
 553  809.6425
 554  784.7253
 555  752.2919
 556  739.9698
 557  776.4739
 558  828.066
 559  929.9279
 560  848.7138
 561  803.8859
 562  738.3975
 563  740.9319
 564  648.3364
 565  625.5424
 566  661.353
 567  653.6067
 568  674.4362
 569  693.6578
 570  736.33
 571  692.6744
 572  579.0316
 573  570.2383
 574  506.3377
 575  552.8382
 576  586.683
 577  661.6864
 578  736.6773
 579  813.209
 580  811.701
 581  779.8125
 582  817.803
 583  865.6501
 584  860.6379
 585  717.756
 586  610.7382
 587  642.018
 588  691.2526
 589  790.017
 590  784.3853
 591  883.7603
 592  879.7085
 593  838.6825
 594  912.4426
 595  933.2493
 596  883.0236
 597  721.2253
 598  646.9648
 599  749.7219
 600  812.291
 601  900.6735
 602  890.6279
 603  949.0562
 604  873.6453
 605  890.3041
 606  811.2645
 607  837.7524
 608  900.7698
 609  963.1432
 610  969.1208
 611  902.5974
 612  964.4395
 613  1024.456
 614  1054.177
 615  951.5644
 616  900.2253
 617  840.3067
 618  848.5127
 619  831.5229
 620  836.2137
 621  858.1727
 622  789.7106
 623  883.2118
 624  956.196
 625  1058.112
 626  990.1628
 627  967.3306
 628  961.4779
 629  934.3535
 630  924.311
 631  899.107
 632  873.2036
 633  825.3977
 634  798.3261
 635  846.0253
 636  962.4694
 637  1102.538
 638  1145.74
 639  1058.335
 640  994.1518
 641  1109.442
 642  1234.19
 643  1245.88
 644  1194.377
 645  1247.068
 646  1318.777
 647  1433.716
 648  1608.452
 649  1829.641
 650  1992.368
 651  2147.138
 652  2153.86
 653  2135.404
 654  1996.749
 655  1855.139
 656  1624.963
 657  1356.194
 658  1186.825
 659  1135.172
 660  1136.324
 661  1096.58
 662  1043.781
 663  1068.269
 664  1020.009
 665  1005.286
 666  981.5838
 667  953.299
 668  903.4274
 669  857.6819
 670  945.9186
 671  995.9534
 672  1165.627
 673  1200.499
 674  1178.54
 675  1111.027
 676  1061.513
 677  1053.169
 678  969.6101
 679  933.3464
 680  915.5635
 681  930.4072
 682  945.1913
 683  972.2946
 684  1021.428
 685  996.0374
 686  938.7764
 687  935.2789
 688  939.6835
 689  1004.69
 690  1015.581
 691  1014.002
 692  911.2811
 693  811.7661
 694  826.9794
 695  822.1068
 696  800.7863
 697  667.2155
 698  640.0084
 699  691.7407
 700  696.8718
 701  737.7846
 702  760.736
 703  768.072
 704  771.2568
 705  642.4276
 706  729.4891
 707  776.3347
 708  907.5883
 709  900.4755
 710  949.3307
 711  962.6394
 712  910.8005
 713  823.4194
 714  844.6335
 715  934.9771
 716  961.8803
 717  965.6118
 718  804.6224
 719  757.1913
 720  719.0826
 721  692.8571
 722  738.023
 723  759.8655
 724  737.6078
 725  669.8412
 726  638.8892
 727  628.1423
 728  550.5259
 729  452.0169
 730  486.8153
 731  584.6879
 732  698.7983
 733  731.6792
 734  732.644
 735  749.7272
 736  738.5045
 737  714.166
 738  723.5388
 739  713.273
 740  725.5015
 741  742.2875
 742  712.7317
 743  646.6682
 744  654.7056
 745  774.3489
 746  863.7288
 747  763.3019
 748  734.6475
 749  719.249
 750  847.4433
 751  859.0099
 752  788.428
 753  688.3195
 754  676.6782
 755  718.0548
 756  765.6469
 757  724.7195
 758  737.4352
 759  747.5735
 760  760.8817
 761  760.7319
 762  753.3422
 763  707.2234
 764  697.9748
 765  692.6486
 766  802.4976
 767  813.4169
 768  859.9678
 769  911.0673
 770  950.8522
 771  940.6085
 772  820.4321
 773  756.8137
 774  727.8297
 775  713.6959
 776  764.978
 777  735.9078
 778  765.675
 779  759.6905
 780  747.2261
 781  719.1381
 782  761.7756
 783  803.8363
 784  821.1108
 785  885.5925
 786  879.5867
 787  808.4092
 788  764.9174
 789  807.2573
 790  891.1586
 791  844.5181
 792  750.8352
 793  645.4465
 794  752.842
 795  893.8083
 796  925.1289
 797  836.9085
 798  807.1841
 799  806.4211
 800  723.7856
 801  636.1445
 802  593.5526
 803  723.6978
 804  779.4683
 805  796.1639
 806  770.5915
 807  818.7838
 808  855.802
 809  807.0305
 810  766.0582
 811  803.8329
 812  759.2431
 813  762.5233
 814  655.4139
 815  682.8327
 816  670.38
 817  634.423
 818  617.1093
 819  627.0471
 820  686.0575
 821  604.0445
 822  630.454
 823  648.5526
 824  625.9102
 825  538.7743
 826  502.0916
 827  494.5195
 828  534.8262
 829  547.988
 830  555.8253
 831  530.5233
 832  537.2048
 833  657.7534
 834  747.4987
 835  787.7726
 836  708.1541
 837  673.6621
 838  727.7841
 839  769.3611
 840  759.1097
 841  768.7507
 842  722.5691
 843  670.848
 844  644.5457
 845  597.528
 846  587.9473
 847  653.2225
 848  676.5307
 849  652.1091
 850  632.2278
 851  726.3464
 852  716.7321
 853  705.3604
 854  685.9906
 855  670.0516
 856  686.1239
 857  667.5411
 858  528.7377
 859  474.706
 860  440.1349
 861  488.9885
 862  497.6442
 863  482.5385
 864  471.3811
 865  456.8299
 866  510.7557
 867  577.8794
 868  666.7139
 869  702.093
 870  749.7121
 871  634.5347
 872  519.6661
 873  415.5152
 874  416.9388
 875  411.8762
 876  313.6947
 877  349.3077
 878  390.5001
 879  383.5256
 880  360.9356
 881  538.0895
 882  621.1693
 883  691.0947
 884  686.4692
 885  684.964
 886  668.3668
 887  555.6628
 888  508.9913
 889  361.5247
 890  383.3219
 891  506.8351
 892  615.4274
 893  564.4056
 894  563.4586
 895  526.3908
 896  617.0994
 897  664.0152
 898  703.98
 899  689.3712
 900  708.6367
 901  790.6953
 902  833.7983
 903  816.7267
 904  837.1016
 905  805.0211
 906  790.1845
 907  753.0083
 908  765.2594
 909  711.0833
 910  774.5419
 911  783.3295
 912  798.2787
 913  733.7357
 914  662.1914
 915  714.997
 916  734.7328
 917  816.5027
 918  769.7081
 919  735.082
 920  703.8983
 921  686.5754
 922  652.6023
 923  651.9319
 924  676.1014
 925  685.0406
 926  623.2319
 927  530.7057
 928  511.2423
 929  610.38
 930  719.975
 931  789.2695
 932  683.0389
 933  552.6432
 934  583.3309
 935  599.0308
 936  594.6779
 937  552.4479
 938  581.7064
 939  607.2639
 940  652.0795
 941  689.9203
 942  763.9094
 943  723.2419
 944  729.3163
 945  778.6724
 946  828.3065
 947  847.0399
 948  860.7366
 949  882.6895
 950  812.0661
 951  721.2105
 952  620.6189
 953  601.624
 954  620.8776
 955  661.4149
 956  706.9973
 957  752.9203
 958  812.6573
 959  732.3092
 960  654.8235
 961  721.4323
 962  818.0281
 963  845.6054
 964  765.5422
 965  763.8132
 966  824.0582
 967  790.9677
 968  825.7601
 969  766.8887
 970  724.3138
 971  679.6766
 972  701.3733
 973  640.0026
 974  590.7596
 975  579.4627
 976  679.4764
 977  656.7953
 978  625.0378
 979  607.4189
 980  600.8582
 981  561.3588
 982  482.5798
 983  525.7339
 984  597.7799
 985  680.8037
 986  770.2738
 987  847.0206
 988  768.465
 989  631.5028
 990  665.7049
 991  835.1487
 992  934.8526
 993  848.398
 994  786.7741
 995  791.4651
 996  801.5027
 997  783.2932
 998  797.7141
 999  802.4467
1000  881.0166
1001  828.0107
1002  866.5753
1003  869.2546
1004  847.2248
1005  765.9409
1006  802.1034
1007  782.0568
1008  801.35
1009  663.115
1010  635.998
1011  722.7946
1012  892.8818
1013  950.8621
1014  876.1818
1015  805.7108
1016  842.2999
1017  935.7533
1018  911.4722
1019  873.2474
1020  799.8405
1021  819.2122
1022  822.089
1023  857.5587
