# Input file       =  1184458115.111231_cleaned.dat
# Candidate        =  PSR_0332+5434
# Telescope        =  AR
# Epoch_topo       =  57953.006181842953
# Epoch_bary       =  N/A
# T_sample         =  0.002
# Data Folded      =  7208960
# Data Avg         =  0.116541836955796
# Data StdDev      =  4.48003675930363 
# Profile Bins     =  512
# Profile Avg      =  1640.95124118379 
# Profile StdDev   =  531.597469383689 
# Reduced chi-sqr  =  0.600
# Prob(Noise)      <  1   (~0.0 sigma)
# P_topo (ms)      =  714.476337403202  +/- 6.82e-05
# P'_topo (s/s)    =  -0                +/- 3.67e-11
# P''_topo (s/s^2) =  0                 +/- 1.65e-14
# P_bary (ms)      =  N/A
# P'_bary (s/s)    =  N/A
# P''_bary (s/s^2) =  N/A
# P_orb (s)        =  N/A
# asin(i)/c (s)    =  N/A
# eccentricity     =  N/A
# w (rad)          =  N/A
# T_peri           =  N/A
######################################################
   0  1636.66
   1  1577.252
   2  1653.416
   3  1734.004
   4  1825.104
   5  1961.79
   6  1688.635
   7  1349.073
   8  1090.305
   9  1749.034
  10  1597.546
  11  1656.267
  12  1730.363
  13  1327.922
  14  1459.607
  15  1804.302
  16  1393.3
  17  1742.367
  18  1945.868
  19  2086.564
  20  1969.071
  21  1723.247
  22  1579.382
  23  1423.541
  24  1424.26
  25  1567.969
  26  1572.456
  27  1766.143
  28  1632.605
  29  1814.44
  30  1539.189
  31  1640.367
  32  1472.538
  33  1628.087
  34  2121.172
  35  2013.579
  36  1815.547
  37  2016.775
  38  1631.382
  39  1356.14
  40  1543.546
  41  1514.045
  42  1440.744
  43  1690.558
  44  1862.069
  45  1918.051
  46  1709.785
  47  1469.932
  48  1483.857
  49  1441.122
  50  1353.513
  51  1756.339
  52  2211.337
  53  1925.034
  54  1933.354
  55  1959.159
  56  1883.449
  57  1548.099
  58  1361.768
  59  1590.529
  60  1304.048
  61  1312.796
  62  1713.887
  63  1649.73
  64  1603.823
  65  1420.099
  66  1514.061
  67  1468.572
  68  1798.909
  69  1688.405
  70  1759.542
  71  1498.497
  72  1152.962
  73  1315.287
  74  1389.979
  75  1691.509
  76  1809.172
  77  1924.759
  78  1493.075
  79  1425.184
  80  1096.305
  81  1362.983
  82  1774.353
  83  1935.103
  84  2023.841
  85  2178.493
  86  1908.663
  87  1504.881
  88  1649.897
  89  1573.053
  90  1490.593
  91  1375.096
  92  1647.8
  93  1616.275
  94  1491.046
  95  1759.358
  96  1811.066
  97  1371.583
  98  1609.848
  99  1885.091
 100  2009.962
 101  1938.841
 102  2076.885
 103  2202.81
 104  1392.446
 105  1632.486
 106  1362.471
 107  1535.271
 108  1643.406
 109  1781.949
 110  1637.696
 111  1564.913
 112  1666.904
 113  1436.394
 114  1353.383
 115  1605.396
 116  1841.016
 117  1630.44
 118  1631.237
 119  1910.382
 120  1843.903
 121  1632.338
 122  1602.483
 123  1546.922
 124  1448.291
 125  1640.525
 126  1762.909
 127  1770.924
 128  1713.529
 129  1875.18
 130  1555.165
 131  1340.954
 132  1826.761
 133  2181.813
 134  1875.234
 135  1862.941
 136  2090.202
 137  1607.745
 138  1386.95
 139  1738.887
 140  2054.026
 141  1613.893
 142  1712.639
 143  1827.77
 144  1678.074
 145  1571.488
 146  1509.848
 147  1720.87
 148  1618.073
 149  1413.902
 150  1961.424
 151  2167.998
 152  2048.835
 153  1804.884
 154  2054.86
 155  2239.291
 156  2529.669
 157  2943.381
 158  3511.248
 159  3455.178
 160  3145.248
 161  2298.054
 162  1603.101
 163  1443.985
 164  1167.81
 165  1435.399
 166  1816.645
 167  2206.03
 168  2062.128
 169  1704.523
 170  1809.208
 171  1404.627
 172  1292.222
 173  1317.564
 174  1588.127
 175  1701.253
 176  1679.625
 177  1934.891
 178  1650.792
 179  1426.626
 180  1645.4
 181  1890.468
 182  1530.016
 183  1856.463
 184  2111.594
 185  2054.59
 186  1879.75
 187  1975.364
 188  1876.434
 189  1603.802
 190  1432.055
 191  1420.094
 192  1957.819
 193  2083.753
 194  1838.079
 195  1755.811
 196  1745.175
 197  1751.778
 198  1834.65
 199  2124.271
 200  1900.866
 201  1845.779
 202  1906.628
 203  1947.855
 204  1591.013
 205  1486.058
 206  1750.211
 207  1540.803
 208  1060.333
 209  1219.856
 210  1520.322
 211  1785.628
 212  1804.26
 213  1782.272
 214  1842.862
 215  1619.831
 216  1509.323
 217  1575.008
 218  1735.752
 219  1820.457
 220  2209.767
 221  1859.239
 222  1415.672
 223  1439.067
 224  1314.286
 225  1495.828
 226  1550.79
 227  1738.726
 228  1302.076
 229  1338.251
 230  1542.912
 231  1310.086
 232  1696.27
 233  2132.863
 234  1885.711
 235  1631.703
 236  1906.05
 237  1618.054
 238  1450.606
 239  1505.767
 240  1380.984
 241  1506.988
 242  1734.799
 243  1682.551
 244  1361.747
 245  1233.92
 246  1404.765
 247  1282.603
 248  1494.935
 249  1375.504
 250  1845.528
 251  1773.526
 252  1737.854
 253  1656.16
 254  1969.942
 255  1859.2
 256  1583.669
 257  1633.717
 258  1634.186
 259  1594.953
 260  1313.643
 261  1697.41
 262  1876.89
 263  1868.344
 264  1817.1
 265  1885.989
 266  1899.962
 267  1454.479
 268  1954.922
 269  1950.223
 270  1976.425
 271  1527.467
 272  1588.214
 273  1643.438
 274  1666.286
 275  1810.993
 276  1764.64
 277  1716.824
 278  1678.186
 279  1503.061
 280  1317.979
 281  1161.977
 282  1142.649
 283  1409.181
 284  1812.511
 285  1747.67
 286  1594.202
 287  1176.618
 288  1320.041
 289  1592.904
 290  1709.267
 291  1532.379
 292  1727.982
 293  1462.737
 294  1629.3
 295  1596.442
 296  1506.873
 297  1282.204
 298  1480.103
 299  1778.737
 300  1896.555
 301  1923.522
 302  1671.607
 303  1743.05
 304  1470.135
 305  1378.262
 306  1265.499
 307  1366.939
 308  1750.917
 309  1637.247
 310  1635.665
 311  1015.538
 312  1060.001
 313  1493.075
 314  1589.146
 315  1630.764
 316  1805.277
 317  1764.528
 318  1451.677
 319  1318.176
 320  1428.847
 321  1751.87
 322  1749.389
 323  1606.28
 324  1876.374
 325  1591.565
 326  1576.668
 327  1073.65
 328  990.7263
 329  1087.8
 330  1295.684
 331  1460.693
 332  2056.937
 333  2378.399
 334  1863.335
 335  1861.118
 336  1571.561
 337  1251.05
 338  1066.626
 339  1595.771
 340  1901.575
 341  1836.248
 342  1728.312
 343  1791.159
 344  1286.815
 345  1114.109
 346  1491.48
 347  1748.528
 348  1933.673
 349  1773.906
 350  1754.59
 351  1544.938
 352  1368.577
 353  1507.3
 354  1806.988
 355  1679.42
 356  1546.169
 357  1601.456
 358  1608.416
 359  1632.733
 360  1456.02
 361  1689.365
 362  1772.537
 363  1414.898
 364  1130.347
 365  1647.81
 366  1946.988
 367  1394.552
 368  1427.882
 369  1635.124
 370  1805.091
 371  1257.212
 372  1971.047
 373  2131.446
 374  1949.341
 375  1683.739
 376  1467.087
 377  1386.046
 378  1240.632
 379  1268.961
 380  1524.23
 381  1978.504
 382  1542.775
 383  1668.444
 384  1931.938
 385  1386.16
 386  1479.102
 387  1498.461
 388  1261.929
 389  1531.669
 390  1468.181
 391  1505.692
 392  1203.604
 393  1606.441
 394  1627.161
 395  1582.173
 396  1519.904
 397  1417.651
 398  1852.901
 399  1702.016
 400  1780.226
 401  1728.748
 402  1269.479
 403  1012.23
 404  946.061
 405  1393.217
 406  1706.928
 407  1686.634
 408  1849.67
 409  1572.743
 410  1242.054
 411  637.1069
 412  770.4645
 413  1498.737
 414  1894.162
 415  1824.719
 416  1545.733
 417  1702.394
 418  1488.838
 419  1146.829
 420  1237.968
 421  1298.235
 422  1129.374
 423  1596.713
 424  1640.193
 425  1888.195
 426  1817.943
 427  1631.947
 428  1563.673
 429  1180.798
 430  1545.81
 431  1552.761
 432  1876.434
 433  1784.195
 434  1678.844
 435  1858.298
 436  1373.113
 437  1531.357
 438  1249.712
 439  1426.669
 440  1417.811
 441  1634.098
 442  1472.573
 443  1616.412
 444  1823.605
 445  1520.131
 446  1849.233
 447  1596.195
 448  1541.19
 449  1895.74
 450  1897.366
 451  1711.825
 452  1678.218
 453  1742.933
 454  1590.6
 455  1384.753
 456  1676.365
 457  2022.267
 458  1598.179
 459  1329.126
 460  1240.192
 461  1139.655
 462  1126.886
 463  1453.043
 464  1825.825
 465  2215.466
 466  2070.472
 467  1683.324
 468  1549.603
 469  1206.495
 470  1274.851
 471  1449.338
 472  1968.548
 473  1909.788
 474  1552.437
 475  1480.152
 476  1432.302
 477  1586.16
 478  1602.167
 479  1792.405
 480  1914.311
 481  1637.232
 482  1924.921
 483  1831.598
 484  1697.493
 485  1471.598
 486  1077.915
 487  1239.058
 488  1499.034
 489  1674.505
 490  1958.767
 491  2066.581
 492  1751.059
 493  1195.205
 494  1236.436
 495  1239.798
 496  1243.327
 497  1868.641
 498  1743.666
 499  1894.353
 500  1770.131
 501  1876.669
 502  2045.695
 503  1667.35
 504  1774.592
 505  1473.268
 506  1532.606
 507  1381.806
 508  1355.098
 509  1347.567
 510  1555.972
 511  1604.143
