# Input file       =  1184315356.111366_cleaned.dat
# Candidate        =  PSR_0332+5434
# Telescope        =  AR
# Epoch_topo       =  57951.353878603775
# Epoch_bary       =  N/A
# T_sample         =  0.002
# Data Folded      =  7340032
# Data Avg         =  0.0420712559375956
# Data StdDev      =  1.00020093256636 
# Profile Bins     =  512
# Profile Avg      =  603.067114264483 
# Profile StdDev   =  119.757094643044 
# Reduced chi-sqr  =  1.259
# Prob(Noise)      <  5.91e-05   (~3.8 sigma)
# P_topo (ms)      =  714.477723692926  +/- 0.000305
# P'_topo (s/s)    =  -0                +/- 1.61e-10
# P''_topo (s/s^2) =  0                 +/- 7.11e-14
# P_bary (ms)      =  N/A
# P'_bary (s/s)    =  N/A
# P''_bary (s/s^2) =  N/A
# P_orb (s)        =  N/A
# asin(i)/c (s)    =  N/A
# eccentricity     =  N/A
# w (rad)          =  N/A
# T_peri           =  N/A
######################################################
   0  529.5056
   1  502.7059
   2  627.3026
   3  547.9386
   4  592.1152
   5  615.6159
   6  529.5036
   7  534.0358
   8  555.0738
   9  619.7598
  10  541.2586
  11  520.3992
  12  650.8718
  13  552.5352
  14  492.6654
  15  569.9048
  16  600.924
  17  588.3122
  18  508.4961
  19  550.8936
  20  522.2464
  21  535.2333
  22  570.254
  23  581.448
  24  665.4813
  25  663.3847
  26  678.5167
  27  653.8481
  28  574.6183
  29  620.5845
  30  761.439
  31  687.5577
  32  629.4523
  33  667.1994
  34  635.1141
  35  624.0645
  36  635.5833
  37  676.4708
  38  679.2631
  39  754.8002
  40  731.7168
  41  655.4445
  42  608.7056
  43  571.2379
  44  461.0779
  45  551.1938
  46  589.4752
  47  623.8976
  48  526.4188
  49  559.6505
  50  428.6055
  51  433.3377
  52  495.9913
  53  522.5127
  54  504.5474
  55  527.5862
  56  574.1147
  57  750.0026
  58  638.0873
  59  473.122
  60  536.3099
  61  483.1827
  62  507.496
  63  586.7828
  64  715.3586
  65  679.6998
  66  509.2804
  67  600.2258
  68  719.6372
  69  553.638
  70  563.2305
  71  549.9846
  72  507.6975
  73  598.1722
  74  586.2286
  75  551.0259
  76  698.6656
  77  567.6957
  78  442.3814
  79  516.1477
  80  466.2772
  81  369.6482
  82  336.5871
  83  551.3911
  84  537.7089
  85  576.4548
  86  620.6709
  87  532.8605
  88  558.0645
  89  627.0772
  90  620.8306
  91  571.9736
  92  690.2057
  93  779.1219
  94  643.4896
  95  653.1953
  96  674.0233
  97  661.086
  98  723.317
  99  718.7165
 100  523.2889
 101  513.6701
 102  486.863
 103  615.581
 104  648.9614
 105  607.7901
 106  602.5732
 107  640.699
 108  647.8023
 109  601.9207
 110  565.2654
 111  548.4888
 112  594.9613
 113  656.9284
 114  548.9536
 115  486.2762
 116  666.963
 117  642.4577
 118  640.0659
 119  706.9608
 120  584.4573
 121  561.5366
 122  543.9943
 123  522.5127
 124  638.7573
 125  701.3113
 126  634.929
 127  617.3961
 128  602.6264
 129  589.9651
 130  627.7217
 131  578.5916
 132  581.6885
 133  632.6621
 134  596.3296
 135  625.9729
 136  475.7715
 137  517.1336
 138  572.0092
 139  527.4415
 140  570.2399
 141  613.9514
 142  509.2852
 143  508.2621
 144  568.0814
 145  587.2546
 146  504.5551
 147  479.1699
 148  602.4777
 149  495.0206
 150  468.9733
 151  632.8084
 152  720.7185
 153  627.5847
 154  624.481
 155  575.4656
 156  503.5262
 157  564.5201
 158  640.7516
 159  648.5115
 160  530.9433
 161  544.9153
 162  637.9142
 163  681.1843
 164  593.7603
 165  568.9005
 166  771.9369
 167  746.708
 168  725.5637
 169  775.3026
 170  841.4465
 171  1033.69
 172  1196.939
 173  1286.183
 174  1245.284
 175  1042.952
 176  932.8193
 177  757.327
 178  706.4714
 179  587.659
 180  658.1205
 181  701.045
 182  668.9611
 183  621.8979
 184  558.4537
 185  609.431
 186  684.3104
 187  657.9265
 188  662.5199
 189  751.9379
 190  817.4573
 191  649.702
 192  658.0555
 193  705.4002
 194  719.8854
 195  647.1509
 196  617.4393
 197  809.8969
 198  681.5125
 199  595.9696
 200  525.4002
 201  601.7337
 202  626.7314
 203  583.1205
 204  674.9653
 205  738.4951
 206  599.9784
 207  555.7545
 208  502.243
 209  590.04
 210  490.2881
 211  576.85
 212  576.492
 213  488.6278
 214  633.8592
 215  591.9437
 216  568.4803
 217  672.2574
 218  701.6901
 219  537.397
 220  467.6814
 221  507.4044
 222  512.5858
 223  581.4929
 224  651.1498
 225  667.3708
 226  648.046
 227  487.8364
 228  560.7887
 229  627.9323
 230  577.3286
 231  550.0566
 232  470.5034
 233  533.7139
 234  616.158
 235  620.6154
 236  546.0649
 237  609.0461
 238  702.6362
 239  660.8813
 240  595.4183
 241  683.5078
 242  677.0599
 243  648.6597
 244  632.5951
 245  544.2131
 246  488.9298
 247  509.6276
 248  624.9901
 249  543.6752
 250  515.9064
 251  628.5621
 252  589.7998
 253  588.0818
 254  577.322
 255  555.9407
 256  553.9272
 257  541.9055
 258  500.12
 259  499.0174
 260  666.3972
 261  607.6161
 262  501.1312
 263  521.2286
 264  668.0453
 265  693.629
 266  750.4802
 267  736.305
 268  732.2585
 269  648.8735
 270  691.3976
 271  660.6518
 272  651.5795
 273  590.2927
 274  638.4925
 275  725.1207
 276  657.416
 277  717.4113
 278  673.5168
 279  702.0831
 280  768.4156
 281  721.5715
 282  627.5875
 283  681.4305
 284  647.7723
 285  589.3979
 286  698.3626
 287  656.2057
 288  749.3787
 289  664.7549
 290  643.1057
 291  672.7933
 292  625.5225
 293  651.0732
 294  726.3614
 295  773.26
 296  640.4185
 297  653.5453
 298  707.9025
 299  701.7902
 300  591.8878
 301  516.9943
 302  631.4812
 303  580.4221
 304  576.4262
 305  592.9828
 306  608.692
 307  531.9887
 308  532.5069
 309  636.1284
 310  561.1886
 311  536.4918
 312  641.9662
 313  629.4798
 314  621.8265
 315  657.9515
 316  645.5854
 317  666.9189
 318  624.9784
 319  618.868
 320  559.6075
 321  699.0775
 322  674.6534
 323  630.0616
 324  652.9325
 325  628.689
 326  577.7023
 327  624.9147
 328  581.9624
 329  578.556
 330  625.6735
 331  653.7137
 332  623.454
 333  657.8454
 334  712.6885
 335  748.5918
 336  526.8453
 337  471.2838
 338  533.2633
 339  601.1271
 340  624.6744
 341  598.968
 342  704.3794
 343  631.0292
 344  583.3204
 345  561.0731
 346  517.3283
 347  485.2199
 348  500.7968
 349  529.6599
 350  480.6143
 351  556.9848
 352  606.7442
 353  656.1247
 354  630.0198
 355  568.1713
 356  505.2556
 357  470.8232
 358  392.4426
 359  487.7359
 360  589.9767
 361  525.5915
 362  566.0519
 363  717.1169
 364  673.996
 365  588.5276
 366  580.9391
 367  584.7385
 368  589.4208
 369  724.6973
 370  697.7269
 371  657.64
 372  653.0933
 373  713.1924
 374  692.5234
 375  681.5104
 376  700.2388
 377  676.5167
 378  631.6725
 379  632.851
 380  517.3218
 381  585.1497
 382  631.9413
 383  569.7758
 384  626.5541
 385  666.3463
 386  734.2932
 387  683.0413
 388  632.1946
 389  656.6858
 390  609.3632
 391  538.4776
 392  571.109
 393  549.2527
 394  605.0061
 395  633.1591
 396  538.3146
 397  629.9775
 398  519.3201
 399  510.1141
 400  538.2654
 401  642.6364
 402  588.6279
 403  561.0451
 404  509.0995
 405  441.177
 406  377.9558
 407  443.5257
 408  508.7045
 409  577.275
 410  708.1276
 411  647.2563
 412  576.2917
 413  647.1081
 414  508.8628
 415  537.6625
 416  507.4917
 417  585.735
 418  610.4434
 419  563.6092
 420  671.6226
 421  606.6374
 422  500.4636
 423  433.494
 424  464.5703
 425  445.6429
 426  381.6703
 427  410.9158
 428  486.7142
 429  569.8964
 430  586.7971
 431  504.9443
 432  533.9825
 433  502.6239
 434  512.2448
 435  479.9583
 436  561.5679
 437  636.3303
 438  670.4182
 439  601.3495
 440  497.1396
 441  544.4724
 442  522.1378
 443  477.5344
 444  512.0042
 445  537.1825
 446  540.6766
 447  502.4868
 448  538.7265
 449  479.3394
 450  528.2783
 451  539.198
 452  485.1411
 453  600.3003
 454  571.3362
 455  583.247
 456  688.3425
 457  680.4516
 458  486.6942
 459  487.0925
 460  532.4308
 461  529.6729
 462  639.4292
 463  722.4153
 464  543.7545
 465  493.8874
 466  586.5807
 467  694.6032
 468  664.8467
 469  617.4788
 470  667.9322
 471  632.8004
 472  553.2272
 473  597.0282
 474  649.0931
 475  750.8008
 476  668.6395
 477  657.4358
 478  635.4576
 479  639.4618
 480  614.171
 481  589.7761
 482  595.0829
 483  587.0377
 484  527.7178
 485  493.4282
 486  558.1527
 487  586.8957
 488  542.4168
 489  600.041
 490  685.2841
 491  565.7635
 492  527.2822
 493  581.9488
 494  591.2462
 495  523.4542
 496  594.9379
 497  665.0076
 498  536.1693
 499  515.12
 500  616.121
 501  484.8683
 502  540.2964
 503  593.481
 504  580.8494
 505  647.0532
 506  634.5367
 507  599.2529
 508  468.5477
 509  567.7069
 510  541.9166
 511  511.0891
