# Input file       =  1184660059.09953_cleaned.dat
# Candidate        =  PSR_0332+5434
# Telescope        =  AR
# Epoch_topo       =  57955.343496522335
# Epoch_bary       =  N/A
# T_sample         =  0.002
# Data Folded      =  7340032
# Data Avg         =  0.345237227597473
# Data StdDev      =  6.11491337415678 
# Profile Bins     =  512
# Profile Avg      =  4949.32826676705 
# Profile StdDev   =  732.157145468688 
# Reduced chi-sqr  =  1.040
# Prob(Noise)      <  0.259   (~0.6 sigma)
# P_topo (ms)      =  714.475273240728  +/- 0.000999
# P'_topo (s/s)    =  -0                +/- 5.27e-10
# P''_topo (s/s^2) =  0                 +/- 2.33e-13
# P_bary (ms)      =  N/A
# P'_bary (s/s)    =  N/A
# P''_bary (s/s^2) =  N/A
# P_orb (s)        =  N/A
# asin(i)/c (s)    =  N/A
# eccentricity     =  N/A
# w (rad)          =  N/A
# T_peri           =  N/A
######################################################
   0  4429.112
   1  4660.892
   2  5049.054
   3  5000.729
   4  4977.671
   5  4519.193
   6  4361.822
   7  4661.8
   8  4776.564
   9  4702.659
  10  4514.29
  11  4540.194
  12  4480.489
  13  4153.545
  14  4448.323
  15  4605.896
  16  4500.497
  17  4665.072
  18  5090.141
  19  5043.171
  20  4685.971
  21  4528.665
  22  4567.324
  23  4945.258
  24  4906.539
  25  4736.072
  26  4600.218
  27  4663.179
  28  4988.078
  29  5377.861
  30  5231.925
  31  5120.152
  32  5086.999
  33  5239.128
  34  5251.393
  35  5127.033
  36  5029.233
  37  4915.517
  38  4888.183
  39  4650.644
  40  4478.963
  41  4480.16
  42  4675.377
  43  4783.856
  44  4843.464
  45  4853.218
  46  4405.957
  47  4579.881
  48  4926.84
  49  4879.437
  50  4648.609
  51  4605.202
  52  5030.755
  53  5151.994
  54  5497.121
  55  5049.988
  56  5115.669
  57  5146.101
  58  4700.685
  59  4770.977
  60  5081.891
  61  5028.374
  62  5307.737
  63  5473.992
  64  5578.47
  65  4982.496
  66  4950.454
  67  5304.826
  68  5562.353
  69  5677.327
  70  5701.24
  71  5514.411
  72  5456.351
  73  5499.015
  74  5752.275
  75  5722.675
  76  5844.995
  77  6131.398
  78  5614.156
  79  5208.573
  80  5224.217
  81  5341.407
  82  5172.314
  83  5118.386
  84  4795.007
  85  5047.081
  86  4972.939
  87  4846.137
  88  4716.079
  89  4852.19
  90  4857.399
  91  5035.805
  92  5069.021
  93  4808.657
  94  4946.502
  95  5196.45
  96  5059.571
  97  5177.581
  98  5575.516
  99  5780.089
 100  5405.402
 101  5272.799
 102  5375.66
 103  5596.128
 104  5821.659
 105  5687.599
 106  5223.182
 107  5350.908
 108  5309.334
 109  5396.62
 110  5431.811
 111  5558.842
 112  5500.301
 113  5336.625
 114  5248.914
 115  5126.663
 116  5498.238
 117  5663.135
 118  5874.731
 119  5774.957
 120  5477.532
 121  5512.325
 122  5910.009
 123  6194.91
 124  5825.976
 125  5922.775
 126  6463.605
 127  6191.729
 128  5773.267
 129  5751.631
 130  5813.513
 131  5816.591
 132  5682.264
 133  5705.205
 134  5750.616
 135  5593.535
 136  5894.503
 137  5599.094
 138  5925.178
 139  5684.549
 140  5435.885
 141  5051.062
 142  4934.93
 143  5400.576
 144  5499.743
 145  5690.073
 146  5411.502
 147  5559.381
 148  5412.807
 149  5303.596
 150  5431.686
 151  5970.083
 152  6278.026
 153  6205.255
 154  5971.588
 155  5965.147
 156  6240.966
 157  6286.522
 158  5781.833
 159  6141.355
 160  6111.984
 161  5996.654
 162  5812.412
 163  5803.06
 164  5661.732
 165  5648.049
 166  5668.616
 167  5836.608
 168  5732.347
 169  5700.014
 170  5600.445
 171  5353.457
 172  6031.541
 173  5992.255
 174  5917.191
 175  5870.797
 176  5715.207
 177  5494.88
 178  5452.94
 179  5558.862
 180  5540.288
 181  5326.003
 182  5733.49
 183  5529.492
 184  5106.405
 185  5022.923
 186  5397.319
 187  5277.701
 188  5445.091
 189  5502.414
 190  5429.837
 191  5121.17
 192  5065.729
 193  4898.762
 194  5113.462
 195  5460.065
 196  5310.107
 197  5392.189
 198  5722.356
 199  5784.85
 200  5891.112
 201  5274.316
 202  5231.387
 203  5426.57
 204  5261.913
 205  4978.587
 206  5305.839
 207  5160.339
 208  5188.739
 209  5334.197
 210  4985.468
 211  5025.034
 212  4774.662
 213  4974.357
 214  5357.16
 215  5190.667
 216  5157.618
 217  4817.912
 218  4649.128
 219  4644.711
 220  4776.886
 221  4743.62
 222  4876.536
 223  4912.23
 224  4782.89
 225  4429.154
 226  4684.098
 227  4275.289
 228  4625.45
 229  4810.133
 230  4603.531
 231  4373.772
 232  4648.371
 233  4524.004
 234  4747.343
 235  4802.96
 236  4821.748
 237  4635.247
 238  4562.22
 239  5044.525
 240  5100.625
 241  4838.665
 242  4453.604
 243  4318.782
 244  4222.933
 245  4727.406
 246  5180.029
 247  5484.541
 248  5301.984
 249  5159.083
 250  5154.845
 251  4806.943
 252  4712.063
 253  4796.347
 254  4630.536
 255  4734.595
 256  4767.479
 257  4525.062
 258  4281.289
 259  4449.198
 260  4552.591
 261  4616.237
 262  4531.473
 263  4101.804
 264  3845.086
 265  4058.435
 266  4446.886
 267  4260.398
 268  4487.377
 269  4769.339
 270  4259.012
 271  4056.269
 272  4351.856
 273  5001.648
 274  5060.614
 275  5150.354
 276  4373.958
 277  4391.433
 278  4391.172
 279  4713.467
 280  4837.166
 281  4897.214
 282  4778.941
 283  4697.167
 284  4766.687
 285  4371.866
 286  4458.944
 287  4576.668
 288  4727.415
 289  4387.276
 290  4636.532
 291  4856.826
 292  4565.838
 293  4675.14
 294  4503.451
 295  4230.337
 296  4158.402
 297  4210.495
 298  4191.173
 299  4450.979
 300  4260.477
 301  4389.984
 302  4487.699
 303  4575.714
 304  4935.362
 305  4536.777
 306  4610.179
 307  4883.577
 308  5139.917
 309  5501.151
 310  5342.301
 311  5183.859
 312  5175.253
 313  5143.246
 314  5141.171
 315  5173.086
 316  5201.899
 317  5112.525
 318  4754.171
 319  5178.032
 320  4983.723
 321  5003.312
 322  4887.951
 323  4930.221
 324  5355.534
 325  4934.519
 326  4520.747
 327  4329.617
 328  4431.501
 329  4394.574
 330  4778.61
 331  4786.661
 332  4767.507
 333  4241.296
 334  4207.737
 335  4160.206
 336  4273.235
 337  4611.978
 338  4725.547
 339  4534.733
 340  4385.987
 341  4642.402
 342  4650.662
 343  4811.394
 344  4937.57
 345  4581.368
 346  4468.876
 347  4218.704
 348  4328.672
 349  4363.318
 350  4153.621
 351  3734.807
 352  3649.298
 353  3653.634
 354  3703.42
 355  4019.613
 356  4000.925
 357  3788.933
 358  3890.746
 359  3919.594
 360  3682.178
 361  4002.531
 362  3832.741
 363  3782.154
 364  3705.486
 365  3826.529
 366  3888.023
 367  4006.807
 368  4312.51
 369  4493.669
 370  4280.649
 371  4493.606
 372  4712.72
 373  4630.423
 374  4649.545
 375  4333.897
 376  4662.751
 377  4671.551
 378  4702.974
 379  4513.864
 380  4528.797
 381  4120.146
 382  4437.871
 383  4604.695
 384  4186.021
 385  4088.137
 386  3980.799
 387  4193.685
 388  4400.643
 389  4379.917
 390  4242.803
 391  3985.668
 392  4189.571
 393  4129.307
 394  3956.601
 395  3975.693
 396  3879.426
 397  4237.557
 398  4033.205
 399  3936.964
 400  4045.473
 401  4172.722
 402  4128.859
 403  4072.155
 404  4003.771
 405  4281.33
 406  4561.955
 407  4658.63
 408  4670.491
 409  4712.021
 410  4810.429
 411  5185.049
 412  5145.421
 413  5168.55
 414  4979.358
 415  4869.96
 416  5250.193
 417  5371.231
 418  5582.025
 419  5633.694
 420  5518.256
 421  5087.825
 422  4778.771
 423  5179.787
 424  5633.313
 425  5291.361
 426  5252.184
 427  5205.997
 428  5470.959
 429  5550.045
 430  5352.514
 431  5355.474
 432  5113.077
 433  4966.188
 434  5040.361
 435  4746.702
 436  5004.949
 437  4752.451
 438  5031.778
 439  4698.567
 440  5019.279
 441  5292.769
 442  5358.917
 443  4934.327
 444  4884.425
 445  4817.515
 446  5027.052
 447  5279.707
 448  5294.91
 449  5268.072
 450  5092.365
 451  4909.284
 452  4835.157
 453  5166.913
 454  5242.608
 455  5158.766
 456  4879.446
 457  4899.281
 458  4926.253
 459  4784.196
 460  4847.878
 461  4517.235
 462  4553.567
 463  4727.925
 464  4764.137
 465  4886.666
 466  5213.851
 467  5222.894
 468  4868.33
 469  4491.167
 470  4499.911
 471  5037.872
 472  5251.909
 473  5161.147
 474  4757.721
 475  4639.235
 476  4774.508
 477  5192.566
 478  5266.909
 479  4918.961
 480  4664.038
 481  4784.701
 482  4825.676
 483  4669.663
 484  4736.421
 485  5043.667
 486  4871.635
 487  4874.545
 488  4690.593
 489  4751.98
 490  4565.815
 491  4829.696
 492  5171.174
 493  4998.543
 494  4918.335
 495  5095.12
 496  5049.021
 497  5159.851
 498  4735.163
 499  4736.171
 500  5008.422
 501  5330.17
 502  5444.752
 503  5574.571
 504  5913.495
 505  6165.347
 506  5861.584
 507  5197.801
 508  4639.505
 509  4254.888
 510  4369.937
 511  4226.23
