# Input file       =  1184746163.112572_cleaned.dat
# Candidate        =  PSR_0332+5434
# Telescope        =  AR
# Epoch_topo       =  57956.340070747363
# Epoch_bary       =  N/A
# T_sample         =  0.002
# Data Folded      =  7340032
# Data Avg         =  0.205717674636357
# Data StdDev      =  4.46655810650482 
# Profile Bins     =  1024
# Profile Avg      =  1474.62377932921 
# Profile StdDev   =  378.156862919401 
# Reduced chi-sqr  =  1.032
# Prob(Noise)      <  0.234   (~0.7 sigma)
# P_topo (ms)      =  714.474691776026  +/- 0.000881
# P'_topo (s/s)    =  -0                +/- 4.65e-10
# P''_topo (s/s^2) =  0                 +/- 2.05e-13
# P_bary (ms)      =  N/A
# P'_bary (s/s)    =  N/A
# P''_bary (s/s^2) =  N/A
# P_orb (s)        =  N/A
# asin(i)/c (s)    =  N/A
# eccentricity     =  N/A
# w (rad)          =  N/A
# T_peri           =  N/A
######################################################
   0  1357.508
   1  1384.8
   2  1406.442
   3  1415.879
   4  1337.761
   5  1328.525
   6  1279.229
   7  1311.199
   8  1266.726
   9  1359.067
  10  1415.56
  11  1531.25
  12  1571.319
  13  1599.007
  14  1527.162
  15  1384.418
  16  1337.562
  17  1389.755
  18  1485.655
  19  1510.282
  20  1529.471
  21  1488.788
  22  1475.546
  23  1376.515
  24  1232.704
  25  1251.796
  26  1249.53
  27  1327.15
  28  1356.451
  29  1442.884
  30  1572.572
  31  1530.362
  32  1498.928
  33  1333.624
  34  1211.075
  35  1111.585
  36  1114.773
  37  1040.731
  38  1029.408
  39  1199.793
  40  1365.109
  41  1434.691
  42  1411.186
  43  1358.91
  44  1281.664
  45  1323.935
  46  1279.561
  47  1298.551
  48  1260.946
  49  1351.075
  50  1402.926
  51  1435.906
  52  1414.174
  53  1350.059
  54  1274.1
  55  1304.689
  56  1420.09
  57  1550.966
  58  1529.768
  59  1394.979
  60  1330.564
  61  1234.165
  62  1286.102
  63  1320.907
  64  1396.531
  65  1325.597
  66  1404.895
  67  1598.127
  68  1609.513
  69  1521.813
  70  1441.238
  71  1434.958
  72  1396.583
  73  1275.998
  74  1251.129
  75  1424.751
  76  1486.427
  77  1547.467
  78  1434.724
  79  1489.111
  80  1461.541
  81  1418.103
  82  1306.955
  83  1387.96
  84  1453.264
  85  1523.571
  86  1527.314
  87  1566.232
  88  1509.611
  89  1448.633
  90  1479.747
  91  1448.794
  92  1521.628
  93  1587.653
  94  1663.84
  95  1514.164
  96  1372.26
  97  1243.474
  98  1289.792
  99  1380.767
 100  1531.238
 101  1528.224
 102  1532.646
 103  1485.901
 104  1528.526
 105  1555.174
 106  1601.228
 107  1589.354
 108  1569.854
 109  1595.223
 110  1579.812
 111  1519.531
 112  1463.573
 113  1382.726
 114  1406.209
 115  1424.37
 116  1514.348
 117  1474.559
 118  1470.325
 119  1643.198
 120  1577.321
 121  1441.599
 122  1454.98
 123  1644.076
 124  1718.88
 125  1603.624
 126  1573.934
 127  1486.663
 128  1443.725
 129  1407.346
 130  1478.221
 131  1482.799
 132  1451.724
 133  1422.821
 134  1367.016
 135  1370.819
 136  1432.906
 137  1485.65
 138  1404.157
 139  1363.139
 140  1327.8
 141  1282.286
 142  1268.125
 143  1319.734
 144  1316.569
 145  1231.625
 146  1193.956
 147  1256.84
 148  1189.914
 149  1171.883
 150  1104.39
 151  1194.214
 152  1288.473
 153  1308.259
 154  1258.118
 155  1232.35
 156  1178.268
 157  1105.351
 158  1090.848
 159  1104.975
 160  1330.806
 161  1363.934
 162  1372.306
 163  1094.241
 164  1028.874
 165  1044.778
 166  1074.175
 167  1049.683
 168  1066.707
 169  1189.54
 170  1210.756
 171  1165.615
 172  1222.564
 173  1383.859
 174  1448.788
 175  1357.771
 176  1242.989
 177  1221.916
 178  1243.64
 179  1316.142
 180  1312.173
 181  1264.84
 182  1148.943
 183  1182.902
 184  1230.254
 185  1256.135
 186  1213.598
 187  1221.803
 188  1180.427
 189  1097.215
 190  1145.408
 191  1251.472
 192  1231.919
 193  1172.075
 194  1007.003
 195  1025.475
 196  1019.418
 197  1165.331
 198  1176.745
 199  1203.131
 200  1236.205
 201  1328.769
 202  1397.79
 203  1382.248
 204  1325.614
 205  1286.104
 206  1290.601
 207  1275.003
 208  1282.841
 209  1279.235
 210  1267.486
 211  1203.088
 212  1282.873
 213  1296.255
 214  1290.861
 215  1282.253
 216  1381.477
 217  1496.528
 218  1481.194
 219  1466.087
 220  1406.048
 221  1359.83
 222  1436.324
 223  1559.136
 224  1643.285
 225  1418.169
 226  1286.338
 227  1302.459
 228  1412.341
 229  1363.637
 230  1386.546
 231  1540.585
 232  1624.052
 233  1543.136
 234  1448.575
 235  1477.744
 236  1475.219
 237  1389.709
 238  1396.58
 239  1435.033
 240  1474.684
 241  1434.34
 242  1509.871
 243  1564.235
 244  1526.31
 245  1477.458
 246  1567.78
 247  1614.056
 248  1584.958
 249  1451.908
 250  1472.367
 251  1536.477
 252  1629.223
 253  1665.228
 254  1598.191
 255  1503.002
 256  1437.959
 257  1408.083
 258  1446.015
 259  1530.265
 260  1669.145
 261  1659.659
 262  1603.258
 263  1500.291
 264  1561.117
 265  1583.985
 266  1706.415
 267  1657.909
 268  1712.158
 269  1538.81
 270  1527.755
 271  1488.027
 272  1644.162
 273  1652.89
 274  1599.921
 275  1526.162
 276  1656.097
 277  1720.808
 278  1782.288
 279  1558.274
 280  1589.64
 281  1597.869
 282  1732.733
 283  1740.908
 284  1807.322
 285  1710.449
 286  1719.2
 287  1662.749
 288  1752.898
 289  1569.427
 290  1518.393
 291  1362.549
 292  1525.119
 293  1728.86
 294  1888.162
 295  1856.688
 296  1723.045
 297  1747.212
 298  1805.824
 299  1707.387
 300  1663.068
 301  1624.213
 302  1673.141
 303  1575.319
 304  1583.717
 305  1640.791
 306  1588.676
 307  1519.442
 308  1514.286
 309  1482.931
 310  1405.677
 311  1317.798
 312  1308.275
 313  1436.542
 314  1548.028
 315  1574.265
 316  1534.062
 317  1504.354
 318  1465.597
 319  1363.104
 320  1331.191
 321  1294.518
 322  1341.196
 323  1370.286
 324  1525.359
 325  1620.059
 326  1717.613
 327  1678.531
 328  1698.257
 329  1731.7
 330  1702.351
 331  1624.315
 332  1533.015
 333  1614.679
 334  1556.655
 335  1457.349
 336  1523.632
 337  1615.836
 338  1658.069
 339  1579.586
 340  1549.002
 341  1549.079
 342  1557.697
 343  1493.292
 344  1446.068
 345  1333.73
 346  1387.174
 347  1432.891
 348  1459.038
 349  1332.198
 350  1424.4
 351  1578.622
 352  1616.02
 353  1668.782
 354  1699.807
 355  1678.577
 356  1555.563
 357  1533.773
 358  1624.952
 359  1652.911
 360  1622.427
 361  1484.369
 362  1346.114
 363  1420.09
 364  1546.251
 365  1597.562
 366  1557.871
 367  1548.208
 368  1598.05
 369  1574.511
 370  1482.523
 371  1428.585
 372  1467.18
 373  1521.314
 374  1556.361
 375  1484.479
 376  1357.055
 377  1317.708
 378  1366.459
 379  1455.781
 380  1425.113
 381  1358.006
 382  1351.553
 383  1582.843
 384  1668.116
 385  1657.785
 386  1577.853
 387  1485.364
 388  1498.23
 389  1391.229
 390  1376.115
 391  1433.108
 392  1471.241
 393  1524.963
 394  1498.327
 395  1517.724
 396  1472.995
 397  1329.289
 398  1350.136
 399  1419.202
 400  1552.01
 401  1570.626
 402  1600.994
 403  1581.43
 404  1478.515
 405  1450.19
 406  1408.61
 407  1376.195
 408  1291.109
 409  1381.16
 410  1453.103
 411  1530.16
 412  1478.755
 413  1375.497
 414  1314.628
 415  1262.184
 416  1302.036
 417  1421.593
 418  1498.191
 419  1531.048
 420  1448.458
 421  1404.084
 422  1339.38
 423  1404.055
 424  1400.094
 425  1335.161
 426  1318.477
 427  1372.351
 428  1418.792
 429  1303.473
 430  1393.817
 431  1410.778
 432  1500.295
 433  1481.743
 434  1517.584
 435  1404.739
 436  1312.91
 437  1285.046
 438  1386.451
 439  1427.671
 440  1298.922
 441  1250.7
 442  1302.021
 443  1330.167
 444  1399.433
 445  1320.425
 446  1316.793
 447  1305.127
 448  1406.739
 449  1502.278
 450  1520.167
 451  1612.792
 452  1530.979
 453  1379.62
 454  1248.473
 455  1229.738
 456  1194.997
 457  1112.458
 458  1130.379
 459  1148.267
 460  1143.366
 461  1131.602
 462  1255.015
 463  1310.661
 464  1302.772
 465  1252.624
 466  1363.88
 467  1391.246
 468  1345.721
 469  1353.445
 470  1268.502
 471  1243.618
 472  1291.494
 473  1255.396
 474  1217.247
 475  1178.588
 476  1342.499
 477  1436.716
 478  1476.554
 479  1434.111
 480  1360.834
 481  1377.166
 482  1286.336
 483  1298.822
 484  1297.285
 485  1370.198
 486  1308.892
 487  1302.609
 488  1321.041
 489  1350.628
 490  1383.932
 491  1416.959
 492  1349.857
 493  1304.553
 494  1341.171
 495  1324.849
 496  1220.524
 497  1131.979
 498  1157.9
 499  1275.953
 500  1235.278
 501  1104.353
 502  1122.414
 503  1158.153
 504  1155.411
 505  1235.273
 506  1226.948
 507  1249.167
 508  1178.919
 509  1200.614
 510  1123.54
 511  1106.289
 512  1069.235
 513  1143.373
 514  1292.232
 515  1490.571
 516  1548.02
 517  1475.172
 518  1289.301
 519  1152.699
 520  1136.186
 521  1199.283
 522  1183.062
 523  1163.961
 524  1144.186
 525  1125.032
 526  1145.276
 527  1265.375
 528  1315.772
 529  1338.526
 530  1428.128
 531  1493.538
 532  1547.982
 533  1372.323
 534  1287.826
 535  1147.388
 536  1093.685
 537  1001.489
 538  1047.583
 539  1272.007
 540  1340.643
 541  1279.669
 542  1209.595
 543  1179.866
 544  1191.499
 545  1235.037
 546  1336.633
 547  1379.724
 548  1330.473
 549  1350.364
 550  1444.04
 551  1401.122
 552  1289.417
 553  1300.467
 554  1403.216
 555  1359.775
 556  1292.629
 557  1254.997
 558  1207.526
 559  1190.954
 560  1180.233
 561  1193.377
 562  1191.513
 563  1256.977
 564  1356.251
 565  1351
 566  1362.654
 567  1411.021
 568  1440.546
 569  1440.708
 570  1419.782
 571  1532.109
 572  1584.999
 573  1462.83
 574  1455.238
 575  1479.993
 576  1429.477
 577  1314.487
 578  1218.722
 579  1264.526
 580  1283.697
 581  1307.056
 582  1329.996
 583  1393.066
 584  1367.327
 585  1331.945
 586  1245.719
 587  1312.758
 588  1276.337
 589  1270.004
 590  1237.58
 591  1248.75
 592  1227.078
 593  1266.444
 594  1256.587
 595  1289.475
 596  1200.98
 597  1124.423
 598  1132.249
 599  1257.804
 600  1241.234
 601  1192.939
 602  1102.417
 603  1083.419
 604  1031.393
 605  1095.955
 606  1155.911
 607  1201.618
 608  1333.068
 609  1362.023
 610  1381.446
 611  1319.842
 612  1357.709
 613  1279.925
 614  1178.074
 615  1023.655
 616  1015.371
 617  1152.184
 618  1226.236
 619  1340.851
 620  1312.323
 621  1225.095
 622  1063.399
 623  1048.503
 624  1215.467
 625  1428.363
 626  1430.862
 627  1337.427
 628  1296.063
 629  1431.87
 630  1362.346
 631  1253.911
 632  1237.439
 633  1350.079
 634  1304.37
 635  1218.172
 636  1209.968
 637  1364.772
 638  1458.859
 639  1388.499
 640  1431.154
 641  1524.845
 642  1574.853
 643  1590.765
 644  1745.911
 645  2013.466
 646  2063.113
 647  2170.542
 648  2313.91
 649  2470.251
 650  2449.809
 651  2483.218
 652  2520.208
 653  2447.747
 654  2238.854
 655  2028.571
 656  1854.885
 657  1700.494
 658  1671.557
 659  1561.493
 660  1520.89
 661  1467.242
 662  1436.643
 663  1408.463
 664  1467.824
 665  1596.79
 666  1642.424
 667  1622.255
 668  1644.09
 669  1579.644
 670  1701.146
 671  1665.663
 672  1671.503
 673  1648.009
 674  1688.641
 675  1713.747
 676  1667.699
 677  1646.672
 678  1575.946
 679  1542.381
 680  1477.025
 681  1607.073
 682  1726.746
 683  1790.241
 684  1789.269
 685  1753.555
 686  1653.833
 687  1554.396
 688  1549.272
 689  1619.747
 690  1512.289
 691  1509.748
 692  1524.351
 693  1525.979
 694  1438.503
 695  1327.828
 696  1483.924
 697  1650.84
 698  1753.213
 699  1673.822
 700  1728.284
 701  1796.363
 702  1891.556
 703  1871.471
 704  1842.259
 705  1803.469
 706  1801.719
 707  1786.111
 708  1722.011
 709  1719.221
 710  1747.235
 711  1693.797
 712  1620.234
 713  1693.483
 714  1715.381
 715  1756.993
 716  1733.135
 717  1804.974
 718  1657.777
 719  1556.634
 720  1455.291
 721  1525.006
 722  1582.144
 723  1528.091
 724  1612.699
 725  1650.279
 726  1642.001
 727  1432.724
 728  1348.438
 729  1445.852
 730  1507.449
 731  1425.767
 732  1199.812
 733  1149.471
 734  1267.032
 735  1411.761
 736  1378.793
 737  1283.075
 738  1297.962
 739  1317.349
 740  1289.887
 741  1210.788
 742  1150.881
 743  1193.195
 744  1217.579
 745  1313.774
 746  1357.101
 747  1474.05
 748  1440.3
 749  1392.954
 750  1399.881
 751  1618.816
 752  1848.855
 753  1826.256
 754  1680.498
 755  1549.858
 756  1517.633
 757  1460.641
 758  1444.302
 759  1453.041
 760  1514.426
 761  1673.741
 762  1749.594
 763  1723.025
 764  1599.732
 765  1617.971
 766  1757.999
 767  1828.312
 768  1664.033
 769  1496.466
 770  1514.209
 771  1609.652
 772  1629.028
 773  1571.842
 774  1604.733
 775  1567.07
 776  1530.867
 777  1575.356
 778  1590.516
 779  1696.302
 780  1650.344
 781  1624.217
 782  1709.801
 783  1650.849
 784  1707.639
 785  1690.174
 786  1716.832
 787  1734.202
 788  1733.473
 789  1754.72
 790  1628
 791  1637.441
 792  1616.099
 793  1729.891
 794  1694.834
 795  1749.875
 796  1716.255
 797  1773.647
 798  1788.312
 799  1811.317
 800  1766.422
 801  1713.262
 802  1618.574
 803  1642.08
 804  1536.083
 805  1555.559
 806  1495.919
 807  1672.852
 808  1773.971
 809  1948.132
 810  1942.831
 811  1824.562
 812  1728.251
 813  1626.23
 814  1681.25
 815  1684.24
 816  1764.827
 817  1909.417
 818  1959.877
 819  1903.547
 820  1645.008
 821  1599.166
 822  1548.844
 823  1692.765
 824  1719.078
 825  1800.407
 826  1807.088
 827  1782.431
 828  1715.994
 829  1803.743
 830  1847.074
 831  1811.285
 832  1786.479
 833  1779.715
 834  1740.516
 835  1746.263
 836  1909.433
 837  2050.352
 838  2048.651
 839  1892.719
 840  1834.64
 841  1671.704
 842  1641.189
 843  1668.251
 844  1825.101
 845  1834.44
 846  1756.615
 847  1716.78
 848  1776.359
 849  1848.715
 850  1987.507
 851  1998.217
 852  1993.905
 853  2001.327
 854  2095.727
 855  1950.279
 856  1731.713
 857  1715.829
 858  1775.474
 859  1925.177
 860  1928.971
 861  2026.968
 862  1933.897
 863  1831.484
 864  1805.786
 865  1803.003
 866  1729.664
 867  1700.958
 868  1817.964
 869  1826.139
 870  1797.061
 871  1676.194
 872  1668.492
 873  1651.829
 874  1616.842
 875  1605.423
 876  1638.002
 877  1646.138
 878  1636.401
 879  1630.83
 880  1685.198
 881  1708.167
 882  1677.798
 883  1710.403
 884  1639.249
 885  1562.341
 886  1561.751
 887  1547.597
 888  1592.691
 889  1664.882
 890  1699.541
 891  1628.603
 892  1540.639
 893  1536.043
 894  1610.146
 895  1643.034
 896  1711.305
 897  1683.389
 898  1623.295
 899  1430.052
 900  1466.454
 901  1503.656
 902  1575.459
 903  1519.976
 904  1389.453
 905  1380.835
 906  1397.303
 907  1412.829
 908  1469.198
 909  1652.246
 910  1655.37
 911  1604.808
 912  1556.949
 913  1613.694
 914  1656.826
 915  1653.112
 916  1671.926
 917  1747.436
 918  1739.381
 919  1814.262
 920  1558.001
 921  1602.586
 922  1594.792
 923  1722.398
 924  1654.495
 925  1596.458
 926  1594.522
 927  1511.228
 928  1540.531
 929  1479.202
 930  1464.366
 931  1446.523
 932  1517.346
 933  1600.397
 934  1662.548
 935  1558.275
 936  1565.794
 937  1476.515
 938  1435.594
 939  1295.356
 940  1323.238
 941  1339.523
 942  1402.61
 943  1483.844
 944  1482.319
 945  1512.963
 946  1517.358
 947  1550.69
 948  1396.628
 949  1325.906
 950  1279.017
 951  1307.022
 952  1314.961
 953  1309.469
 954  1334.101
 955  1318.417
 956  1364.887
 957  1424.246
 958  1632.016
 959  1741.035
 960  1661.381
 961  1416.781
 962  1452.549
 963  1474.542
 964  1531.609
 965  1470.525
 966  1460.791
 967  1593.949
 968  1671.763
 969  1675.309
 970  1682.514
 971  1760.319
 972  1673.99
 973  1459.9
 974  1341.278
 975  1347.134
 976  1513.516
 977  1589.577
 978  1574.15
 979  1435.095
 980  1329.446
 981  1414.152
 982  1461.867
 983  1470.269
 984  1417.186
 985  1342.358
 986  1320.648
 987  1306.664
 988  1283.911
 989  1253.223
 990  1396.65
 991  1482.099
 992  1474.743
 993  1342.649
 994  1310.221
 995  1381.059
 996  1460.92
 997  1483.751
 998  1489.966
 999  1478.395
1000  1460.431
1001  1460.863
1002  1491.213
1003  1502.75
1004  1486.692
1005  1519.136
1006  1537.222
1007  1472.974
1008  1410.058
1009  1516.98
1010  1483.093
1011  1413.024
1012  1470.287
1013  1487.454
1014  1380.696
1015  1321.16
1016  1417.87
1017  1550.325
1018  1526.709
1019  1507.784
1020  1476.219
1021  1457.605
1022  1432.331
1023  1353.99
