# Input file       =  1184832292.10788_cleaned.dat
# Candidate        =  PSR_0332+5434
# Telescope        =  AR
# Epoch_topo       =  57957.336934118983
# Epoch_bary       =  N/A
# T_sample         =  0.002
# Data Folded      =  7340032
# Data Avg         =  0.0428424889621399
# Data StdDev      =  1.00047456118175 
# Profile Bins     =  512
# Profile Avg      =  614.106639665703 
# Profile StdDev   =  119.789857028003 
# Reduced chi-sqr  =  1.500
# Prob(Noise)      <  1.6e-12   (~7.0 sigma)
# P_topo (ms)      =  714.474124036186  +/- 0.000239
# P'_topo (s/s)    =  -0                +/- 1.26e-10
# P''_topo (s/s^2) =  0                 +/- 5.57e-14
# P_bary (ms)      =  N/A
# P'_bary (s/s)    =  N/A
# P''_bary (s/s^2) =  N/A
# P_orb (s)        =  N/A
# asin(i)/c (s)    =  N/A
# eccentricity     =  N/A
# w (rad)          =  N/A
# T_peri           =  N/A
######################################################
   0  1129.399
   1  1063.683
   2  1008.305
   3  780.1382
   4  694.8032
   5  673.8572
   6  632.6509
   7  566.1357
   8  566.9996
   9  572.7546
  10  601.2302
  11  615.0365
  12  641.2345
  13  634.7001
  14  602.3801
  15  562.9208
  16  587.8571
  17  545.398
  18  453.2186
  19  411.662
  20  513.6087
  21  636.9437
  22  574.6231
  23  525.6727
  24  512.1389
  25  422.0458
  26  444.1353
  27  439.7092
  28  422.7912
  29  432.8558
  30  574.473
  31  522.4421
  32  580.5859
  33  644.9025
  34  576.6666
  35  497.3446
  36  642.7338
  37  643.3126
  38  648.9617
  39  631.1887
  40  565.6948
  41  552.6942
  42  596.2018
  43  552.0405
  44  512.1735
  45  509.2315
  46  516.3067
  47  480.9538
  48  442.3492
  49  529.3419
  50  645.5315
  51  639.4569
  52  522.6742
  53  462.5205
  54  538.4929
  55  583.12
  56  528.7
  57  533.4235
  58  407.9417
  59  380.5027
  60  497.6464
  61  521.7154
  62  435.3927
  63  549.0585
  64  563.1506
  65  479.6953
  66  500.5325
  67  583.7288
  68  582.0677
  69  579.4197
  70  524.6014
  71  508.4799
  72  485.9696
  73  538.4943
  74  437.0327
  75  435.9166
  76  478.0538
  77  563.0798
  78  559.2841
  79  526.6093
  80  544.2404
  81  491.7129
  82  480.1097
  83  521.7274
  84  588.8541
  85  512.3594
  86  464.5251
  87  468.0782
  88  463.196
  89  609.8798
  90  638.7487
  91  608.1989
  92  651.4055
  93  578.8965
  94  568.2358
  95  596.8952
  96  588.937
  97  579.8467
  98  718.9407
  99  688.7896
 100  583.1937
 101  572.11
 102  527.6721
 103  583.9625
 104  441.6368
 105  496.3807
 106  658.382
 107  628.9631
 108  520.1199
 109  524.0004
 110  556.6779
 111  538.3325
 112  490.0713
 113  587.2048
 114  697.7251
 115  687.8662
 116  706.2872
 117  631.6862
 118  526.5959
 119  507.8789
 120  601.8542
 121  632.6685
 122  628.971
 123  615.9696
 124  541.5864
 125  489.6705
 126  552.087
 127  624.4342
 128  547.0193
 129  511.6376
 130  513.8647
 131  591.6364
 132  464.9925
 133  399.3699
 134  587.7567
 135  485.4165
 136  333.5646
 137  515.3881
 138  647.8118
 139  749.3688
 140  684.3671
 141  633.6584
 142  645.4171
 143  618.9996
 144  457.9114
 145  490.0201
 146  626.3463
 147  687.7401
 148  629.4855
 149  620.3989
 150  621.876
 151  575.1848
 152  521.3707
 153  636.0777
 154  605.5195
 155  710.4836
 156  714.4512
 157  620.0759
 158  618.2193
 159  679.7921
 160  695.18
 161  705.7288
 162  811.2788
 163  752.8451
 164  658.5081
 165  639.0274
 166  756.503
 167  751.2228
 168  729.1959
 169  660.0482
 170  517.9534
 171  545.5981
 172  614.5607
 173  610.944
 174  626.2138
 175  665.5716
 176  595.477
 177  565.0964
 178  594.7989
 179  599.4029
 180  602.9269
 181  489.9625
 182  565.6335
 183  643.1331
 184  598.3531
 185  605.9417
 186  690.7258
 187  650.576
 188  474.656
 189  514.2208
 190  546.8778
 191  574.9243
 192  591.2035
 193  553.3414
 194  528.4407
 195  450.1724
 196  441.6878
 197  429.5355
 198  490.8998
 199  585.1237
 200  602.6083
 201  645.0624
 202  587.977
 203  607.8626
 204  655.6649
 205  622.7962
 206  620.8776
 207  580.899
 208  578.7422
 209  592.5966
 210  684.0289
 211  726.5766
 212  717.7639
 213  703.451
 214  758.7476
 215  717.448
 216  666.9763
 217  610.7599
 218  545.9792
 219  776.0178
 220  728.7633
 221  701.9128
 222  674.855
 223  602.0099
 224  559.5861
 225  507.4373
 226  580.1689
 227  664.3521
 228  648.6277
 229  443.9147
 230  428.6054
 231  488.8602
 232  560.3333
 233  565.8533
 234  582.4075
 235  574.8384
 236  496.7287
 237  507.6189
 238  672.335
 239  669.6482
 240  536.0402
 241  521.3601
 242  546.9913
 243  559.9758
 244  492.6451
 245  483.9435
 246  528.7299
 247  397.7519
 248  454.39
 249  593.0016
 250  543.3975
 251  521.5025
 252  638.6854
 253  582.5407
 254  523.4467
 255  553.9305
 256  600.4697
 257  505.5194
 258  481.1357
 259  495.7025
 260  526.5147
 261  538.2621
 262  571.1204
 263  706.3849
 264  637.8527
 265  616.36
 266  612.6921
 267  482.9727
 268  541.2689
 269  546.9128
 270  665.2534
 271  667.5133
 272  583.9745
 273  593.4976
 274  531.751
 275  451.0047
 276  497.964
 277  606.5953
 278  546.905
 279  516.3331
 280  618.7249
 281  624.5366
 282  601.3754
 283  685.1464
 284  559.2509
 285  486.4185
 286  652.7515
 287  745.4445
 288  705.1933
 289  641.2037
 290  605.2385
 291  605.0778
 292  558.2344
 293  615.3501
 294  690.8269
 295  696.9451
 296  624.6635
 297  636.3282
 298  661.4553
 299  622.4673
 300  500.9427
 301  490.9836
 302  536.5836
 303  594.0895
 304  559.6532
 305  586.4859
 306  625.6018
 307  585.8839
 308  550.9975
 309  591.097
 310  676.3715
 311  564.1301
 312  447.0364
 313  565.33
 314  599.6216
 315  687.791
 316  692.6669
 317  703.5387
 318  547.9862
 319  584.5284
 320  697.0413
 321  569.136
 322  566.6687
 323  741.5651
 324  723.4771
 325  611.17
 326  566.2009
 327  614.6827
 328  633.8045
 329  722.7481
 330  798.3842
 331  703.2088
 332  646.851
 333  588.7153
 334  693.6523
 335  757.5525
 336  840.5625
 337  859.5891
 338  805.7432
 339  786.199
 340  717.2669
 341  814.4609
 342  822.6768
 343  857.4077
 344  863.5908
 345  839.9709
 346  874.274
 347  755.5783
 348  791.4485
 349  701.2471
 350  655.8974
 351  656.9749
 352  693.3721
 353  717.3052
 354  719.0651
 355  702.3638
 356  776.0377
 357  748.3264
 358  624.4583
 359  645.3408
 360  566.6716
 361  558.1282
 362  711.5378
 363  618.003
 364  554.8861
 365  566.7326
 366  614.7211
 367  671.4624
 368  666.8095
 369  533.5801
 370  535.9738
 371  606.7739
 372  621.527
 373  566.4507
 374  585.3686
 375  624.8829
 376  677.1436
 377  560.8488
 378  529.719
 379  620.322
 380  701.0191
 381  736.0317
 382  722.144
 383  730.8094
 384  631.4058
 385  678.0582
 386  672.4832
 387  658.7233
 388  697.976
 389  774.1143
 390  673.6382
 391  693.4191
 392  681.1316
 393  791.2525
 394  774.2527
 395  673.1652
 396  637.3844
 397  649.5482
 398  676.2495
 399  731.0255
 400  755.6505
 401  771.9254
 402  645.2806
 403  665.1163
 404  679.4937
 405  661.6945
 406  669.1377
 407  596.7085
 408  621.8993
 409  585.5122
 410  654.2953
 411  655.1771
 412  631.8869
 413  704.2561
 414  757.8526
 415  675.742
 416  617.626
 417  682.4124
 418  596.1192
 419  676.1228
 420  732.0588
 421  674.8184
 422  527.3903
 423  652.2557
 424  673.6723
 425  599.321
 426  631.7477
 427  705.9277
 428  625.0386
 429  585.6804
 430  742.6729
 431  683.408
 432  545.478
 433  626.1367
 434  589.4143
 435  571.259
 436  540.3608
 437  543.9853
 438  666.543
 439  683.3405
 440  528.1674
 441  612.4603
 442  733.2261
 443  636.3796
 444  641.6945
 445  499.3759
 446  595.269
 447  686.1174
 448  697.5013
 449  629.309
 450  682.2382
 451  830.8167
 452  835.8691
 453  669.5227
 454  704.1724
 455  650.2759
 456  698.1087
 457  780.4899
 458  777.3738
 459  779.3588
 460  671.838
 461  631.8881
 462  619.279
 463  674.1041
 464  646.0089
 465  548.2752
 466  572.6411
 467  557.7445
 468  543.585
 469  494.9957
 470  556.2746
 471  675.1478
 472  523.2601
 473  522.0182
 474  533.3192
 475  518.9879
 476  525.877
 477  614.7487
 478  549.585
 479  648.6946
 480  699.7678
 481  610.8021
 482  642.693
 483  646.8585
 484  573.0751
 485  586.461
 486  660.6145
 487  658.3884
 488  647.8948
 489  600.5071
 490  538.0577
 491  551.2676
 492  572.8089
 493  722.3047
 494  691.0569
 495  666.8171
 496  536.1896
 497  479.9492
 498  654.0482
 499  558.629
 500  565.6589
 501  664.4777
 502  556.172
 503  733.1846
 504  716.9859
 505  698.5087
 506  642.7253
 507  640.6603
 508  863.1723
 509  1059.832
 510  1232.766
 511  1211.457
