# Input file       =  1184989753.099401_cleaned.dat
# Candidate        =  PSR_0332+5434
# Telescope        =  AR
# Epoch_topo       =  57959.159399298624
# Epoch_bary       =  N/A
# T_sample         =  0.002
# Data Folded      =  7340032
# Data Avg         =  0.196988764951779
# Data StdDev      =  4.11630201363752 
# Profile Bins     =  1024
# Profile Avg      =  1411.79737243176 
# Profile StdDev   =  348.502766378217 
# Reduced chi-sqr  =  0.936
# Prob(Noise)      <  0.929   (~0.0 sigma)
# P_topo (ms)      =  714.472794114062  +/- 0.000127
# P'_topo (s/s)    =  -0                +/- 6.68e-11
# P''_topo (s/s^2) =  0                 +/- 2.95e-14
# P_bary (ms)      =  N/A
# P'_bary (s/s)    =  N/A
# P''_bary (s/s^2) =  N/A
# P_orb (s)        =  N/A
# asin(i)/c (s)    =  N/A
# eccentricity     =  N/A
# w (rad)          =  N/A
# T_peri           =  N/A
######################################################
   0  1497.047
   1  1481.895
   2  1526.333
   3  1405.781
   4  1382.45
   5  1536.178
   6  1684.181
   7  1690.171
   8  1555.723
   9  1648.856
  10  1682.672
  11  1635.094
  12  1322.217
  13  1147.893
  14  1103.258
  15  1308.422
  16  1406.62
  17  1366.376
  18  1246.228
  19  1376.702
  20  1472.337
  21  1469.332
  22  1438.441
  23  1348.063
  24  1293.861
  25  1255.689
  26  1259.322
  27  1257.076
  28  1235.282
  29  1322.138
  30  1473.767
  31  1379.564
  32  1343.795
  33  1296.028
  34  1362.957
  35  1310.617
  36  1210.444
  37  1261.886
  38  1278.434
  39  1294.411
  40  1364.172
  41  1488.088
  42  1540.367
  43  1470.605
  44  1438.53
  45  1396.688
  46  1448.725
  47  1324.922
  48  1354.948
  49  1268.543
  50  1323.221
  51  1294.627
  52  1317.568
  53  1325.736
  54  1229.186
  55  1043.225
  56  1033.018
  57  1034.581
  58  1088.676
  59  1150.822
  60  1173.148
  61  1025.393
  62  896.841
  63  998.9922
  64  1212.704
  65  1314.914
  66  1336.187
  67  1288.385
  68  1241.381
  69  1049.85
  70  1058.206
  71  1181.462
  72  1120.497
  73  1049.926
  74  1015.199
  75  1118.559
  76  1127.961
  77  1166.589
  78  1257.172
  79  1412.826
  80  1511.008
  81  1499.794
  82  1326.977
  83  1145.067
  84  1063.434
  85  1086.017
  86  1103.23
  87  1183.547
  88  1242.167
  89  1283.989
  90  1244.57
  91  1280.309
  92  1450.84
  93  1518.868
  94  1339.009
  95  1256.09
  96  1149.056
  97  1285.449
  98  1247.214
  99  1299.185
 100  1270.78
 101  1382.995
 102  1468.06
 103  1525.25
 104  1531.746
 105  1509.438
 106  1474.371
 107  1376.078
 108  1328.397
 109  1310.362
 110  1368.76
 111  1498.392
 112  1508.849
 113  1387.688
 114  1225.872
 115  1356.697
 116  1408.577
 117  1540.365
 118  1463.537
 119  1373.78
 120  1192.039
 121  1270.547
 122  1258.385
 123  1378.646
 124  1391.402
 125  1418.063
 126  1364.27
 127  1288.65
 128  1216.745
 129  1165.729
 130  1217.327
 131  1259.411
 132  1226.605
 133  1151.197
 134  1172.672
 135  1296.425
 136  1430.562
 137  1526.873
 138  1596.532
 139  1585.149
 140  1496.95
 141  1470.564
 142  1508.781
 143  1458.175
 144  1465.087
 145  1502.567
 146  1571.037
 147  1562.552
 148  1547.309
 149  1713.573
 150  1622.648
 151  1604.51
 152  1508.832
 153  1600.214
 154  1598.1
 155  1620.172
 156  1621.927
 157  1596.449
 158  1559.123
 159  1605.419
 160  1597.538
 161  1517.015
 162  1395.581
 163  1367.374
 164  1485.664
 165  1603.048
 166  1685.174
 167  1642.127
 168  1618.203
 169  1663.363
 170  1534.672
 171  1526.522
 172  1511.554
 173  1652.357
 174  1674.62
 175  1529.608
 176  1475.805
 177  1358.862
 178  1474.401
 179  1504.732
 180  1458.366
 181  1319.926
 182  1304.098
 183  1392.241
 184  1292.557
 185  1270.463
 186  1376.272
 187  1434.37
 188  1545.906
 189  1529.636
 190  1567.409
 191  1555.531
 192  1550.235
 193  1548.484
 194  1571.077
 195  1692.856
 196  1724.82
 197  1670.316
 198  1673.224
 199  1656.48
 200  1557.739
 201  1520.885
 202  1517.643
 203  1495.542
 204  1519.825
 205  1579.685
 206  1724.377
 207  1724.736
 208  1704.661
 209  1555.345
 210  1517.979
 211  1526.072
 212  1668.665
 213  1732.928
 214  1810.056
 215  1720.269
 216  1662.945
 217  1613.491
 218  1587.223
 219  1637.621
 220  1588.848
 221  1469.206
 222  1354.178
 223  1215.783
 224  1300.904
 225  1495.977
 226  1504.93
 227  1473.686
 228  1376.435
 229  1546.381
 230  1488.254
 231  1456.95
 232  1453.875
 233  1507.572
 234  1568.448
 235  1532.897
 236  1475.283
 237  1412.678
 238  1368.081
 239  1532.493
 240  1589.821
 241  1677.345
 242  1711.501
 243  1764.701
 244  1675.067
 245  1560.087
 246  1482.317
 247  1461.842
 248  1520.205
 249  1643.825
 250  1731.607
 251  1592.117
 252  1476.722
 253  1336.894
 254  1348.767
 255  1275.268
 256  1307.833
 257  1408.523
 258  1544.078
 259  1534.974
 260  1410.527
 261  1416.892
 262  1545.476
 263  1600.681
 264  1485.243
 265  1483.404
 266  1580.652
 267  1681.248
 268  1662.402
 269  1451.168
 270  1328.673
 271  1291.761
 272  1419.051
 273  1473.605
 274  1445.853
 275  1429.223
 276  1517.359
 277  1674.324
 278  1710.715
 279  1664.596
 280  1547.444
 281  1507.738
 282  1401.909
 283  1508.726
 284  1478.402
 285  1477.04
 286  1457.082
 287  1552.722
 288  1486.382
 289  1499.43
 290  1420.95
 291  1397.895
 292  1545.765
 293  1547.75
 294  1589.38
 295  1372.475
 296  1454.047
 297  1446.676
 298  1482.188
 299  1471.732
 300  1427.89
 301  1416.155
 302  1429.54
 303  1448.748
 304  1433.805
 305  1348.736
 306  1354.101
 307  1354.249
 308  1418.414
 309  1307.009
 310  1098.594
 311  955.4218
 312  941.0299
 313  995.8301
 314  1089.392
 315  1173.743
 316  1243.047
 317  1335.447
 318  1275.8
 319  1341.149
 320  1314.396
 321  1336.984
 322  1213.891
 323  1213.608
 324  1232.315
 325  1358.283
 326  1442.363
 327  1546.502
 328  1557.578
 329  1528.24
 330  1574.709
 331  1560.35
 332  1442.685
 333  1318.241
 334  1261.429
 335  1357.086
 336  1372.696
 337  1340.561
 338  1349.035
 339  1352.555
 340  1431.56
 341  1519.714
 342  1545.454
 343  1519.176
 344  1367.152
 345  1259.613
 346  1344.623
 347  1461.997
 348  1514.725
 349  1433.874
 350  1352.204
 351  1409.79
 352  1547.495
 353  1683.308
 354  1689.812
 355  1491.99
 356  1328.826
 357  1224.628
 358  1240.391
 359  1362.573
 360  1498.526
 361  1491.224
 362  1336.007
 363  1228.5
 364  1395.787
 365  1504.467
 366  1491.399
 367  1361.914
 368  1309.608
 369  1240.329
 370  1152.006
 371  1168.008
 372  1181.576
 373  1147.234
 374  1118.982
 375  1324.561
 376  1420.113
 377  1434.693
 378  1398.48
 379  1444.219
 380  1471.021
 381  1424.626
 382  1289.478
 383  1283.216
 384  1220.667
 385  1220.63
 386  1131.14
 387  1087.244
 388  1085.849
 389  1190.119
 390  1421.202
 391  1490.348
 392  1503.489
 393  1384.876
 394  1342.607
 395  1263.373
 396  1276.765
 397  1305.96
 398  1343.743
 399  1355.57
 400  1346.761
 401  1395.346
 402  1391.452
 403  1425.807
 404  1350.304
 405  1356.1
 406  1344.706
 407  1441.638
 408  1450.388
 409  1441.031
 410  1267.547
 411  1310.288
 412  1397.984
 413  1578.875
 414  1517.103
 415  1556.549
 416  1526.068
 417  1528.625
 418  1418.245
 419  1443.848
 420  1386.571
 421  1354.866
 422  1337.098
 423  1452.437
 424  1447.625
 425  1492.29
 426  1466.126
 427  1575.756
 428  1529.482
 429  1556.237
 430  1426.27
 431  1306.832
 432  1184.479
 433  1090.762
 434  1097.367
 435  1206.993
 436  1344.873
 437  1308.214
 438  1285.552
 439  1288.846
 440  1410.479
 441  1376.495
 442  1359.187
 443  1314.076
 444  1156.015
 445  1044.811
 446  1074.984
 447  1273.234
 448  1348.952
 449  1433.57
 450  1500.294
 451  1476.179
 452  1345.087
 453  1233.501
 454  1306.986
 455  1202.515
 456  1133.132
 457  1104.179
 458  1282.5
 459  1326.632
 460  1275.468
 461  1327.854
 462  1414.171
 463  1429.512
 464  1470.131
 465  1435.573
 466  1535.531
 467  1569.184
 468  1608.316
 469  1479.083
 470  1205.154
 471  1161.692
 472  1199.564
 473  1370.055
 474  1357.794
 475  1379.695
 476  1315.751
 477  1386.238
 478  1210.133
 479  1185.353
 480  1100.726
 481  1103.085
 482  1084.562
 483  1171.784
 484  1376.443
 485  1486.493
 486  1534.001
 487  1410.453
 488  1356.7
 489  1243.3
 490  1237.586
 491  1175.239
 492  1063.819
 493  1015.36
 494  1100.672
 495  1121.054
 496  1193.585
 497  1168.407
 498  1366.393
 499  1454.923
 500  1592.91
 501  1440.162
 502  1388.633
 503  1344.406
 504  1372.668
 505  1301.633
 506  1316.143
 507  1301.004
 508  1249.833
 509  1083.953
 510  1038.204
 511  1128.569
 512  1216.702
 513  1259.543
 514  1305.588
 515  1391.72
 516  1302.193
 517  1111.176
 518  1130.793
 519  1125.239
 520  1186.859
 521  1361.272
 522  1415.62
 523  1428.252
 524  1304.936
 525  1350.364
 526  1447.759
 527  1397.431
 528  1268.727
 529  1267.161
 530  1407.025
 531  1558.545
 532  1515.588
 533  1443.085
 534  1340.817
 535  1258.23
 536  1224.508
 537  1249.184
 538  1312.995
 539  1448.774
 540  1483.88
 541  1558.273
 542  1423.195
 543  1432.641
 544  1319.226
 545  1483.931
 546  1531.863
 547  1605.224
 548  1592.283
 549  1632.796
 550  1582.368
 551  1435.201
 552  1448.835
 553  1541.101
 554  1616.688
 555  1534.052
 556  1522.031
 557  1589.29
 558  1466.465
 559  1395.992
 560  1384.609
 561  1313.074
 562  1286.739
 563  1289.901
 564  1563.059
 565  1610.848
 566  1686.217
 567  1596.965
 568  1711.943
 569  1664.024
 570  1758.073
 571  1697.714
 572  1621.796
 573  1389.768
 574  1358.989
 575  1348.25
 576  1303.081
 577  1253.455
 578  1321.631
 579  1598.559
 580  1808.92
 581  1759.32
 582  1630.927
 583  1418.548
 584  1409.158
 585  1306.149
 586  1337.232
 587  1335.403
 588  1266.298
 589  1248.822
 590  1218.492
 591  1289.336
 592  1219.277
 593  1184.331
 594  1220.568
 595  1127.051
 596  1169.415
 597  1295.846
 598  1486.272
 599  1391.336
 600  1207.973
 601  1195.31
 602  1294.927
 603  1283.935
 604  1165.185
 605  1208.948
 606  1156.326
 607  1246.674
 608  1299.829
 609  1336.193
 610  1203.839
 611  988.5594
 612  1105.911
 613  1250.219
 614  1334.998
 615  1117.948
 616  1191.673
 617  1293.95
 618  1342.701
 619  1343.08
 620  1255.581
 621  1284.704
 622  1133.059
 623  1076.789
 624  1078.263
 625  1144.046
 626  1256.531
 627  1234.187
 628  1278.796
 629  1239.296
 630  1210.425
 631  1116.644
 632  1099.679
 633  1121.704
 634  1204.753
 635  1180.679
 636  1063.943
 637  1058.351
 638  1125.214
 639  1408.776
 640  1561.4
 641  1533.048
 642  1404.672
 643  1360.209
 644  1454.518
 645  1598.471
 646  1803.7
 647  1910.488
 648  1866.633
 649  1927.506
 650  2069.174
 651  2318.942
 652  2257.961
 653  2266.141
 654  2258.681
 655  2195.476
 656  1866.795
 657  1523.646
 658  1321.882
 659  1194.803
 660  1022.299
 661  1107.505
 662  1175.361
 663  1268.442
 664  1250.604
 665  1384.396
 666  1408.761
 667  1358.131
 668  1327.832
 669  1452.349
 670  1473.488
 671  1423.47
 672  1426.139
 673  1376.782
 674  1365.273
 675  1382.861
 676  1366.92
 677  1383.153
 678  1427.915
 679  1569.36
 680  1573.754
 681  1529.937
 682  1475.763
 683  1413.938
 684  1200.502
 685  1138.825
 686  1301.983
 687  1445.774
 688  1412.294
 689  1381.718
 690  1484.19
 691  1582.021
 692  1496.354
 693  1496.247
 694  1381.756
 695  1343.251
 696  1225.896
 697  1337.429
 698  1442.318
 699  1379.779
 700  1309.658
 701  1236.618
 702  1326.886
 703  1424.961
 704  1582.806
 705  1607.164
 706  1456.04
 707  1380.186
 708  1352.012
 709  1331.527
 710  1298.076
 711  1352.998
 712  1517.916
 713  1579.616
 714  1576.935
 715  1606.403
 716  1557.622
 717  1438.289
 718  1314.125
 719  1412.96
 720  1443.902
 721  1482.01
 722  1510.04
 723  1565.545
 724  1558.703
 725  1546.389
 726  1654.646
 727  1690.695
 728  1712.186
 729  1537.984
 730  1464.732
 731  1333.385
 732  1357.496
 733  1350.501
 734  1478.718
 735  1492.482
 736  1475.237
 737  1383.735
 738  1558.916
 739  1669.858
 740  1666.125
 741  1617.376
 742  1499.372
 743  1381.089
 744  1371.043
 745  1449.744
 746  1644.302
 747  1601.438
 748  1616.836
 749  1697.411
 750  1781.244
 751  1657.612
 752  1606.799
 753  1533.055
 754  1475.247
 755  1384.106
 756  1376.744
 757  1456.005
 758  1411.328
 759  1371.948
 760  1373.598
 761  1453.572
 762  1464.784
 763  1507.376
 764  1479.645
 765  1562.468
 766  1464.717
 767  1355.642
 768  1393.215
 769  1481.609
 770  1615.589
 771  1670.601
 772  1821.528
 773  1752.665
 774  1603.103
 775  1418.365
 776  1372.947
 777  1257.687
 778  1293.277
 779  1304.324
 780  1475.215
 781  1593.081
 782  1720.914
 783  1778.651
 784  1827.388
 785  1747.164
 786  1647.752
 787  1679.744
 788  1675.086
 789  1644.962
 790  1656.22
 791  1752.602
 792  1603.963
 793  1517.398
 794  1617.577
 795  1787.714
 796  1846.957
 797  1768.573
 798  1724.669
 799  1677.503
 800  1687.364
 801  1638.095
 802  1524.725
 803  1408.671
 804  1451.982
 805  1488.487
 806  1600.293
 807  1753.638
 808  1809.272
 809  1758.901
 810  1609.55
 811  1534.635
 812  1575.228
 813  1682.813
 814  1641.806
 815  1498.965
 816  1238.589
 817  1311.837
 818  1345.816
 819  1585.019
 820  1601.952
 821  1607.123
 822  1568.58
 823  1455.973
 824  1311.634
 825  1306.651
 826  1334.605
 827  1525.352
 828  1651.97
 829  1639.984
 830  1552.799
 831  1491.153
 832  1700.915
 833  1808.228
 834  1791.774
 835  1699.475
 836  1633.975
 837  1647.475
 838  1620.3
 839  1583.701
 840  1692.944
 841  1680.916
 842  1687.069
 843  1757.228
 844  1802.789
 845  1777.58
 846  1619.881
 847  1548.147
 848  1406.911
 849  1303.581
 850  1309.594
 851  1300.167
 852  1324.52
 853  1313.86
 854  1404.617
 855  1473.905
 856  1542.13
 857  1515.651
 858  1509.415
 859  1413.784
 860  1254.988
 861  1278.888
 862  1344.665
 863  1445.443
 864  1442.16
 865  1430.018
 866  1347.166
 867  1349.913
 868  1495.039
 869  1540.886
 870  1565.711
 871  1451.072
 872  1447.922
 873  1397.85
 874  1430.186
 875  1394.418
 876  1385.472
 877  1481.375
 878  1597.141
 879  1573.636
 880  1502.965
 881  1369.736
 882  1325.801
 883  1296.643
 884  1409.03
 885  1510.551
 886  1562.004
 887  1606.24
 888  1773.45
 889  1875.173
 890  1857.906
 891  1723.298
 892  1694.084
 893  1701.314
 894  1616.249
 895  1595.672
 896  1643.173
 897  1605.757
 898  1447.218
 899  1319.28
 900  1545.302
 901  1537.26
 902  1501.147
 903  1352.177
 904  1354.259
 905  1266.419
 906  1271.047
 907  1431.682
 908  1611.42
 909  1368.464
 910  1283.788
 911  1284.646
 912  1450.767
 913  1344.99
 914  1215.574
 915  1210.569
 916  1164.005
 917  1161.697
 918  1188.86
 919  1235.563
 920  1196.401
 921  1262.214
 922  1317.602
 923  1430.028
 924  1344.492
 925  1325.935
 926  1422.255
 927  1370.132
 928  1370.987
 929  1238.074
 930  1241.517
 931  1221.951
 932  1264.732
 933  1327.776
 934  1312.605
 935  1328.127
 936  1344.563
 937  1439.91
 938  1443.381
 939  1398.981
 940  1324.767
 941  1332.915
 942  1291.128
 943  1387.526
 944  1337.232
 945  1237.976
 946  1288.049
 947  1366.996
 948  1501.795
 949  1395.298
 950  1415.578
 951  1259.32
 952  1153.449
 953  1122.326
 954  1088.078
 955  1216.062
 956  1340.062
 957  1464.892
 958  1412.896
 959  1421.489
 960  1508.497
 961  1416.879
 962  1355.529
 963  1303.509
 964  1253.386
 965  1100.04
 966  885.8747
 967  1024.871
 968  1105.478
 969  1214.679
 970  1253.139
 971  1341.029
 972  1385.142
 973  1300.837
 974  1138.457
 975  1132.08
 976  1206.282
 977  1115.941
 978  1057.529
 979  1004.457
 980  1143.482
 981  1116.457
 982  1154.853
 983  1111.173
 984  1113.223
 985  1125.283
 986  1240.531
 987  1289.883
 988  1316.174
 989  1237.618
 990  1339.383
 991  1424.002
 992  1392.106
 993  1223.997
 994  1275.113
 995  1229.937
 996  1291.39
 997  1221.187
 998  1282.444
 999  1269.471
1000  1166.072
1001  1220.518
1002  1222.658
1003  1329.123
1004  1399.196
1005  1506.906
1006  1535.407
1007  1536.483
1008  1521.658
1009  1589.831
1010  1603.793
1011  1535.596
1012  1507.714
1013  1444.289
1014  1397.505
1015  1321.437
1016  1389.391
1017  1518.28
1018  1549.688
1019  1693.27
1020  1649.401
1021  1719.679
1022  1602.581
1023  1540.821
