# Input file       =  1184487677.105509_cleaned.dat
# Candidate        =  PSR_0332+5434
# Telescope        =  AR
# Epoch_topo       =  57953.348334554503
# Epoch_bary       =  N/A
# T_sample         =  0.002
# Data Folded      =  7340032
# Data Avg         =  0.0302492524103305
# Data StdDev      =  1.00020651104266 
# Profile Bins     =  512
# Profile Avg      =  433.505408091008 
# Profile StdDev   =  119.757762570949 
# Reduced chi-sqr  =  1.321
# Prob(Noise)      <  1.43e-06   (~4.7 sigma)
# P_topo (ms)      =  714.476472398127  +/- 0.000245
# P'_topo (s/s)    =  -0                +/- 1.29e-10
# P''_topo (s/s^2) =  0                 +/- 5.7e-14
# P_bary (ms)      =  N/A
# P'_bary (s/s)    =  N/A
# P''_bary (s/s^2) =  N/A
# P_orb (s)        =  N/A
# asin(i)/c (s)    =  N/A
# eccentricity     =  N/A
# w (rad)          =  N/A
# T_peri           =  N/A
######################################################
   0  1029.785
   1  1022.511
   2  926.6296
   3  716.3726
   4  527.7437
   5  509.8545
   6  517.1001
   7  452.2792
   8  550.6863
   9  582.1617
  10  549.688
  11  530.1418
  12  483.7596
  13  463.9327
  14  475.8692
  15  478.9072
  16  518.0396
  17  544.9042
  18  426.2355
  19  450.6848
  20  410.4198
  21  455.7457
  22  412.5548
  23  435.5689
  24  590.3589
  25  502.929
  26  441.1071
  27  545.11
  28  480.3943
  29  409.8741
  30  342.1901
  31  338.9464
  32  470.2632
  33  450.0515
  34  341.5154
  35  448.2364
  36  465.1461
  37  584.3212
  38  476.9904
  39  521.4915
  40  543.7899
  41  522.1678
  42  547.4359
  43  481.2193
  44  537.7308
  45  528.3692
  46  505.9248
  47  608.7925
  48  567.6888
  49  493.0894
  50  450.7575
  51  366.0193
  52  415.3034
  53  492.5058
  54  493.6178
  55  471.4552
  56  462.2631
  57  529.8154
  58  446.6494
  59  322.7767
  60  391.4645
  61  438.6989
  62  519.8817
  63  433.4758
  64  468.21
  65  403.1
  66  434.1718
  67  449.9995
  68  448.1536
  69  384.5095
  70  439.4279
  71  397.6902
  72  397.6685
  73  394.8354
  74  465.4779
  75  428.3781
  76  402.5618
  77  453.6266
  78  479.1574
  79  427.9643
  80  345.2172
  81  375.3861
  82  382.2006
  83  340.6739
  84  355.6631
  85  444.8065
  86  488.156
  87  455.3445
  88  324.9331
  89  380.3573
  90  366.8105
  91  426.8254
  92  471.6706
  93  486.4582
  94  477.6113
  95  448.3379
  96  489.6744
  97  461.1823
  98  415.114
  99  538.3203
 100  518.5272
 101  564.4792
 102  571.4556
 103  562.1408
 104  387.6464
 105  350.3618
 106  396.6439
 107  481.9155
 108  534.4785
 109  535.0342
 110  477.8516
 111  470.7647
 112  544.0188
 113  401.2582
 114  348.0086
 115  412.7364
 116  530.8456
 117  478.9242
 118  460.0417
 119  540.4469
 120  396.4265
 121  372.9382
 122  454.3018
 123  495.4605
 124  476.8901
 125  513.1757
 126  579.5378
 127  464.5262
 128  530.2891
 129  629.0626
 130  350.8043
 131  439.9986
 132  592.6118
 133  488.9411
 134  391.8079
 135  574.3495
 136  557.3666
 137  483.8219
 138  378.7965
 139  342.1792
 140  361.609
 141  325.9311
 142  331.7078
 143  366.3323
 144  420.4324
 145  386.1534
 146  300.1483
 147  367.8696
 148  305.7903
 149  308.6506
 150  233.7998
 151  257.6073
 152  278.1106
 153  307.9711
 154  196.2182
 155  218.2585
 156  301.7821
 157  291.4959
 158  418.5049
 159  477.9002
 160  538.7963
 161  523.3215
 162  400.6574
 163  312.8376
 164  437.5253
 165  530.3946
 166  500.5279
 167  427.9478
 168  443.6733
 169  466.4328
 170  459.6711
 171  513.4575
 172  586.569
 173  489.5031
 174  413.3698
 175  422.291
 176  603.0618
 177  497.8835
 178  467.8273
 179  465.4731
 180  384.419
 181  341.9331
 182  418.0142
 183  472.2027
 184  363.3164
 185  330.1596
 186  367.1194
 187  249.4091
 188  206.8405
 189  235.8283
 190  325.3379
 191  391.3633
 192  448.9616
 193  448.9818
 194  427.5425
 195  374.5371
 196  256.7574
 197  294.3059
 198  282.9025
 199  244.2713
 200  350.8336
 201  368.111
 202  256.8549
 203  271.2133
 204  312.2875
 205  328.7185
 206  380.2213
 207  371.578
 208  281.1002
 209  347.7612
 210  333.5587
 211  426.3221
 212  376.5837
 213  285.2041
 214  454.5208
 215  512.9421
 216  401.7773
 217  295.5759
 218  255.686
 219  373.0661
 220  397.5652
 221  308.7566
 222  389.56
 223  528.6877
 224  527.2551
 225  391.1439
 226  254.9352
 227  351.2728
 228  269.701
 229  275.7692
 230  270.3059
 231  317.7789
 232  439.9489
 233  434.96
 234  377.9571
 235  334.3299
 236  410.4735
 237  437.9208
 238  393.7563
 239  431.7098
 240  399.5055
 241  447.9843
 242  482.8416
 243  488.2081
 244  658.2979
 245  632.7875
 246  386.1416
 247  491.1035
 248  439.445
 249  350.5383
 250  299.7142
 251  368.3922
 252  390.6187
 253  351.779
 254  468.7149
 255  463.2418
 256  380.492
 257  469.8079
 258  342.3935
 259  304.204
 260  463.6765
 261  491.4908
 262  412.157
 263  392.8431
 264  331.2716
 265  429.4181
 266  429.8486
 267  454.2629
 268  530.8073
 269  552.0946
 270  424.3996
 271  421.9731
 272  465.2653
 273  378.0157
 274  355.9371
 275  411.8915
 276  509.9775
 277  422.6895
 278  408.4754
 279  444.4958
 280  448.4257
 281  351.493
 282  361.4936
 283  333.6392
 284  440.436
 285  460.0717
 286  429.1624
 287  418.9399
 288  494.729
 289  507.2742
 290  458.7538
 291  397.2854
 292  406.0196
 293  384.3758
 294  331.0431
 295  300.0493
 296  431.4473
 297  365.0547
 298  440.9393
 299  507.0377
 300  391.8074
 301  325.7084
 302  373.917
 303  397.7603
 304  464.9781
 305  274.9831
 306  276.0711
 307  298.0339
 308  348.4534
 309  360.3496
 310  442.6433
 311  444.0251
 312  578.0752
 313  448.9297
 314  335.858
 315  397.5493
 316  441.1126
 317  366.1961
 318  361.4973
 319  416.6606
 320  350.5861
 321  414.9805
 322  477.6323
 323  505.9152
 324  447.1037
 325  408.6887
 326  424.2921
 327  422.2092
 328  504.9616
 329  494.3282
 330  509.4965
 331  501.066
 332  402.9729
 333  453.7401
 334  486.6663
 335  445.3053
 336  516.7252
 337  476.1105
 338  390.735
 339  393.7595
 340  453.9069
 341  472.433
 342  435.9187
 343  343.8099
 344  538.267
 345  495.3768
 346  571.3482
 347  397.5688
 348  352.4221
 349  375.3716
 350  462.0978
 351  448.4991
 352  391.8813
 353  514.4991
 354  473.0995
 355  529.7897
 356  483.7281
 357  478.4847
 358  361.3368
 359  406.0131
 360  461.7484
 361  508.0963
 362  565.0195
 363  468.9107
 364  454.4758
 365  407.1538
 366  404.1369
 367  289.2854
 368  297.3379
 369  394.2347
 370  431.0041
 371  364.307
 372  384.5797
 373  443.0999
 374  458.4941
 375  448.8683
 376  408.5295
 377  324.1445
 378  369.5142
 379  400.5443
 380  415.0744
 381  388.1249
 382  492.2604
 383  462.127
 384  337.8409
 385  389.6786
 386  462.5996
 387  518.3606
 388  547.0295
 389  502.2672
 390  506.3109
 391  483.1296
 392  406.7738
 393  432.3279
 394  536.3932
 395  427.406
 396  391.5305
 397  391.8172
 398  313.2946
 399  330.3305
 400  421.9561
 401  612.3936
 402  478.9938
 403  346.3701
 404  275.552
 405  262.6679
 406  381.2209
 407  367.9441
 408  386.619
 409  416.8646
 410  460.837
 411  406.9984
 412  405.2132
 413  438.6212
 414  488.7063
 415  444.5391
 416  360.2743
 417  275.174
 418  266.0547
 419  478.4706
 420  474.7675
 421  422.6768
 422  522.0017
 423  521.2803
 424  425.238
 425  468.8407
 426  460.3975
 427  451.7137
 428  405.9394
 429  443.2918
 430  449.3532
 431  461.8468
 432  378.4596
 433  341.1147
 434  288.3261
 435  318.9301
 436  398.6507
 437  492.2914
 438  407.8876
 439  265.5276
 440  330.8117
 441  293.085
 442  270.252
 443  395.8813
 444  413.8735
 445  398.7405
 446  453.1068
 447  369.3398
 448  401.9558
 449  458.0947
 450  384.0608
 451  422.3217
 452  474.4135
 453  590.4172
 454  477.8736
 455  356.0394
 456  408.708
 457  475.477
 458  468.2018
 459  363.1898
 460  394.9321
 461  510.1615
 462  441.1076
 463  394.9192
 464  427.7352
 465  566.5502
 466  486.3237
 467  395.4417
 468  420.4639
 469  409.5252
 470  405.639
 471  447.9873
 472  378.3205
 473  372.7751
 474  370.4566
 475  410.6007
 476  376.7516
 477  361.252
 478  374.9546
 479  476.5602
 480  402.2497
 481  410.238
 482  334.6361
 483  383.7509
 484  456.1128
 485  465.2939
 486  492.8711
 487  548.667
 488  385.3886
 489  317.3528
 490  411.4169
 491  407.4114
 492  478.0969
 493  514.9782
 494  452.4279
 495  452.6293
 496  497.8562
 497  522.2071
 498  447.1839
 499  390.1442
 500  433.3466
 501  443.2453
 502  493.1334
 503  540.2469
 504  576.3624
 505  533.5381
 506  525.148
 507  594.0551
 508  640.5049
 509  796.1987
 510  892.075
 511  1091.583
