# Input file       =  1184128104.119004_cleaned.dat
# Candidate        =  PSR_0332+5434
# Telescope        =  AR
# Epoch_topo       =  57949.186610173660
# Epoch_bary       =  N/A
# T_sample         =  0.002
# Data Folded      =  7340032
# Data Avg         =  0.0949005244775828
# Data StdDev      =  3.08773895541816 
# Profile Bins     =  512
# Profile Avg      =  1360.51496517338 
# Profile StdDev   =  369.704360671041 
# Reduced chi-sqr  =  1.207
# Prob(Noise)      <  0.000897   (~3.1 sigma)
# P_topo (ms)      =  714.478799018348  +/- 0.000287
# P'_topo (s/s)    =  -0                +/- 1.52e-10
# P''_topo (s/s^2) =  0                 +/- 6.69e-14
# P_bary (ms)      =  N/A
# P'_bary (s/s)    =  N/A
# P''_bary (s/s^2) =  N/A
# P_orb (s)        =  N/A
# asin(i)/c (s)    =  N/A
# eccentricity     =  N/A
# w (rad)          =  N/A
# T_peri           =  N/A
######################################################
   0  1170.412
   1  1257.163
   2  1403.54
   3  1448.175
   4  1250.388
   5  710.41
   6  979.574
   7  1074.058
   8  1155.88
   9  1338.255
  10  1464.361
  11  1571.466
  12  1455.734
  13  1303.599
  14  1564.452
  15  1673.889
  16  1503.347
  17  1428.332
  18  1506.15
  19  1372.461
  20  1218.615
  21  1399.281
  22  1145.963
  23  1089.283
  24  1247.973
  25  1644.961
  26  1502.305
  27  1352.851
  28  1266.358
  29  1406.751
  30  1460.874
  31  1454.961
  32  1495.28
  33  1389.14
  34  1170.11
  35  1370.93
  36  1495.071
  37  1597.591
  38  1761.018
  39  1724.621
  40  1343.58
  41  1526.923
  42  1625.219
  43  1687.089
  44  1656.722
  45  1820.755
  46  1805.114
  47  1491.563
  48  1461.06
  49  1321.426
  50  1596.606
  51  1360.421
  52  1253.044
  53  1247.709
  54  1143.149
  55  1222.831
  56  1131.237
  57  1269.415
  58  1073.217
  59  1069.002
  60  1043.823
  61  1161.123
  62  1235.148
  63  1244.295
  64  1178.558
  65  1387.082
  66  1395.835
  67  1233.927
  68  1525.902
  69  1703.56
  70  1362.492
  71  1279.417
  72  1271.213
  73  1074.524
  74  894.1388
  75  1017.999
  76  1469.565
  77  1610.434
  78  1639.512
  79  1420.062
  80  1332.136
  81  1430.259
  82  1469.369
  83  1524.261
  84  1710.637
  85  1698.87
  86  1518.873
  87  1786.366
  88  1748.856
  89  1359.524
  90  1476.584
  91  1470.693
  92  1441.503
  93  1316.76
  94  1155.122
  95  1433.812
  96  1426.071
  97  1368.587
  98  1440.496
  99  1000.411
 100  1203.372
 101  1375.248
 102  1265.717
 103  1297.073
 104  1189.574
 105  1396.092
 106  1193.821
 107  1283.553
 108  1327.936
 109  1344.433
 110  1406.941
 111  1286.916
 112  1417.062
 113  1276.503
 114  1451.123
 115  1621.06
 116  1638.343
 117  1360.798
 118  1346.42
 119  1593.753
 120  1608.386
 121  1732.516
 122  1506.288
 123  1493.603
 124  1448.891
 125  1496.281
 126  1471.834
 127  1393.763
 128  1676.728
 129  1434.505
 130  1395.447
 131  1465.476
 132  1355.389
 133  1205.086
 134  1168.536
 135  1137.082
 136  1286.093
 137  1659.581
 138  1656.588
 139  1153.067
 140  1057.895
 141  1225.94
 142  1338.12
 143  1245.354
 144  1605.469
 145  1459.212
 146  1143.438
 147  1196.709
 148  1183.606
 149  1082.422
 150  1059.83
 151  1180.317
 152  1336.361
 153  1407.91
 154  1208.35
 155  1193.646
 156  1090.152
 157  1390.716
 158  1255.784
 159  1018.845
 160  1018.49
 161  1033.523
 162  1204.688
 163  1340.896
 164  1493.175
 165  1476.802
 166  1440.731
 167  1646.086
 168  1498.754
 169  1584.48
 170  1353.578
 171  1318.677
 172  1422.311
 173  1589.708
 174  1401.351
 175  1457.48
 176  1317.328
 177  1272.261
 178  1349.696
 179  1476.717
 180  1226.27
 181  1129.98
 182  1251.087
 183  1429.082
 184  1216.971
 185  1083.091
 186  1252.211
 187  1196.328
 188  1187.319
 189  1423.371
 190  1597.734
 191  1111.374
 192  1178.278
 193  1412.238
 194  1286.156
 195  1239.419
 196  1277.489
 197  1357.937
 198  1387.074
 199  1496.997
 200  1640.76
 201  1462.864
 202  1463.542
 203  1440.61
 204  1336.328
 205  1574.083
 206  1670.646
 207  1706.406
 208  1644.849
 209  1442.426
 210  1309.723
 211  1408.511
 212  1607.167
 213  1499.298
 214  1534.24
 215  1780.976
 216  1509.778
 217  1613.351
 218  1901.315
 219  2205.702
 220  2488.577
 221  2989.378
 222  3236.314
 223  3727.329
 224  3223.903
 225  2549.76
 226  1940.83
 227  1652.367
 228  1500.282
 229  1443.667
 230  1506.737
 231  1336.778
 232  1188.234
 233  1507.525
 234  1636.422
 235  1113.942
 236  1229.783
 237  1500.122
 238  1345.966
 239  1246.575
 240  1513.201
 241  1471.582
 242  1164.42
 243  1042.441
 244  1283.168
 245  1264.335
 246  1309.014
 247  1548.068
 248  1305.317
 249  1266.988
 250  1484.947
 251  1626.826
 252  1336.365
 253  1218.793
 254  1452.209
 255  1540.411
 256  1628.481
 257  1522.097
 258  1631.965
 259  1461.068
 260  1568.085
 261  1309.15
 262  1283.489
 263  1296.561
 264  1480.951
 265  1706.851
 266  1618.927
 267  1588.289
 268  1127.912
 269  815.0885
 270  1082.809
 271  1394.809
 272  1404.808
 273  1446.846
 274  1347.198
 275  1212.397
 276  1441.529
 277  1477.792
 278  1185.06
 279  1421.505
 280  1687.518
 281  1527.004
 282  1684.262
 283  1705.773
 284  1582.042
 285  1256.624
 286  1400.169
 287  1392.705
 288  1324.712
 289  1375.949
 290  1483.48
 291  1592.957
 292  1855.739
 293  1683.904
 294  1380.605
 295  1147.987
 296  1319.113
 297  1529.607
 298  1636.269
 299  1674.182
 300  1647.239
 301  1744.639
 302  1480.799
 303  1407.108
 304  1542.439
 305  1518.825
 306  1636.829
 307  1706.657
 308  1666.964
 309  1515.516
 310  1380.253
 311  1346.456
 312  1505.458
 313  1871.111
 314  1841.652
 315  1275.214
 316  1424.893
 317  1419.244
 318  1328.338
 319  1158.36
 320  1214.436
 321  1071.127
 322  1410.568
 323  1492.276
 324  1273.234
 325  1252.226
 326  1266.516
 327  1518.266
 328  1525.625
 329  1361.374
 330  1475.719
 331  1734.016
 332  1626.149
 333  1416.847
 334  1713.809
 335  1756.539
 336  1765.922
 337  1584.663
 338  1350.391
 339  1375.683
 340  1420.002
 341  1467.476
 342  1554.962
 343  1599.838
 344  1492.701
 345  1425.663
 346  1554.417
 347  1472.239
 348  1519.726
 349  1543.632
 350  1568.49
 351  1513.005
 352  1202.301
 353  1244.522
 354  1358.411
 355  1329.648
 356  1407.819
 357  1388.133
 358  1446.026
 359  1334.051
 360  1210.163
 361  1143.676
 362  1176.909
 363  1341.337
 364  1214.113
 365  1254.415
 366  985.6102
 367  1125.565
 368  1463.723
 369  1373.776
 370  1576.336
 371  1201.394
 372  1186.621
 373  1383.781
 374  1320.211
 375  1420.292
 376  1236.64
 377  1307.639
 378  1302.472
 379  1175.305
 380  1139.292
 381  1540.014
 382  1724.494
 383  1637.636
 384  1576.27
 385  1560.308
 386  1551.172
 387  1421.661
 388  1373.097
 389  1323.844
 390  1475.205
 391  1415.036
 392  1144.457
 393  1138.921
 394  1235.626
 395  1165.416
 396  1123.064
 397  1234.218
 398  1193.598
 399  1171.478
 400  1031.71
 401  928.9411
 402  1048.683
 403  1050.172
 404  1062.86
 405  1128.735
 406  1032.607
 407  1226.436
 408  1301.042
 409  1106.937
 410  1122.754
 411  1042.126
 412  1158.343
 413  1114.747
 414  1196.296
 415  1480.492
 416  1400.999
 417  1193.348
 418  1068.003
 419  982.7449
 420  1193.226
 421  1313.917
 422  1238.754
 423  1245.974
 424  1239.41
 425  1295.916
 426  1200.302
 427  1494.009
 428  1355.061
 429  1039.715
 430  1081.393
 431  1255.22
 432  1272.344
 433  1103.788
 434  1083.011
 435  1346.807
 436  1597.268
 437  1475.492
 438  1105.404
 439  1063.655
 440  1161.686
 441  954.1287
 442  862.8107
 443  1055.838
 444  1029.618
 445  1040.781
 446  994.3486
 447  771.0337
 448  818.2916
 449  918.0576
 450  997.5874
 451  874.8705
 452  825.2157
 453  910.6107
 454  811.605
 455  802.4146
 456  1170.629
 457  816.2852
 458  920.028
 459  903.3624
 460  1020.744
 461  946.3828
 462  1077.251
 463  1099.991
 464  1034.092
 465  1097.402
 466  968.1672
 467  1326.914
 468  1691.578
 469  1647.76
 470  1674.531
 471  1375.958
 472  1237.49
 473  1347.612
 474  1090.594
 475  1006.155
 476  1199.699
 477  952.8622
 478  876.0647
 479  961.2065
 480  862.1444
 481  1034.816
 482  976.8903
 483  1085.582
 484  849.917
 485  650.3864
 486  1117.083
 487  992.0276
 488  712.1433
 489  899.7026
 490  1132.534
 491  1564.096
 492  1556.309
 493  1273.442
 494  1260.521
 495  1327.235
 496  1210.05
 497  1126.028
 498  1065.872
 499  1262.353
 500  1166.1
 501  1325.785
 502  1554.732
 503  1217.734
 504  1111.647
 505  1538.029
 506  1453.38
 507  1304.482
 508  1224.364
 509  1417.298
 510  1186.745
 511  1215.725
