# Input file       =  1184143011.101692_cleaned.dat
# Candidate        =  PSR_0332+5434
# Telescope        =  AR
# Epoch_topo       =  57949.359144695511
# Epoch_bary       =  N/A
# T_sample         =  0.002
# Data Folded      =  7340032
# Data Avg         =  0.24410115547341 
# Data StdDev      =  5.49401269177132 
# Profile Bins     =  256
# Profile Avg      =  6999.02518045498 
# Profile StdDev   =  930.290642064607 
# Reduced chi-sqr  =  0.776
# Prob(Noise)      <  0.997   (~0.0 sigma)
# P_topo (ms)      =  714.479019049859  +/- 0.000796
# P'_topo (s/s)    =  -0                +/- 4.2e-10
# P''_topo (s/s^2) =  0                 +/- 1.85e-13
# P_bary (ms)      =  N/A
# P'_bary (s/s)    =  N/A
# P''_bary (s/s^2) =  N/A
# P_orb (s)        =  N/A
# asin(i)/c (s)    =  N/A
# eccentricity     =  N/A
# w (rad)          =  N/A
# T_peri           =  N/A
######################################################
   0  7417.643
   1  8018.112
   2  7686.283
   3  7551.719
   4  6976.787
   5  7963.13
   6  8801.14
   7  8778.57
   8  8870.49
   9  8041.04
  10  7366.139
  11  7508.434
  12  7736.639
  13  7361.453
  14  7321.227
  15  7300.942
  16  8015.974
  17  8434.808
  18  7655.717
  19  7789.864
  20  7134.512
  21  6688.2
  22  6708.271
  23  6562.661
  24  6500.937
  25  6851.81
  26  7829.686
  27  7887.274
  28  7292.182
  29  6740.127
  30  6952.255
  31  7208.274
  32  6185.738
  33  6386.877
  34  7383.938
  35  6274.729
  36  6710.761
  37  7317.188
  38  7734.374
  39  7453.627
  40  7665.742
  41  7511.323
  42  6746.367
  43  7062.08
  44  7741.52
  45  8191.216
  46  7556.804
  47  6934.661
  48  7613.033
  49  6956.849
  50  6948.657
  51  7599.337
  52  6981.242
  53  7282.537
  54  7508.263
  55  7375.053
  56  6866.859
  57  6997.086
  58  6441.563
  59  6831.31
  60  6355.185
  61  6115.07
  62  6772.495
  63  6524.589
  64  5993.175
  65  6013.155
  66  5594.241
  67  5910.555
  68  6352.711
  69  6065.569
  70  6472.936
  71  6336.538
  72  6388.516
  73  5945.315
  74  6574.165
  75  6702.847
  76  6031.918
  77  6216.558
  78  6349.961
  79  5467.724
  80  6022.715
  81  6678.604
  82  6760.874
  83  6850.318
  84  6985.373
  85  6781.054
  86  6617.17
  87  6702.623
  88  6558.019
  89  6787.906
  90  6361.169
  91  6850.54
  92  6721.416
  93  6860.292
  94  7007.299
  95  6401.366
  96  6253.548
  97  6302.758
  98  6645.694
  99  6902.137
 100  6192.138
 101  6565.648
 102  7138.44
 103  6813.24
 104  6474.321
 105  5879.956
 106  6465.667
 107  6922.246
 108  6681.923
 109  6857.414
 110  6322.123
 111  6284.987
 112  7048.061
 113  6989.534
 114  6393.658
 115  7003.714
 116  6920.502
 117  6483.996
 118  6061.981
 119  6520.502
 120  6072.9
 121  6764.814
 122  6502.048
 123  7043.115
 124  7267.557
 125  7008.991
 126  6612.522
 127  6465.998
 128  5861.489
 129  5934.724
 130  5744.063
 131  6096.981
 132  6407.816
 133  6553.544
 134  7211.949
 135  7478.41
 136  7408.381
 137  7484.488
 138  8366.368
 139  8404.25
 140  7911.483
 141  8061.736
 142  8001.247
 143  8285.848
 144  7678.617
 145  7632.205
 146  7636.87
 147  6670.593
 148  6624.197
 149  6742.573
 150  7035.238
 151  6657.445
 152  6098.65
 153  6775.123
 154  6375.39
 155  6013.675
 156  6262.104
 157  5963.337
 158  6090.584
 159  5994.017
 160  5978.895
 161  7804.831
 162  9083.636
 163  10085.06
 164  8698.539
 165  7612.049
 166  6586.832
 167  6834.792
 168  7394.711
 169  6874.412
 170  7223.665
 171  6694.357
 172  6744.83
 173  6446.631
 174  6889.625
 175  6392.742
 176  7196.518
 177  8326.903
 178  7394.702
 179  7258.063
 180  7553.355
 181  6837.601
 182  6970.96
 183  6427.634
 184  6322.681
 185  6615.284
 186  6690.982
 187  6456.234
 188  6631.362
 189  7650.635
 190  6610.248
 191  6609.336
 192  6813.6
 193  7087.865
 194  7021.663
 195  6561.227
 196  6155.715
 197  7141.156
 198  6989.221
 199  6604.393
 200  7450.209
 201  6927.476
 202  7147.867
 203  6936.01
 204  7370.246
 205  7149.765
 206  6879.348
 207  6905.179
 208  7044.354
 209  6684.709
 210  7344.54
 211  7881.934
 212  6782.05
 213  6093.778
 214  6366.727
 215  7083.585
 216  6949.649
 217  6087.174
 218  7408.554
 219  7697.657
 220  7605.363
 221  7815.361
 222  8762.957
 223  8308.344
 224  7664.659
 225  7647.801
 226  7441.667
 227  7294.527
 228  7252.632
 229  5859.161
 230  6708.43
 231  6977.753
 232  6650.381
 233  6305.298
 234  6530.905
 235  6144.3
 236  6283.766
 237  6394.146
 238  6254.257
 239  6631.217
 240  6674.125
 241  7378.337
 242  7188.61
 243  7654.573
 244  8068.689
 245  8141.887
 246  7338.87
 247  6830.44
 248  6984.55
 249  7792.482
 250  7319.611
 251  8048.266
 252  8184.244
 253  8587.15
 254  8273.944
 255  7621.466
