# Input file       =  1184315356.111366_cleaned.dat
# Candidate        =  PSR_0332+5434
# Telescope        =  AR
# Epoch_topo       =  57951.353878603775
# Epoch_bary       =  N/A
# T_sample         =  0.002
# Data Folded      =  7340032
# Data Avg         =  0.282767522227783
# Data StdDev      =  5.40260070974888 
# Profile Bins     =  256
# Profile Avg      =  8107.23412091249 
# Profile StdDev   =  914.812026302502 
# Reduced chi-sqr  =  1.043
# Prob(Noise)      <  0.305   (~0.5 sigma)
# P_topo (ms)      =  714.477723419247  +/- 0.00028
# P'_topo (s/s)    =  -0                +/- 1.48e-10
# P''_topo (s/s^2) =  0                 +/- 6.52e-14
# P_bary (ms)      =  N/A
# P'_bary (s/s)    =  N/A
# P''_bary (s/s^2) =  N/A
# P_orb (s)        =  N/A
# asin(i)/c (s)    =  N/A
# eccentricity     =  N/A
# w (rad)          =  N/A
# T_peri           =  N/A
######################################################
   0  8008.291
   1  7809.921
   2  8672.936
   3  8770.023
   4  8338.779
   5  9029.658
   6  9113.363
   7  8801.096
   8  8560.374
   9  8753.743
  10  8328.598
  11  8462.695
  12  8511.222
  13  9527.06
  14  9220.589
  15  8410.509
  16  7965.074
  17  8296.028
  18  8340.66
  19  7325.477
  20  6933.807
  21  7736.927
  22  7700.788
  23  6601.349
  24  6850.438
  25  8882.827
  26  8888.916
  27  8359.035
  28  7962.503
  29  8883.233
  30  9310.774
  31  8619.811
  32  7789.387
  33  6882.565
  34  7384.974
  35  9049.995
  36  6779.781
  37  6990.072
  38  7817.418
  39  8934.652
  40  7817.656
  41  7214.899
  42  7088.975
  43  7962.676
  44  7988.669
  45  8175.852
  46  7947.017
  47  8910.549
  48  8589.404
  49  7823.208
  50  7832.667
  51  8917.341
  52  8524.242
  53  8031.806
  54  8857.664
  55  8221.444
  56  7771.125
  57  8404.833
  58  8537.009
  59  8306.395
  60  8507.216
  61  7596.034
  62  7275.51
  63  7185.049
  64  8058.987
  65  8886.686
  66  8056.859
  67  8382.18
  68  7663.167
  69  7519.479
  70  8021.992
  71  7742.093
  72  8001.127
  73  8087.811
  74  7703.359
  75  7890.043
  76  7878.2
  77  8365.339
  78  8177.97
  79  8135.498
  80  8181.203
  81  8420.728
  82  7588.075
  83  6812.542
  84  8088.421
  85  7642.405
  86  6957.725
  87  7154.558
  88  8462.752
  89  8599.401
  90  8144.178
  91  8308.122
  92  8507.111
  93  8747.263
  94  8364.728
  95  9416.463
  96  9079.053
  97  8184.375
  98  7629.187
  99  7587.734
 100  6774.763
 101  6803.607
 102  6175.047
 103  5822.064
 104  6994.809
 105  8740.97
 106  7059.004
 107  7133.78
 108  8215.925
 109  7650.972
 110  8974.585
 111  8112.717
 112  7816.56
 113  8117.949
 114  8268.794
 115  7298.49
 116  7530.394
 117  6435.321
 118  7732.375
 119  7812.612
 120  7252.671
 121  8247.401
 122  8624.951
 123  8663.639
 124  8325.989
 125  8864.86
 126  8381.517
 127  7453.329
 128  7187.734
 129  7345.56
 130  7487.899
 131  7094.416
 132  6973.751
 133  7357.686
 134  7868.624
 135  7640.133
 136  7740.825
 137  7726.458
 138  8005.815
 139  8606.747
 140  7845.778
 141  7448.705
 142  7510.872
 143  8100.688
 144  7746.538
 145  7960.006
 146  6677.667
 147  6938.302
 148  7054.429
 149  6778.27
 150  7020.347
 151  6511.942
 152  8465.418
 153  8116.196
 154  7340.312
 155  7817.027
 156  7950.258
 157  7677.86
 158  8346.894
 159  8709.972
 160  9261.312
 161  10193.29
 162  11795.67
 163  12068.5
 164  10636.35
 165  8662.792
 166  7803.683
 167  8490.474
 168  6808.837
 169  7348.015
 170  7281.858
 171  8315.848
 172  7998.357
 173  8372.482
 174  8099.81
 175  8700.572
 176  7681.256
 177  7479.583
 178  8196.834
 179  8173.426
 180  7364.663
 181  7009.412
 182  7163.766
 183  7787.917
 184  8421.773
 185  8603.284
 186  7468.334
 187  7836.697
 188  8760.685
 189  8504.112
 190  7702.292
 191  7910.961
 192  7265.172
 193  7505.411
 194  7255.691
 195  8406.84
 196  8170.325
 197  8762.43
 198  8079.873
 199  7516.451
 200  8627.726
 201  8136.786
 202  8641.139
 203  7865.207
 204  7982.417
 205  7863.09
 206  7943.602
 207  7407.505
 208  8349.664
 209  8477.474
 210  8749.095
 211  9053.091
 212  8528.508
 213  8654.012
 214  9427.563
 215  9256.717
 216  9921.903
 217  9180.1
 218  8474.929
 219  8956.542
 220  9828.508
 221  9343.472
 222  9134.572
 223  9525.723
 224  9393.48
 225  8852.849
 226  8305.978
 227  8501.806
 228  8421.931
 229  8832.691
 230  7856.171
 231  8181.791
 232  8643.904
 233  8837.697
 234  8836.8
 235  8617.076
 236  8128.58
 237  9289.724
 238  8208.663
 239  7517.84
 240  7572.935
 241  8007.438
 242  8371.762
 243  8718.906
 244  7749.018
 245  7985.07
 246  9012.646
 247  9310.063
 248  8391.532
 249  7622.2
 250  7758.529
 251  7330.572
 252  7765.57
 253  8049.91
 254  7309.085
 255  6997.7
