# Input file       =  1184918446.155724_cleaned.dat
# Candidate        =  PSR_0332+5434
# Telescope        =  AR
# Epoch_topo       =  57958.334087450508
# Epoch_bary       =  N/A
# T_sample         =  0.002
# Data Folded      =  7340032
# Data Avg         =  0.0373432847553231
# Data StdDev      =  1.00017784685791 
# Profile Bins     =  512
# Profile Avg      =  535.521564546058 
# Profile StdDev   =  119.754330521074 
# Reduced chi-sqr  =  1.556
# Prob(Noise)      <  1.02e-14   (~7.6 sigma)
# P_topo (ms)      =  714.473572588277  +/- 0.000274
# P'_topo (s/s)    =  -0                +/- 1.45e-10
# P''_topo (s/s^2) =  0                 +/- 6.38e-14
# P_bary (ms)      =  N/A
# P'_bary (s/s)    =  N/A
# P''_bary (s/s^2) =  N/A
# P_orb (s)        =  N/A
# asin(i)/c (s)    =  N/A
# eccentricity     =  N/A
# w (rad)          =  N/A
# T_peri           =  N/A
######################################################
   0  539.3461
   1  504.2667
   2  539.2322
   3  622.0703
   4  702.1116
   5  699.8503
   6  671.31
   7  674.2126
   8  717.1183
   9  776.2751
  10  739.1279
  11  591.1657
  12  570.7469
  13  574.6915
  14  617.7432
  15  656.5853
  16  618.7552
  17  728.2366
  18  626.8376
  19  610.1036
  20  623.2245
  21  611.4861
  22  555.9671
  23  553.6428
  24  581.5284
  25  604.6433
  26  572.8215
  27  630.5781
  28  612.5807
  29  612.234
  30  631.1896
  31  594.626
  32  592.1585
  33  591.8857
  34  586.4019
  35  544.84
  36  487.9061
  37  356.3227
  38  509.4456
  39  638.0381
  40  620.9386
  41  574.8138
  42  566.8722
  43  516.8802
  44  363.4356
  45  364.3998
  46  490.0639
  47  493.5275
  48  459.3115
  49  580.7712
  50  643.5878
  51  687.0553
  52  666.5258
  53  651.7925
  54  549.6891
  55  626.0633
  56  591.3341
  57  625.7912
  58  695.0721
  59  570.3326
  60  562.0904
  61  637.065
  62  564.9911
  63  422.6581
  64  487.7415
  65  621.527
  66  605.3926
  67  557.561
  68  711.3878
  69  623.0874
  70  473.5483
  71  466.3418
  72  523.4301
  73  613.8214
  74  602.7144
  75  500.6657
  76  508.7544
  77  538.0928
  78  562.2747
  79  533.4704
  80  503.8714
  81  488.4106
  82  467.7842
  83  453.8549
  84  512.7603
  85  617.5654
  86  496.0011
  87  581.7629
  88  519.2684
  89  592.6799
  90  630.4396
  91  530.7986
  92  558.3515
  93  462.9888
  94  467.1861
  95  574.5002
  96  529.7862
  97  592.1669
  98  648.1786
  99  550.7681
 100  525.5896
 101  555.5175
 102  587.6725
 103  601.7337
 104  489.0905
 105  481.4697
 106  532.61
 107  519.0193
 108  608.3307
 109  575.0003
 110  587.5916
 111  576.9162
 112  550.2054
 113  552.1631
 114  504.5238
 115  398.7552
 116  412.3015
 117  507.4566
 118  581.4422
 119  620.716
 120  668.1793
 121  580.0888
 122  528.6307
 123  525.6926
 124  587.7075
 125  579.2986
 126  500.8601
 127  617.2521
 128  506.1479
 129  421.2781
 130  526.1305
 131  583.4191
 132  512.3688
 133  516.3582
 134  490.8853
 135  458.4975
 136  483.5938
 137  623.0402
 138  663.4658
 139  589.0918
 140  451.8022
 141  435.8516
 142  438.2243
 143  481.5409
 144  599.8267
 145  527.7649
 146  431.5641
 147  547.6674
 148  611.1445
 149  520.0247
 150  473.0002
 151  486.1683
 152  515.2147
 153  581.8249
 154  526.5527
 155  386.2422
 156  486.2113
 157  568.4355
 158  493.2454
 159  449.3335
 160  484.5972
 161  551.212
 162  518.9016
 163  458.4906
 164  436.5096
 165  431.5075
 166  406.5415
 167  598.0787
 168  512.9772
 169  582.4114
 170  600.0831
 171  559.6031
 172  405.1688
 173  507.9777
 174  562.5657
 175  515.7758
 176  476.6661
 177  571.6443
 178  528.3441
 179  513.7516
 180  554.5746
 181  523.2188
 182  638.0573
 183  726.9393
 184  671.3505
 185  594.7327
 186  494.8524
 187  459.4523
 188  632.4346
 189  643.4547
 190  622.6514
 191  578.4269
 192  566.6629
 193  461.5492
 194  477.6075
 195  534.7646
 196  582.7677
 197  556.9059
 198  544.6469
 199  613.3787
 200  626.6107
 201  478.0125
 202  458.3729
 203  448.4047
 204  531.8539
 205  623.4689
 206  604.2876
 207  575.4844
 208  660.1283
 209  560.5041
 210  530.9225
 211  533.9042
 212  589.0256
 213  670.485
 214  732.0411
 215  785.7382
 216  561.2
 217  502.901
 218  501.0759
 219  549.3411
 220  503.5716
 221  550.2831
 222  542.0056
 223  520.571
 224  546.5655
 225  561.8334
 226  640.5656
 227  574.4051
 228  655.626
 229  704.8845
 230  618.6016
 231  642.3839
 232  613.3654
 233  560.311
 234  426.8739
 235  441.6777
 236  507.6897
 237  483.0644
 238  425.1929
 239  542.7489
 240  587.4987
 241  573.916
 242  632.8633
 243  546.3798
 244  629.0002
 245  678.624
 246  628.7509
 247  649.4322
 248  488.7838
 249  515.0764
 250  558.8575
 251  674.5702
 252  613.5703
 253  545.9905
 254  473.6713
 255  581.7557
 256  661.8192
 257  610.3714
 258  625.2524
 259  647.291
 260  706.3647
 261  653.697
 262  743.1296
 263  656.036
 264  552.6562
 265  599.5967
 266  680.3884
 267  608.0299
 268  505.1361
 269  482.9172
 270  467.5282
 271  497.5703
 272  673.739
 273  643.1785
 274  615.3176
 275  540.7751
 276  594.6013
 277  661.4902
 278  623.0667
 279  560.6664
 280  568.8528
 281  542.9622
 282  509.3647
 283  449.9095
 284  410.7114
 285  354.115
 286  404.4514
 287  492.7885
 288  475.8199
 289  480.1669
 290  430.4462
 291  462.7425
 292  503.8514
 293  517.7009
 294  607.2283
 295  659.9607
 296  613.7047
 297  701.7021
 298  639.1464
 299  501.0879
 300  500.0667
 301  462.2767
 302  529.2922
 303  576.535
 304  704.7665
 305  704.9966
 306  523.9563
 307  496.2661
 308  533.7369
 309  562.2267
 310  568.2565
 311  506.6741
 312  431.3893
 313  487.1026
 314  532.5307
 315  615.0757
 316  631.16
 317  586.3265
 318  588.2936
 319  806.9819
 320  943.0278
 321  1214.701
 322  1179.827
 323  1094.555
 324  915.3706
 325  682.8604
 326  454.812
 327  465.6803
 328  493.8179
 329  398.2138
 330  373.5898
 331  393.7817
 332  334.8815
 333  371.1779
 334  324.3784
 335  432.2906
 336  539.675
 337  481.5073
 338  422.7401
 339  446.6605
 340  438.322
 341  343.961
 342  236.4379
 343  331.2685
 344  491.31
 345  526.9393
 346  499.6228
 347  486.8733
 348  573.9677
 349  519.0289
 350  452.4422
 351  459.6312
 352  459.5922
 353  413.3528
 354  308.2315
 355  398.7233
 356  483.4109
 357  363.9514
 358  382.4636
 359  408.1376
 360  363.3384
 361  415.0831
 362  412.2914
 363  300.1621
 364  347.8994
 365  352.3455
 366  459.5388
 367  484.0754
 368  371.0778
 369  360.988
 370  350.7293
 371  326.0657
 372  346.2239
 373  313.7961
 374  337.1033
 375  359.529
 376  399.804
 377  303.0545
 378  408.439
 379  449.5276
 380  425.5769
 381  413.0459
 382  509.0778
 383  459.231
 384  484.4345
 385  523.677
 386  498.4042
 387  522.1354
 388  611.4935
 389  514.8682
 390  486.2643
 391  483.2756
 392  353.9474
 393  291.0182
 394  458.2845
 395  475.2669
 396  359.3208
 397  442.1243
 398  314.5893
 399  350.4824
 400  523.6086
 401  485.4006
 402  566.8933
 403  551.9521
 404  458.267
 405  452.1686
 406  572.5405
 407  439.7
 408  420.566
 409  496.2433
 410  447.5721
 411  625.1769
 412  545.7471
 413  493.9859
 414  462.7451
 415  426.844
 416  532.8498
 417  508.7565
 418  556.9104
 419  435.1862
 420  402.885
 421  465.2854
 422  504.1008
 423  468.3269
 424  485.6197
 425  509.1314
 426  373.8122
 427  369.7386
 428  330.0171
 429  342.7263
 430  296.1816
 431  378.1564
 432  559.1849
 433  565.5129
 434  511.9211
 435  514.1183
 436  512.1462
 437  472.7888
 438  558.2662
 439  563.8605
 440  588.301
 441  710.2957
 442  609.8723
 443  559.4115
 444  564.1288
 445  509.35
 446  479.9854
 447  452.3733
 448  473.5928
 449  456.3402
 450  508.7976
 451  477.4847
 452  496.7465
 453  411.652
 454  545.1372
 455  480.6333
 456  425.7961
 457  458.1353
 458  483.9962
 459  562.8207
 460  597.0662
 461  446.0074
 462  398.0963
 463  439.6321
 464  499.4797
 465  497.1962
 466  457.6389
 467  432.0806
 468  358.4078
 469  358.9001
 470  424.4075
 471  522.7494
 472  531.8428
 473  519.2603
 474  457.3655
 475  484.9404
 476  524.6575
 477  479.3357
 478  512.7385
 479  474.1321
 480  502.7784
 481  608.3949
 482  532.8867
 483  536.5422
 484  565.3685
 485  668.9186
 486  665.484
 487  676.0908
 488  647.5256
 489  546.4605
 490  526.6232
 491  646.2504
 492  596.6352
 493  662.869
 494  618.8225
 495  677.0108
 496  686.5985
 497  527.0816
 498  561.738
 499  731.6907
 500  644.1802
 501  538.2299
 502  619.1587
 503  648.4867
 504  570.6817
 505  576.5273
 506  551.1093
 507  510.7186
 508  479.2085
 509  646.3727
 510  564.0758
 511  617.7941
