# Input file       =  1184214230.099528_cleaned.dat
# Candidate        =  PSR_0332+5434
# Telescope        =  AR
# Epoch_topo       =  57950.183438651948
# Epoch_bary       =  N/A
# T_sample         =  0.002
# Data Folded      =  7340032
# Data Avg         =  0.141287477403239
# Data StdDev      =  3.90873007530487 
# Profile Bins     =  1024
# Profile Avg      =  1012.54779971127 
# Profile StdDev   =  330.928887082735 
# Reduced chi-sqr  =  0.797
# Prob(Noise)      <  1   (~0.0 sigma)
# P_topo (ms)      =  714.478143294492  +/- 0.000284
# P'_topo (s/s)    =  -0                +/- 1.5e-10
# P''_topo (s/s^2) =  0                 +/- 6.62e-14
# P_bary (ms)      =  N/A
# P'_bary (s/s)    =  N/A
# P''_bary (s/s^2) =  N/A
# P_orb (s)        =  N/A
# asin(i)/c (s)    =  N/A
# eccentricity     =  N/A
# w (rad)          =  N/A
# T_peri           =  N/A
######################################################
   0  1003.839
   1  1026.432
   2  1119.977
   3  1140.472
   4  1167.339
   5  1174.672
   6  1139.293
   7  1006.749
   8  949.3733
   9  1066.28
  10  1214.899
  11  1244.161
  12  1206.38
  13  1168.179
  14  1177.241
  15  1160.108
  16  1040.028
  17  1040.201
  18  1117.69
  19  1182.985
  20  1077.58
  21  943.0564
  22  941.4374
  23  803.7053
  24  795.5237
  25  831.7266
  26  976.8865
  27  1040.797
  28  1126.599
  29  1101.168
  30  1076.41
  31  969.6829
  32  937.4918
  33  886.7261
  34  974.5638
  35  1007.752
  36  999.4068
  37  890.3499
  38  868.1281
  39  906.4255
  40  1024.75
  41  1045.28
  42  968.1635
  43  916.0787
  44  875.552
  45  861.3214
  46  864.7428
  47  886.9439
  48  966.5103
  49  935.6702
  50  1022.971
  51  1045.213
  52  1096.97
  53  1132.185
  54  1081.676
  55  1072.311
  56  945.2853
  57  952.8611
  58  973.3387
  59  1011.973
  60  1102.51
  61  1116.646
  62  1219.986
  63  1115.292
  64  1165.457
  65  1198.68
  66  1225.092
  67  1167.044
  68  1120.713
  69  1029.617
  70  1053.18
  71  1044.993
  72  1083.911
  73  981.7762
  74  1018.881
  75  1009.912
  76  1044.186
  77  1107.747
  78  1159.315
  79  1171.87
  80  1166.391
  81  1216.906
  82  1225.645
  83  1214.78
  84  1123.321
  85  1167.808
  86  1228.606
  87  1275.034
  88  1198.607
  89  1106.988
  90  1168.034
  91  1154.987
  92  1204.912
  93  1062.767
  94  1103.224
  95  1102.308
  96  1152.145
  97  1065.293
  98  1078.638
  99  1037.353
 100  1066.342
 101  1048.354
 102  1094.143
 103  1020.383
 104  1034.187
 105  954.8078
 106  951.0602
 107  890.5013
 108  997.8212
 109  964.2551
 110  1018.513
 111  1022.089
 112  1118.807
 113  1054.073
 114  966.6105
 115  877.228
 116  861.5383
 117  823.3845
 118  836.5961
 119  851.8531
 120  916.9227
 121  941.0396
 122  1018.066
 123  1016.622
 124  1009.25
 125  1023.366
 126  1143.375
 127  1206.787
 128  1153.514
 129  1040.382
 130  1025.081
 131  972.2148
 132  1047.44
 133  996.4313
 134  929.4217
 135  892.1482
 136  1028.091
 137  1094.772
 138  1173.651
 139  1052.066
 140  1072.492
 141  1089.986
 142  1086.47
 143  1100.002
 144  1047.149
 145  1081.671
 146  1036.869
 147  1081.442
 148  1107.998
 149  1214.016
 150  1188.951
 151  1133.974
 152  1097.773
 153  1085.393
 154  1051.009
 155  1003.883
 156  998.5895
 157  1138.03
 158  1149.288
 159  1191.872
 160  1098.834
 161  1064.411
 162  1115.27
 163  1242.969
 164  1242.77
 165  1235.867
 166  1218.077
 167  1269.18
 168  1211.122
 169  1181.584
 170  1172.685
 171  1299.514
 172  1326.395
 173  1306.568
 174  1195.848
 175  1119.804
 176  1110.511
 177  1104.54
 178  1128.786
 179  1176.583
 180  1202.053
 181  1204.117
 182  1050.745
 183  955.1658
 184  937.0715
 185  990.3629
 186  1006.546
 187  982.9112
 188  941.0076
 189  942.3459
 190  963.0133
 191  1008.468
 192  1092.804
 193  1100.517
 194  1125.175
 195  1092.784
 196  1057.66
 197  1073.141
 198  1113.864
 199  1208.481
 200  1145.791
 201  1001.354
 202  888.2468
 203  933.5173
 204  921.5967
 205  918.868
 206  872.8543
 207  890.113
 208  917.8812
 209  1026.482
 210  1048.886
 211  1033.962
 212  899.7838
 213  885.9451
 214  966.4948
 215  975.6029
 216  939.6931
 217  860.2978
 218  834.0767
 219  901.0264
 220  980.7414
 221  1050.732
 222  1005.459
 223  897.3009
 224  916.4479
 225  949.4096
 226  893.6624
 227  784.5751
 228  820.4477
 229  899.2391
 230  921.5153
 231  903.5297
 232  936.1463
 233  1020.424
 234  975.537
 235  909.9591
 236  877.6016
 237  975.898
 238  1001.362
 239  1024.485
 240  1040.153
 241  1001.302
 242  931.905
 243  885.8799
 244  969.7136
 245  1080.136
 246  964.9337
 247  904.6262
 248  815.4627
 249  929.1068
 250  999.6836
 251  1093.948
 252  1269.081
 253  1315.855
 254  1356.324
 255  1226.476
 256  1265.839
 257  1172.065
 258  1212.817
 259  1191.583
 260  1192.291
 261  1174.513
 262  1152.337
 263  1196.156
 264  1229.477
 265  1269.922
 266  1337.496
 267  1291.949
 268  1183.463
 269  1045.964
 270  1022.334
 271  1097.401
 272  1148.559
 273  1024.358
 274  864.5388
 275  827.4159
 276  890.1584
 277  1051.602
 278  1153.37
 279  1234.956
 280  1237.31
 281  1190.221
 282  1209.352
 283  1272.633
 284  1334.884
 285  1222.853
 286  1123.717
 287  1140.203
 288  1147.935
 289  1118.178
 290  1090.1
 291  1164.097
 292  1128.158
 293  1082.094
 294  1145.431
 295  1208.973
 296  1148.972
 297  1026.859
 298  1061.547
 299  1127.755
 300  1093.603
 301  967.955
 302  854.0459
 303  883.1884
 304  975.9399
 305  1001.4
 306  873.4425
 307  856.7344
 308  896.1165
 309  961.0189
 310  866.5244
 311  770.7942
 312  743.1021
 313  706.8193
 314  704.5232
 315  742.1733
 316  833.1456
 317  952.2357
 318  991.9171
 319  982.6922
 320  1032.704
 321  1030.735
 322  1009.547
 323  899.0114
 324  836.1248
 325  847.803
 326  902.1191
 327  1136.31
 328  1195.175
 329  1195.502
 330  1035.19
 331  967.4872
 332  1022.604
 333  1057.604
 334  1015.106
 335  951.705
 336  1016.904
 337  1123.96
 338  1103.77
 339  1061.682
 340  989.6147
 341  916.5661
 342  855.2302
 343  931.7653
 344  1142.37
 345  1277.899
 346  1274.351
 347  1184.104
 348  1172.981
 349  1188.804
 350  1172.184
 351  1071.92
 352  1016.475
 353  1000.108
 354  1085.271
 355  1185.622
 356  1207.925
 357  1180.148
 358  1195.589
 359  1140.74
 360  1060.613
 361  1016.472
 362  1019.888
 363  1034.006
 364  1035.894
 365  1027.094
 366  926.6478
 367  846.1588
 368  843.4145
 369  877.4011
 370  927.541
 371  855.3124
 372  965.3793
 373  953.7762
 374  927.6896
 375  836.8243
 376  848.1648
 377  947.2534
 378  926.065
 379  892.9
 380  850.5386
 381  859.8228
 382  918.8828
 383  861.6306
 384  765.3431
 385  839.3913
 386  840.3145
 387  842.8831
 388  867.2498
 389  899.4173
 390  800.4567
 391  771.5739
 392  844.1128
 393  913.085
 394  986.9951
 395  889.8979
 396  915.6064
 397  936.7714
 398  1055.036
 399  999.9726
 400  933.1183
 401  926.8707
 402  878.1842
 403  858.0328
 404  833.5146
 405  892.5969
 406  919.1968
 407  880.0759
 408  800.4771
 409  770.147
 410  840.7964
 411  919.7955
 412  916.3726
 413  943.1384
 414  882.4448
 415  923.1582
 416  966.9269
 417  960.0064
 418  1020.915
 419  979.0949
 420  1022.58
 421  1023.887
 422  1065.944
 423  1091.645
 424  1068
 425  1041.473
 426  1038.021
 427  1159.378
 428  1212.19
 429  1133.537
 430  993.8424
 431  934.2981
 432  875.9515
 433  836.8657
 434  868.9368
 435  886.7049
 436  936.8348
 437  936.4887
 438  944.4984
 439  896.3581
 440  869.9858
 441  862.2413
 442  844.8965
 443  807.4039
 444  824.1078
 445  909.4496
 446  898.693
 447  905.2414
 448  854.466
 449  888.866
 450  901.9315
 451  822.1989
 452  832.0507
 453  899.9332
 454  1002.236
 455  1097.419
 456  1103.802
 457  1063.347
 458  980.1301
 459  923.9492
 460  939.4598
 461  894.6554
 462  892.2647
 463  903.174
 464  896.9338
 465  920.7759
 466  934.2379
 467  834.4916
 468  864.4291
 469  852.371
 470  857.6017
 471  834.1014
 472  772.1415
 473  779.3266
 474  766.6329
 475  880.0265
 476  871.2303
 477  961.2453
 478  984.0494
 479  1072.61
 480  1061.382
 481  1001.827
 482  843.1382
 483  775.4579
 484  765.6002
 485  796.6304
 486  881.6663
 487  1066.518
 488  1170.81
 489  1159.594
 490  1074.728
 491  995.099
 492  926.744
 493  871.822
 494  980.275
 495  1054.948
 496  1149.638
 497  1125.933
 498  1067.165
 499  998.9926
 500  928.2031
 501  882.635
 502  875.6918
 503  860.034
 504  860.921
 505  933.7344
 506  960.614
 507  991.2675
 508  1014.078
 509  1080.669
 510  1198.047
 511  1287.31
 512  1229.563
 513  1203.487
 514  1133.003
 515  1036.411
 516  969.1768
 517  1083.916
 518  1240.916
 519  1339.372
 520  1222.149
 521  1192.421
 522  1151.305
 523  1196.825
 524  1086.868
 525  1095.966
 526  945.0367
 527  886.1508
 528  838.2294
 529  840.5679
 530  891.8156
 531  911.6208
 532  951.1716
 533  995.7093
 534  1090.635
 535  1035.649
 536  939.3282
 537  900.3802
 538  897.3468
 539  863.1636
 540  843.8472
 541  886.3785
 542  808.787
 543  803.0151
 544  850.6228
 545  919.4441
 546  781.5154
 547  808.3357
 548  856.9498
 549  1019.719
 550  964.9974
 551  954.416
 552  968.9664
 553  1018.846
 554  949.373
 555  956.8479
 556  855.1597
 557  898.4296
 558  857.0953
 559  784.5887
 560  802.2757
 561  793.6062
 562  964.0023
 563  968.2421
 564  1025.916
 565  1033.246
 566  961.3641
 567  895.1334
 568  834.5012
 569  847.6267
 570  855.4187
 571  838.6525
 572  795.206
 573  840.9658
 574  833.0319
 575  952.52
 576  1025.2
 577  1013.439
 578  1017.584
 579  1057.627
 580  1043.333
 581  1052.51
 582  1078.733
 583  1078.273
 584  1024.858
 585  1062.309
 586  1180.313
 587  1219.032
 588  1138.922
 589  1125.016
 590  1152.007
 591  1193.882
 592  1187.195
 593  1181.276
 594  1198.405
 595  1105.026
 596  1100.288
 597  1158.181
 598  1163.865
 599  1096.839
 600  1009.215
 601  1084.5
 602  1183.092
 603  1184.633
 604  1133.497
 605  1149.744
 606  1229.865
 607  1313.744
 608  1290.406
 609  1208.323
 610  1069.199
 611  1075.42
 612  1166.214
 613  1224.85
 614  1200.061
 615  1197.969
 616  1199.254
 617  1226.197
 618  1217.313
 619  1160.501
 620  1092.447
 621  1055.136
 622  990.2324
 623  1038.252
 624  948.7238
 625  1004.409
 626  1065.658
 627  1162.336
 628  1131.185
 629  1015.38
 630  981.3878
 631  901.5341
 632  926.9269
 633  953.9778
 634  994.0236
 635  1071.366
 636  1074.944
 637  1104.479
 638  1158.583
 639  1243.15
 640  1343.946
 641  1292.511
 642  1220.518
 643  1192.039
 644  1389.256
 645  1590.434
 646  1571.767
 647  1618.709
 648  1634.369
 649  1877.69
 650  1922.941
 651  1971.696
 652  1882.217
 653  1845.21
 654  1720.337
 655  1584.24
 656  1453.123
 657  1415.625
 658  1316.961
 659  1138.385
 660  893.8726
 661  909.4891
 662  1007.301
 663  996.8844
 664  951.3363
 665  925.2838
 666  855.9533
 667  892.3328
 668  877.7592
 669  970.2983
 670  952.0449
 671  1090.565
 672  1157.131
 673  1210.866
 674  1189.148
 675  1135.019
 676  1205.899
 677  1298.21
 678  1293.421
 679  1232.048
 680  1109.196
 681  1144.406
 682  1058.813
 683  1103.973
 684  1144
 685  1211.142
 686  1274.124
 687  1256.934
 688  1166.538
 689  1165.226
 690  1094.85
 691  1121.922
 692  1062.759
 693  1037.624
 694  1070.232
 695  1059.574
 696  972.9968
 697  863.2873
 698  752.5829
 699  704.3619
 700  743.8736
 701  814.6289
 702  821.7429
 703  880.8066
 704  929.8087
 705  926.0432
 706  910.1595
 707  888.1964
 708  893.2737
 709  811.4908
 710  848.2924
 711  801.8737
 712  902.9348
 713  878.3912
 714  918.283
 715  835.0504
 716  793.3666
 717  793.4689
 718  829.2003
 719  821.2909
 720  753.5913
 721  834.6342
 722  909.2479
 723  938.6145
 724  892.0327
 725  849.576
 726  874.9932
 727  915.9438
 728  888.6078
 729  772.4955
 730  717.8596
 731  787.6732
 732  918.3077
 733  926.5579
 734  946.7994
 735  948.5179
 736  948.3414
 737  953.0707
 738  981.5845
 739  1026.511
 740  938.8121
 741  860.1118
 742  794.5155
 743  784.1663
 744  890.4908
 745  1027.985
 746  1096.703
 747  971.5529
 748  899.334
 749  832.789
 750  820.9742
 751  875.3405
 752  876.5818
 753  868.1122
 754  948.7054
 755  887.088
 756  921.0902
 757  946.8535
 758  1010.663
 759  1031.323
 760  1065.484
 761  1233.324
 762  1213.863
 763  1018.307
 764  994.0245
 765  1094.146
 766  1209.948
 767  1120.745
 768  938.179
 769  919.2192
 770  998.925
 771  1197.21
 772  1251.885
 773  1251.302
 774  1141.012
 775  1115.967
 776  1089.36
 777  1050.816
 778  968.5436
 779  946.1541
 780  991.4703
 781  972.0204
 782  879.0146
 783  864.137
 784  889.8227
 785  923.0212
 786  975.7329
 787  960.3807
 788  887.0402
 789  837.2849
 790  802.7867
 791  829.4187
 792  733.2201
 793  778.4129
 794  749.6214
 795  714.7671
 796  665.5775
 797  737.676
 798  852.8578
 799  912.8929
 800  965.2572
 801  999.9393
 802  1064.359
 803  1095.849
 804  1115.03
 805  1074.027
 806  1080.315
 807  958.5983
 808  938.7457
 809  826.8886
 810  917.8453
 811  993.3671
 812  943.2683
 813  938.3825
 814  885.9564
 815  1063.868
 816  1087.046
 817  1214.205
 818  1171.455
 819  1118.373
 820  1073.248
 821  999.8644
 822  974.3478
 823  916.0261
 824  956.8355
 825  930.3444
 826  837.3661
 827  764.7619
 828  732.3465
 829  841.6099
 830  845.4742
 831  825.4261
 832  788.2456
 833  829.1387
 834  845.1979
 835  814.9109
 836  875.946
 837  987.1462
 838  967.6317
 839  895.1194
 840  829.3542
 841  876.4565
 842  941.5264
 843  999.5867
 844  954.6477
 845  970.2165
 846  909.2258
 847  937.332
 848  940.0938
 849  1068.72
 850  1047.649
 851  932.9841
 852  952.2248
 853  1057.981
 854  1209.971
 855  1274.709
 856  1243.458
 857  1324.202
 858  1377.89
 859  1443.897
 860  1327.702
 861  1189.4
 862  1042.732
 863  938.3911
 864  947.9461
 865  996.2038
 866  1010.902
 867  1073.753
 868  1093.775
 869  1167.562
 870  1141.471
 871  1130.503
 872  1156.139
 873  1193.843
 874  1233.557
 875  1117.432
 876  983.4002
 877  952.9893
 878  1011.984
 879  988.8349
 880  957.387
 881  944.9888
 882  870.8184
 883  847.7399
 884  869.5901
 885  904.8776
 886  1027.62
 887  991.0914
 888  935.9727
 889  869.9138
 890  821.5629
 891  876.537
 892  812.4725
 893  893.4163
 894  831.633
 895  792.894
 896  808.8849
 897  890.9555
 898  873.3171
 899  855.2129
 900  815.921
 901  836.476
 902  848.6096
 903  872.2125
 904  922.257
 905  815.4949
 906  741.2472
 907  752.1
 908  812.5803
 909  873.6579
 910  834.4131
 911  740.4686
 912  682.9606
 913  741.7185
 914  832.5271
 915  840.6186
 916  793.1537
 917  914.3103
 918  945.1611
 919  991.2142
 920  902.8972
 921  893.6651
 922  852.9426
 923  939.5543
 924  1061.177
 925  1146.792
 926  1187.517
 927  1218.239
 928  1188.161
 929  1094.556
 930  1037.593
 931  1078.297
 932  1111.165
 933  1076.089
 934  1062.284
 935  1182.449
 936  1303.315
 937  1412.862
 938  1333.841
 939  1267.812
 940  1189.072
 941  1269.021
 942  1382.208
 943  1273.893
 944  1155.702
 945  1143.119
 946  1197.184
 947  1222.554
 948  1097.456
 949  1136.103
 950  1081.867
 951  1114.523
 952  1103.088
 953  1126.456
 954  1158.675
 955  1139.051
 956  1088.092
 957  1016.42
 958  926.241
 959  1017.002
 960  1036.735
 961  972.358
 962  833.3209
 963  753.2585
 964  845.3034
 965  855.4891
 966  864.2968
 967  836.0313
 968  786.6738
 969  810.2062
 970  593.6938
 971  560.8041
 972  580.6737
 973  803.3636
 974  859.5602
 975  773.2252
 976  697.0125
 977  742.1174
 978  799.7416
 979  866.002
 980  863.0338
 981  874.0166
 982  826.5082
 983  808.6533
 984  845.3938
 985  848.973
 986  947.8339
 987  932.8211
 988  853.9243
 989  763.5591
 990  690.5063
 991  771.7498
 992  846.9065
 993  936.4178
 994  900.5994
 995  860.8492
 996  876.5624
 997  982.8665
 998  1060.869
 999  1086.198
1000  1058.754
1001  989.6374
1002  1023.694
1003  953.4434
1004  871.0282
1005  815.8973
1006  940.4545
1007  1027.058
1008  978.252
1009  931.3936
1010  928.8016
1011  1045.649
1012  1072.228
1013  1134.182
1014  1053.421
1015  1073.975
1016  1141.993
1017  1256.737
1018  1016.404
1019  940.2167
1020  958.5747
1021  1188.157
1022  1187.8
1023  1110.841
