# Input file       =  1184128104.119004_cleaned.dat
# Candidate        =  PSR_0332+5434
# Telescope        =  AR
# Epoch_topo       =  57949.186610173660
# Epoch_bary       =  N/A
# T_sample         =  0.002
# Data Folded      =  7340032
# Data Avg         =  0.0949005244775828
# Data StdDev      =  3.08773895541816 
# Profile Bins     =  1024
# Profile Avg      =  680.257482586691 
# Profile StdDev   =  261.42046046473  
# Reduced chi-sqr  =  1.077
# Prob(Noise)      <  0.044   (~1.7 sigma)
# P_topo (ms)      =  714.478799018348  +/- 0.000281
# P'_topo (s/s)    =  -0                +/- 1.48e-10
# P''_topo (s/s^2) =  0                 +/- 6.54e-14
# P_bary (ms)      =  N/A
# P'_bary (s/s)    =  N/A
# P''_bary (s/s^2) =  N/A
# P_orb (s)        =  N/A
# asin(i)/c (s)    =  N/A
# eccentricity     =  N/A
# w (rad)          =  N/A
# T_peri           =  N/A
######################################################
   0  556.5983
   1  550.8842
   2  570.4657
   3  546.1531
   4  521.6973
   5  519.4233
   6  553.5718
   7  610.9472
   8  576.092
   9  530.8978
  10  542.2767
  11  674.3648
  12  734.342
  13  751.689
  14  705.9764
  15  678.4518
  16  622.3544
  17  567.6887
  18  551.8306
  19  507.156
  20  490.4733
  21  496.7472
  22  561.6677
  23  647.0649
  24  663.1721
  25  648.465
  26  601.8802
  27  637.0639
  28  619.8369
  29  625.6689
  30  612.293
  31  632.1168
  32  670.2247
  33  619.7897
  34  580.5888
  35  625.6093
  36  735.272
  37  763.9417
  38  736.0935
  39  599.5515
  40  555.2518
  41  478.788
  42  557.2826
  43  534.3158
  44  641.5019
  45  622.9988
  46  636.1515
  47  629.9349
  48  557.9503
  49  532.7891
  50  493.4162
  51  602.7874
  52  638.9228
  53  718.5765
  54  783.3459
  55  818.7421
  56  776.8578
  57  683.3074
  58  584.247
  59  505.8215
  60  516.3605
  61  555.7628
  62  597.482
  63  563.9138
  64  494.6875
  65  446.1367
  66  417.2373
  67  445.6778
  68  495.0433
  69  569.5796
  70  507.7925
  71  523.4093
  72  481.5012
  73  562.4869
  74  504.4196
  75  481.1573
  76  384.6156
  77  381.3629
  78  390.3442
  79  434.5085
  80  476.1847
  81  443.4382
  82  494.9314
  83  504.1254
  84  468.5557
  85  404.129
  86  392.1792
  87  434.2436
  88  450.9489
  89  455.4484
  90  426.1147
  91  379.7276
  92  372.588
  93  442.4229
  94  601.4049
  95  565.7499
  96  392.3521
  97  417.2428
  98  433.1019
  99  495.376
 100  439.4814
 101  468.0398
 102  510.8261
 103  506.6763
 104  492.4408
 105  448.264
 106  493.0819
 107  603.2602
 108  599.6709
 109  487.2635
 110  490.9305
 111  550.735
 112  595.5765
 113  491.5268
 114  465.0277
 115  514.0804
 116  606.1589
 117  742.4158
 118  814.4932
 119  875.0115
 120  820.3774
 121  831.6859
 122  841.9797
 123  829.5991
 124  730.8103
 125  620.85
 126  606.7368
 127  639.6103
 128  706.6208
 129  634.9908
 130  558.1158
 131  519.9001
 132  464.9636
 133  553.0787
 134  598.7778
 135  593.7456
 136  493.4707
 137  452.5697
 138  438.3086
 139  437.4926
 140  448.4827
 141  518.7399
 142  422.286
 143  427.9684
 144  489.6588
 145  560.9854
 146  496.1838
 147  475.2145
 148  509.5114
 149  587.3628
 150  465.4873
 151  355.9272
 152  295.5542
 153  365.1515
 154  535.0665
 155  601.7015
 156  571.9358
 157  395.3412
 158  326.7431
 159  391.4137
 160  456.2793
 161  448.75
 162  522.7922
 163  632.1556
 164  749.1461
 165  823.0008
 166  791.2983
 167  749.2548
 168  632.6788
 169  635.6316
 170  614.8508
 171  651.1207
 172  666.5962
 173  662.9908
 174  579.7469
 175  622.304
 176  537.1812
 177  580.2047
 178  498.4082
 179  580.6949
 180  627.9008
 181  631.6193
 182  611.4126
 183  547.2167
 184  633.4948
 185  708.4916
 186  779.2306
 187  780.6152
 188  666.6185
 189  524.7692
 190  501.7508
 191  628.9379
 192  740.7146
 193  810.2965
 194  745.3762
 195  688.8949
 196  695.6508
 197  607.587
 198  620.2567
 199  611.5287
 200  723.4277
 201  692.1485
 202  590.8093
 203  589.0553
 204  607.2017
 205  612.0149
 206  592.3426
 207  578.8621
 208  632.5255
 209  626.8312
 210  680.768
 211  727.36
 212  741.3291
 213  708.2459
 214  671.8429
 215  560.0497
 216  367.1429
 217  329.4688
 218  429.0057
 219  567.0714
 220  544.5232
 221  521.4911
 222  542.7026
 223  632.1938
 224  688.3397
 225  652.5267
 226  746.2038
 227  729.1724
 228  807.08
 229  762.1017
 230  758.8026
 231  685.9008
 232  609.7161
 233  697.9641
 234  713.0768
 235  862.1245
 236  812.5494
 237  857.9246
 238  740.5065
 239  758.4786
 240  694.3134
 241  734.7615
 242  717.7643
 243  791.4478
 244  724.3876
 245  634.4235
 246  608.7692
 247  611.4069
 248  720.6608
 249  682.0856
 250  612.0824
 251  516.3563
 252  533.9406
 253  560.6748
 254  603.6683
 255  659.9171
 256  809.3785
 257  847.9011
 258  792.9504
 259  693.8427
 260  688.3625
 261  659.0207
 262  656.2836
 263  605.9314
 264  722.41
 265  697.4976
 266  770.4678
 267  688.5367
 268  723.3607
 269  735.4131
 270  738.0806
 271  759.3871
 272  715.4636
 273  654.6973
 274  588.6404
 275  587.0228
 276  684.9532
 277  693.7476
 278  770.1415
 279  728.2354
 280  820.733
 281  777.4536
 282  853.563
 283  923.0914
 284  898.1467
 285  810.0327
 286  648.7589
 287  692.8163
 288  723.8913
 289  809.3978
 290  780.7253
 291  847.2975
 292  835.1508
 293  852.4103
 294  832.9037
 295  824.1763
 296  920.209
 297  910.5013
 298  967.3977
 299  822.3846
 300  758.0576
 301  734.9616
 302  771.2756
 303  678.6255
 304  621.4738
 305  707.6749
 306  799.1436
 307  800.5336
 308  712.7133
 309  632.8911
 310  636.4221
 311  619.4789
 312  646.5291
 313  596.3812
 314  563.8408
 315  577.6392
 316  629.2949
 317  591.2648
 318  564.5347
 319  565.3963
 320  660.8218
 321  609.5444
 322  547.685
 323  520.6713
 324  567.7172
 325  502.4826
 326  506.7117
 327  541.1553
 328  583.5646
 329  582.1821
 330  585.8179
 331  653.8351
 332  633.3153
 333  606.1087
 334  591.0085
 335  588.5741
 336  668.7552
 337  735.0215
 338  738.3759
 339  641.3431
 340  598.2355
 341  639.7078
 342  736.2152
 343  802.6874
 344  871.5565
 345  834.0654
 346  741.7408
 347  603.895
 348  624.872
 349  661.3558
 350  663.339
 351  591.3143
 352  533.7933
 353  539.4412
 354  480.6271
 355  401.899
 356  462.9283
 357  580.4988
 358  725.6287
 359  754.295
 360  781.4074
 361  837.2513
 362  825.0167
 363  803.7352
 364  743.7197
 365  672.5831
 366  647.9243
 367  686.9151
 368  724.6938
 369  701.3002
 370  742.6208
 371  730.1965
 372  764.0305
 373  763.0509
 374  836.6236
 375  879.6856
 376  865.1194
 377  827.7212
 378  753.0555
 379  767.0805
 380  833.8005
 381  968.3179
 382  901.9149
 383  826.3984
 384  672.2408
 385  685.6332
 386  737.3738
 387  747.0312
 388  732.3021
 389  733.4999
 390  717.8816
 391  718.0734
 392  697.6337
 393  606.3353
 394  593.2378
 395  568.1281
 396  707.9702
 397  736.6356
 398  712.6921
 399  706.3306
 400  635.5893
 401  738.8265
 402  740.9081
 403  690.3917
 404  504.3708
 405  490.2931
 406  561.0466
 407  651.7466
 408  682.0143
 409  694.6929
 410  622.2983
 411  642.0203
 412  657.2974
 413  633.3099
 414  567.2
 415  629.7195
 416  693.1694
 417  702.3488
 418  595.3539
 419  596.8669
 420  601.9083
 421  692.1766
 422  661.9938
 423  659.14
 424  648.5024
 425  698.0497
 426  727.4872
 427  675.2141
 428  638.2161
 429  650.2794
 430  713.5651
 431  703.4113
 432  636.1044
 433  641.0515
 434  715.409
 435  744.121
 436  791.8312
 437  833.2047
 438  841.1281
 439  793.4503
 440  686.2183
 441  661.4669
 442  647.2509
 443  710.0493
 444  756.8392
 445  847.6989
 446  792.6628
 447  811.1897
 448  860.5898
 449  875.0215
 450  791.3597
 451  698.2592
 452  717.4314
 453  784.7485
 454  737.08
 455  708.3795
 456  733.1345
 457  766.0505
 458  753.8391
 459  711.0558
 460  675.6163
 461  723.1366
 462  841.0419
 463  840.5397
 464  774.4982
 465  645.907
 466  701.7931
 467  699.7316
 468  727.5123
 469  740.1866
 470  710.8218
 471  629.1827
 472  616.0212
 473  591.8207
 474  604.0399
 475  559.7436
 476  572.9413
 477  564.2177
 478  626.0546
 479  677.5999
 480  815.4912
 481  850.7836
 482  890.8713
 483  751.9456
 484  632.181
 485  503.2142
 486  534.1235
 487  530.9643
 488  575.4651
 489  659.9059
 490  677.5204
 491  661.4253
 492  608.8949
 493  641.6142
 494  743.3336
 495  882.9651
 496  786.5018
 497  637.5859
 498  578.5375
 499  567.3049
 500  595.5233
 501  603.5254
 502  616.9466
 503  559.4202
 504  548.6143
 505  532.2657
 506  535.6766
 507  530.3152
 508  561.6827
 509  624.2807
 510  677.2461
 511  662.6952
 512  709.9379
 513  696.0576
 514  630.4272
 515  571.0883
 516  619.4961
 517  572.074
 518  530.1165
 519  571.1281
 520  714.8021
 521  680.4554
 522  690.3881
 523  545.2507
 524  521.3582
 525  495.7292
 526  499.3078
 527  519.3271
 528  519.2394
 529  517.3598
 530  585.7939
 531  632.9391
 532  678.0249
 533  667.7998
 534  739.0751
 535  758.2873
 536  756.4856
 537  715.1068
 538  693.3434
 539  749.8533
 540  822.7577
 541  826.2662
 542  762.8724
 543  733.2386
 544  771.9694
 545  815.0304
 546  694.6988
 547  647.6959
 548  621.4141
 549  704.5124
 550  679.4912
 551  746.6292
 552  806.556
 553  780.1855
 554  690.6395
 555  714.1418
 556  729.13
 557  716.4891
 558  658.473
 559  653.3312
 560  637.3363
 561  635.3668
 562  666.8837
 563  694.4083
 564  749.6827
 565  724.4524
 566  661.7569
 567  552.2258
 568  562.0973
 569  566.453
 570  590.7866
 571  673.3153
 572  697.7648
 573  732.7936
 574  642.9582
 575  558.4691
 576  528.1154
 577  564.4985
 578  610.0168
 579  640.7893
 580  588.8596
 581  600.0302
 582  589.7227
 583  603.5657
 584  677.4515
 585  764.4154
 586  839.7371
 587  748.5745
 588  569.9459
 589  528.1545
 590  556.1605
 591  628.0207
 592  703.4353
 593  713.1519
 594  690.0003
 595  586.6591
 596  613.5844
 597  632.4228
 598  646.0422
 599  633.016
 600  680.5817
 601  681.9003
 602  686.3638
 603  699.3467
 604  702.3112
 605  801.8723
 606  796.9877
 607  845.5633
 608  748.6941
 609  698.2529
 610  701.4061
 611  778.0187
 612  750.3739
 613  676.956
 614  649.0292
 615  694.5426
 616  777.7761
 617  806.1535
 618  840.4844
 619  832.1625
 620  849.6274
 621  853.8027
 622  833.4673
 623  807.1849
 624  747.5248
 625  682.2191
 626  648.1636
 627  661.6414
 628  690.0886
 629  728.1612
 630  785.4689
 631  828.6639
 632  771.9377
 633  717.2463
 634  698.3268
 635  853.8364
 636  922.011
 637  851.8236
 638  765.4717
 639  736.0373
 640  801.5999
 641  821.7767
 642  914.9209
 643  1012.777
 644  1107.119
 645  1099.284
 646  1173.104
 647  1341.412
 648  1467.949
 649  1533.664
 650  1553.271
 651  1709.604
 652  1883.71
 653  1840.959
 654  1688.533
 655  1500.68
 656  1351.373
 657  1163.654
 658  1009.825
 659  910.6824
 660  858.3091
 661  784.2781
 662  748.7711
 663  748.9313
 664  720.8538
 665  725.7888
 666  742.8699
 667  768.3147
 668  687.2509
 669  633.4387
 670  566.7947
 671  627.0782
 672  700.0648
 673  820.1756
 674  858.0918
 675  767.7297
 676  606.0199
 677  489.7295
 678  571.7566
 679  674.6235
 680  759.8065
 681  746.3524
 682  693.5741
 683  639.7542
 684  600.9901
 685  655.2327
 686  729.7258
 687  791.6613
 688  772.543
 689  688.6556
 690  612.3248
 691  536.0816
 692  503.7186
 693  548.6365
 694  627.616
 695  658.2699
 696  648.3842
 697  609.6171
 698  626.0963
 699  696.423
 700  782.2397
 701  762.582
 702  683.4212
 703  614.7924
 704  617.9178
 705  653.13
 706  722.9943
 707  771.8916
 708  837.6387
 709  790.3282
 710  711.4128
 711  603.3634
 712  617.3806
 713  607.9257
 714  724.2263
 715  735.8399
 716  775.6584
 717  769.0167
 718  827.3584
 719  804.9498
 720  791.6934
 721  726.7673
 722  846.4936
 723  791.6953
 724  772.0115
 725  683.6516
 726  776.6854
 727  788.7818
 728  672.096
 729  628.6851
 730  648.8698
 731  632.1411
 732  634.6404
 733  672.0309
 734  749.3763
 735  736.578
 736  852.8135
 737  861.0358
 738  840.4031
 739  768.7419
 740  818.5508
 741  768.8533
 742  664.0851
 743  430.1726
 744  408.7909
 745  411.8233
 746  514.4821
 747  584.1318
 748  687.1746
 749  715.4201
 750  687.9011
 751  716.5181
 752  720.9329
 753  728.9333
 754  709.2463
 755  626.6295
 756  611.1817
 757  606.6223
 758  702.8576
 759  748.7752
 760  741.0499
 761  722.014
 762  611.7242
 763  569.8441
 764  645.0375
 765  802.5492
 766  878.4418
 767  801.1917
 768  749.9966
 769  777.2009
 770  842.0093
 771  838.8243
 772  851.031
 773  863.9009
 774  845.4029
 775  720.0851
 776  638.3738
 777  621.0917
 778  684.9238
 779  724.0848
 780  714.3057
 781  671.6711
 782  652.418
 783  667.0499
 784  681.3781
 785  698.2086
 786  737.178
 787  752.1952
 788  769.0021
 789  834.8234
 790  907.0926
 791  950.468
 792  844.6096
 793  826.1522
 794  699.0289
 795  670.9898
 796  565.0024
 797  579.0965
 798  602.3865
 799  730.7804
 800  773.4183
 801  757.3438
 802  802.4858
 803  845.2155
 804  851.1345
 805  816.5142
 806  788.2643
 807  863.9355
 808  865.4192
 809  872.4384
 810  781.6144
 811  694.0269
 812  692.3228
 813  717.2496
 814  758.3303
 815  782.7094
 816  762.6326
 817  755.8763
 818  836.2194
 819  807.5029
 820  861.1649
 821  846.8625
 822  850.0067
 823  806.4575
 824  756.7669
 825  761.9542
 826  705.9386
 827  669.8373
 828  676.6677
 829  670.0554
 830  744.5782
 831  770.622
 832  901.6467
 833  983.4257
 834  980.8453
 835  840.8366
 836  648.8127
 837  612.3862
 838  688.0494
 839  748.6687
 840  719.4561
 841  694.8491
 842  692.5323
 843  632.7167
 844  565.6918
 845  596.2655
 846  605.5818
 847  602.3567
 848  493.7612
 849  572.7811
 850  675.8444
 851  752.8613
 852  786.6957
 853  701.9448
 854  683.8102
 855  579.4863
 856  658.3017
 857  592.4364
 858  622.1488
 859  654.1244
 860  719.0319
 861  808.6837
 862  746.8256
 863  771.1577
 864  662.6061
 865  696.895
 866  696.4888
 867  794.2013
 868  843.4263
 869  897.617
 870  838.8904
 871  771.9839
 872  700.9581
 873  716.9811
 874  837.424
 875  892.8931
 876  880.3708
 877  869.6956
 878  910.7581
 879  851.7922
 880  841.1933
 881  727.5452
 882  685.0864
 883  657.4969
 884  661.3657
 885  724.2229
 886  716.8599
 887  701.8408
 888  719.5441
 889  750.564
 890  762.756
 891  799.8429
 892  793.1782
 893  801.3464
 894  749.6022
 895  741.5231
 896  707.2897
 897  719.2175
 898  766.7256
 899  790.6701
 900  746.5085
 901  721.2727
 902  742.7644
 903  782.7874
 904  760.0065
 905  786.5274
 906  744.8317
 907  825.585
 908  775.5704
 909  719.5703
 910  598.3161
 911  598.2831
 912  600.7737
 913  648.4913
 914  662.6783
 915  699.9623
 916  661.5883
 917  667.6711
 918  704.5386
 919  702.6549
 920  677.8094
 921  720.2808
 922  731.4295
 923  708.6257
 924  656.8989
 925  671.5685
 926  643.9021
 927  558.5519
 928  579.9387
 929  566.7377
 930  589.7982
 931  589.7438
 932  686.9338
 933  657.8128
 934  609.9957
 935  600.9347
 936  655.2016
 937  588.8444
 938  500.4222
 939  485.5399
 940  503.9901
 941  635.9666
 942  723.3834
 943  746.1924
 944  698.2946
 945  676.9336
 946  773.6
 947  804.7806
 948  634.5267
 949  539.7736
 950  547.8633
 951  656.3625
 952  718.8256
 953  661.2548
 954  666.3795
 955  659.9776
 956  708.3785
 957  710.4899
 958  600.9572
 959  634.8402
 960  629.1689
 961  681.9137
 962  644.3588
 963  652.1544
 964  615.2693
 965  553.729
 966  563.0955
 967  578.3218
 968  720.3188
 969  844.1959
 970  873.5624
 971  847.0815
 972  831.3141
 973  804.824
 974  813.504
 975  759.384
 976  773.5242
 977  788.8995
 978  774.5201
 979  773.5713
 980  706.2365
 981  708.3602
 982  711.7015
 983  661.0366
 984  644.2389
 985  679.3879
 986  697.104
 987  786.814
 988  684.373
 989  718.769
 990  582.2432
 991  549.9433
 992  552.0163
 993  590.6526
 994  625.6844
 995  612.2764
 996  586.21
 997  576.155
 998  569.4475
 999  557.062
1000  599.3099
1001  637.5814
1002  603.2047
1003  584.4206
1004  543.3967
1005  633.7161
1006  513.7015
1007  505.1921
1008  414.0585
1009  515.8177
1010  519.225
1011  531.3494
1012  558.187
1013  491.6477
1014  538.6498
1015  528.2137
1016  553.3307
1017  577.939
1018  496.6963
1019  530.9549
1020  546.7972
1021  696.2681
1022  675.9008
1023  613.972
