# Input file       =  1184285753.10695_cleaned.dat
# Candidate        =  PSR_0332+5434
# Telescope        =  AR
# Epoch_topo       =  57951.011251237847
# Epoch_bary       =  N/A
# T_sample         =  0.002
# Data Folded      =  7208960
# Data Avg         =  0.151338850541718
# Data StdDev      =  5.18867919885548 
# Profile Bins     =  512
# Profile Avg      =  2130.70911258373 
# Profile StdDev   =  615.684397193228 
# Reduced chi-sqr  =  0.495
# Prob(Noise)      <  1   (~0.0 sigma)
# P_topo (ms)      =  714.477596389396  +/- 0.00613
# P'_topo (s/s)    =  -0                +/- 3.29e-09
# P''_topo (s/s^2) =  0                 +/- 1.48e-12
# P_bary (ms)      =  N/A
# P'_bary (s/s)    =  N/A
# P''_bary (s/s^2) =  N/A
# P_orb (s)        =  N/A
# asin(i)/c (s)    =  N/A
# eccentricity     =  N/A
# w (rad)          =  N/A
# T_peri           =  N/A
######################################################
   0  2350.477
   1  1924.557
   2  2205.373
   3  2008.805
   4  2057.634
   5  1826.52
   6  1885.937
   7  2060.716
   8  2168.408
   9  2092.393
  10  1926.923
  11  1852.482
  12  1964.644
  13  2223.477
  14  2273.048
  15  2358.606
  16  2442.542
  17  1922.406
  18  1923.177
  19  1900.235
  20  1939.256
  21  1782.262
  22  1832.365
  23  2095.864
  24  2539.446
  25  2093.237
  26  1949.596
  27  2083.998
  28  2006.54
  29  1829.114
  30  1891.363
  31  2339.566
  32  1810.661
  33  1983.579
  34  1866.129
  35  1851.419
  36  2131.458
  37  1789.284
  38  2129.534
  39  1955.723
  40  2224.289
  41  1893.816
  42  1942.545
  43  2085.781
  44  2384.058
  45  2140.487
  46  2394.318
  47  2025.966
  48  2042.544
  49  2078.965
  50  1765.365
  51  1722.877
  52  1712.788
  53  1963.342
  54  1927.561
  55  2102.252
  56  2596.535
  57  2444.998
  58  1931.721
  59  1969.784
  60  1905.111
  61  2469.667
  62  2374.62
  63  2055.928
  64  2445.534
  65  2268.792
  66  2204.948
  67  1804.446
  68  2086.927
  69  2359.459
  70  2066.676
  71  1845.54
  72  1843.963
  73  1995.604
  74  1955.893
  75  2531.702
  76  2466.338
  77  2249.2
  78  2022.288
  79  1810.371
  80  1886.531
  81  1689.368
  82  2153.282
  83  2005.074
  84  2155.762
  85  2172.576
  86  2071.321
  87  2296.797
  88  2026.901
  89  1997.695
  90  1888.833
  91  2119.508
  92  1807.601
  93  1558.805
  94  1827.982
  95  2039.184
  96  2070.082
  97  2275.744
  98  2641.825
  99  2273.819
 100  1809.108
 101  2070.75
 102  2249.35
 103  1693.757
 104  1643.965
 105  2033.277
 106  1844.811
 107  1964.274
 108  1662.777
 109  2035.247
 110  2194.672
 111  2145.427
 112  2283.19
 113  2342.132
 114  1893.53
 115  1500.927
 116  1571.929
 117  1676.576
 118  1698.837
 119  2191.949
 120  2599.544
 121  1928.506
 122  1786.508
 123  2121.122
 124  1850.154
 125  1791.676
 126  2186.573
 127  2191.644
 128  2474.964
 129  2223.426
 130  1903.166
 131  2228.802
 132  2011.423
 133  1733.15
 134  1786.571
 135  2205.869
 136  2240.66
 137  2196.132
 138  1869.212
 139  1839.231
 140  1852.395
 141  1742.805
 142  2245.892
 143  2031.089
 144  2022.283
 145  2207.463
 146  2107.406
 147  2350.632
 148  2411.381
 149  2401.265
 150  1933.125
 151  1834.348
 152  2004.108
 153  2380.662
 154  2046.757
 155  1811.636
 156  1993.557
 157  1993.329
 158  1923.693
 159  1708.719
 160  2179.459
 161  2285.563
 162  1894.036
 163  2126.94
 164  2178.01
 165  2086.123
 166  2013.147
 167  2173.134
 168  1988.199
 169  1910.43
 170  1450.969
 171  1759.474
 172  2338.412
 173  2306.986
 174  2253.735
 175  2028.503
 176  1831.502
 177  1212.232
 178  1599.256
 179  1907.659
 180  2003.032
 181  1661.439
 182  1804.132
 183  1796.678
 184  1993.005
 185  2185.171
 186  1956.279
 187  2005.384
 188  1889.616
 189  1896.925
 190  1755.686
 191  1879.913
 192  1803.234
 193  2363.722
 194  2578.243
 195  2273.754
 196  2201.875
 197  1979.974
 198  1851.347
 199  1684.917
 200  1885.676
 201  2418.331
 202  2677.407
 203  2167.436
 204  2244.297
 205  2220.258
 206  2275.926
 207  2115.76
 208  2108.294
 209  2098.36
 210  1907.043
 211  2183.804
 212  2289.537
 213  2172.024
 214  2150.244
 215  2388.35
 216  2093.202
 217  2078.987
 218  2473.734
 219  2277.852
 220  2226.428
 221  2160.517
 222  2180.569
 223  1891.522
 224  1904.694
 225  1805.023
 226  2111.038
 227  2253.904
 228  2303.237
 229  2433.803
 230  2380.771
 231  2637.598
 232  2205.96
 233  2161.892
 234  2037.324
 235  2003.234
 236  2128.293
 237  2295.271
 238  2486.625
 239  2182.223
 240  2039.173
 241  2292.698
 242  2217.12
 243  1951.156
 244  1618.981
 245  2177.86
 246  2069.522
 247  1952.612
 248  2049.207
 249  2171.351
 250  2261.101
 251  1995.071
 252  1469.26
 253  1418.667
 254  1739.893
 255  2474.819
 256  2241.845
 257  2535.174
 258  2560.873
 259  2141.45
 260  2170.085
 261  1975.276
 262  1859.017
 263  1914.07
 264  1924.963
 265  1840.205
 266  1687.405
 267  2033.981
 268  2300.096
 269  2165.993
 270  2062.43
 271  2094.095
 272  2262.162
 273  2334.72
 274  1997.282
 275  2371.578
 276  2642.373
 277  2484.669
 278  2591.343
 279  2307.295
 280  2182.368
 281  1966.229
 282  1934.923
 283  2160.525
 284  2108.919
 285  2224.888
 286  1863.324
 287  2215.044
 288  1964.434
 289  2245.1
 290  2250.46
 291  2072.673
 292  2491.192
 293  2405.183
 294  2438.684
 295  2107.241
 296  2268.536
 297  2510.079
 298  2120.908
 299  2009.394
 300  2461.713
 301  2233.257
 302  1931.278
 303  2004.261
 304  1911.341
 305  2074.61
 306  1963.013
 307  1901.89
 308  1841.267
 309  2248.929
 310  2132.531
 311  1994.263
 312  2242.826
 313  2058.897
 314  2292.829
 315  2340.51
 316  2331.926
 317  1758.426
 318  1763.935
 319  2234.303
 320  2056.178
 321  2564.285
 322  2880.52
 323  3053.146
 324  3514.236
 325  4045.88
 326  4204.882
 327  3809.094
 328  3105.983
 329  2589.504
 330  2238.703
 331  2595.067
 332  2493.308
 333  2439.775
 334  2312.463
 335  1757.793
 336  1875.199
 337  2390.125
 338  2795.755
 339  2507.954
 340  2463.73
 341  2660.03
 342  2466.308
 343  2245.444
 344  1712.324
 345  1858.275
 346  2149.519
 347  2295.402
 348  2389.33
 349  2282.695
 350  2091.565
 351  2139.09
 352  1902.771
 353  2076.24
 354  2142.588
 355  1952.093
 356  2453.241
 357  2354.237
 358  2396.045
 359  2563.533
 360  2234.54
 361  2088.125
 362  2431.98
 363  2855.031
 364  2384.442
 365  2303.431
 366  2775.27
 367  2718.59
 368  2114.59
 369  2019.486
 370  2076.5
 371  2298.614
 372  2369.253
 373  2222.835
 374  2388.913
 375  2611.84
 376  2250.277
 377  2015.18
 378  2538.827
 379  2395.384
 380  2038.563
 381  2154.129
 382  2081.426
 383  2055.657
 384  1904.867
 385  1751.329
 386  2036.428
 387  2086.457
 388  1980.975
 389  1488.47
 390  1519.555
 391  1923.089
 392  2134.93
 393  2328.217
 394  2214.74
 395  2209.945
 396  2396.778
 397  2183.429
 398  1814.745
 399  1936.21
 400  2132.597
 401  1722.59
 402  1558.513
 403  1945.935
 404  1882.332
 405  2045.031
 406  1944.669
 407  2526.31
 408  2418.953
 409  2084.802
 410  2094.164
 411  2071.79
 412  1904.232
 413  2131.173
 414  1973.989
 415  2073.483
 416  2234.725
 417  2181.835
 418  2466.044
 419  2355.833
 420  2333.535
 421  2213.898
 422  2572.478
 423  2494.227
 424  2316.685
 425  2231.23
 426  2247.182
 427  2141.463
 428  2037.083
 429  2449.924
 430  2382.907
 431  2520.119
 432  2912.28
 433  2393.007
 434  1740.211
 435  1656.686
 436  2252.526
 437  2527.674
 438  2426.815
 439  2248.402
 440  2554.925
 441  2733.538
 442  2065.944
 443  1572.868
 444  1770.618
 445  2075.401
 446  2133.391
 447  2410.091
 448  2246.519
 449  2025.114
 450  1850.216
 451  1780.324
 452  2359.451
 453  2339.871
 454  1989.164
 455  2109.32
 456  2243.826
 457  1960.012
 458  2327.056
 459  2521.012
 460  1890.003
 461  1847.973
 462  1947.427
 463  2034.856
 464  1992.919
 465  1968.632
 466  2196.878
 467  2163.66
 468  1928.046
 469  2402.634
 470  2036.199
 471  1607.982
 472  1585.068
 473  1781.969
 474  1967.225
 475  1796.734
 476  2091.438
 477  2310.028
 478  2067.685
 479  2008.337
 480  1951.209
 481  1930.847
 482  2218.77
 483  2457.71
 484  2310.678
 485  2018.304
 486  1698.145
 487  1455.565
 488  1611.848
 489  2115.008
 490  2361.796
 491  2457.912
 492  2614.078
 493  2293.865
 494  2189.624
 495  2186.86
 496  2111.18
 497  1946.551
 498  2156.625
 499  2389.93
 500  1999.117
 501  1824.405
 502  1972.075
 503  2201.536
 504  2279.848
 505  2619.575
 506  2915.453
 507  2496.38
 508  2188.892
 509  1905.11
 510  1891.031
 511  2672.779
