# Input file       =  1184975008.108039_cleaned.dat
# Candidate        =  PSR_0332+5434
# Telescope        =  AR
# Epoch_topo       =  57958.988739676373
# Epoch_bary       =  N/A
# T_sample         =  0.002
# Data Folded      =  7274496
# Data Avg         =  0.144306663845389
# Data StdDev      =  5.05286906807994 
# Profile Bins     =  1024
# Profile Avg      =  1025.20711669807 
# Profile StdDev   =  425.88223167832  
# Reduced chi-sqr  =  0.521
# Prob(Noise)      <  1   (~0.0 sigma)
# P_topo (ms)      =  714.472874095587  +/- 0.000122
# P'_topo (s/s)    =  -0                +/- 6.48e-11
# P''_topo (s/s^2) =  0                 +/- 2.88e-14
# P_bary (ms)      =  N/A
# P'_bary (s/s)    =  N/A
# P''_bary (s/s^2) =  N/A
# P_orb (s)        =  N/A
# asin(i)/c (s)    =  N/A
# eccentricity     =  N/A
# w (rad)          =  N/A
# T_peri           =  N/A
######################################################
   0  946.5182
   1  1034.255
   2  1001.438
   3  844.6875
   4  735.7653
   5  753.121
   6  804.5801
   7  761.6984
   8  931.2786
   9  1037.659
  10  1116.203
  11  1111.724
  12  1120.05
  13  1106.581
  14  1159.949
  15  1047.053
  16  988.6059
  17  932.8914
  18  1026.676
  19  1003.515
  20  851.2762
  21  772.1563
  22  759.9984
  23  814.9842
  24  864.4531
  25  782.5524
  26  771.7603
  27  895.8737
  28  1089.721
  29  1368.099
  30  1362.969
  31  1330.643
  32  1216.061
  33  1029.072
  34  862.1948
  35  817.356
  36  927.0997
  37  988.7564
  38  976.3509
  39  1105.886
  40  1100.844
  41  1044.928
  42  975.4343
  43  1000.932
  44  949.9205
  45  970.119
  46  1006.054
  47  1044.164
  48  1108.302
  49  1157.138
  50  970.3394
  51  767.105
  52  881.5363
  53  1078.992
  54  1188.295
  55  1160.382
  56  1248.202
  57  1124.879
  58  1116.569
  59  1009.433
  60  1084.263
  61  1069.647
  62  1149.173
  63  1186.387
  64  1116.653
  65  961.5674
  66  837.6107
  67  848.0863
  68  946.6266
  69  1047.752
  70  1047.368
  71  967.4946
  72  1012.378
  73  1125.518
  74  1168.328
  75  1160.648
  76  1031.272
  77  1075.313
  78  1041.067
  79  1207.52
  80  1226.258
  81  1127.596
  82  971.8495
  83  907.3727
  84  827.9113
  85  874.0348
  86  982.8858
  87  1192.557
  88  1080.57
  89  942.8936
  90  875.345
  91  1057.036
  92  1240.683
  93  1276.357
  94  1121.682
  95  1067.083
  96  1078.354
  97  1179.441
  98  1030.865
  99  1029.181
 100  1098.195
 101  1270.039
 102  1321.306
 103  1285.24
 104  1311.329
 105  1331.842
 106  1304.519
 107  1268.301
 108  1137.643
 109  1024.581
 110  1019.73
 111  1112.318
 112  1112.052
 113  976.5037
 114  990.3317
 115  897.7567
 116  880.8682
 117  875.3187
 118  925.6655
 119  967.3664
 120  1119.492
 121  1118.209
 122  1240.059
 123  1164.401
 124  1219.229
 125  1152.029
 126  1164.664
 127  1176.464
 128  1112.395
 129  1161.294
 130  1056.612
 131  1008.541
 132  861.7343
 133  890.5914
 134  1013.808
 135  1157.072
 136  1188.722
 137  1022.821
 138  1057.419
 139  1158.993
 140  1232.834
 141  1107.137
 142  1120.181
 143  1051.161
 144  1065.484
 145  1007.48
 146  1045.77
 147  1047.278
 148  976.9556
 149  856.5705
 150  757.0085
 151  791.6492
 152  966.4023
 153  1043.308
 154  907.8209
 155  782.9465
 156  882.0893
 157  1178.705
 158  1441.925
 159  1478.435
 160  1377.069
 161  1231.738
 162  1302.615
 163  1207.15
 164  1102.004
 165  977.4852
 166  1014.958
 167  1036.161
 168  975.6821
 169  885.791
 170  819.5135
 171  802.2922
 172  778.7651
 173  935.5307
 174  865.3031
 175  1034.595
 176  1073.326
 177  1181.843
 178  1149.818
 179  1175.058
 180  1166.556
 181  1172.325
 182  1119.518
 183  1027.877
 184  869.8475
 185  742.2814
 186  843.4774
 187  864.6418
 188  1034.398
 189  1094.841
 190  1144.685
 191  1008.007
 192  1013.999
 193  1199.042
 194  1260.352
 195  1285.073
 196  1133.859
 197  1152.524
 198  1047.791
 199  1057.663
 200  1056.364
 201  1107.429
 202  991.2327
 203  1124.698
 204  1163.67
 205  1146.716
 206  966.0432
 207  866.2214
 208  916.6818
 209  927.8417
 210  981.3008
 211  1119.865
 212  1167.632
 213  1023.157
 214  784.1173
 215  655.6323
 216  833.1337
 217  927.7857
 218  1019.354
 219  926.4167
 220  1037.675
 221  990.0381
 222  986.9694
 223  1016.279
 224  1076.271
 225  1139.59
 226  1285.733
 227  1380.342
 228  1200.212
 229  1064.666
 230  1039.159
 231  1016.519
 232  880.2573
 233  793.7969
 234  962.9086
 235  1092.048
 236  1055.767
 237  951.5046
 238  914.2664
 239  880.5045
 240  1029.047
 241  1081.445
 242  1149.19
 243  1123.005
 244  1061.418
 245  1054.958
 246  1010.153
 247  1100.106
 248  1141.801
 249  1146.848
 250  1170.026
 251  1274.344
 252  1269.911
 253  1200.147
 254  1126.916
 255  1106.591
 256  980.8227
 257  873.4459
 258  865.999
 259  974.8433
 260  1070.6
 261  1035.895
 262  990.9687
 263  1166.874
 264  1215.644
 265  1273.803
 266  1074.441
 267  932.3519
 268  896.6409
 269  1010.916
 270  1027.449
 271  1089.31
 272  1194.431
 273  1387.377
 274  1317.183
 275  1151.994
 276  996.7371
 277  917.4587
 278  1062.539
 279  976.5984
 280  824.5592
 281  711.9757
 282  722.6201
 283  775.7162
 284  784.1504
 285  970.7603
 286  1162.149
 287  1220.97
 288  1202.839
 289  985.6826
 290  909.757
 291  1165.276
 292  1377.056
 293  1453.18
 294  1351.736
 295  1222.667
 296  1198.654
 297  1053.524
 298  945.2564
 299  946.1719
 300  991.6058
 301  1072.545
 302  983.1901
 303  1008.014
 304  852.0734
 305  835.4111
 306  951.1815
 307  1044.463
 308  1060.931
 309  943.0139
 310  1094.763
 311  1166.113
 312  1175.389
 313  1096.449
 314  873.6378
 315  859.3558
 316  946.0372
 317  1001.135
 318  887.4057
 319  807.7557
 320  916.3277
 321  1037.071
 322  1146.113
 323  1068.247
 324  1005.553
 325  889.6616
 326  910.7429
 327  1006.512
 328  1220.37
 329  1100.263
 330  993.3847
 331  925.3522
 332  928.0228
 333  921.1362
 334  924.5709
 335  1051.304
 336  1053.463
 337  1152.076
 338  1147.358
 339  1087.954
 340  1021.943
 341  1132.158
 342  1085.848
 343  1064.073
 344  995.5059
 345  967.8646
 346  939.9359
 347  795.166
 348  760.421
 349  801.8873
 350  902.6633
 351  905.089
 352  838.2238
 353  958.3898
 354  1060.36
 355  1079.066
 356  1096.993
 357  925.5977
 358  892.7964
 359  925.6959
 360  1060.403
 361  1182.233
 362  1026.213
 363  872.4771
 364  931.4365
 365  922.5383
 366  1029.97
 367  920.9888
 368  1000.461
 369  1039.778
 370  1038.512
 371  1003.012
 372  920.8267
 373  937.1507
 374  1094.196
 375  1283.058
 376  1248.323
 377  1225.797
 378  1210.942
 379  1183.797
 380  1035.641
 381  989.845
 382  1079.931
 383  1044.498
 384  1021.699
 385  847.8933
 386  863.6226
 387  829.4557
 388  1001.837
 389  1177.242
 390  1139.686
 391  1117.112
 392  1146.1
 393  1260.562
 394  1314.776
 395  1278.195
 396  1284.128
 397  1186.167
 398  1076.133
 399  1046.186
 400  1017.941
 401  1011.83
 402  944.2888
 403  851.014
 404  792.1496
 405  927.0161
 406  1060.169
 407  1028.543
 408  908.8109
 409  932.9001
 410  1007.791
 411  1194.595
 412  1266.168
 413  1116.102
 414  813.4478
 415  650.7064
 416  725.4034
 417  832.4937
 418  958.9142
 419  1025.623
 420  1010.878
 421  948.1625
 422  735.3563
 423  667.5384
 424  752.3141
 425  810.5223
 426  1038.706
 427  1104.227
 428  1145.884
 429  1107.266
 430  953.4578
 431  993.2555
 432  1011.256
 433  1064.408
 434  923.2136
 435  812.9681
 436  938.9067
 437  1063.338
 438  1092.39
 439  1169.03
 440  1191.967
 441  1160.658
 442  1052.088
 443  1075.413
 444  1031.03
 445  940.3849
 446  813.3704
 447  832.6588
 448  782.653
 449  858.4222
 450  903.1543
 451  878.3728
 452  796.5706
 453  746.6789
 454  761.7586
 455  867.3712
 456  889.6821
 457  917.1943
 458  855.0435
 459  904.278
 460  1085.658
 461  1102.16
 462  1037.737
 463  939.8983
 464  859.7446
 465  925.0013
 466  901.7413
 467  983.7734
 468  827.0362
 469  809.91
 470  862.9104
 471  999.0222
 472  996.2337
 473  875.4118
 474  806.9439
 475  861.4189
 476  930.2499
 477  985.7878
 478  937.063
 479  1105.973
 480  1228.176
 481  1124.939
 482  972.9874
 483  1022.879
 484  1165.725
 485  1168.018
 486  933.0466
 487  919.7502
 488  876.1122
 489  919.5322
 490  882.0224
 491  907.3549
 492  843.139
 493  889.8309
 494  1078.7
 495  1162.119
 496  999.5156
 497  952.5521
 498  1040.896
 499  1025.974
 500  777.1428
 501  849.7333
 502  954.4873
 503  1029.293
 504  1011.124
 505  1065.411
 506  942.9753
 507  906.8266
 508  926.0469
 509  1054.436
 510  995.4783
 511  922.7959
 512  1037.189
 513  970.0581
 514  988.7993
 515  799.2159
 516  846.7181
 517  807.6461
 518  895.4653
 519  970.3722
 520  943.2567
 521  1026.391
 522  1231.112
 523  1175.219
 524  1096.795
 525  1068.227
 526  1169.047
 527  1154.938
 528  826.8552
 529  879.4019
 530  1037.546
 531  1050.553
 532  957.8458
 533  711.6173
 534  746.835
 535  779.6236
 536  893.0162
 537  901.0836
 538  798.974
 539  876.0251
 540  944.3116
 541  1053.716
 542  1044.828
 543  1032.105
 544  1063.173
 545  1095.54
 546  1016.83
 547  824.7526
 548  661.1237
 549  795.1966
 550  949.4736
 551  1016.004
 552  1001.314
 553  943.3708
 554  939.8665
 555  1060.749
 556  1074.29
 557  1039.918
 558  967.0824
 559  1103.445
 560  1098.412
 561  1034.773
 562  971.0684
 563  1058.568
 564  1127.869
 565  1039.362
 566  1075.693
 567  1106.84
 568  1059.677
 569  993.9376
 570  995.5398
 571  1081.601
 572  1199.126
 573  1209.829
 574  1211.478
 575  1150.589
 576  1163.735
 577  1186.782
 578  1066.554
 579  1163.471
 580  1112.921
 581  1019.852
 582  892.3449
 583  914.8764
 584  1076.145
 585  1051.408
 586  1102.152
 587  1208.159
 588  1037.366
 589  922.9642
 590  929.7265
 591  1055.736
 592  1277.878
 593  1342.467
 594  1543.043
 595  1471.155
 596  1204.682
 597  1108.219
 598  1107.622
 599  1064.857
 600  1182.915
 601  1140.178
 602  1122.809
 603  1056.365
 604  1097.598
 605  1116.798
 606  1043.414
 607  1225.915
 608  1308.262
 609  1253.567
 610  1219.578
 611  1150.115
 612  1140.834
 613  1132.466
 614  1225.707
 615  1163.354
 616  906.9423
 617  846.8317
 618  974.8511
 619  998.266
 620  909.8981
 621  770.9728
 622  820.7155
 623  1067.601
 624  1216.647
 625  1246.036
 626  1159.812
 627  1180.834
 628  1363.378
 629  1229.432
 630  970.5117
 631  865.235
 632  1058.021
 633  1180.338
 634  1093.809
 635  1099.115
 636  1096.652
 637  1089.327
 638  1135.126
 639  1164.142
 640  1185.513
 641  1192.39
 642  1380.396
 643  1459.354
 644  1483.385
 645  1565.333
 646  1823.231
 647  1884.864
 648  1732.925
 649  1608.675
 650  1775.472
 651  2005.166
 652  2001.062
 653  1951.185
 654  1809.518
 655  1730.054
 656  1562.645
 657  1420.871
 658  1170.614
 659  999.8058
 660  1003.463
 661  1062.08
 662  1122.816
 663  1121.791
 664  1074.352
 665  1048.055
 666  955.2663
 667  948.6174
 668  894.1702
 669  924.9703
 670  894.2401
 671  882.7827
 672  862.1219
 673  962.7651
 674  1251.496
 675  1572.936
 676  1589.894
 677  1339.52
 678  1163.749
 679  1074.456
 680  941.1523
 681  844.4192
 682  925.0466
 683  929.3367
 684  1019.87
 685  1162.433
 686  1206.672
 687  1163.714
 688  1201.805
 689  1269.203
 690  1245.696
 691  1132.578
 692  1146.049
 693  1141.208
 694  975.7452
 695  938.0195
 696  975.0558
 697  941.5803
 698  790.7142
 699  751.983
 700  838.8896
 701  854.8846
 702  888.0056
 703  992.1814
 704  1057.767
 705  985.4154
 706  955.7522
 707  969.1809
 708  959.4149
 709  952.5109
 710  978.0789
 711  936.9891
 712  821.5527
 713  651.2109
 714  575.1256
 715  614.5462
 716  860.2085
 717  1029.787
 718  1121.156
 719  1163.525
 720  1236.919
 721  1282.975
 722  1162.39
 723  1125.408
 724  1112.709
 725  1139.499
 726  1075.637
 727  1086.083
 728  1005.652
 729  837.9341
 730  759.463
 731  842.0009
 732  922.4966
 733  903.5025
 734  1011.051
 735  1143.69
 736  1105.134
 737  1035.698
 738  1029.436
 739  1074.831
 740  1117.602
 741  1160.526
 742  1214.547
 743  1192.179
 744  1108.718
 745  1092.195
 746  1037.668
 747  965.1622
 748  817.7248
 749  888.4294
 750  975.0607
 751  831.3104
 752  713.5251
 753  855.1985
 754  1015.477
 755  956.7892
 756  918.8398
 757  989.2643
 758  1184.625
 759  1116.134
 760  1132.402
 761  1175.838
 762  1173.868
 763  1071.811
 764  962.5776
 765  943.12
 766  966.7437
 767  911.3286
 768  874.492
 769  892.7817
 770  953.1657
 771  1001.297
 772  946.5757
 773  768.1933
 774  863.8961
 775  1032.459
 776  1148.777
 777  1012.417
 778  905.0853
 779  885.7083
 780  924.5358
 781  982.1892
 782  1053.602
 783  962.5215
 784  869.4984
 785  894.9896
 786  973.2025
 787  863.1903
 788  709.925
 789  786.6136
 790  874.8087
 791  936.0752
 792  839.5425
 793  693.4146
 794  757.391
 795  878.4167
 796  932.2733
 797  847.0245
 798  775.8157
 799  954.8611
 800  1018.112
 801  998.5782
 802  971.6985
 803  1073.707
 804  1070.361
 805  992.8547
 806  902.1784
 807  719.793
 808  686.0006
 809  819.6761
 810  943.4944
 811  788.337
 812  703.4825
 813  804.8284
 814  823.3734
 815  865.1337
 816  802.5431
 817  874.6244
 818  929.8768
 819  997.5075
 820  1030.479
 821  983.6041
 822  918.045
 823  1067.919
 824  1022.834
 825  1004.25
 826  1002.896
 827  1091.43
 828  1195.627
 829  1143.237
 830  1176.772
 831  1075.451
 832  1038.493
 833  1001.296
 834  1016.5
 835  917.8573
 836  906.916
 837  885.916
 838  730.4751
 839  756.1727
 840  859.2612
 841  1044.389
 842  1160.174
 843  1254.938
 844  1221.289
 845  954.5502
 846  775.0469
 847  743.0723
 848  835.77
 849  781.883
 850  866.9125
 851  835.0441
 852  850.8112
 853  821.1738
 854  902.5594
 855  886.474
 856  933.915
 857  1085.7
 858  1145.907
 859  1172.142
 860  1051.845
 861  1128.18
 862  967.7343
 863  789.4154
 864  818.8464
 865  871.4665
 866  861.2961
 867  900.0765
 868  926.55
 869  992.0994
 870  958.4438
 871  1107.956
 872  1134.231
 873  1069.174
 874  1013.061
 875  1014.63
 876  940.4913
 877  742.0682
 878  582.499
 879  590.9666
 880  664.5582
 881  818.6898
 882  970.2875
 883  935.9972
 884  906.4038
 885  981.9003
 886  1060.518
 887  1096.146
 888  1057.208
 889  1053.182
 890  1078.167
 891  1031.574
 892  960.8635
 893  884.8773
 894  910.208
 895  1156.958
 896  1118.367
 897  1014.375
 898  850.1766
 899  960.9449
 900  840.0391
 901  875.7766
 902  909.9627
 903  1004.249
 904  988.0755
 905  1004.84
 906  1050.897
 907  934.3387
 908  1007.686
 909  1022.584
 910  1020.604
 911  852.0554
 912  979.5334
 913  1048.683
 914  957.0789
 915  825.329
 916  695.2783
 917  730.6135
 918  760.7207
 919  840.7656
 920  1004.644
 921  1087.383
 922  1083.34
 923  1003.023
 924  964.2
 925  917.1598
 926  935.502
 927  986.8125
 928  1091.811
 929  1033.016
 930  1088.875
 931  948.8193
 932  972.783
 933  1035.499
 934  1162.203
 935  1159.111
 936  1085.982
 937  1055.655
 938  1001.926
 939  1009.348
 940  878.8445
 941  745.0571
 942  686.4662
 943  791.1968
 944  916.7622
 945  888.2697
 946  975.4579
 947  1081.225
 948  1155.808
 949  1208.388
 950  1133.424
 951  1049.556
 952  1088.656
 953  998.1766
 954  948.2525
 955  994.4771
 956  1017.332
 957  1144.806
 958  1181.449
 959  1156.934
 960  1165.454
 961  1022.333
 962  1033.17
 963  1096.633
 964  1142.335
 965  1084.382
 966  851.7145
 967  893.7082
 968  1029.478
 969  1150.116
 970  1199.786
 971  1164.556
 972  985.6277
 973  897.7653
 974  875.1484
 975  996.3199
 976  904.9393
 977  966.7393
 978  1018.816
 979  986.1822
 980  986.7859
 981  1029.978
 982  1153.962
 983  1167.802
 984  1206.284
 985  1304.873
 986  1323.719
 987  1264.932
 988  1078.418
 989  963.1729
 990  931.6004
 991  1080.87
 992  1078.79
 993  943.1534
 994  892.3782
 995  1009.284
 996  1054.755
 997  1097.217
 998  1118.646
 999  1147.972
1000  1138.174
1001  1033.477
1002  1053.262
1003  971.0623
1004  1093.857
1005  1151.79
1006  1075.156
1007  895.9963
1008  777.5261
1009  920.8264
1010  982.0599
1011  985.8784
1012  966.8896
1013  960.3762
1014  1047.349
1015  1083.301
1016  1263.144
1017  1288.379
1018  1192.333
1019  992.7256
1020  1056.252
1021  1016.299
1022  1074.432
1023  927.7256
