# Input file       =  1184573858.104995_cleaned.dat
# Candidate        =  PSR_0332+5434
# Telescope        =  AR
# Epoch_topo       =  57954.345799826333
# Epoch_bary       =  N/A
# T_sample         =  0.002
# Data Folded      =  7340032
# Data Avg         =  0.367392866933577
# Data StdDev      =  5.8090169036759  
# Profile Bins     =  512
# Profile Avg      =  5266.88522634891 
# Profile StdDev   =  695.531232241076 
# Reduced chi-sqr  =  1.183
# Prob(Noise)      <  0.00272   (~2.8 sigma)
# P_topo (ms)      =  714.475866566402  +/- 0.000239
# P'_topo (s/s)    =  -0                +/- 1.26e-10
# P''_topo (s/s^2) =  0                 +/- 5.57e-14
# P_bary (ms)      =  N/A
# P'_bary (s/s)    =  N/A
# P''_bary (s/s^2) =  N/A
# P_orb (s)        =  N/A
# asin(i)/c (s)    =  N/A
# eccentricity     =  N/A
# w (rad)          =  N/A
# T_peri           =  N/A
######################################################
   0  5400.893
   1  4843.119
   2  5503.913
   3  5514.833
   4  5794.424
   5  5661.196
   6  5353.576
   7  5740.289
   8  5830.652
   9  5781.366
  10  5644.714
  11  5968.872
  12  6001.445
  13  5761.563
  14  5702.201
  15  5253.734
  16  5336.633
  17  5406.544
  18  5282.967
  19  5109.779
  20  5188.237
  21  5566.332
  22  5641.441
  23  5393.41
  24  5596.271
  25  5884.152
  26  5604.761
  27  5745.326
  28  5852.119
  29  6130.871
  30  6376.217
  31  6187.025
  32  6233.541
  33  5982.454
  34  5824.923
  35  5832.696
  36  6417.901
  37  6593.86
  38  6555.846
  39  6359.286
  40  6026.737
  41  5432.518
  42  5337.511
  43  6071.043
  44  6259.869
  45  5534.478
  46  5340.899
  47  5352.453
  48  5374.162
  49  5348.546
  50  5182.015
  51  5353.164
  52  5203.97
  53  5245.465
  54  5188.765
  55  5329.048
  56  5291.769
  57  5643.814
  58  5515.401
  59  5687.554
  60  5667.911
  61  5336.278
  62  5297.034
  63  5270.411
  64  5401.861
  65  5589.862
  66  6062.331
  67  5917.077
  68  5695.261
  69  5672.105
  70  5549.801
  71  5418.96
  72  5585.963
  73  5616.725
  74  5587.779
  75  5616.512
  76  5374.467
  77  5913.553
  78  5858.97
  79  5863.224
  80  6155.211
  81  5918.836
  82  5430.759
  83  5426.032
  84  5422.87
  85  5354.495
  86  5351.587
  87  5286.725
  88  5523.793
  89  5164.93
  90  5382.167
  91  5261.536
  92  5007.387
  93  5419.425
  94  5400.391
  95  5739.981
  96  5612.818
  97  5498.87
  98  5134.544
  99  5323.784
 100  5390.3
 101  5263.12
 102  5510.571
 103  5056.186
 104  5099.761
 105  5052.395
 106  4828.041
 107  4880.749
 108  5356.231
 109  5749.049
 110  5911.351
 111  5636.191
 112  6079.77
 113  5802.423
 114  5441.916
 115  5836.389
 116  6187.335
 117  5972.241
 118  6249.535
 119  6266.99
 120  5961.562
 121  5281.102
 122  5990.238
 123  6418.107
 124  6372.847
 125  5929.434
 126  5630.543
 127  5809.125
 128  5452.229
 129  5497.368
 130  5488.791
 131  5370.89
 132  5135.985
 133  4793.736
 134  4968.299
 135  4601.194
 136  4460.153
 137  4947.517
 138  5484.443
 139  5598.821
 140  4941.167
 141  4754.803
 142  5149.039
 143  5899.567
 144  5703.163
 145  5486.038
 146  4964.542
 147  5346.729
 148  5165.757
 149  4998.997
 150  4757.316
 151  4734.209
 152  5049.46
 153  5275.357
 154  5294.025
 155  4732.896
 156  4662.849
 157  4781.98
 158  5507.309
 159  6381.859
 160  6918.828
 161  7237.912
 162  6878.529
 163  6142.786
 164  5295.708
 165  5242.148
 166  5213.358
 167  5200.654
 168  4944.087
 169  4705.014
 170  4517.869
 171  4473.077
 172  4785.968
 173  4487.671
 174  4573.324
 175  4693.167
 176  4418.317
 177  4346.144
 178  4544.842
 179  4792.739
 180  4744.209
 181  4816.588
 182  4926.668
 183  4970.106
 184  4674.245
 185  4411.89
 186  4982.726
 187  5271.417
 188  5676.844
 189  5572.68
 190  5626.867
 191  5050.652
 192  4661.128
 193  4727.929
 194  4587.511
 195  4935.387
 196  5410.298
 197  5522.183
 198  5165.467
 199  4519.739
 200  4449.581
 201  4581.704
 202  4538.25
 203  4544.295
 204  5013.46
 205  4786.528
 206  4342.8
 207  4363.883
 208  4447.25
 209  4953.098
 210  5052.03
 211  4691.237
 212  4468.067
 213  4796.902
 214  4352.006
 215  4200.18
 216  4362.686
 217  5058.329
 218  4995.833
 219  4252.063
 220  4198.802
 221  3922.994
 222  3975.556
 223  4372.091
 224  4477.352
 225  4416.47
 226  4590.378
 227  3961.42
 228  3765.969
 229  3988.73
 230  3982.81
 231  4446.789
 232  4935.93
 233  4526.26
 234  4373.472
 235  4170.602
 236  4053.231
 237  4438.263
 238  4809.725
 239  5055.446
 240  4770.342
 241  4160.995
 242  4204.832
 243  3869.909
 244  3784.406
 245  4399.788
 246  4706.246
 247  4830.131
 248  4475.416
 249  4279.672
 250  4221.167
 251  4212.825
 252  3939.642
 253  4321.304
 254  4798.69
 255  4534.471
 256  4030.731
 257  4259.802
 258  4283.898
 259  3887.321
 260  3975.149
 261  3980.719
 262  4265.149
 263  4407.921
 264  4437.754
 265  4834.765
 266  4945.958
 267  4910.204
 268  4881.532
 269  4771.294
 270  4699.028
 271  4835.086
 272  5293.251
 273  5580.078
 274  5136.771
 275  5185.274
 276  5470.315
 277  4913.212
 278  4876.054
 279  5108.996
 280  5548.72
 281  5436.893
 282  5378.779
 283  5566.647
 284  5313.518
 285  5085.131
 286  5067.599
 287  5077.112
 288  5117.568
 289  5154.951
 290  4716.888
 291  4495.804
 292  4433.346
 293  4624.006
 294  4736.527
 295  5015.962
 296  5256.476
 297  5554.753
 298  5412.483
 299  4966.598
 300  4805.728
 301  4662.786
 302  4622.038
 303  4498.542
 304  4962.929
 305  5478.661
 306  5314.686
 307  5313.051
 308  5244.944
 309  4760.855
 310  4852.718
 311  5065.803
 312  5240.689
 313  5356.928
 314  5198.285
 315  5218.215
 316  5001.669
 317  5339.569
 318  5545.836
 319  5230.38
 320  4908.989
 321  4809.537
 322  5588.717
 323  5454.323
 324  5414.446
 325  5323.637
 326  5267.762
 327  5384.503
 328  5552.188
 329  6255.761
 330  5867.957
 331  5503.6
 332  5568.625
 333  5425.65
 334  5222.538
 335  5149.081
 336  5285.946
 337  5419.922
 338  5359.961
 339  5646.505
 340  5621.348
 341  5437.331
 342  5554.391
 343  5814.612
 344  5782.393
 345  5234.512
 346  5243.731
 347  5537.778
 348  5544.259
 349  5374.667
 350  5681.617
 351  5983.319
 352  5795.814
 353  5782.313
 354  5761.515
 355  5480.828
 356  5116.25
 357  4990.643
 358  5319.134
 359  5950.609
 360  5653.677
 361  5502.167
 362  5696.87
 363  5295.475
 364  5281.411
 365  5828.168
 366  6107.1
 367  5909.421
 368  5443.174
 369  5308.904
 370  5000.597
 371  4925.419
 372  5329.782
 373  5432.748
 374  5184.84
 375  4766.008
 376  4881.495
 377  4937.655
 378  5470.087
 379  5319.929
 380  5358.909
 381  5705.953
 382  5485.973
 383  5670.996
 384  5316.221
 385  4841.747
 386  5075.009
 387  5208.415
 388  5510.774
 389  5497.365
 390  5034.328
 391  4965.938
 392  5019.284
 393  5097.51
 394  5271.1
 395  5238.161
 396  5584.506
 397  5558.105
 398  5445.464
 399  5579.613
 400  5401.088
 401  5490.761
 402  5682.52
 403  5826.59
 404  5831.572
 405  5885.673
 406  5641.813
 407  5950.612
 408  5814.096
 409  5645.865
 410  5502.348
 411  5192.966
 412  5359.653
 413  5117.532
 414  5031.78
 415  5468.222
 416  5435.665
 417  5677.547
 418  5426.349
 419  5261.85
 420  5358.377
 421  5425.458
 422  5492.993
 423  5370.409
 424  5230.152
 425  5201.481
 426  5618.527
 427  5499.787
 428  5686.177
 429  5810.194
 430  5496.425
 431  5791.188
 432  5743.556
 433  5841.529
 434  5734.877
 435  5959.95
 436  5946.013
 437  5493.643
 438  6076.813
 439  6248.742
 440  6029.032
 441  5083.73
 442  5003.241
 443  5310.619
 444  4860.606
 445  4884.551
 446  5051.448
 447  5271.473
 448  5349.551
 449  4801.679
 450  4941
 451  5137.471
 452  5137.261
 453  4902.229
 454  5419.331
 455  5337.6
 456  4764.257
 457  4620.102
 458  4607.575
 459  4979.96
 460  5097.654
 461  5348.653
 462  5407.83
 463  5468.948
 464  5365.125
 465  5423.049
 466  5692.872
 467  5680.979
 468  5871.877
 469  5397.767
 470  4972.59
 471  4750.318
 472  4851.918
 473  4849.682
 474  4760.743
 475  5112.75
 476  4960.504
 477  4794.643
 478  5184.078
 479  5657.492
 480  5975.027
 481  5467.506
 482  5791.43
 483  5685.342
 484  5880.547
 485  5451.847
 486  6045.381
 487  6606.031
 488  6132.9
 489  5988.222
 490  5570.076
 491  5588.757
 492  5861.455
 493  6192.66
 494  6220.868
 495  6129.543
 496  6040.82
 497  6017.171
 498  5606.009
 499  5456.249
 500  5473.148
 501  5101.912
 502  5603.778
 503  5652.487
 504  5058.979
 505  5378.836
 506  5324.105
 507  5150.669
 508  4976.019
 509  4661.927
 510  4892.788
 511  5118.654
