# Input file       =  1184660059.09953_cleaned.dat
# Candidate        =  PSR_0332+5434
# Telescope        =  AR
# Epoch_topo       =  57955.343496522335
# Epoch_bary       =  N/A
# T_sample         =  0.002
# Data Folded      =  7340032
# Data Avg         =  0.345237227597473
# Data StdDev      =  6.11491337415678 
# Profile Bins     =  1024
# Profile Avg      =  2474.66413338352 
# Profile StdDev   =  517.713282455094 
# Reduced chi-sqr  =  0.910
# Prob(Noise)      <  0.981   (~0.0 sigma)
# P_topo (ms)      =  714.475273240728  +/- 0.000997
# P'_topo (s/s)    =  -0                +/- 5.26e-10
# P''_topo (s/s^2) =  0                 +/- 2.32e-13
# P_bary (ms)      =  N/A
# P'_bary (s/s)    =  N/A
# P''_bary (s/s^2) =  N/A
# P_orb (s)        =  N/A
# asin(i)/c (s)    =  N/A
# eccentricity     =  N/A
# w (rad)          =  N/A
# T_peri           =  N/A
######################################################
   0  2783.177
   1  2791.054
   2  2756.571
   3  2790.938
   4  2724.278
   5  2653.458
   6  2712.251
   7  2896.931
   8  2891.033
   9  2747.469
  10  2621.25
  11  2577.201
  12  2480.121
  13  2472.021
  14  2676.318
  15  2709.412
  16  2656.742
  17  2625.754
  18  2702.758
  19  2715.602
  20  2725.281
  21  2740.542
  22  2814.903
  23  2691.095
  24  2596.4
  25  2549.787
  26  2544.898
  27  2540.46
  28  2480.397
  29  2459.235
  30  2492.747
  31  2515.092
  32  2723.789
  33  2705.94
  34  2757.708
  35  2621.748
  36  2614.415
  37  2694.008
  38  2799.371
  39  2893.158
  40  2824.566
  41  2915.329
  42  2934.393
  43  2971.762
  44  2806.617
  45  2622.396
  46  2571.04
  47  2625.489
  48  2658.967
  49  2727.907
  50  2712.417
  51  2648.548
  52  2507.168
  53  2487.79
  54  2552.883
  55  2647.267
  56  2653.56
  57  2536.063
  58  2575.409
  59  2584.853
  60  2713.291
  61  2655.27
  62  2565.386
  63  2481.334
  64  2487.821
  65  2540.107
  66  2476.938
  67  2385.733
  68  2354.017
  69  2496.176
  70  2652.15
  71  2707.614
  72  2591.712
  73  2577.272
  74  2610.718
  75  2576.049
  76  2515.465
  77  2380.051
  78  2389.042
  79  2295.727
  80  2328.837
  81  2298.765
  82  2387.109
  83  2377.855
  84  2390.442
  85  2375.845
  86  2363.776
  87  2462.976
  88  2464.795
  89  2438.303
  90  2420.807
  91  2407.146
  92  2249.576
  93  2201.208
  94  2276.831
  95  2371.205
  96  2301.815
  97  2085.182
  98  2193.647
  99  2294.865
 100  2431.697
 101  2408.149
 102  2380.612
 103  2323.393
 104  2125.62
 105  2168.3
 106  2354.552
 107  2314.592
 108  2255.57
 109  2221.193
 110  2391.297
 111  2379.07
 112  2338.926
 113  2406.414
 114  2457.476
 115  2423.558
 116  2310.281
 117  2319.74
 118  2294.787
 119  2268.197
 120  2386.052
 121  2549.238
 122  2586.609
 123  2545.031
 124  2519.21
 125  2429.709
 126  2240.38
 127  2238.612
 128  2241.897
 129  2131.559
 130  2046.703
 131  2105.469
 132  2262.587
 133  2379.111
 134  2428.868
 135  2612.599
 136  2769.937
 137  2741.789
 138  2666.229
 139  2642.656
 140  2596.838
 141  2583.798
 142  2606.207
 143  2586.331
 144  2483.984
 145  2403.429
 146  2340.434
 147  2384.008
 148  2352.398
 149  2414.992
 150  2391.878
 151  2301.11
 152  2269.119
 153  2381.022
 154  2414.823
 155  2365.879
 156  2378.216
 157  2245.949
 158  2126.354
 159  2117.844
 160  2255.107
 161  2243.963
 162  2172.021
 163  2306.354
 164  2332.603
 165  2327
 166  2250.757
 167  2273.713
 168  2198.537
 169  2032.735
 170  1945.6
 171  1910.2
 172  1959.699
 173  2042.451
 174  2124.574
 175  2282.717
 176  2155.741
 177  2093.427
 178  2175.388
 179  2217.451
 180  2369.706
 181  2406.795
 182  2328.642
 183  2095.235
 184  2036.693
 185  2020.118
 186  2043.622
 187  2176.783
 188  2365.07
 189  2554.567
 190  2496.629
 191  2526.229
 192  2595.002
 193  2597.937
 194  2358.62
 195  2154.294
 196  2128.182
 197  2247.705
 198  2174.896
 199  2210.647
 200  2267.448
 201  2353.145
 202  2357.682
 203  2445.668
 204  2458.236
 205  2435.17
 206  2454.657
 207  2397.447
 208  2300.666
 209  2359.24
 210  2424.587
 211  2397.706
 212  2254.759
 213  2150.315
 214  2223.209
 215  2227.364
 216  2229.19
 217  2296.406
 218  2360.93
 219  2382.949
 220  2263.178
 221  2190.962
 222  2157.971
 223  2369.579
 224  2438.83
 225  2462.915
 226  2316.52
 227  2273.728
 228  2278.597
 229  2345.086
 230  2333.675
 231  2276.696
 232  2107.838
 233  2120.531
 234  2098.494
 235  2081.946
 236  2095.135
 237  2094.168
 238  2152.7
 239  2083.811
 240  2106.825
 241  2247.474
 242  2217.82
 243  2117.761
 244  2088.651
 245  2190.974
 246  2264.437
 247  2246.155
 248  2258.328
 249  2271.937
 250  2419.966
 251  2487.993
 252  2424.79
 253  2227.218
 254  2238.456
 255  2315.964
 256  2385.435
 257  2445.666
 258  2418.966
 259  2597.942
 260  2678.938
 261  2788.49
 262  2740.589
 263  2674.919
 264  2565.947
 265  2588.718
 266  2637.594
 267  2580.952
 268  2529.921
 269  2585.381
 270  2570.698
 271  2572.292
 272  2586.23
 273  2565.989
 274  2600.441
 275  2597.314
 276  2671.231
 277  2556.179
 278  2371.153
 279  2384.639
 280  2508.243
 281  2636.769
 282  2502.89
 283  2491.1
 284  2486.883
 285  2492.455
 286  2487.94
 287  2430.531
 288  2464.067
 289  2430.132
 290  2618.749
 291  2688.896
 292  2629.559
 293  2442.908
 294  2307.932
 295  2266.531
 296  2147.662
 297  2211.667
 298  2147.573
 299  2273.103
 300  2155.698
 301  2181.559
 302  2332.341
 303  2403.942
 304  2389.268
 305  2362.287
 306  2472.214
 307  2380.807
 308  2209.525
 309  2110.077
 310  2128.88
 311  2104.409
 312  2055.78
 313  2096.868
 314  2091.336
 315  2140.954
 316  2203.702
 317  2315.243
 318  2384.047
 319  2373.402
 320  2314.699
 321  2272.6
 322  2156.777
 323  2201.783
 324  2231.642
 325  2341.575
 326  2380.044
 327  2316.354
 328  2318.181
 329  2398.246
 330  2509.982
 331  2497.337
 332  2319.526
 333  2299.165
 334  2305.655
 335  2245.902
 336  2030.878
 337  2110.096
 338  2245.021
 339  2160.46
 340  2095.377
 341  2185.04
 342  2241.267
 343  2083.511
 344  1899.405
 345  1858.981
 346  1818.623
 347  1831.876
 348  1855.92
 349  1809.338
 350  1788.186
 351  1833.877
 352  1993.233
 353  2024.384
 354  1960.869
 355  2014.792
 356  2042.867
 357  1839.801
 358  1837.248
 359  1932.313
 360  2080.8
 361  1950.947
 362  1843.147
 363  1814.128
 364  1938.096
 365  2018.764
 366  1992.807
 367  1916.509
 368  1828.903
 369  1898.639
 370  1918.229
 371  1836.626
 372  1842.865
 373  1921.712
 374  1997.369
 375  1914.645
 376  1953.68
 377  1990.177
 378  2116.694
 379  2153.954
 380  2231.17
 381  2248.875
 382  2183.451
 383  2146.265
 384  2118.414
 385  2259.409
 386  2357.116
 387  2363.022
 388  2309.015
 389  2317.113
 390  2363.65
 391  2360.331
 392  2189.106
 393  2163.014
 394  2215.652
 395  2330.688
 396  2367.484
 397  2329.745
 398  2340.967
 399  2377.563
 400  2312.824
 401  2235.913
 402  2249.402
 403  2282.98
 404  2143.839
 405  2038.737
 406  2093.752
 407  2227.736
 408  2347.169
 409  2294.18
 410  2191.312
 411  2072.391
 412  2084.097
 413  2042.273
 414  1994.746
 415  1990.751
 416  2009.232
 417  2092.116
 418  2168.401
 419  2193.667
 420  2258.258
 421  2198.963
 422  2103.115
 423  2125.658
 424  2100.572
 425  1978.391
 426  1989.207
 427  2078.3
 428  2181.26
 429  2060.03
 430  1953.173
 431  1985.319
 432  2003.547
 433  2014.681
 434  1892.532
 435  1940.693
 436  2026.655
 437  2161.905
 438  2071.709
 439  2055.401
 440  1907.284
 441  2020.146
 442  1953.232
 443  2056.752
 444  2042.444
 445  2092.559
 446  2067.953
 447  2055.642
 448  2097.45
 449  2037.401
 450  2000.597
 451  1986.438
 452  2051.961
 453  2144.667
 454  2209.662
 455  2280.838
 456  2326.365
 457  2331.391
 458  2333.069
 459  2325.792
 460  2354.105
 461  2349.687
 462  2377.019
 463  2392.884
 464  2521.418
 465  2587.004
 466  2628.398
 467  2535.691
 468  2620.898
 469  2590.425
 470  2528.308
 471  2480.107
 472  2442.214
 473  2421.662
 474  2490.252
 475  2663.304
 476  2697.476
 477  2687.633
 478  2699.797
 479  2820.701
 480  2776.357
 481  2843.512
 482  2802.336
 483  2772.618
 484  2689.639
 485  2536.56
 486  2379.478
 487  2378.13
 488  2467.711
 489  2606.225
 490  2700.27
 491  2851.639
 492  2745.758
 493  2638.706
 494  2596.06
 495  2638.497
 496  2652.455
 497  2574.418
 498  2669.42
 499  2734.138
 500  2818.003
 501  2781.163
 502  2693.994
 503  2681.648
 504  2652.476
 505  2705.096
 506  2624.476
 507  2545.527
 508  2489.853
 509  2462.357
 510  2542.694
 511  2517.08
 512  2466.63
 513  2321.265
 514  2472.663
 515  2504.579
 516  2454.423
 517  2352.162
 518  2400.518
 519  2565.926
 520  2447.248
 521  2317.853
 522  2326.413
 523  2563.617
 524  2610.943
 525  2661.351
 526  2645.795
 527  2724.617
 528  2586.981
 529  2479.539
 530  2350.715
 531  2471.875
 532  2444.933
 533  2393.876
 534  2415.585
 535  2495.081
 536  2650.262
 537  2627.914
 538  2643.73
 539  2647.257
 540  2668.052
 541  2657.6
 542  2535.429
 543  2561.771
 544  2526.507
 545  2453.398
 546  2365.266
 547  2414.476
 548  2520.529
 549  2608.512
 550  2609.318
 551  2638.31
 552  2607.073
 553  2571.719
 554  2537.714
 555  2428.688
 556  2390.91
 557  2458.252
 558  2522.931
 559  2451.027
 560  2371.075
 561  2372.049
 562  2481.992
 563  2424.3
 564  2299.238
 565  2261.791
 566  2212.786
 567  2300.037
 568  2306.314
 569  2388.7
 570  2390.854
 571  2377.744
 572  2409.682
 573  2428.303
 574  2553.401
 575  2604.352
 576  2642.447
 577  2605.01
 578  2531.093
 579  2443.637
 580  2295.803
 581  2239.782
 582  2212.546
 583  2245.816
 584  2377.361
 585  2549.369
 586  2610.301
 587  2640.306
 588  2607.244
 589  2582.188
 590  2494.698
 591  2338.448
 592  2358.041
 593  2280.753
 594  2349.838
 595  2359.207
 596  2520.041
 597  2585.853
 598  2649.798
 599  2655.849
 600  2550.823
 601  2477.089
 602  2377.859
 603  2282.905
 604  2400.644
 605  2351.528
 606  2447.912
 607  2399.276
 608  2390.676
 609  2326.306
 610  2296.493
 611  2358.906
 612  2500.013
 613  2520.077
 614  2502.979
 615  2390.56
 616  2464.257
 617  2449.754
 618  2360.991
 619  2344.693
 620  2362.394
 621  2394.247
 622  2310.741
 623  2269.837
 624  2335.385
 625  2408.753
 626  2491.812
 627  2601.101
 628  2644.712
 629  2480.474
 630  2391.406
 631  2454.222
 632  2589.37
 633  2513.73
 634  2528.46
 635  2518.434
 636  2574.203
 637  2584.358
 638  2508.224
 639  2321.997
 640  2313.23
 641  2357.662
 642  2490.223
 643  2516.018
 644  2514.564
 645  2709.659
 646  2691.766
 647  2750.323
 648  2712.471
 649  2789.014
 650  2876.072
 651  2924.592
 652  3111.192
 653  3069.598
 654  3056.85
 655  2935.718
 656  2760.506
 657  2587.828
 658  2443.931
 659  2316.411
 660  2167.953
 661  2109.617
 662  2149.625
 663  2207.971
 664  2170.201
 665  2100.304
 666  2118.222
 667  2219.497
 668  2270.2
 669  2329.584
 670  2463.457
 671  2546.632
 672  2512.939
 673  2471.134
 674  2551.043
 675  2506.176
 676  2354.404
 677  2248.406
 678  2172.551
 679  2193.458
 680  2216.95
 681  2358.869
 682  2386.105
 683  2379.614
 684  2380.119
 685  2335.915
 686  2304.033
 687  2251.835
 688  2272.496
 689  2267.825
 690  2294.138
 691  2243.904
 692  2130.517
 693  2037.29
 694  2101.471
 695  2243.591
 696  2313.883
 697  2294.57
 698  2292.173
 699  2237.571
 700  2255.817
 701  2309.725
 702  2496.057
 703  2554.2
 704  2543.96
 705  2549.527
 706  2430.985
 707  2330.065
 708  2246.612
 709  2279.294
 710  2281.646
 711  2255.723
 712  2397.887
 713  2472.262
 714  2502.596
 715  2433.026
 716  2454.925
 717  2358.239
 718  2276.232
 719  2300.204
 720  2363.984
 721  2321.709
 722  2306.814
 723  2518.935
 724  2657.977
 725  2722.733
 726  2621.152
 727  2612.148
 728  2622.698
 729  2539.439
 730  2552.514
 731  2523.075
 732  2630.203
 733  2599.417
 734  2612.355
 735  2643.754
 736  2573.506
 737  2569.958
 738  2551.258
 739  2516.189
 740  2438.26
 741  2467.051
 742  2489.047
 743  2447.249
 744  2357.111
 745  2331.855
 746  2259.801
 747  2261.382
 748  2199.665
 749  2268.468
 750  2245.785
 751  2364.85
 752  2363.915
 753  2414.233
 754  2374.247
 755  2425.446
 756  2505.392
 757  2419.215
 758  2296.865
 759  2164.702
 760  2237.449
 761  2271.565
 762  2387.335
 763  2477.474
 764  2494.198
 765  2436.209
 766  2381.534
 767  2330.819
 768  2235.974
 769  2305.694
 770  2414.389
 771  2547.329
 772  2533.822
 773  2568.488
 774  2687.583
 775  2786.491
 776  2655.442
 777  2513.423
 778  2463.254
 779  2565.198
 780  2628.803
 781  2581.907
 782  2451.518
 783  2358.757
 784  2271.828
 785  2389.037
 786  2518.097
 787  2524.636
 788  2514.302
 789  2502.032
 790  2601.85
 791  2656.725
 792  2718.291
 793  2732.112
 794  2788.781
 795  2782.494
 796  2691.81
 797  2452.106
 798  2414.06
 799  2450.348
 800  2613.14
 801  2639.175
 802  2725.438
 803  2785.364
 804  2856.688
 805  2858.404
 806  2796.208
 807  2856.807
 808  2856.76
 809  2741.975
 810  2668.585
 811  2738.394
 812  2789.888
 813  2734.621
 814  2746.129
 815  2906.195
 816  2938.608
 817  2849.181
 818  2813.121
 819  2940.206
 820  3064.435
 821  3081.922
 822  2945.127
 823  2793.444
 824  2666.411
 825  2586.829
 826  2607.626
 827  2600.524
 828  2653.584
 829  2686.511
 830  2623.414
 831  2544.715
 832  2609.551
 833  2571.219
 834  2452.899
 835  2382.179
 836  2427.219
 837  2538.359
 838  2586.309
 839  2470.761
 840  2417
 841  2426.377
 842  2421.673
 843  2337.071
 844  2346.223
 845  2438.314
 846  2470.709
 847  2415.339
 848  2438.51
 849  2526.502
 850  2561.814
 851  2545.675
 852  2470.284
 853  2374.949
 854  2388.522
 855  2451.238
 856  2623.148
 857  2604.71
 858  2550.19
 859  2533.68
 860  2564.198
 861  2562.498
 862  2642.94
 863  2818.217
 864  2900.291
 865  2927.15
 866  2751.911
 867  2713.03
 868  2636.08
 869  2666.396
 870  2596.594
 871  2690.437
 872  2811.803
 873  2764.254
 874  2836.011
 875  2912.259
 876  2982.385
 877  2829.569
 878  2686.045
 879  2590.376
 880  2607.006
 881  2679.821
 882  2710.367
 883  2644.511
 884  2664.668
 885  2686.24
 886  2725.176
 887  2688.216
 888  2789.135
 889  2757.374
 890  2734.561
 891  2760.431
 892  2737.953
 893  2686.078
 894  2614.224
 895  2650.997
 896  2579.473
 897  2540.185
 898  2678.284
 899  2743.24
 900  2786.189
 901  2812.362
 902  2951.809
 903  2916.919
 904  2920.924
 905  2880.445
 906  2851.452
 907  2720.477
 908  2702.078
 909  2741.812
 910  2844.598
 911  2933.289
 912  3097.929
 913  3121.572
 914  3011.788
 915  2908.055
 916  2856.53
 917  2980.459
 918  3115.876
 919  3255.62
 920  3190.189
 921  3126.61
 922  2914.238
 923  2893.405
 924  2894.26
 925  2877.341
 926  2855.225
 927  2896.235
 928  2962.039
 929  2905.233
 930  2863.846
 931  2838.399
 932  2778.313
 933  2856.657
 934  2950.467
 935  2863.525
 936  2784.496
 937  2788.66
 938  2916.098
 939  2996.242
 940  2816.364
 941  2784.679
 942  2914.748
 943  2970.177
 944  2875.119
 945  2844.916
 946  2825.274
 947  2726.311
 948  2546.772
 949  2548.254
 950  2506.876
 951  2427.052
 952  2562.205
 953  2710.192
 954  2769.625
 955  2755.976
 956  2788.35
 957  2884.049
 958  2760.04
 959  2691.861
 960  2703.484
 961  2771.962
 962  2816.915
 963  2658.031
 964  2710.583
 965  2612.147
 966  2659.779
 967  2703.273
 968  2885.741
 969  2992.887
 970  3054.708
 971  3159.641
 972  3153.532
 973  3081.187
 974  3070.115
 975  2986.698
 976  2942.278
 977  2976.329
 978  3040.082
 979  3135.285
 980  3183.619
 981  3160.763
 982  2973.231
 983  2869.607
 984  2949.282
 985  3078.615
 986  3146.404
 987  3046.843
 988  2991.117
 989  2988.869
 990  2971.72
 991  2877.238
 992  2908.009
 993  2911.281
 994  2868.993
 995  2822.901
 996  2809.005
 997  2826.147
 998  2811.59
 999  2848.122
1000  2912.525
1001  2931.056
1002  2888.917
1003  2854.913
1004  2843.202
1005  2852.044
1006  2823.957
1007  2825.732
1008  2701.659
1009  2656.545
1010  2793.915
1011  3074.059
1012  3077.762
1013  2961.69
1014  2986.082
1015  2959.634
1016  2908.109
1017  2963.542
1018  2915.956
1019  2863.256
1020  2764.273
1021  2761.346
1022  2691.064
1023  2711.737
