# Input file       =  1184401549.105242_cleaned.dat
# Candidate        =  PSR_0332+5434
# Telescope        =  AR
# Epoch_topo       =  57952.351482699560
# Epoch_bary       =  N/A
# T_sample         =  0.002
# Data Folded      =  7340032
# Data Avg         =  0.227264021073227
# Data StdDev      =  4.8526879192194  
# Profile Bins     =  1024
# Profile Avg      =  1628.85943608425 
# Profile StdDev   =  410.848173582785 
# Reduced chi-sqr  =  0.882
# Prob(Noise)      <  0.997   (~0.0 sigma)
# P_topo (ms)      =  714.477092777573  +/- 0.0003
# P'_topo (s/s)    =  -0                +/- 1.58e-10
# P''_topo (s/s^2) =  0                 +/- 6.99e-14
# P_bary (ms)      =  N/A
# P'_bary (s/s)    =  N/A
# P''_bary (s/s^2) =  N/A
# P_orb (s)        =  N/A
# asin(i)/c (s)    =  N/A
# eccentricity     =  N/A
# w (rad)          =  N/A
# T_peri           =  N/A
######################################################
   0  1457.659
   1  1547.351
   2  1734.92
   3  1822.86
   4  1667.769
   5  1532.857
   6  1508.903
   7  1456.838
   8  1516.935
   9  1455.686
  10  1438.199
  11  1497.443
  12  1645.25
  13  1737.983
  14  1684.48
  15  1650.997
  16  1792.03
  17  1750.667
  18  1739.126
  19  1628.953
  20  1646.822
  21  1574.932
  22  1521.81
  23  1510.7
  24  1638.586
  25  1720.814
  26  1833.68
  27  1806.058
  28  1731.948
  29  1540.449
  30  1477.251
  31  1455.319
  32  1490.638
  33  1474.971
  34  1486.78
  35  1522.037
  36  1605.135
  37  1546.875
  38  1586.493
  39  1527.703
  40  1619.777
  41  1536.077
  42  1558.864
  43  1532.682
  44  1551.728
  45  1598.998
  46  1645.468
  47  1594.774
  48  1517.601
  49  1489.029
  50  1554.823
  51  1641.282
  52  1587.258
  53  1496.534
  54  1420.56
  55  1447.001
  56  1477.856
  57  1412.754
  58  1376.83
  59  1457.786
  60  1529.516
  61  1522.546
  62  1486.758
  63  1365.158
  64  1409.961
  65  1403.437
  66  1477.548
  67  1386.7
  68  1286.926
  69  1187.382
  70  1190.757
  71  1196.227
  72  1299.006
  73  1455.705
  74  1536.651
  75  1583.816
  76  1442.316
  77  1285.951
  78  1203.471
  79  1257.863
  80  1321.851
  81  1293.992
  82  1257.75
  83  1358.739
  84  1419.965
  85  1335.367
  86  1340.051
  87  1280.188
  88  1371.282
  89  1370.708
  90  1515.87
  91  1477.018
  92  1452.162
  93  1456.733
  94  1546.805
  95  1597.046
  96  1614.582
  97  1651.628
  98  1644.311
  99  1506.968
 100  1532.513
 101  1444.229
 102  1632.505
 103  1449.695
 104  1454.754
 105  1378.473
 106  1316.531
 107  1198.415
 108  1128.716
 109  1322.628
 110  1414.029
 111  1526.407
 112  1479.979
 113  1549.943
 114  1351.756
 115  1466.696
 116  1503.106
 117  1638.283
 118  1627.66
 119  1467.599
 120  1464.354
 121  1392.383
 122  1510.324
 123  1361.094
 124  1439.388
 125  1487.881
 126  1596.512
 127  1557.755
 128  1550.191
 129  1659.182
 130  1675.808
 131  1574.742
 132  1494.961
 133  1448.799
 134  1534.064
 135  1488.921
 136  1360.081
 137  1273.583
 138  1222.098
 139  1245.075
 140  1172.547
 141  1156.172
 142  1153.453
 143  1176.958
 144  1152.539
 145  1113.656
 146  1183.756
 147  1092.756
 148  1196.658
 149  1190.628
 150  1257.794
 151  1252.338
 152  1348.989
 153  1437.636
 154  1407.221
 155  1420.741
 156  1417.251
 157  1452.922
 158  1411.031
 159  1540.518
 160  1626.119
 161  1691.094
 162  1717.428
 163  1751.606
 164  1722.018
 165  1574.156
 166  1485.375
 167  1510.101
 168  1415.754
 169  1464.057
 170  1525.77
 171  1706.809
 172  1700.419
 173  1624.051
 174  1570.209
 175  1596.83
 176  1608.336
 177  1769.727
 178  1777.662
 179  1788.16
 180  1758.071
 181  1841.772
 182  1767.384
 183  1653.239
 184  1572.128
 185  1604.857
 186  1576.67
 187  1543.15
 188  1556.176
 189  1537.261
 190  1626.315
 191  1740.335
 192  1805.427
 193  1782.637
 194  1818.432
 195  1708.466
 196  1784.477
 197  1824.119
 198  1771.145
 199  1760.84
 200  1688.693
 201  1650.154
 202  1468.34
 203  1351.684
 204  1371.109
 205  1377.801
 206  1422.535
 207  1479.806
 208  1637.461
 209  1673.423
 210  1577.25
 211  1350.853
 212  1368.186
 213  1344.424
 214  1447.063
 215  1407.896
 216  1323.649
 217  1374.419
 218  1435.949
 219  1436.775
 220  1377.79
 221  1386.459
 222  1413.746
 223  1449.544
 224  1396.861
 225  1370.17
 226  1447.126
 227  1568.998
 228  1627.057
 229  1560.601
 230  1496.019
 231  1498.068
 232  1540.588
 233  1610.637
 234  1603.652
 235  1677.189
 236  1723.465
 237  1716.034
 238  1618.788
 239  1584.833
 240  1536.374
 241  1577.869
 242  1546.209
 243  1551.404
 244  1487.556
 245  1447.299
 246  1442.71
 247  1517.19
 248  1520.918
 249  1483.658
 250  1298.803
 251  1276.016
 252  1359.35
 253  1495.937
 254  1427.385
 255  1376.347
 256  1585.72
 257  1745.547
 258  1740.574
 259  1624.215
 260  1544.289
 261  1692.039
 262  1654.376
 263  1836.189
 264  1765.751
 265  1730.595
 266  1632.538
 267  1538.453
 268  1394.179
 269  1387.683
 270  1332.264
 271  1399.268
 272  1521.665
 273  1601.544
 274  1600.4
 275  1453.675
 276  1453.034
 277  1505.393
 278  1514.951
 279  1344.25
 280  1286.744
 281  1321.924
 282  1360.672
 283  1397.392
 284  1452.51
 285  1610.453
 286  1578.165
 287  1602.304
 288  1613.148
 289  1603.769
 290  1450.455
 291  1409.88
 292  1522.468
 293  1672.061
 294  1543.069
 295  1390.798
 296  1431.573
 297  1507.572
 298  1514.514
 299  1410.066
 300  1465.316
 301  1498.683
 302  1468.316
 303  1448.633
 304  1408.231
 305  1444.822
 306  1506.993
 307  1618.747
 308  1784.947
 309  1770.861
 310  1667.544
 311  1581.836
 312  1658.585
 313  1628.987
 314  1646.992
 315  1622.232
 316  1613.325
 317  1502.142
 318  1488.764
 319  1597.215
 320  1757.177
 321  1828.357
 322  1874.77
 323  1784.489
 324  1662.852
 325  1693.59
 326  1764.88
 327  1812.228
 328  1762.507
 329  1755.583
 330  1754.234
 331  1652.552
 332  1679.521
 333  1830.273
 334  1904.189
 335  1867.385
 336  1809.291
 337  1840.36
 338  1834.443
 339  1801.225
 340  1733.418
 341  1579.657
 342  1743.047
 343  1829.654
 344  1904.029
 345  1889.078
 346  2001.541
 347  2085.408
 348  1902.184
 349  1751.609
 350  1558.595
 351  1614.612
 352  1654.977
 353  1707.873
 354  1634.027
 355  1684.028
 356  1732.154
 357  1871.432
 358  1903.551
 359  1755.76
 360  1824.45
 361  1745.307
 362  1835.038
 363  1751.788
 364  1768.474
 365  1797.328
 366  1868.484
 367  1912.057
 368  1821.434
 369  1745.632
 370  1659.969
 371  1667.182
 372  1602.456
 373  1593.844
 374  1673.79
 375  1793.421
 376  1758.286
 377  1776.076
 378  1692.869
 379  1668.636
 380  1576.1
 381  1644.007
 382  1844.182
 383  1874.839
 384  1813.513
 385  1643.662
 386  1777.405
 387  1919.085
 388  1983.755
 389  1898.969
 390  1838.874
 391  1939.27
 392  1970.568
 393  2018.363
 394  1854.414
 395  1818.683
 396  1859.368
 397  1986.376
 398  2099.414
 399  2050.745
 400  2035.828
 401  1985.764
 402  1968.745
 403  1906.068
 404  1789.488
 405  1851.672
 406  1903.363
 407  2033.645
 408  2052.929
 409  2030.014
 410  2034.487
 411  2245.502
 412  2341.197
 413  2344.098
 414  2172.093
 415  2157.429
 416  2160.688
 417  2150.799
 418  1939.034
 419  1849.498
 420  1825.653
 421  1816.099
 422  1860.716
 423  1807.804
 424  1859.354
 425  1906.591
 426  1853.174
 427  1661.24
 428  1666.398
 429  1727.013
 430  1730.08
 431  1585.533
 432  1520.7
 433  1657.765
 434  1714.034
 435  1739.055
 436  1766.947
 437  1844.503
 438  1937.551
 439  2008.808
 440  1953.7
 441  1835.753
 442  1713.556
 443  1724.109
 444  1724.864
 445  1966.691
 446  2225.328
 447  2321.615
 448  2319.762
 449  2282.081
 450  2177.846
 451  2005.948
 452  1841.86
 453  1712.609
 454  1841.584
 455  1911.62
 456  1978.063
 457  1913.247
 458  1768.524
 459  1797.367
 460  1733.383
 461  1763.716
 462  1629.556
 463  1697.339
 464  1781.93
 465  1960
 466  1936.578
 467  1972.006
 468  1851.882
 469  1800.323
 470  1681.188
 471  1619.24
 472  1540.926
 473  1540.364
 474  1580.999
 475  1737.747
 476  1823.931
 477  1800.088
 478  1772.13
 479  1798.9
 480  1817.886
 481  1718.903
 482  1596.507
 483  1553.775
 484  1416.117
 485  1392.264
 486  1379.595
 487  1536.479
 488  1659.632
 489  1533.327
 490  1475.693
 491  1383.725
 492  1421.149
 493  1430.847
 494  1420.926
 495  1597.119
 496  1660.231
 497  1733.849
 498  1586.333
 499  1421.302
 500  1319.065
 501  1366.912
 502  1396.915
 503  1406.308
 504  1429.24
 505  1573.559
 506  1751.834
 507  1770.917
 508  1806.325
 509  1797.562
 510  1758.661
 511  1665.183
 512  1567.172
 513  1553.827
 514  1602.756
 515  1644.601
 516  1704.7
 517  1780.08
 518  1824.111
 519  1814.046
 520  1684.944
 521  1667.957
 522  1598.823
 523  1834.971
 524  1864.653
 525  1821.738
 526  1626.852
 527  1595.735
 528  1657.21
 529  1668.51
 530  1501.243
 531  1390.577
 532  1314.059
 533  1591.081
 534  1621.706
 535  1710.986
 536  1639.607
 537  1632.308
 538  1624.699
 539  1653.928
 540  1751.619
 541  1761.486
 542  1856.19
 543  1925.182
 544  1843.219
 545  1690.533
 546  1685.977
 547  1765.814
 548  1825.027
 549  1640.074
 550  1617.607
 551  1596.866
 552  1689.806
 553  1737.036
 554  1771.398
 555  1825.061
 556  1784.584
 557  1744.703
 558  1558.461
 559  1490.194
 560  1336.992
 561  1472.616
 562  1474.861
 563  1519.001
 564  1360.13
 565  1410.072
 566  1462.761
 567  1582.887
 568  1604.3
 569  1667.797
 570  1637.152
 571  1555.703
 572  1668.467
 573  1654.336
 574  1708.477
 575  1489.474
 576  1501.504
 577  1430.563
 578  1576.753
 579  1579.92
 580  1689.147
 581  1754.316
 582  1710.905
 583  1612.054
 584  1429.567
 585  1442.358
 586  1600.143
 587  1702.915
 588  1649.685
 589  1394.211
 590  1311.385
 591  1333.525
 592  1509.746
 593  1641.302
 594  1617.4
 595  1498.632
 596  1607.606
 597  1737.385
 598  1639.926
 599  1463.35
 600  1450.716
 601  1545.051
 602  1643.75
 603  1577.416
 604  1593.643
 605  1536.079
 606  1560.043
 607  1498.723
 608  1527.055
 609  1612.735
 610  1780.886
 611  1822.003
 612  1870.869
 613  1888.055
 614  1806.528
 615  1742.078
 616  1692.445
 617  1771.187
 618  1945.496
 619  1741.625
 620  1604.448
 621  1514.641
 622  1680.529
 623  1618.7
 624  1379.006
 625  1550.077
 626  1685.48
 627  1852.127
 628  1818.476
 629  1842.519
 630  1853.154
 631  1694.521
 632  1611.004
 633  1576.314
 634  1614.167
 635  1598.28
 636  1541.687
 637  1593.851
 638  1730.459
 639  1826.242
 640  1804.792
 641  1795.032
 642  1835.432
 643  1923.481
 644  1895.576
 645  1967.722
 646  1995.473
 647  2183.227
 648  2253.875
 649  2455.599
 650  2649.473
 651  2805.943
 652  2784.265
 653  2761.321
 654  2687.848
 655  2579.642
 656  2495.503
 657  2394.976
 658  2250.45
 659  2125.806
 660  2007.149
 661  1949.801
 662  1837.845
 663  1774.306
 664  1665.554
 665  1558.696
 666  1556.939
 667  1532.349
 668  1531.601
 669  1570.512
 670  1533.226
 671  1526.04
 672  1515.538
 673  1625.58
 674  1653.374
 675  1569.796
 676  1519.094
 677  1612.566
 678  1590.651
 679  1497.644
 680  1460.931
 681  1519.649
 682  1424.506
 683  1411.162
 684  1539.807
 685  1653.676
 686  1497.154
 687  1292.062
 688  1361.666
 689  1518.763
 690  1642.237
 691  1668.826
 692  1607.072
 693  1694.286
 694  1694.124
 695  1823.731
 696  1767.38
 697  1782.905
 698  1722.691
 699  1814.915
 700  1665.149
 701  1531.258
 702  1520.172
 703  1642.205
 704  1784.441
 705  1709.466
 706  1602.646
 707  1648.15
 708  1768.076
 709  1889.21
 710  1800.562
 711  1793.263
 712  1875.418
 713  1943.111
 714  1907.349
 715  1892.485
 716  1984.992
 717  1980.508
 718  1864.065
 719  1746.978
 720  1846.954
 721  1910.63
 722  1991.462
 723  2024.5
 724  2159.368
 725  2211.575
 726  2128.454
 727  2026.998
 728  1854.117
 729  1766.294
 730  1558.099
 731  1639.838
 732  1669.54
 733  1867.175
 734  1992.318
 735  1983.475
 736  1934.2
 737  1840.535
 738  1692.796
 739  1527.913
 740  1448.715
 741  1339.472
 742  1432.507
 743  1519.757
 744  1826.119
 745  1858.275
 746  1744.076
 747  1646.718
 748  1630.922
 749  1627.719
 750  1624.296
 751  1561.126
 752  1643.833
 753  1705.13
 754  1624.14
 755  1625.742
 756  1478.167
 757  1620.145
 758  1601.866
 759  1608.075
 760  1560.503
 761  1614.296
 762  1805.338
 763  1778.555
 764  1746.822
 765  1784.551
 766  1849.135
 767  1743.646
 768  1537.105
 769  1414.427
 770  1493.911
 771  1520.867
 772  1517.869
 773  1510.58
 774  1574.84
 775  1707.026
 776  1614.008
 777  1414.486
 778  1274.426
 779  1341.158
 780  1477.745
 781  1603.525
 782  1605.752
 783  1590.283
 784  1495.925
 785  1543.983
 786  1555.93
 787  1457.828
 788  1515.087
 789  1602.126
 790  1596.621
 791  1338.363
 792  1287.846
 793  1435.304
 794  1545.169
 795  1601.822
 796  1567.192
 797  1600.138
 798  1635.77
 799  1683.795
 800  1656.43
 801  1648.152
 802  1691.172
 803  1682.88
 804  1557.905
 805  1491.029
 806  1496.984
 807  1590.728
 808  1615.963
 809  1627.126
 810  1553.454
 811  1533.45
 812  1593.478
 813  1713.217
 814  1712.704
 815  1518.059
 816  1454.048
 817  1474.685
 818  1544.175
 819  1568.222
 820  1513.7
 821  1591.891
 822  1602.256
 823  1577.473
 824  1491.972
 825  1395.302
 826  1509.435
 827  1529.564
 828  1567.874
 829  1357.601
 830  1425.729
 831  1462.834
 832  1564.058
 833  1596.149
 834  1639.59
 835  1580.032
 836  1557.069
 837  1443.99
 838  1321.452
 839  1261.561
 840  1459.702
 841  1550.651
 842  1541.518
 843  1448.634
 844  1398.493
 845  1335.89
 846  1325.87
 847  1396.679
 848  1382.117
 849  1303.875
 850  1331.951
 851  1382.443
 852  1567.941
 853  1424.921
 854  1458.656
 855  1487.961
 856  1607.417
 857  1562.194
 858  1608.929
 859  1638.239
 860  1698.158
 861  1582.608
 862  1581.99
 863  1579.055
 864  1630.854
 865  1645.811
 866  1651.599
 867  1606.784
 868  1527.71
 869  1630.985
 870  1706.056
 871  1628.589
 872  1565.774
 873  1603.924
 874  1705.351
 875  1649.7
 876  1612.643
 877  1481.759
 878  1430.441
 879  1598.106
 880  1683.711
 881  1662.9
 882  1518.909
 883  1528.18
 884  1589.64
 885  1550.806
 886  1415.965
 887  1377.11
 888  1532.935
 889  1650.425
 890  1742.315
 891  1738.361
 892  1749.646
 893  1672.857
 894  1560.101
 895  1656.006
 896  1613.768
 897  1651.527
 898  1698.815
 899  1706.094
 900  1713.008
 901  1615.239
 902  1696.196
 903  1741.572
 904  1746.808
 905  1727.169
 906  1832.831
 907  1872.138
 908  1873.113
 909  1783.322
 910  1651.003
 911  1578.921
 912  1509.931
 913  1495.065
 914  1468.474
 915  1455.948
 916  1543.448
 917  1498.014
 918  1354.346
 919  1376.338
 920  1333.473
 921  1305.045
 922  1299.352
 923  1291.711
 924  1366.467
 925  1413.811
 926  1421.203
 927  1456.983
 928  1358.308
 929  1438.72
 930  1436.888
 931  1518.242
 932  1468.12
 933  1476.474
 934  1510.192
 935  1585.615
 936  1573.382
 937  1459.662
 938  1443.941
 939  1368.008
 940  1462.641
 941  1546.451
 942  1542.236
 943  1608.555
 944  1710.406
 945  1853.197
 946  1799.132
 947  1713.583
 948  1587.762
 949  1557.942
 950  1500.036
 951  1535.108
 952  1618.286
 953  1674.318
 954  1706.406
 955  1672.043
 956  1702.722
 957  1700.248
 958  1687.313
 959  1706.888
 960  1752.076
 961  1715.465
 962  1678.971
 963  1704.603
 964  1717.717
 965  1733.928
 966  1681.239
 967  1691.285
 968  1595.618
 969  1520.187
 970  1656.71
 971  1742.004
 972  1829.653
 973  1760.763
 974  1729.749
 975  1684.143
 976  1694.493
 977  1740.569
 978  1715.689
 979  1633.624
 980  1734.84
 981  1775.945
 982  1736.931
 983  1589.862
 984  1535.336
 985  1582.804
 986  1480.904
 987  1453.26
 988  1529.443
 989  1709.45
 990  1574.757
 991  1471.237
 992  1533.723
 993  1628.673
 994  1672.339
 995  1667.488
 996  1634.523
 997  1462.661
 998  1363.634
 999  1299.731
1000  1350.694
1001  1464.012
1002  1565.59
1003  1721.545
1004  1743.391
1005  1887.95
1006  1865.19
1007  1750.567
1008  1626.658
1009  1641.781
1010  1572.818
1011  1568.339
1012  1576.088
1013  1591.993
1014  1443.884
1015  1461.67
1016  1587.854
1017  1632.422
1018  1595.266
1019  1653.55
1020  1705.453
1021  1642.496
1022  1545.866
1023  1455.617
