# Input file       =  1184903540.128384_cleaned.dat
# Candidate        =  PSR_0332+5434
# Telescope        =  AR
# Epoch_topo       =  57958.161563985930
# Epoch_bary       =  N/A
# T_sample         =  0.002
# Data Folded      =  7340032
# Data Avg         =  0.127588346552719
# Data StdDev      =  3.21914012948407 
# Profile Bins     =  512
# Profile Avg      =  1828.06487091373 
# Profile StdDev   =  385.437422225423 
# Reduced chi-sqr  =  1.342
# Prob(Noise)      <  3.44e-07   (~5.0 sigma)
# P_topo (ms)      =  714.473333381643  +/- 0.000339
# P'_topo (s/s)    =  -0                +/- 1.79e-10
# P''_topo (s/s^2) =  0                 +/- 7.89e-14
# P_bary (ms)      =  N/A
# P'_bary (s/s)    =  N/A
# P''_bary (s/s^2) =  N/A
# P_orb (s)        =  N/A
# asin(i)/c (s)    =  N/A
# eccentricity     =  N/A
# w (rad)          =  N/A
# T_peri           =  N/A
######################################################
   0  1984.416
   1  1830.372
   2  2095.932
   3  2248.634
   4  2315.832
   5  2277.186
   6  2060.463
   7  2041.079
   8  1934.486
   9  1906.854
  10  1567.613
  11  1393.54
  12  1426.294
  13  1601.343
  14  1888.697
  15  1864.325
  16  1883.865
  17  1715.849
  18  1626.524
  19  1779.047
  20  1740.905
  21  2055.841
  22  2071.772
  23  1954.155
  24  1948.577
  25  1871.858
  26  2125.832
  27  2004.135
  28  1907.649
  29  1892.203
  30  1826.03
  31  2098.341
  32  1831.606
  33  1812.17
  34  2006.308
  35  1816.21
  36  1660.67
  37  1591.397
  38  1908.544
  39  1892.262
  40  1814.106
  41  1567.341
  42  1421.571
  43  1573.26
  44  1868.11
  45  1829.61
  46  1876.734
  47  1792.611
  48  1583.394
  49  1480.603
  50  1639.905
  51  1937.475
  52  1816.154
  53  1949.266
  54  1780.629
  55  1842.261
  56  1919.437
  57  1868.592
  58  1986.344
  59  2062.895
  60  2048.254
  61  2011.856
  62  2124.187
  63  2104.736
  64  1922.148
  65  1910.207
  66  2218.68
  67  2418.047
  68  2362.452
  69  2396.99
  70  2456.303
  71  2323.109
  72  2380.602
  73  2372.253
  74  2391.692
  75  2369.838
  76  2354.63
  77  2247.399
  78  2112.128
  79  2072.437
  80  1959.114
  81  2105.336
  82  2258.587
  83  2241.399
  84  2283.585
  85  2245.177
  86  1782.683
  87  1954.868
  88  2016.367
  89  1968.539
  90  1998.354
  91  1894.943
  92  1718.83
  93  1907.304
  94  1785.007
  95  1837.578
  96  1874.839
  97  1865.935
  98  1868.731
  99  1668.05
 100  1824.813
 101  1807.837
 102  1881.038
 103  1986.346
 104  2218.37
 105  2134.167
 106  1820.18
 107  1950.489
 108  2083.615
 109  2025.782
 110  1769.975
 111  1863.754
 112  2027.395
 113  1884.05
 114  1633.666
 115  1852.034
 116  1671.663
 117  2140.815
 118  2195.775
 119  1925.568
 120  1781.412
 121  1776.423
 122  1723.195
 123  1722.71
 124  2035.805
 125  2085.263
 126  1977.626
 127  1893.183
 128  1979.662
 129  2107.822
 130  1959.51
 131  1588.099
 132  1975.565
 133  2212.338
 134  2102.445
 135  1984.006
 136  2071.922
 137  2017.591
 138  2210.028
 139  2032.63
 140  1828.052
 141  1860.12
 142  2146.505
 143  2255.442
 144  1970.379
 145  2091.828
 146  2059.253
 147  1904.466
 148  1806.416
 149  1916.709
 150  2069.177
 151  2231.043
 152  2188.079
 153  1922.731
 154  1952.685
 155  1851.891
 156  1685.69
 157  2076.937
 158  2145.608
 159  1909.461
 160  1791.16
 161  1949.64
 162  1669.755
 163  1566.143
 164  2064.264
 165  1799.833
 166  1710.33
 167  1732.094
 168  1670.493
 169  1680.34
 170  1568.487
 171  1695.932
 172  1512.873
 173  1441.681
 174  1600.651
 175  1781.293
 176  1867.019
 177  1831.155
 178  1642.593
 179  1785.014
 180  1687.169
 181  1670.682
 182  1749.432
 183  1771.906
 184  1614.922
 185  1658.545
 186  1576.364
 187  1338.523
 188  1342.787
 189  1557.546
 190  1388.211
 191  1534.672
 192  1490.431
 193  1558.401
 194  1255.512
 195  1157.065
 196  1017.654
 197  1143.655
 198  1182.424
 199  1531.371
 200  1944.982
 201  1477.354
 202  1082.16
 203  1219.089
 204  1323.436
 205  1319.726
 206  1499.421
 207  1594.993
 208  1733.033
 209  1659.828
 210  1578.93
 211  1736.021
 212  1725.885
 213  1854.091
 214  1761.938
 215  1693.158
 216  1729.952
 217  1769.028
 218  2139.295
 219  2048.603
 220  1791.007
 221  1887.191
 222  1502.144
 223  1558.974
 224  1722.907
 225  1774.403
 226  2016.226
 227  1779.404
 228  1892.736
 229  1868.276
 230  1807.058
 231  1840.194
 232  1889.637
 233  1768.646
 234  1912.893
 235  1896.465
 236  1592.557
 237  1736.739
 238  1598.296
 239  1500.37
 240  1545.462
 241  1544.651
 242  1718.334
 243  1989.468
 244  2074.702
 245  1869.26
 246  1445.437
 247  1388.925
 248  1318.73
 249  1391.685
 250  1375.316
 251  1694.292
 252  2043.451
 253  1640.282
 254  1605.036
 255  1576.106
 256  1638.659
 257  1537.432
 258  1306.307
 259  1601.471
 260  1888.361
 261  1859.922
 262  1635.72
 263  1650.02
 264  1766.381
 265  1388.483
 266  1400.592
 267  1396.444
 268  1285.525
 269  1546.786
 270  1480.666
 271  1620.625
 272  1565.186
 273  1441.549
 274  1337.428
 275  1388.043
 276  1880.737
 277  2027.619
 278  1798.128
 279  1588.955
 280  1524.34
 281  1898.307
 282  1984.825
 283  2109.233
 284  1991.164
 285  1934.781
 286  2080.8
 287  2011.438
 288  1975.572
 289  2099.764
 290  2274.882
 291  2211.386
 292  2385.658
 293  2747.391
 294  2722.598
 295  2796.915
 296  2767.882
 297  3220.75
 298  3767.33
 299  4115.874
 300  3795.596
 301  3190.691
 302  2444.08
 303  2182.388
 304  2140.355
 305  1881.292
 306  1563.842
 307  1895.878
 308  2006.091
 309  1741.855
 310  1642.115
 311  1835.978
 312  2006.582
 313  2092.623
 314  2077.912
 315  2130.892
 316  1958.981
 317  1753.908
 318  1670.535
 319  1875.307
 320  1855.385
 321  1645.134
 322  1642.04
 323  1616.002
 324  1409.911
 325  1554.993
 326  1715.22
 327  1818.197
 328  1573.508
 329  1578.122
 330  1748.166
 331  1316.6
 332  1386.718
 333  1356.574
 334  1467.487
 335  1554.14
 336  1386.704
 337  1582.818
 338  1806.13
 339  1646.651
 340  1612.345
 341  1552.962
 342  1323.33
 343  1322.371
 344  1479.036
 345  1719.218
 346  1632.12
 347  1256.749
 348  1652.265
 349  1969.85
 350  1752.967
 351  1435.78
 352  1464.584
 353  1617.173
 354  1480.578
 355  1421.059
 356  1711.349
 357  1852.014
 358  1903.696
 359  1865.32
 360  1553.462
 361  1796.527
 362  2255.231
 363  2235.644
 364  2108.692
 365  2017.519
 366  2110.708
 367  2089.088
 368  2254.944
 369  2409.1
 370  2057.99
 371  1779.319
 372  1885.828
 373  2055.354
 374  2013.252
 375  1857.675
 376  2005.169
 377  2011.033
 378  1977.106
 379  1569.773
 380  1280.057
 381  1503.755
 382  2026.541
 383  2030.718
 384  1862.728
 385  2014.527
 386  1740.866
 387  1603.471
 388  1768.534
 389  2091.564
 390  2062.368
 391  1638.382
 392  1695.429
 393  2028.095
 394  1742.87
 395  1725.091
 396  1666.51
 397  1665.86
 398  1692.617
 399  1459.901
 400  1685.338
 401  1779.204
 402  1702.594
 403  1638.498
 404  1692.048
 405  1671.984
 406  1654.185
 407  1599.4
 408  1599.831
 409  1552.692
 410  1641.756
 411  1602.297
 412  1409.513
 413  1236.584
 414  1523.345
 415  1614.418
 416  1625.789
 417  1364.135
 418  1475.52
 419  1415.497
 420  1475.451
 421  1804.09
 422  2161.229
 423  1924.388
 424  1649.57
 425  1797.66
 426  1726.225
 427  1820.567
 428  1699.261
 429  1608.443
 430  1836.036
 431  1670.95
 432  1790.918
 433  1849.598
 434  1838.342
 435  2030.076
 436  2097.82
 437  2023.304
 438  1852.585
 439  1755.752
 440  1817.038
 441  1754.302
 442  1719.286
 443  2116.468
 444  1960.43
 445  1639.553
 446  1725.304
 447  1897.712
 448  1840.882
 449  1788.979
 450  1895.045
 451  2112.738
 452  1539.088
 453  1481.456
 454  1824.679
 455  1790.449
 456  2142.466
 457  1859.342
 458  1572.588
 459  1534.391
 460  1592.517
 461  1576.27
 462  1767.626
 463  1768.509
 464  1731.264
 465  1794.221
 466  1804.168
 467  1807.69
 468  1589.814
 469  1695.078
 470  1756.702
 471  1730.062
 472  1718.131
 473  1700.221
 474  1630.407
 475  1525.318
 476  1521.215
 477  1724.617
 478  1620.703
 479  1467.438
 480  1597.25
 481  1635.634
 482  1658.42
 483  1665.595
 484  1946.47
 485  1721.544
 486  1620.974
 487  1971.105
 488  1717.067
 489  1780.336
 490  1711.712
 491  1551.951
 492  1541.089
 493  1660.153
 494  1801.317
 495  1920.547
 496  1874.485
 497  1941.094
 498  2059.237
 499  2036.28
 500  1876.647
 501  1994.887
 502  1751.883
 503  1811.667
 504  2131.876
 505  2021.072
 506  2072.797
 507  2315.239
 508  2330.254
 509  2205.775
 510  2208.109
 511  2092.764
