# Input file       =  1184918446.155724_cleaned.dat
# Candidate        =  PSR_0332+5434
# Telescope        =  AR
# Epoch_topo       =  57958.334087450508
# Epoch_bary       =  N/A
# T_sample         =  0.002
# Data Folded      =  7340032
# Data Avg         =  0.22433265577378 
# Data StdDev      =  4.6558864920572  
# Profile Bins     =  1024
# Profile Avg      =  1608.2286767062  
# Profile StdDev   =  394.186169296904 
# Reduced chi-sqr  =  1.124
# Prob(Noise)      <  0.00335   (~2.7 sigma)
# P_topo (ms)      =  714.473572588277  +/- 0.000604
# P'_topo (s/s)    =  -0                +/- 3.19e-10
# P''_topo (s/s^2) =  0                 +/- 1.41e-13
# P_bary (ms)      =  N/A
# P'_bary (s/s)    =  N/A
# P''_bary (s/s^2) =  N/A
# P_orb (s)        =  N/A
# asin(i)/c (s)    =  N/A
# eccentricity     =  N/A
# w (rad)          =  N/A
# T_peri           =  N/A
######################################################
   0  1633.672
   1  1795.733
   2  1751.765
   3  1690.081
   4  1684.81
   5  1744.843
   6  1663.766
   7  1503.214
   8  1474.556
   9  1526.307
  10  1519.869
  11  1540.773
  12  1575.96
  13  1670.428
  14  1774.699
  15  1861.918
  16  1812.762
  17  1838.017
  18  1918.149
  19  1900.838
  20  1853.568
  21  1794.905
  22  1875.914
  23  1805.158
  24  1847.508
  25  1954.359
  26  2003.39
  27  1944.568
  28  1840.523
  29  1759.953
  30  1774.355
  31  1740.571
  32  1764.84
  33  1687.876
  34  1684.38
  35  1778.973
  36  1872.145
  37  1801.692
  38  1707.99
  39  1722.036
  40  1846.678
  41  1915.144
  42  1825.002
  43  1745.818
  44  1705.155
  45  1734.382
  46  1767.88
  47  1773.399
  48  1749.861
  49  1785.392
  50  1742.726
  51  1680.761
  52  1631.371
  53  1662.185
  54  1639.093
  55  1710.376
  56  1753.24
  57  1747.1
  58  1621.344
  59  1690.248
  60  1724.726
  61  1804.403
  62  1745.803
  63  1739.235
  64  1737.321
  65  1678.322
  66  1699.213
  67  1722.548
  68  1765.093
  69  1659.144
  70  1574.876
  71  1616.043
  72  1631.848
  73  1707.659
  74  1694.916
  75  1646.096
  76  1545.721
  77  1537.122
  78  1501.288
  79  1339.141
  80  1226.714
  81  1106.103
  82  1206.995
  83  1487.176
  84  1668.331
  85  1704.519
  86  1623.368
  87  1674.104
  88  1722.595
  89  1711.855
  90  1638.396
  91  1598.664
  92  1510.138
  93  1411.141
  94  1305.967
  95  1251.71
  96  1205.827
  97  1283.678
  98  1489.724
  99  1536.103
 100  1618.966
 101  1506.923
 102  1463.494
 103  1505.661
 104  1661.208
 105  1730.351
 106  1708.307
 107  1745.191
 108  1865.018
 109  1809.927
 110  1730.882
 111  1747.34
 112  1828.685
 113  1716.079
 114  1574.669
 115  1626.626
 116  1730.143
 117  1767.768
 118  1708.321
 119  1727.945
 120  1759.153
 121  1824.53
 122  1904.041
 123  1882.967
 124  1789.736
 125  1674.813
 126  1628.15
 127  1689.946
 128  1792.4
 129  1803.714
 130  1728.52
 131  1650.015
 132  1601.338
 133  1501.794
 134  1497.488
 135  1514.559
 136  1613.978
 137  1719.564
 138  1720.688
 139  1626.895
 140  1528.724
 141  1603.414
 142  1750.606
 143  1838.3
 144  1828.534
 145  1646.848
 146  1508.577
 147  1530.357
 148  1611.052
 149  1542.11
 150  1452.561
 151  1531.144
 152  1609.566
 153  1692.468
 154  1650.732
 155  1729.133
 156  1627.603
 157  1543.495
 158  1460.405
 159  1495.64
 160  1583.705
 161  1601.67
 162  1645.671
 163  1667.804
 164  1590.511
 165  1575.164
 166  1503.425
 167  1497.801
 168  1484.036
 169  1511.238
 170  1533.424
 171  1488.669
 172  1531.543
 173  1499.603
 174  1549.009
 175  1621.41
 176  1727.615
 177  1719.347
 178  1612.182
 179  1493.103
 180  1571.288
 181  1605.743
 182  1559
 183  1511.959
 184  1679.514
 185  1767.521
 186  1810.819
 187  1748.159
 188  1687.346
 189  1622.35
 190  1613.183
 191  1714.655
 192  1628.345
 193  1585.065
 194  1454.27
 195  1583.542
 196  1647.235
 197  1735.544
 198  1719.748
 199  1729.806
 200  1807.046
 201  1944.557
 202  1919.301
 203  1880.42
 204  1790.321
 205  1788.341
 206  1719.665
 207  1667.752
 208  1666.819
 209  1660.581
 210  1697.261
 211  1802.47
 212  1805.074
 213  1817.87
 214  1666.965
 215  1704.829
 216  1638.727
 217  1631.368
 218  1656.177
 219  1703.794
 220  1658.871
 221  1539.846
 222  1607.348
 223  1701.582
 224  1640.009
 225  1622.359
 226  1713.74
 227  1761.211
 228  1738.66
 229  1719.78
 230  1725.097
 231  1669.225
 232  1682.601
 233  1674.717
 234  1640.947
 235  1498.916
 236  1387.483
 237  1300.764
 238  1350.713
 239  1454.179
 240  1574.188
 241  1691.556
 242  1777.112
 243  1808.224
 244  1758.01
 245  1761.167
 246  1806.177
 247  1841.097
 248  1771.764
 249  1738.667
 250  1618.808
 251  1662.338
 252  1619.642
 253  1629.47
 254  1622.85
 255  1693.185
 256  1739.596
 257  1646.399
 258  1545.878
 259  1532.864
 260  1630.744
 261  1727.443
 262  1616.118
 263  1447.764
 264  1303.953
 265  1303.922
 266  1404.592
 267  1475.541
 268  1544.381
 269  1575.198
 270  1561.67
 271  1510.016
 272  1525.445
 273  1592.479
 274  1591.738
 275  1512.72
 276  1516.947
 277  1489.263
 278  1513.492
 279  1554.325
 280  1705.74
 281  1729.61
 282  1747.659
 283  1708.528
 284  1681.587
 285  1610.588
 286  1508.273
 287  1445.223
 288  1453.196
 289  1478.053
 290  1548.86
 291  1506.482
 292  1467.9
 293  1439.136
 294  1509.839
 295  1621.506
 296  1639.347
 297  1568.074
 298  1431.689
 299  1491.94
 300  1511.688
 301  1640.436
 302  1623.475
 303  1639.934
 304  1554.235
 305  1508.904
 306  1392.472
 307  1464.144
 308  1456.073
 309  1484.231
 310  1505.498
 311  1570.045
 312  1661.472
 313  1695.814
 314  1674.055
 315  1616.789
 316  1503.161
 317  1406.095
 318  1451.842
 319  1580.244
 320  1611.877
 321  1595.75
 322  1492.18
 323  1429.999
 324  1381.753
 325  1329.403
 326  1380.135
 327  1424.462
 328  1494.108
 329  1584.918
 330  1487.565
 331  1545.53
 332  1548.334
 333  1507.04
 334  1416.095
 335  1379.743
 336  1385.32
 337  1372.701
 338  1242.97
 339  1273.918
 340  1422.65
 341  1686.51
 342  1652.125
 343  1505.845
 344  1539.463
 345  1708.654
 346  1811.897
 347  1690.899
 348  1666.156
 349  1618.937
 350  1533.191
 351  1356.32
 352  1402.854
 353  1605.441
 354  1617.744
 355  1624.849
 356  1619.602
 357  1541.035
 358  1441.263
 359  1451.401
 360  1603.013
 361  1658.66
 362  1647.193
 363  1601.424
 364  1559.961
 365  1580.466
 366  1635.845
 367  1677.499
 368  1657.892
 369  1634.61
 370  1731.948
 371  1926.397
 372  1967.923
 373  1999.402
 374  1945.668
 375  1863.809
 376  1801.196
 377  1788.29
 378  1750.531
 379  1643.99
 380  1526.996
 381  1644.159
 382  1796.519
 383  1895.695
 384  1909.126
 385  1900.592
 386  1935.463
 387  1867.572
 388  1836.84
 389  1875.811
 390  1917.164
 391  1761.757
 392  1692.253
 393  1532.177
 394  1549.058
 395  1549.705
 396  1631.238
 397  1710.462
 398  1718.257
 399  1767.956
 400  1773.86
 401  1751.987
 402  1717.433
 403  1739.323
 404  1821.288
 405  1832.597
 406  1852.936
 407  1782.899
 408  1597.24
 409  1538.733
 410  1589.771
 411  1618.065
 412  1530.477
 413  1533.529
 414  1598.823
 415  1677.12
 416  1788.977
 417  1837.867
 418  1869.385
 419  1785.843
 420  1735.305
 421  1819.25
 422  1920.827
 423  1864.754
 424  1765.883
 425  1688.19
 426  1661.08
 427  1632.974
 428  1711.902
 429  1767
 430  1809.869
 431  1874.551
 432  1947.547
 433  1930.425
 434  1880.577
 435  1999.729
 436  2054.685
 437  1989.427
 438  1758.721
 439  1628.611
 440  1534.087
 441  1606.806
 442  1562.957
 443  1633.556
 444  1721.357
 445  1749.62
 446  1695.787
 447  1643.509
 448  1683.933
 449  1674.267
 450  1697.193
 451  1655.886
 452  1632.135
 453  1661.41
 454  1717.766
 455  1648.658
 456  1601.155
 457  1650.358
 458  1777.79
 459  1812.785
 460  1744.842
 461  1695.5
 462  1722.49
 463  1855.764
 464  1923.635
 465  1912.83
 466  1768.839
 467  1665.923
 468  1656.921
 469  1739.983
 470  1683.94
 471  1688.102
 472  1675.591
 473  1657.873
 474  1560.553
 475  1579.058
 476  1591.141
 477  1652.822
 478  1659.78
 479  1728.683
 480  1689.512
 481  1619.445
 482  1489.01
 483  1500.121
 484  1615.338
 485  1766.861
 486  1847.111
 487  1891.453
 488  1836.973
 489  1940.046
 490  2014.472
 491  1918.712
 492  1800.861
 493  1827.874
 494  1914.083
 495  2002.706
 496  2053.162
 497  2030.105
 498  2035.161
 499  1938.482
 500  2052.143
 501  1941.183
 502  1794.55
 503  1729.034
 504  1792.976
 505  1910.181
 506  1819.55
 507  1881.213
 508  1940.73
 509  2008.762
 510  1991.76
 511  1873.473
 512  1804.483
 513  1780.389
 514  1726.71
 515  1691.576
 516  1717.35
 517  1873.457
 518  1960.045
 519  1921.235
 520  1880.353
 521  1806.437
 522  1885.972
 523  1918.803
 524  2011.842
 525  1973.906
 526  2016.255
 527  2043.846
 528  2001.774
 529  2061.171
 530  2103.37
 531  2228.798
 532  2100.67
 533  2020.107
 534  1912.754
 535  1807.645
 536  1769.781
 537  1850.014
 538  1982.971
 539  2014.964
 540  1996.925
 541  1945.864
 542  1895.284
 543  1847.558
 544  1869.549
 545  1852.46
 546  1768.723
 547  1739.544
 548  1724.799
 549  1782.25
 550  1972.962
 551  2038.432
 552  2011.629
 553  1944.303
 554  2046.442
 555  2050.693
 556  1940.694
 557  1844.578
 558  1875.451
 559  1856.729
 560  1937.541
 561  2015.397
 562  2078.134
 563  1957.444
 564  1832.696
 565  1774.658
 566  1790.707
 567  1777.996
 568  1783.748
 569  1713.154
 570  1772.622
 571  1702.667
 572  1703.919
 573  1524.231
 574  1523.495
 575  1469.866
 576  1466.732
 577  1384.693
 578  1379.185
 579  1390.302
 580  1428.05
 581  1477.238
 582  1450.141
 583  1469.5
 584  1533.418
 585  1532.601
 586  1492.964
 587  1433.497
 588  1435.209
 589  1408.406
 590  1492.272
 591  1542.852
 592  1622.614
 593  1630.215
 594  1677.652
 595  1820.234
 596  1843.213
 597  1841.903
 598  1794.105
 599  1770.609
 600  1867.436
 601  1918.9
 602  2013.711
 603  1804.372
 604  1677.374
 605  1689.265
 606  1808.482
 607  1735.94
 608  1631.641
 609  1610.903
 610  1741.5
 611  1751.869
 612  1750.114
 613  1835.899
 614  1893.818
 615  2018.584
 616  1969.518
 617  1999.452
 618  1805.38
 619  1648.743
 620  1630.178
 621  1655.984
 622  1701.398
 623  1683.86
 624  1669.607
 625  1745.593
 626  1660.464
 627  1677.786
 628  1636.098
 629  1639.019
 630  1474.476
 631  1460.336
 632  1457.335
 633  1493.948
 634  1547.012
 635  1615.939
 636  1656.19
 637  1781.098
 638  1786.623
 639  1865.217
 640  1806.06
 641  1793.067
 642  1674.368
 643  1733.214
 644  1974.224
 645  2088.37
 646  2131.384
 647  2250.588
 648  2503.444
 649  2660.499
 650  2656.625
 651  2589.648
 652  2540.693
 653  2526.903
 654  2348.74
 655  2182.665
 656  1965.08
 657  1900.233
 658  1653.457
 659  1531.126
 660  1513.359
 661  1549.629
 662  1630.569
 663  1613.75
 664  1572.031
 665  1446.436
 666  1352.876
 667  1395.226
 668  1470.532
 669  1498.018
 670  1433.056
 671  1364.4
 672  1382.342
 673  1452.51
 674  1358.131
 675  1268.202
 676  1272.874
 677  1510.899
 678  1597.286
 679  1582.525
 680  1476.686
 681  1566.112
 682  1515.494
 683  1458.315
 684  1419.961
 685  1541.306
 686  1519.016
 687  1432.791
 688  1318.289
 689  1286.471
 690  1102.564
 691  1030.027
 692  1026.305
 693  1237.205
 694  1383.343
 695  1526.712
 696  1574.34
 697  1632.574
 698  1615.774
 699  1519.153
 700  1469.77
 701  1396.833
 702  1444.669
 703  1515.247
 704  1516.954
 705  1480.704
 706  1443.208
 707  1521.821
 708  1502.583
 709  1510.876
 710  1462.66
 711  1497.725
 712  1524.012
 713  1428.053
 714  1230.084
 715  1145.773
 716  1136.136
 717  1294.807
 718  1344.278
 719  1364.828
 720  1230.468
 721  1150.216
 722  1131.207
 723  1147.57
 724  1239.752
 725  1266.927
 726  1295.939
 727  1208.394
 728  1239.639
 729  1318.264
 730  1392.104
 731  1288.774
 732  1169.691
 733  1140.746
 734  1121.618
 735  1153.846
 736  1226.62
 737  1226.319
 738  1231.448
 739  1358.662
 740  1392.303
 741  1367.992
 742  1306.761
 743  1252.784
 744  1287.168
 745  1230.096
 746  1279.406
 747  1145.002
 748  1065.71
 749  1108.723
 750  1130.432
 751  1128.345
 752  1082.251
 753  1150.208
 754  1186.586
 755  1190.568
 756  1122.35
 757  1211.42
 758  1276.618
 759  1250.919
 760  1107.298
 761  1036.379
 762  1129.941
 763  1195.932
 764  1299.35
 765  1233.213
 766  1310.659
 767  1206.547
 768  1245.516
 769  1205.798
 770  1285.196
 771  1330.205
 772  1273.256
 773  1294.594
 774  1292.306
 775  1300.99
 776  1360.999
 777  1371.844
 778  1372.912
 779  1295.085
 780  1300.984
 781  1316.603
 782  1479.486
 783  1515.872
 784  1452.584
 785  1366.075
 786  1288.461
 787  1320.309
 788  1362.458
 789  1288.525
 790  1256.737
 791  1103.152
 792  1093.046
 793  1103.888
 794  1236.617
 795  1456.432
 796  1531.249
 797  1486.8
 798  1386.678
 799  1323.459
 800  1431.186
 801  1454.305
 802  1344.025
 803  1076.429
 804  1074.492
 805  1184.479
 806  1409.716
 807  1448.685
 808  1443.189
 809  1464.883
 810  1608.883
 811  1662.627
 812  1657.207
 813  1626.225
 814  1488.442
 815  1417.26
 816  1345.107
 817  1377.258
 818  1467.622
 819  1603.991
 820  1578.513
 821  1377.177
 822  1302.477
 823  1372.304
 824  1492.813
 825  1521.052
 826  1431.594
 827  1494.725
 828  1584.1
 829  1733.409
 830  1638.886
 831  1551.426
 832  1493.494
 833  1515.931
 834  1496.523
 835  1448.758
 836  1326.635
 837  1398.97
 838  1593.016
 839  1578.405
 840  1557.782
 841  1537.048
 842  1630.088
 843  1575.142
 844  1454.248
 845  1354.302
 846  1352.479
 847  1359.522
 848  1442.792
 849  1448.201
 850  1476.201
 851  1460.545
 852  1378.29
 853  1376.852
 854  1315.998
 855  1369.094
 856  1402.057
 857  1350.388
 858  1229.667
 859  1086.391
 860  1077.072
 861  1122.232
 862  1052.288
 863  1027.963
 864  1030.843
 865  1112.979
 866  1125.822
 867  1039.888
 868  1070.402
 869  1255.03
 870  1448.151
 871  1512.941
 872  1483.317
 873  1484.188
 874  1467.238
 875  1382.405
 876  1309.264
 877  1352.73
 878  1438.871
 879  1407.657
 880  1428.283
 881  1411.091
 882  1521.844
 883  1544.793
 884  1566.641
 885  1520.709
 886  1539.992
 887  1626.021
 888  1713.746
 889  1755.52
 890  1699.744
 891  1535.547
 892  1471.229
 893  1623.527
 894  1636.083
 895  1566.916
 896  1394.996
 897  1450.669
 898  1441.768
 899  1411.893
 900  1308.167
 901  1245.021
 902  1302.64
 903  1271.915
 904  1202.978
 905  1275.255
 906  1407.921
 907  1380.157
 908  1406.368
 909  1362.441
 910  1520.936
 911  1434.436
 912  1354.47
 913  1298.018
 914  1441.421
 915  1510.374
 916  1455.681
 917  1366.349
 918  1322.943
 919  1262.551
 920  1347.153
 921  1404.678
 922  1414.833
 923  1372.429
 924  1482.113
 925  1544.815
 926  1592.865
 927  1513.002
 928  1446.179
 929  1317.242
 930  1258.461
 931  1206.053
 932  1260.803
 933  1333.604
 934  1371.284
 935  1428.678
 936  1421.16
 937  1398.252
 938  1465.885
 939  1456.99
 940  1447.189
 941  1413.016
 942  1354.159
 943  1299.771
 944  1308.992
 945  1334.706
 946  1451.709
 947  1405.046
 948  1557.452
 949  1592.736
 950  1630.148
 951  1603.217
 952  1621.219
 953  1648.351
 954  1691.831
 955  1599.444
 956  1606.517
 957  1595.034
 958  1750.807
 959  1651.782
 960  1549.661
 961  1530.913
 962  1680.607
 963  1691.218
 964  1667.705
 965  1600.035
 966  1527.835
 967  1608.173
 968  1703.899
 969  1718.307
 970  1679.274
 971  1723.078
 972  1778.458
 973  1814.298
 974  1802.8
 975  1773.369
 976  1865.076
 977  1891.312
 978  1871.432
 979  1883.275
 980  1869.669
 981  2000.217
 982  1945.48
 983  1906.659
 984  1852.436
 985  1896.69
 986  1901.172
 987  1828.66
 988  1900.464
 989  1985.691
 990  1818.294
 991  1784.695
 992  1772.866
 993  1833.13
 994  1757.596
 995  1759.75
 996  1812.349
 997  1866.221
 998  1905.752
 999  1927.354
1000  1773.897
1001  1565.679
1002  1438.517
1003  1553.16
1004  1736.577
1005  1786.482
1006  1779.896
1007  1737.438
1008  1670.225
1009  1560.666
1010  1552.922
1011  1650.841
1012  1622.359
1013  1664.379
1014  1567.877
1015  1529.92
1016  1533.275
1017  1585.552
1018  1661.477
1019  1567.793
1020  1551.872
1021  1540.85
1022  1449.796
1023  1501.702
