# Input file       =  1184660059.09953_cleaned.dat
# Candidate        =  PSR_0332+5434
# Telescope        =  AR
# Epoch_topo       =  57955.343496522335
# Epoch_bary       =  N/A
# T_sample         =  0.002
# Data Folded      =  7340032
# Data Avg         =  0.0430908420283416
# Data StdDev      =  1.00042450757584 
# Profile Bins     =  512
# Profile Avg      =  617.753383514925 
# Profile StdDev   =  119.783863957786 
# Reduced chi-sqr  =  1.340
# Prob(Noise)      <  3.98e-07   (~4.9 sigma)
# P_topo (ms)      =  714.47527262665   +/- 0.000466
# P'_topo (s/s)    =  -0                +/- 2.46e-10
# P''_topo (s/s^2) =  0                 +/- 1.09e-13
# P_bary (ms)      =  N/A
# P'_bary (s/s)    =  N/A
# P''_bary (s/s^2) =  N/A
# P_orb (s)        =  N/A
# asin(i)/c (s)    =  N/A
# eccentricity     =  N/A
# w (rad)          =  N/A
# T_peri           =  N/A
######################################################
   0  1094.824
   1  1066.385
   2  891.5589
   3  712.7103
   4  619.8163
   5  559.5956
   6  538.5903
   7  503.5039
   8  542.0255
   9  605.2617
  10  674.095
  11  700.6499
  12  642.2467
  13  558.6586
  14  593.7928
  15  656.9951
  16  673.3467
  17  660.4608
  18  612.0433
  19  566.2195
  20  490.5469
  21  557.9569
  22  667.9739
  23  577.1983
  24  562.465
  25  582.1837
  26  700.0928
  27  637.9694
  28  572.1122
  29  518.8167
  30  524.0681
  31  658.7267
  32  628.8967
  33  561.6732
  34  626.9223
  35  626.3086
  36  769.0533
  37  759.5765
  38  711.9467
  39  679.4897
  40  746.1597
  41  748.1298
  42  719.5206
  43  651.6801
  44  606.8792
  45  645.3743
  46  663.7684
  47  557.8682
  48  495.3897
  49  527.1651
  50  572.7825
  51  649.9198
  52  753.1056
  53  667.895
  54  486.1679
  55  508.3451
  56  587.2339
  57  572.9073
  58  533.0484
  59  584.3769
  60  661.8074
  61  706.7634
  62  720.5988
  63  680.9442
  64  713.5748
  65  623.0275
  66  571.698
  67  664.1148
  68  654.2254
  69  627.9451
  70  683.9596
  71  748.8714
  72  751.0488
  73  645.0056
  74  633.227
  75  692.1218
  76  724.0723
  77  744.5048
  78  800.7795
  79  674.8926
  80  729.863
  81  720.5176
  82  782.2512
  83  683.8864
  84  833.4094
  85  838.451
  86  694.3261
  87  665.8213
  88  690.8033
  89  680.9044
  90  669.9803
  91  628.8316
  92  520.5009
  93  649.59
  94  618.8045
  95  636.7621
  96  608.3135
  97  645.2424
  98  639.4619
  99  671.5197
 100  615.0638
 101  532.4135
 102  667.9495
 103  684.7462
 104  623.0583
 105  716.8316
 106  828.9597
 107  755.8123
 108  679.1104
 109  675.3047
 110  642.4193
 111  665.8569
 112  751.3734
 113  668.6513
 114  619.6401
 115  697.4504
 116  640.9605
 117  617.4459
 118  628.7193
 119  633.3789
 120  673.0028
 121  628.7541
 122  611.6237
 123  623.0342
 124  651.6011
 125  723.3073
 126  778.0366
 127  755.3406
 128  656.1416
 129  724.0533
 130  812.6634
 131  760.8391
 132  647.4569
 133  812.0818
 134  851.9899
 135  662.2763
 136  638.0158
 137  653.9048
 138  773.8791
 139  699.4828
 140  618.0743
 141  652.663
 142  634.9984
 143  710.9886
 144  713.3185
 145  746.1734
 146  770.6665
 147  719.3796
 148  606.0068
 149  631.4105
 150  653.3388
 151  774.7496
 152  738.0251
 153  686.0938
 154  629.9092
 155  745.0906
 156  674.2952
 157  579.2842
 158  661.9966
 159  787.7269
 160  759.561
 161  749.1815
 162  699.4951
 163  666.1995
 164  744.1996
 165  693.4542
 166  628.9377
 167  735.5414
 168  711.1231
 169  634.6386
 170  641.1442
 171  649.4497
 172  580.856
 173  628.2747
 174  686.5923
 175  689.6417
 176  691.4183
 177  689.7648
 178  618.4656
 179  600.4558
 180  808.832
 181  740.1335
 182  717.968
 183  768.4786
 184  673.6
 185  601.4527
 186  707.3174
 187  723.9269
 188  717.591
 189  658.1444
 190  741.7783
 191  607.1606
 192  545.472
 193  644.7224
 194  661.5388
 195  649.118
 196  631.5739
 197  696.3035
 198  593.1078
 199  543.5918
 200  581.091
 201  626.7588
 202  688.9563
 203  623.1146
 204  584.1371
 205  713.8246
 206  765.3146
 207  801.1833
 208  740.3348
 209  615.9999
 210  576.452
 211  593.44
 212  536.15
 213  592.7128
 214  648.2769
 215  565.3731
 216  663.6787
 217  599.9454
 218  598.1364
 219  627.0305
 220  572.1804
 221  693.5898
 222  695.7413
 223  678.2499
 224  679.2972
 225  625.5283
 226  594.5579
 227  633.349
 228  584.8702
 229  566.5576
 230  633.908
 231  656.2259
 232  614.195
 233  555.3917
 234  501.6196
 235  462.9645
 236  591.127
 237  613.806
 238  544.6174
 239  604.6383
 240  550.8571
 241  607.5909
 242  660.6326
 243  704.9
 244  610.6794
 245  583.3761
 246  624.1376
 247  687.2378
 248  656.1453
 249  571.84
 250  590.5985
 251  492.9748
 252  529.7647
 253  689.3036
 254  766.055
 255  744.5002
 256  763.1558
 257  806.4879
 258  717.2059
 259  639.9481
 260  627.4507
 261  602.2928
 262  558.1318
 263  652.9977
 264  603.5274
 265  524.4296
 266  639.2104
 267  572.8925
 268  603.3457
 269  601.9649
 270  539.7218
 271  435.5693
 272  497.6259
 273  580.0409
 274  569.8036
 275  493.5807
 276  603.1348
 277  607.1645
 278  502.0609
 279  439.3248
 280  546.2332
 281  613.3412
 282  640.0256
 283  623.4284
 284  484.7036
 285  518.071
 286  494.9463
 287  572.243
 288  654.4554
 289  654.9095
 290  609.9216
 291  667.743
 292  622.8082
 293  604.0193
 294  602.2859
 295  631.9228
 296  600.5703
 297  509.2646
 298  680.1957
 299  619.6083
 300  566.5451
 301  609.4991
 302  537.5732
 303  490.0884
 304  483.6048
 305  465.7921
 306  502.699
 307  612.6333
 308  504.2945
 309  556.0197
 310  500.5831
 311  659.7221
 312  654.6796
 313  537.6987
 314  587.9222
 315  521.7808
 316  582.5882
 317  670.5247
 318  606.708
 319  636.7171
 320  566.4407
 321  538.4856
 322  566.652
 323  544.3907
 324  634.3488
 325  501.5105
 326  527.8232
 327  574.3837
 328  507.1133
 329  565.7787
 330  554.2022
 331  619.847
 332  677.9908
 333  530.8145
 334  449.4877
 335  435.1195
 336  483.3601
 337  518.1671
 338  552.8683
 339  559.2582
 340  483.1968
 341  467.1844
 342  423.6291
 343  426.0406
 344  501.997
 345  610.0937
 346  639.0922
 347  569.3447
 348  533.9724
 349  553.6295
 350  502.8255
 351  635.6384
 352  591.3154
 353  560.6723
 354  457.409
 355  496.4194
 356  487.7629
 357  565.2909
 358  452.5424
 359  398.643
 360  403.3656
 361  384.0878
 362  422.5702
 363  450.5011
 364  499.0317
 365  410.8449
 366  549.2025
 367  417.8546
 368  436.0022
 369  452.9502
 370  436.7303
 371  453.4969
 372  408.5022
 373  446.1704
 374  473.6289
 375  527.7847
 376  576.2726
 377  565.6172
 378  471.0996
 379  547.5618
 380  613.2151
 381  650.4096
 382  534.9864
 383  442.3622
 384  526.9016
 385  485.6225
 386  546.4417
 387  524.1766
 388  496.2452
 389  430.2551
 390  557.9017
 391  488.1062
 392  458.0763
 393  448.1779
 394  446.8357
 395  572.0549
 396  609.4664
 397  554.2237
 398  468.372
 399  414.1829
 400  501.6026
 401  428.2214
 402  436.7755
 403  395.9413
 404  417.1653
 405  491.9229
 406  433.4211
 407  424.1131
 408  433.7426
 409  427.9152
 410  475.0962
 411  443.0473
 412  476.6232
 413  502.3959
 414  532.9702
 415  472.7039
 416  489.019
 417  485.3777
 418  547.9645
 419  635.6923
 420  580.2354
 421  515.5183
 422  503.1873
 423  570.0201
 424  635.8651
 425  655.7032
 426  712.3389
 427  677.4376
 428  599.3184
 429  509.5801
 430  577.162
 431  660.3121
 432  681.1376
 433  550.9092
 434  609.8236
 435  667.129
 436  744.1008
 437  726.293
 438  662.0034
 439  646.8438
 440  574.614
 441  643.8581
 442  608.0807
 443  585.2648
 444  597.0953
 445  561.5341
 446  632.4836
 447  569.6258
 448  704.9833
 449  722.5163
 450  683.4397
 451  609.0615
 452  647.4507
 453  608.2906
 454  700.0995
 455  693.3998
 456  703.4851
 457  642.4984
 458  612.7937
 459  594.4455
 460  595.8799
 461  653.4507
 462  675.4984
 463  666.8428
 464  610.4707
 465  694.2953
 466  632.1782
 467  658.3146
 468  589.3187
 469  501.8673
 470  601.192
 471  579.6812
 472  560.4527
 473  664.9384
 474  744.2098
 475  689.9903
 476  591.0891
 477  532.6008
 478  529.5157
 479  608.7867
 480  655.0944
 481  648.5984
 482  523.9376
 483  604.2693
 484  682.8549
 485  715.1398
 486  722.774
 487  667.9604
 488  672.9888
 489  715.7549
 490  646.3355
 491  596.4335
 492  688.5278
 493  727.7953
 494  666.0223
 495  625.2036
 496  622.8954
 497  609.3221
 498  592.3136
 499  699.1902
 500  744.7686
 501  631.6316
 502  673.6672
 503  703.2263
 504  764.6122
 505  754.767
 506  673.39
 507  740.4815
 508  770.5018
 509  888.2397
 510  944.9543
 511  1059.541
