# Input file       =  1184472772.105566_cleaned.dat
# Candidate        =  PSR_0332+5434
# Telescope        =  AR
# Epoch_topo       =  57953.175822981088
# Epoch_bary       =  N/A
# T_sample         =  0.002
# Data Folded      =  7340032
# Data Avg         =  0.135479007845528
# Data StdDev      =  3.25188413280502 
# Profile Bins     =  512
# Profile Avg      =  1941.77550138777 
# Profile StdDev   =  389.357961166172 
# Reduced chi-sqr  =  1.260
# Prob(Noise)      <  5.71e-05   (~3.9 sigma)
# P_topo (ms)      =  714.476245071819  +/- 0.000519
# P'_topo (s/s)    =  -0                +/- 2.74e-10
# P''_topo (s/s^2) =  0                 +/- 1.21e-13
# P_bary (ms)      =  N/A
# P'_bary (s/s)    =  N/A
# P''_bary (s/s^2) =  N/A
# P_orb (s)        =  N/A
# asin(i)/c (s)    =  N/A
# eccentricity     =  N/A
# w (rad)          =  N/A
# T_peri           =  N/A
######################################################
   0  1627.907
   1  1655.221
   2  1661.05
   3  1429.172
   4  1199.246
   5  1267.746
   6  1736.831
   7  1756.626
   8  1455.44
   9  1590.225
  10  1786.758
  11  1846.818
  12  1958.98
  13  1395.22
  14  1450.866
  15  1424.359
  16  1674.855
  17  1910.232
  18  2057.095
  19  2338.225
  20  2042.407
  21  1624.432
  22  1680.792
  23  1695.123
  24  1570.833
  25  2008.73
  26  2012.167
  27  1620.135
  28  1524.081
  29  1556.744
  30  1849.549
  31  1752.314
  32  1781.962
  33  1905.497
  34  1738.453
  35  1898.05
  36  2065.076
  37  1993.964
  38  1587.401
  39  1603.755
  40  1881.956
  41  1992.719
  42  2065.982
  43  2356.484
  44  2445.276
  45  2215.861
  46  2173.794
  47  2116.334
  48  1573.92
  49  1617.614
  50  2117.17
  51  2047.305
  52  2084.9
  53  2029.665
  54  1908.695
  55  1645.32
  56  1600.571
  57  1933.379
  58  1897.002
  59  2001.886
  60  1950.231
  61  1521.567
  62  1556.092
  63  1678.803
  64  1714.984
  65  1892.879
  66  1706.834
  67  1748.255
  68  1699.694
  69  1675.386
  70  1457.625
  71  1724.441
  72  1792.716
  73  1570.416
  74  1682.229
  75  1734.435
  76  1393.049
  77  1410.271
  78  1704.047
  79  1685.067
  80  1584.214
  81  1751.532
  82  1763.508
  83  1795.481
  84  1753.46
  85  1778.135
  86  2066.005
  87  2162.615
  88  2490.305
  89  2279.099
  90  2192.312
  91  1841.474
  92  1994.678
  93  2177.646
  94  2339.78
  95  2240.443
  96  1913.685
  97  1936.363
  98  1898.35
  99  1968.197
 100  2243.879
 101  2182.47
 102  2191.232
 103  2130.32
 104  2097.221
 105  1875.108
 106  2067.138
 107  2364.014
 108  2242.126
 109  1854.13
 110  1956.454
 111  2195.839
 112  1855.683
 113  2076.545
 114  2117.495
 115  2188.445
 116  2211.742
 117  2107.57
 118  1994.685
 119  1861.784
 120  1732.22
 121  1890.496
 122  2260.702
 123  1974.009
 124  1770.05
 125  1593.456
 126  1807.683
 127  1846.39
 128  2008.545
 129  2000.549
 130  1827.443
 131  1737.448
 132  1755.588
 133  1748.394
 134  1622.528
 135  1864.337
 136  1973.402
 137  1687.736
 138  1586.858
 139  1460.223
 140  1652.266
 141  1835.184
 142  1624.82
 143  1783.815
 144  1804.206
 145  1694.778
 146  1641.175
 147  1799.825
 148  1855.166
 149  1698.761
 150  1760.575
 151  1762.793
 152  1749.555
 153  1951.189
 154  1966.573
 155  1926.094
 156  1853.803
 157  1878.543
 158  1814.371
 159  1923.645
 160  1932.828
 161  1842.336
 162  1565.057
 163  1887.266
 164  1967.205
 165  1927.91
 166  1870.357
 167  1959.271
 168  2023.067
 169  1849.249
 170  1796.377
 171  1949.143
 172  1871.348
 173  1669.566
 174  1766.066
 175  1743.646
 176  1888.687
 177  2268.296
 178  2119.824
 179  1903.185
 180  1705.611
 181  1747.689
 182  1955.994
 183  1750.532
 184  1816.501
 185  1915.077
 186  2038.263
 187  2002.238
 188  1898.309
 189  1853.82
 190  1895.217
 191  1853.893
 192  1620.994
 193  1744.839
 194  1846.929
 195  1864.629
 196  1613.585
 197  1761.96
 198  1964.705
 199  1955.396
 200  1995.095
 201  2179.588
 202  2187.563
 203  2271.021
 204  1964.553
 205  1793.01
 206  1619.714
 207  1700.119
 208  1918.713
 209  1818.103
 210  1562.722
 211  1227.199
 212  1413.434
 213  1386.391
 214  1360.282
 215  1534.229
 216  1873.199
 217  1656.345
 218  1397.425
 219  1387.516
 220  1390.454
 221  1391.551
 222  1676.171
 223  1836.724
 224  1930.586
 225  1442.579
 226  1616.49
 227  1699.944
 228  1666.876
 229  1898.79
 230  2157.227
 231  2131.549
 232  2212.51
 233  2092.635
 234  1915.502
 235  1849.298
 236  1341.189
 237  1912.604
 238  1840.585
 239  1739.926
 240  1859.88
 241  1735.191
 242  1679.693
 243  1498.377
 244  1791.814
 245  2031.713
 246  1870.324
 247  1687.551
 248  1812.765
 249  1815.665
 250  1978.335
 251  2272.466
 252  2376.199
 253  2238.598
 254  1998.626
 255  1918.473
 256  1979.804
 257  2083.778
 258  1979
 259  1799.949
 260  2183.112
 261  2354.675
 262  2174.292
 263  1844.104
 264  1817.142
 265  2033.647
 266  1962.777
 267  1754.502
 268  2000.413
 269  1950.9
 270  1937.823
 271  2083.189
 272  1998.645
 273  2081.996
 274  1989.469
 275  2152.613
 276  2102.066
 277  1994.467
 278  2029.528
 279  1834.429
 280  2208.687
 281  2255.684
 282  2185.244
 283  2103.921
 284  2295.178
 285  2356.044
 286  2095.101
 287  1929.186
 288  1795.242
 289  2027.431
 290  2125.062
 291  2026.531
 292  2070.549
 293  1996.361
 294  1828.572
 295  2123.578
 296  2143.718
 297  1860.878
 298  1944.582
 299  1866.357
 300  1827.996
 301  1762.063
 302  1965.147
 303  2223.289
 304  2192.969
 305  2153.215
 306  2085.671
 307  2075.554
 308  2007.913
 309  2131.59
 310  2111.858
 311  1939.762
 312  1863.754
 313  1878.224
 314  2062.698
 315  2096.547
 316  2012.469
 317  1921.443
 318  2260.714
 319  2489.485
 320  2479.53
 321  2534.935
 322  2347.942
 323  3215.624
 324  3751.493
 325  3818.873
 326  4038.546
 327  3812.881
 328  3038.928
 329  2415.292
 330  2277.581
 331  2232.167
 332  2131.962
 333  2055.058
 334  1941.341
 335  2016.534
 336  1934.138
 337  2087.044
 338  2347.777
 339  2663.334
 340  2676.777
 341  2032.229
 342  1996.18
 343  1917.822
 344  1844.665
 345  1776.19
 346  1896.766
 347  1667.247
 348  1926.146
 349  2047.37
 350  2108.959
 351  1979.581
 352  1613.06
 353  1737.271
 354  1821.353
 355  2042.589
 356  2028.416
 357  1808.206
 358  1695.461
 359  1872.016
 360  1936.595
 361  1871.047
 362  1828.602
 363  2143.104
 364  2062.554
 365  1664.517
 366  1833.003
 367  1840.577
 368  2218.465
 369  2274.387
 370  2293.923
 371  2052.701
 372  2144.961
 373  2259.051
 374  2093.469
 375  1677.91
 376  2093.165
 377  2026.843
 378  1746.379
 379  1967.031
 380  1996.792
 381  2030.28
 382  1973.346
 383  1930.049
 384  2409.322
 385  2202.972
 386  1896.298
 387  1873.302
 388  2147.821
 389  1968.074
 390  2114.017
 391  2286.387
 392  2258.908
 393  2341.371
 394  2607.524
 395  2366.44
 396  2439.261
 397  2700.878
 398  2545.312
 399  2068.418
 400  2304.884
 401  2494.577
 402  2263.481
 403  2234.592
 404  2152.227
 405  2351.096
 406  2452.675
 407  1989.833
 408  2091.166
 409  2288.005
 410  2163.313
 411  2155.212
 412  2131.726
 413  2288.483
 414  2137.424
 415  2331.544
 416  2428.199
 417  2214.847
 418  2097.026
 419  2166.658
 420  2334.233
 421  2407.753
 422  2093.898
 423  2049.673
 424  2156.836
 425  2160.193
 426  1928.882
 427  1888.064
 428  1972.179
 429  2039.822
 430  1902.275
 431  2039.81
 432  2148.008
 433  2035.251
 434  2068.37
 435  2183.196
 436  2184.415
 437  2268.958
 438  2254.01
 439  2588.863
 440  2208.482
 441  2144.59
 442  2139.746
 443  1923.095
 444  1907.921
 445  1925.658
 446  1971.002
 447  2173.106
 448  2245.499
 449  2189.272
 450  2056.413
 451  2121.071
 452  2035.861
 453  1832.061
 454  1865.731
 455  2150.969
 456  2233.705
 457  1836.499
 458  1661.706
 459  1679.169
 460  1747.439
 461  1874.965
 462  1814.953
 463  1890.305
 464  1832.379
 465  1771.234
 466  1700.906
 467  1687.348
 468  1804.956
 469  2061.799
 470  1977.17
 471  1916.733
 472  1972.49
 473  1763.34
 474  1820.898
 475  1970.314
 476  1768.949
 477  1870.76
 478  1959.024
 479  2007.704
 480  1751.72
 481  1662.831
 482  1618.642
 483  1564.069
 484  1547.141
 485  1518.036
 486  1820.462
 487  1754.033
 488  1611.337
 489  1745.261
 490  1445.244
 491  1294.698
 492  1576.086
 493  1606.616
 494  1562.773
 495  1769.707
 496  1749.746
 497  1911.5
 498  1613.961
 499  1399.531
 500  1448.696
 501  1503.643
 502  1856.267
 503  1832.887
 504  1905.815
 505  1899.801
 506  1471.045
 507  1385.336
 508  1459.123
 509  1393.384
 510  1653.375
 511  1894.992
