# Input file       =  1184832292.10788_cleaned.dat
# Candidate        =  PSR_0332+5434
# Telescope        =  AR
# Epoch_topo       =  57957.336934118983
# Epoch_bary       =  N/A
# T_sample         =  0.002
# Data Folded      =  7340032
# Data Avg         =  0.273350360657788
# Data StdDev      =  4.97455436751787 
# Profile Bins     =  1024
# Profile Avg      =  1959.25981776051 
# Profile StdDev   =  421.16587967432  
# Reduced chi-sqr  =  0.861
# Prob(Noise)      <  0.999   (~0.0 sigma)
# P_topo (ms)      =  714.47412481902   +/- 0.000252
# P'_topo (s/s)    =  -0                +/- 1.33e-10
# P''_topo (s/s^2) =  0                 +/- 5.86e-14
# P_bary (ms)      =  N/A
# P'_bary (s/s)    =  N/A
# P''_bary (s/s^2) =  N/A
# P_orb (s)        =  N/A
# asin(i)/c (s)    =  N/A
# eccentricity     =  N/A
# w (rad)          =  N/A
# T_peri           =  N/A
######################################################
   0  2120.275
   1  2028.533
   2  1826.25
   3  1644.518
   4  1647.672
   5  1666.998
   6  1778.189
   7  1859.396
   8  1875.956
   9  1798.497
  10  1851.535
  11  1839.39
  12  1862.305
  13  1793.593
  14  1827.786
  15  1822.478
  16  1754.608
  17  1608.971
  18  1569.667
  19  1552.776
  20  1638.915
  21  1600.621
  22  1713.565
  23  1763.043
  24  1820.101
  25  1851.728
  26  1879.549
  27  1865.151
  28  1874.66
  29  1923.147
  30  1907.764
  31  1870.682
  32  1865.092
  33  1868.712
  34  1986.762
  35  1990.522
  36  1986.113
  37  1891.754
  38  1989.31
  39  1992.213
  40  1975.107
  41  1944.69
  42  2024.66
  43  2071.613
  44  1979.01
  45  1899.423
  46  1959.944
  47  1990.1
  48  2044.944
  49  2072.988
  50  2161.9
  51  2139.3
  52  2072.72
  53  2163.05
  54  2329.189
  55  2378.336
  56  2302.58
  57  2243.904
  58  2186.053
  59  2142.852
  60  2033.97
  61  2019.716
  62  1833.594
  63  1826.844
  64  1988.595
  65  2228.602
  66  2380.167
  67  2296.674
  68  2192.804
  69  2239.658
  70  2259.502
  71  2231.926
  72  2075.562
  73  2058.568
  74  1993.227
  75  1823.348
  76  1839.614
  77  1772.086
  78  1774.765
  79  1841.128
  80  2006.546
  81  2119.698
  82  2146.291
  83  2222.31
  84  2121.051
  85  1953.058
  86  1729.744
  87  1620.568
  88  1637.903
  89  1658.058
  90  1657.66
  91  1751.989
  92  1918.374
  93  1849.699
  94  1741.02
  95  1874.629
  96  2036.275
  97  2075.837
  98  1915.217
  99  1827.184
 100  1812.119
 101  1700.443
 102  1774.861
 103  1876.707
 104  2059.804
 105  2055.059
 106  1929.744
 107  1763.849
 108  1749.642
 109  1744.513
 110  1808.347
 111  1833.225
 112  1847.762
 113  1808.568
 114  1848.32
 115  1802.587
 116  1756.777
 117  1696.265
 118  1772.064
 119  1818.569
 120  1753.257
 121  1597.044
 122  1474.153
 123  1500.229
 124  1674.465
 125  1708.518
 126  1881.46
 127  1785.331
 128  1796.871
 129  1709.572
 130  1759.332
 131  1895.185
 132  1934.047
 133  1987.147
 134  1757.053
 135  1720.279
 136  1776.813
 137  1816.324
 138  1826.201
 139  1926.187
 140  1956.412
 141  1895.467
 142  1721.041
 143  1664.14
 144  1774.716
 145  1781.992
 146  1785.637
 147  1757.35
 148  1898.245
 149  1875.712
 150  1849.765
 151  1855.621
 152  1986.794
 153  2212.701
 154  2251.672
 155  2167.3
 156  2082.909
 157  2116.923
 158  2146.654
 159  2135.505
 160  2069.865
 161  1857.543
 162  1884.029
 163  1960.058
 164  2012.254
 165  1958.109
 166  1973.35
 167  2142.999
 168  2222.473
 169  2210.124
 170  2078.203
 171  2043.286
 172  2044.646
 173  2057.656
 174  2021.98
 175  1972.283
 176  1828.048
 177  1735.259
 178  1746.404
 179  1711.191
 180  1827.882
 181  1914.061
 182  2030.565
 183  2002.152
 184  1898.661
 185  1845.179
 186  1858.749
 187  2016.505
 188  2089.627
 189  2019.935
 190  1969.014
 191  1917.314
 192  2014.51
 193  2040.329
 194  2011.982
 195  1860.621
 196  1721.851
 197  1625.174
 198  1729.324
 199  1861.541
 200  2027.709
 201  2078.711
 202  2245.2
 203  2134.478
 204  2119.721
 205  2010.37
 206  2098.964
 207  2065.342
 208  1934.335
 209  1943.994
 210  1902.205
 211  1847.033
 212  1772.384
 213  1871.501
 214  2030.143
 215  2050.047
 216  2116.284
 217  2065.859
 218  1941.355
 219  1861.848
 220  1949.454
 221  2048.519
 222  2018.707
 223  2010.622
 224  1930.437
 225  1926.508
 226  1883.072
 227  1807.718
 228  1712.063
 229  1761.904
 230  1755.401
 231  1833.826
 232  1812.781
 233  1899.043
 234  1962.172
 235  1854.12
 236  1859.083
 237  1775.808
 238  1876.942
 239  1909.485
 240  1909.58
 241  1841.552
 242  1876.272
 243  1905.755
 244  1925.121
 245  1969.605
 246  1993.755
 247  2068.698
 248  2051.051
 249  1938.296
 250  1823.484
 251  1730.798
 252  1655.889
 253  1736.207
 254  1896.225
 255  1913.912
 256  1903.885
 257  1996.38
 258  2215.569
 259  2169.416
 260  2079.281
 261  2116.329
 262  2160.462
 263  2018.331
 264  1808.827
 265  1815.811
 266  1876.516
 267  2029.294
 268  1963.595
 269  1902.956
 270  1870.38
 271  1815.831
 272  1915.891
 273  2049.383
 274  2228.248
 275  2213.73
 276  2112.847
 277  2022.18
 278  1937.02
 279  1891.909
 280  1902.638
 281  1910.078
 282  1993.626
 283  2023.26
 284  2118.956
 285  2165.79
 286  2333.413
 287  2425.796
 288  2384.612
 289  2323.786
 290  2259.429
 291  2141.052
 292  2022.983
 293  1967.705
 294  2029.834
 295  2150.341
 296  2230.314
 297  2224.844
 298  2313.156
 299  2328.563
 300  2418.359
 301  2404.78
 302  2399.617
 303  2322.908
 304  2331.742
 305  2371.321
 306  2266.79
 307  2183.255
 308  2193.786
 309  2349.496
 310  2293.558
 311  2351.173
 312  2362.149
 313  2421.37
 314  2417.863
 315  2461.077
 316  2437.607
 317  2378.86
 318  2396.967
 319  2514.067
 320  2382.316
 321  2213.407
 322  2107.595
 323  2220.072
 324  2201.38
 325  2154.302
 326  2064.922
 327  2059.072
 328  2073.667
 329  2096.407
 330  2093.691
 331  2098.841
 332  2099.165
 333  2116.335
 334  2095.281
 335  2122.184
 336  2118.91
 337  2111.139
 338  2077.185
 339  2165.093
 340  2194.271
 341  2188.787
 342  2115.492
 343  2114.43
 344  2011.516
 345  2062.385
 346  2038.334
 347  2021.056
 348  1880.02
 349  1849.488
 350  1940.644
 351  2118.655
 352  2092.833
 353  1983.326
 354  1787.604
 355  1818.119
 356  1818.277
 357  1874.931
 358  1837.838
 359  1896.118
 360  2005.524
 361  2029.642
 362  2005.781
 363  1917.073
 364  1907.102
 365  1825.385
 366  1719.611
 367  1799.977
 368  1778.345
 369  1895.853
 370  1927.429
 371  2031.869
 372  1958.693
 373  1909.382
 374  1850.36
 375  1972.213
 376  1914.47
 377  1944.394
 378  1959.095
 379  2022.383
 380  1915.693
 381  1863.371
 382  1862.156
 383  1846.636
 384  1812.18
 385  1937.604
 386  2042.996
 387  2118.893
 388  2195.915
 389  2277.74
 390  2248.555
 391  2251.917
 392  2204.371
 393  2282.263
 394  2250.625
 395  2213.857
 396  2137.759
 397  2132.132
 398  2269.793
 399  2323.887
 400  2285.635
 401  2271.599
 402  2297.86
 403  2257.538
 404  2244.895
 405  2304.245
 406  2343.772
 407  2271.348
 408  2191.881
 409  2216.989
 410  2241.794
 411  2162.328
 412  2176.017
 413  2257.691
 414  2362.9
 415  2334.485
 416  2179.29
 417  2104.438
 418  2087.771
 419  2114.507
 420  2108.567
 421  2119.012
 422  2089.906
 423  2119.411
 424  2153.787
 425  2291.056
 426  2256.45
 427  2163.315
 428  2259.713
 429  2290.55
 430  2228.117
 431  2109.362
 432  2010.774
 433  2039.144
 434  2102.677
 435  2152.604
 436  2108.667
 437  2055.195
 438  2119.62
 439  2193.705
 440  2125.339
 441  2036.451
 442  2066.542
 443  2096.492
 444  2162.215
 445  2088.278
 446  2049.393
 447  2072.951
 448  2117.228
 449  2102.75
 450  2083.066
 451  2063.62
 452  2132.354
 453  2189.548
 454  2246.468
 455  2238.082
 456  2205.33
 457  2224.982
 458  2110.855
 459  2017.687
 460  2048.531
 461  2216.231
 462  2105.432
 463  2145.505
 464  2125.266
 465  2206.669
 466  2215.658
 467  2280.514
 468  2290.365
 469  2241.124
 470  2145.25
 471  2004.535
 472  1935.696
 473  2014.344
 474  2188.791
 475  2127.486
 476  2092.991
 477  1964.804
 478  2069.058
 479  2002.143
 480  2015.772
 481  2059.113
 482  2162.375
 483  2134.512
 484  1946.417
 485  1975.577
 486  2012.484
 487  2160.896
 488  2237.23
 489  2174.247
 490  2104.145
 491  1909.018
 492  1931.033
 493  1994.549
 494  2092.954
 495  2070.327
 496  1975.91
 497  2034.863
 498  1950.79
 499  1948.863
 500  1830.511
 501  1873.706
 502  1888.251
 503  2025.874
 504  2039.08
 505  2025.902
 506  2066.789
 507  1992.479
 508  1926.105
 509  1956.027
 510  2156.098
 511  2192.073
 512  2182.927
 513  2102.531
 514  2044.787
 515  2119.998
 516  2110.792
 517  1933.204
 518  1791.404
 519  1857.107
 520  2017.318
 521  2029.467
 522  2157.7
 523  2179
 524  2183.9
 525  2054.885
 526  2062.35
 527  2133.957
 528  2252.224
 529  2361.919
 530  2530.393
 531  2544.565
 532  2412.927
 533  2236.693
 534  2269.363
 535  2322.283
 536  2311.692
 537  2197.394
 538  2143.655
 539  2192.002
 540  2252.975
 541  2297.884
 542  2185.346
 543  2225.494
 544  2331.599
 545  2368.437
 546  2293.052
 547  2129.217
 548  2123.51
 549  2024.713
 550  1983.76
 551  1974.704
 552  2079.121
 553  2060.611
 554  2076.826
 555  2093.576
 556  1996.377
 557  1903.186
 558  1823.437
 559  1877.981
 560  1869.715
 561  1823.306
 562  1762.126
 563  1789.066
 564  1726.952
 565  1732.219
 566  1672.413
 567  1709.744
 568  1790.235
 569  2007.392
 570  1957.357
 571  1815.423
 572  1725.474
 573  1827.327
 574  1807.59
 575  1860.729
 576  1815.055
 577  1879.14
 578  1729.297
 579  1786.035
 580  1830.587
 581  1917.269
 582  1938.116
 583  1873.591
 584  1914.788
 585  1958.494
 586  2150.735
 587  2182.63
 588  2123.376
 589  2054.754
 590  2143.849
 591  2119.611
 592  2105.839
 593  2079.125
 594  2166.144
 595  2017.639
 596  1876.325
 597  1911.695
 598  1950.657
 599  2030.139
 600  2060.772
 601  2090.994
 602  2172.3
 603  2119.765
 604  2143.034
 605  2041.825
 606  1987.706
 607  1876.166
 608  1720.018
 609  1723.154
 610  1833.675
 611  1885.111
 612  1925.774
 613  2056.679
 614  2246.592
 615  2229.219
 616  2126.081
 617  2168.906
 618  2183.466
 619  2098.102
 620  1812.539
 621  1746.168
 622  1865.952
 623  1971.242
 624  2018.046
 625  1900.521
 626  1929.939
 627  1878.85
 628  2065.461
 629  2146.69
 630  2181.964
 631  2017.154
 632  2015.771
 633  2173.031
 634  2289.418
 635  2205.24
 636  2069.28
 637  1982.255
 638  2051.594
 639  1989.027
 640  1915.524
 641  1870.855
 642  2017.451
 643  2157.349
 644  2415.882
 645  2547.568
 646  2728.351
 647  2858.501
 648  3013.436
 649  3005.247
 650  2916.835
 651  2804.458
 652  2696.869
 653  2534.933
 654  2494.529
 655  2377.162
 656  2397.799
 657  2245.155
 658  2085.914
 659  2003.996
 660  2121.611
 661  2195.267
 662  2133.507
 663  2091.567
 664  2020.933
 665  1926.985
 666  1747.387
 667  1803.471
 668  1745.803
 669  1812.234
 670  1742.041
 671  1874.603
 672  1850.603
 673  1884.12
 674  1873.169
 675  1886.87
 676  1862.526
 677  1900.115
 678  1898.577
 679  1898.354
 680  1777.017
 681  1741.567
 682  1707.874
 683  1703.53
 684  1642.566
 685  1586.945
 686  1658.124
 687  1579.888
 688  1525.918
 689  1448.08
 690  1577.416
 691  1614.812
 692  1684.679
 693  1805.722
 694  1873.316
 695  1850.355
 696  1681.942
 697  1643.066
 698  1666.953
 699  1721.099
 700  1689.02
 701  1647.929
 702  1630.652
 703  1577.436
 704  1662.611
 705  1535.151
 706  1578.029
 707  1550.517
 708  1523.523
 709  1413.767
 710  1487.019
 711  1702.83
 712  1733.608
 713  1687.819
 714  1702.695
 715  1810.507
 716  1902.168
 717  1904.164
 718  1955.213
 719  1807.674
 720  1656.667
 721  1503.196
 722  1615.909
 723  1712.666
 724  1931.787
 725  1938.228
 726  1912.542
 727  1868.264
 728  2026.273
 729  2086.897
 730  1966.549
 731  1949.206
 732  1918.674
 733  1879.152
 734  1901.52
 735  1970.632
 736  1920.241
 737  1814.274
 738  1754.542
 739  1754.039
 740  1732.915
 741  1728.756
 742  1750.157
 743  1738.894
 744  1724.195
 745  1689.741
 746  1699.75
 747  1676.126
 748  1705.594
 749  1738.234
 750  1742.635
 751  1833.66
 752  1870.223
 753  1806.136
 754  1730.569
 755  1660.808
 756  1626.346
 757  1523.503
 758  1618.485
 759  1705.094
 760  1835.91
 761  1856.414
 762  1853.011
 763  1752.263
 764  1727.814
 765  1817.413
 766  1743.283
 767  1622.776
 768  1518.065
 769  1508.17
 770  1580.663
 771  1648.404
 772  1797.707
 773  1894.298
 774  1830.475
 775  1740.213
 776  1716.054
 777  1767.569
 778  1865.346
 779  1837.902
 780  1821.505
 781  1766.479
 782  1686.449
 783  1618.367
 784  1635.728
 785  1713.131
 786  1832.304
 787  1733.136
 788  1819.12
 789  1781.005
 790  1817.621
 791  1672.26
 792  1648.245
 793  1635.351
 794  1639.619
 795  1617.173
 796  1668.053
 797  1681.251
 798  1591.229
 799  1497.491
 800  1528.79
 801  1536.56
 802  1489.67
 803  1512.599
 804  1550.747
 805  1720.402
 806  1733.528
 807  1809.692
 808  1641.59
 809  1634.847
 810  1691.093
 811  1738.033
 812  1620.075
 813  1580.059
 814  1673.869
 815  1750.766
 816  1711.96
 817  1693.299
 818  1785.095
 819  1922.016
 820  1917.232
 821  1826.551
 822  1773.766
 823  1701.849
 824  1707.158
 825  1693.699
 826  1669.132
 827  1605.289
 828  1577.54
 829  1731.118
 830  1885.756
 831  1979.578
 832  1967.468
 833  1926.209
 834  2033.445
 835  2081.556
 836  2082.885
 837  1987.819
 838  1942.629
 839  1968.008
 840  1934.227
 841  1941.117
 842  1932.437
 843  1951.525
 844  1897.722
 845  1931.849
 846  2020.331
 847  2201.26
 848  2277.872
 849  2242.457
 850  2122.555
 851  2013.077
 852  2007.62
 853  1949.992
 854  1832.497
 855  1745.414
 856  1818.719
 857  1891.887
 858  1823.564
 859  1656.697
 860  1626.395
 861  1616.733
 862  1710.83
 863  1850.582
 864  1972.117
 865  1953.081
 866  1828.628
 867  1787.859
 868  1770.628
 869  1694.977
 870  1755.065
 871  1738.424
 872  1792.171
 873  1774.901
 874  1787.002
 875  1723.425
 876  1781.945
 877  1845.24
 878  1999.638
 879  2108.728
 880  2047.865
 881  2000.318
 882  2060.366
 883  2115.558
 884  2071.005
 885  1958.669
 886  1959.43
 887  1882.996
 888  1735.121
 889  1714.104
 890  1822.95
 891  1879.659
 892  1910.964
 893  1936.438
 894  1978.098
 895  1960.11
 896  1873.377
 897  1895.913
 898  1901.802
 899  1764.095
 900  1666.01
 901  1631.326
 902  1689.809
 903  1759.224
 904  1928.998
 905  1990.673
 906  1983.34
 907  1860.357
 908  1882.497
 909  1843.388
 910  1756.663
 911  1755.477
 912  1699.464
 913  1758.132
 914  1779.813
 915  1664.291
 916  1510.847
 917  1521.186
 918  1601.52
 919  1836.087
 920  1841.132
 921  1801.044
 922  1631.927
 923  1491.198
 924  1517.547
 925  1641.416
 926  1763.517
 927  1866.242
 928  2015.849
 929  2187.526
 930  2184.52
 931  2146.572
 932  2116.965
 933  2053.609
 934  1990.03
 935  2040.453
 936  2023.54
 937  1984.585
 938  1845.448
 939  1711.626
 940  1584.345
 941  1685.443
 942  1761.265
 943  1900.551
 944  1960.178
 945  1960.207
 946  1994.008
 947  2057.773
 948  2034.374
 949  1998.246
 950  1963.43
 951  1953.292
 952  1890.154
 953  1842.785
 954  1774.423
 955  1660.877
 956  1742.83
 957  1880.635
 958  1915.916
 959  1821.756
 960  1879.159
 961  2011.465
 962  2120.194
 963  2120.531
 964  2080.412
 965  2037.151
 966  1942.829
 967  1886.277
 968  1937.165
 969  1987.464
 970  2003.884
 971  2106.01
 972  2121.774
 973  2057.17
 974  2165.245
 975  2163.414
 976  2250.893
 977  2173.628
 978  2169.296
 979  2109.772
 980  1902.829
 981  1973.073
 982  1953.076
 983  2138.484
 984  2154.191
 985  2191.837
 986  2172.818
 987  2138.08
 988  2193.711
 989  2076.348
 990  2029.391
 991  1904.629
 992  1893.397
 993  1869.704
 994  1912.358
 995  2037.352
 996  1972.012
 997  1990.623
 998  1985.187
 999  2043.711
1000  1971.672
1001  2084.913
1002  2064.698
1003  2008.921
1004  1869.447
1005  1879.613
1006  1892.279
1007  1965.44
1008  1976.276
1009  1973.758
1010  1958.473
1011  1972.868
1012  1927.413
1013  1714.015
1014  1682.771
1015  1759.77
1016  1921.886
1017  1961.16
1018  1927.758
1019  1864.961
1020  1904.032
1021  1864.324
1022  1966.595
1023  2042.371
