# Input file       =  1184817381.103401_cleaned.dat
# Candidate        =  PSR_0332+5434
# Telescope        =  AR
# Epoch_topo       =  57957.164353048625
# Epoch_bary       =  N/A
# T_sample         =  0.002
# Data Folded      =  7340032
# Data Avg         =  0.152328423822058
# Data StdDev      =  3.43290714337742 
# Profile Bins     =  1024
# Profile Avg      =  1091.23823433888 
# Profile StdDev   =  290.643794411322 
# Reduced chi-sqr  =  1.422
# Prob(Noise)      <  1.25e-17   (~8.5 sigma)
# P_topo (ms)      =  714.473887921991  +/- 0.000347
# P'_topo (s/s)    =  -0                +/- 1.83e-10
# P''_topo (s/s^2) =  0                 +/- 8.07e-14
# P_bary (ms)      =  N/A
# P'_bary (s/s)    =  N/A
# P''_bary (s/s^2) =  N/A
# P_orb (s)        =  N/A
# asin(i)/c (s)    =  N/A
# eccentricity     =  N/A
# w (rad)          =  N/A
# T_peri           =  N/A
######################################################
   0  1328.799
   1  1386.407
   2  1277.174
   3  1225.156
   4  1240.259
   5  1206.14
   6  1168.787
   7  1246.877
   8  1331.295
   9  1287.433
  10  1205.053
  11  1262.142
  12  1353.815
  13  1473.851
  14  1507.499
  15  1521.043
  16  1398.752
  17  1302.367
  18  1240.019
  19  1271.42
  20  1196.998
  21  1145.104
  22  1106.094
  23  1095.895
  24  1124.546
  25  1058.013
  26  1045.428
  27  1061.824
  28  1156.782
  29  1255.381
  30  1377.795
  31  1333.576
  32  1217.801
  33  1124.481
  34  1098.449
  35  1138.088
  36  1106.116
  37  1177.539
  38  1202.997
  39  1280.245
  40  1195.438
  41  1172.742
  42  1155.54
  43  1162.24
  44  1129.249
  45  1142.95
  46  1200.656
  47  1323.145
  48  1391.761
  49  1372.313
  50  1319.633
  51  1150.02
  52  1097.145
  53  1093.429
  54  1095.478
  55  1103.405
  56  1123.205
  57  1156.028
  58  1189.072
  59  1234.308
  60  1254.388
  61  1246.337
  62  1213.755
  63  1285.987
  64  1309.726
  65  1275.836
  66  1244.646
  67  1181.335
  68  1154.082
  69  1078.593
  70  1107.283
  71  1168.753
  72  1330.818
  73  1353.009
  74  1345.068
  75  1246.855
  76  1112.856
  77  1029.143
  78  941.9283
  79  911.1667
  80  886.5092
  81  890.2768
  82  974.5708
  83  1000.44
  84  1053.511
  85  1074.518
  86  1041.461
  87  998.6561
  88  972.755
  89  982.0413
  90  882.318
  91  889.272
  92  870.4576
  93  901.64
  94  872.8521
  95  916.6597
  96  874.0946
  97  785.4216
  98  808.0792
  99  881.6761
 100  945.5894
 101  859.4161
 102  873.7802
 103  914.3406
 104  977.6808
 105  940.9357
 106  850.5896
 107  793.4526
 108  729.2475
 109  786.1343
 110  958.5489
 111  1024.553
 112  1043.768
 113  931.8483
 114  854.6462
 115  832.8065
 116  754.119
 117  772.8064
 118  730.0896
 119  877.837
 120  858.0331
 121  857.0723
 122  809.1378
 123  825.2723
 124  825.8968
 125  842.0547
 126  888.7834
 127  899.4451
 128  929.5562
 129  1004.947
 130  985.2901
 131  930.8832
 132  826.8035
 133  771.4771
 134  755.63
 135  725.4976
 136  732.5248
 137  744.7379
 138  749.8524
 139  795.245
 140  934.8616
 141  1008.734
 142  1060.357
 143  1040.912
 144  1030.642
 145  960.9934
 146  867.22
 147  798.2949
 148  774.358
 149  753.5613
 150  766.1177
 151  739.7265
 152  813.3479
 153  852.7877
 154  838.7762
 155  902.5406
 156  843.0733
 157  931.7497
 158  901.2302
 159  859.0978
 160  789.0872
 161  839.9955
 162  808.5297
 163  819.0551
 164  862.6255
 165  860.8616
 166  816.7321
 167  825.6396
 168  843.8873
 169  859.0757
 170  905.2662
 171  926.4858
 172  869.4816
 173  853.0317
 174  911.3022
 175  882.1904
 176  861.3914
 177  925.1789
 178  909.4622
 179  820.3122
 180  746.8272
 181  857.8718
 182  890.6021
 183  909.4277
 184  758.9565
 185  726.452
 186  700.8796
 187  788.2957
 188  786.9526
 189  793.5228
 190  808.9837
 191  844.2507
 192  871.6099
 193  894.8755
 194  923.4557
 195  962.5151
 196  908.675
 197  936.5345
 198  903.1197
 199  901.9996
 200  820.5925
 201  839.1867
 202  852.0817
 203  845.7471
 204  825.627
 205  869.6695
 206  960.1796
 207  940.0193
 208  973.4524
 209  966.1402
 210  1046.618
 211  1136.79
 212  1284.849
 213  1241.605
 214  1183.388
 215  948.2421
 216  808.9568
 217  813.8471
 218  787.84
 219  889.2632
 220  924.8156
 221  1060.541
 222  1049.885
 223  1077.415
 224  1052.448
 225  1086.408
 226  1106.468
 227  1199.366
 228  1129.006
 229  1153.06
 230  1123.48
 231  1081.056
 232  1005.153
 233  1037.325
 234  1069.917
 235  926.188
 236  822.493
 237  816.0668
 238  970.5793
 239  1050.064
 240  1164.661
 241  1194.961
 242  1128.12
 243  1043.586
 244  993.7977
 245  1014.542
 246  1003.122
 247  1042.6
 248  1069.729
 249  979.481
 250  831.9579
 251  765.8333
 252  808.2291
 253  868.2171
 254  895.8402
 255  838.886
 256  846.7927
 257  891.2715
 258  929.437
 259  890.0721
 260  847.9531
 261  857.2087
 262  1024.696
 263  1092.086
 264  1164.256
 265  1119.708
 266  1061.449
 267  957.4891
 268  842.3306
 269  779.3124
 270  831.3727
 271  850.2363
 272  888.1561
 273  863.2974
 274  846.4969
 275  842.189
 276  975.656
 277  1043.397
 278  1161.073
 279  1159.822
 280  1114.669
 281  933.9355
 282  934.2874
 283  900.0126
 284  837.8875
 285  794.0188
 286  808.8994
 287  894.7966
 288  923.8257
 289  940.752
 290  955.7364
 291  888.868
 292  876.8217
 293  875.6691
 294  949.7968
 295  923.4291
 296  903.3967
 297  836.4133
 298  785.1272
 299  713.1092
 300  713.7694
 301  757.1805
 302  774.5608
 303  781.0824
 304  903.4861
 305  940.2422
 306  922.2639
 307  767.8655
 308  689.8395
 309  727.1033
 310  707.5484
 311  802.7213
 312  808.0298
 313  853.0063
 314  867.1747
 315  822.8352
 316  793.7219
 317  681.5766
 318  766.3757
 319  774.1278
 320  902.766
 321  903.7831
 322  860.5917
 323  819.1653
 324  764.6235
 325  829.2496
 326  919.8878
 327  1027.12
 328  1074.723
 329  1078.342
 330  1037.478
 331  886.4627
 332  881.8153
 333  937.1513
 334  997.2234
 335  851.0746
 336  799.2964
 337  821.6157
 338  886.6204
 339  1049.049
 340  1048.181
 341  1052.167
 342  954.8052
 343  1037.559
 344  1033.576
 345  1016.513
 346  1057.037
 347  1125.473
 348  1200.654
 349  1117.369
 350  1113.271
 351  994.6259
 352  938.323
 353  891.5916
 354  951.324
 355  972.0306
 356  958.3831
 357  1010.886
 358  1100.678
 359  1153.193
 360  1192.385
 361  1178.818
 362  1213.712
 363  1275.157
 364  1273.913
 365  1271.971
 366  1217.803
 367  1193.461
 368  1183.604
 369  1138.388
 370  1214.714
 371  1312.254
 372  1291.54
 373  1208.352
 374  1099.295
 375  1050.445
 376  986.5988
 377  1000.705
 378  1062.313
 379  1079.234
 380  1115.766
 381  1150.198
 382  1216.187
 383  1112.116
 384  1138.297
 385  1110.208
 386  1164.755
 387  1124.77
 388  1136.434
 389  1154.999
 390  1179.135
 391  1239.076
 392  1332.014
 393  1237.825
 394  1136.893
 395  1088.703
 396  1089.17
 397  1135.783
 398  1064.445
 399  960.1229
 400  885.9843
 401  893.473
 402  885.6056
 403  830.2997
 404  667.4371
 405  794.3067
 406  1006.618
 407  1127.641
 408  1032.751
 409  963.9005
 410  1013.9
 411  947.081
 412  780.3188
 413  741.2508
 414  805.2846
 415  904.9668
 416  939.7145
 417  988.1154
 418  1014.451
 419  954.3756
 420  883.7007
 421  901.5895
 422  1047.208
 423  1001.215
 424  936.0089
 425  748.6269
 426  835.2117
 427  899.5284
 428  1023.355
 429  1033.162
 430  1055.88
 431  1148.867
 432  1127.771
 433  1165.6
 434  1065.828
 435  1066.84
 436  1046.116
 437  1021.35
 438  1045.595
 439  1019.945
 440  1061.564
 441  1087.044
 442  1260.743
 443  1330.908
 444  1334.045
 445  1261.855
 446  1278.278
 447  1283.308
 448  1248.096
 449  1204.034
 450  1112.026
 451  1057.054
 452  1139.472
 453  1299.012
 454  1388.105
 455  1375.919
 456  1329.553
 457  1295.507
 458  1266.785
 459  1281.5
 460  1320.151
 461  1285.899
 462  1316.88
 463  1180.541
 464  1117.92
 465  1045.885
 466  1142.492
 467  1169.985
 468  1164.059
 469  1218.172
 470  1187.632
 471  1229.542
 472  1267.636
 473  1342.996
 474  1274.054
 475  1276.455
 476  1360.516
 477  1363.387
 478  1382.044
 479  1346.216
 480  1301.367
 481  1127.45
 482  1058.321
 483  1151.852
 484  1266.777
 485  1346.836
 486  1391.111
 487  1393.339
 488  1373.211
 489  1268.169
 490  1285.751
 491  1328.716
 492  1365.924
 493  1287.673
 494  1265.456
 495  1166.996
 496  1058.156
 497  1028.283
 498  1093.27
 499  1193.229
 500  1140.326
 501  1126.371
 502  1045.336
 503  1049.955
 504  961.762
 505  1027.713
 506  1032.496
 507  1134.719
 508  1136.214
 509  1101.664
 510  1172.936
 511  1225.015
 512  1242.763
 513  1197.16
 514  1194.442
 515  1228.761
 516  1225.266
 517  1154.858
 518  1147.936
 519  1090.08
 520  1136.445
 521  1102.264
 522  1037.901
 523  1029.157
 524  986.1184
 525  936.5991
 526  911.1918
 527  969.0977
 528  1084.948
 529  1187.088
 530  1134.465
 531  1079.272
 532  977.1827
 533  919.3524
 534  887.0549
 535  880.8318
 536  907.3354
 537  890.171
 538  881.8049
 539  865.9135
 540  897.4058
 541  891.1633
 542  836.5204
 543  901.3974
 544  895.3168
 545  976.1083
 546  893.7513
 547  918.1316
 548  975.8922
 549  1006.079
 550  949.2585
 551  908.5063
 552  1016.378
 553  1136.897
 554  1191.877
 555  1244.141
 556  1160.305
 557  1088.651
 558  1090.697
 559  1219.279
 560  1200.951
 561  1073.786
 562  974.7581
 563  963.0981
 564  991.7197
 565  992.6454
 566  1031.59
 567  1085.352
 568  1076.423
 569  1061.469
 570  1007.047
 571  969.9664
 572  902.3516
 573  959.2944
 574  1019.373
 575  948.7549
 576  1045.43
 577  1072.728
 578  1143.967
 579  1093.103
 580  1109.289
 581  1127.201
 582  1059.952
 583  1023.049
 584  1151.945
 585  1228.108
 586  1306.698
 587  1318.314
 588  1348.333
 589  1292.515
 590  1236.16
 591  1218.488
 592  1167.283
 593  1126.432
 594  1110.915
 595  1119.889
 596  1135.71
 597  1107.394
 598  1093.354
 599  1120.81
 600  1172.778
 601  1153.303
 602  1160.791
 603  1172.573
 604  1235.135
 605  1162.79
 606  1253.164
 607  1263.817
 608  1266.495
 609  1162.93
 610  1102.059
 611  1101.552
 612  1196.025
 613  1197.497
 614  1274.967
 615  1335.851
 616  1368.234
 617  1220.58
 618  1084.466
 619  1074.114
 620  1102.792
 621  1096.561
 622  1074.443
 623  1123.633
 624  1096.537
 625  1136.728
 626  1165.052
 627  1199.289
 628  1105.213
 629  1066.424
 630  1053.353
 631  1068.916
 632  1039.353
 633  1051.75
 634  991.9023
 635  1005.67
 636  1018.356
 637  1110.38
 638  1187.767
 639  1187.701
 640  1179.32
 641  1081.263
 642  1109.211
 643  1183.718
 644  1331.167
 645  1479.141
 646  1602.224
 647  1758.959
 648  1828.898
 649  1927.208
 650  2078.557
 651  2165.001
 652  2106.618
 653  2071.146
 654  2046.573
 655  1938.291
 656  1773.315
 657  1602.131
 658  1464.302
 659  1253.531
 660  1085.708
 661  910.2712
 662  953.7737
 663  1080.198
 664  1169.166
 665  1224.776
 666  1142.588
 667  1130.157
 668  1079.494
 669  989.5336
 670  1006.632
 671  1009.776
 672  1092.75
 673  989.6396
 674  1059.807
 675  1089.125
 676  1146.691
 677  1087.521
 678  1047.192
 679  1056.429
 680  1051.131
 681  1005.205
 682  947.1603
 683  919.1077
 684  956.2041
 685  940.0602
 686  943.8229
 687  869.945
 688  940.319
 689  1024.763
 690  1048.61
 691  981.1417
 692  965.4026
 693  977.5187
 694  963.4642
 695  902.4434
 696  912.4202
 697  920.4468
 698  954.6375
 699  993.1827
 700  1021.987
 701  1107.646
 702  1144.654
 703  1233.796
 704  1192.719
 705  1237.527
 706  1090.232
 707  1175.008
 708  1093.085
 709  1139.536
 710  1038.018
 711  1022.685
 712  1053.297
 713  1012.144
 714  998.7485
 715  901.7513
 716  993.2208
 717  1092.22
 718  1169.889
 719  1084.519
 720  1063.191
 721  1094.248
 722  1085.791
 723  1030.309
 724  930.0956
 725  1009.834
 726  987.6461
 727  1035.922
 728  1026.366
 729  1060.391
 730  957.7327
 731  923.3029
 732  868.6353
 733  1006.239
 734  999.8793
 735  1002.111
 736  982.6605
 737  870.2003
 738  791.1202
 739  773.837
 740  850.3485
 741  1027.48
 742  1079.199
 743  1147.658
 744  1110.348
 745  1086.711
 746  1060.806
 747  1061.792
 748  1055.376
 749  1013.396
 750  902.0494
 751  928.9956
 752  1030.096
 753  1053.417
 754  997.9242
 755  1047.147
 756  1056.689
 757  995.0095
 758  956.863
 759  1109.689
 760  1187.22
 761  1085.768
 762  958.838
 763  925.0917
 764  1022.334
 765  1105.592
 766  1125.37
 767  1028.141
 768  971.2165
 769  982.6989
 770  1194.414
 771  1251.62
 772  1253.03
 773  1146.152
 774  1114.057
 775  1172.866
 776  1181.902
 777  1215.832
 778  1209.306
 779  1226.831
 780  1300.95
 781  1243.489
 782  1215.493
 783  1154.43
 784  1189.026
 785  1182.661
 786  1226.877
 787  1234.384
 788  1195.555
 789  1112.043
 790  1042.484
 791  1095.549
 792  1204.501
 793  1339.499
 794  1353.158
 795  1349.056
 796  1287.556
 797  1247.645
 798  1267.77
 799  1235.741
 800  1270.02
 801  1182.902
 802  1231.519
 803  1222.964
 804  1171.854
 805  1193.185
 806  1228.52
 807  1283.798
 808  1307.16
 809  1234.828
 810  1166.391
 811  1071.888
 812  1067.353
 813  1204.413
 814  1225.669
 815  1206.562
 816  1179.217
 817  1233.969
 818  1211.623
 819  1185.911
 820  1129.63
 821  1200.242
 822  1135.742
 823  1140.059
 824  1141.921
 825  1198.756
 826  1165.428
 827  1150.618
 828  1056.139
 829  1097.643
 830  1055.75
 831  1107.614
 832  1112.29
 833  1096.402
 834  1128.291
 835  1173.646
 836  1203.618
 837  1149.149
 838  1173.503
 839  1262.715
 840  1280.794
 841  1174.754
 842  1161.104
 843  1161.14
 844  1188.124
 845  1095.061
 846  1084.692
 847  1060.867
 848  1100.516
 849  1081.665
 850  1035.101
 851  1038.678
 852  1118.937
 853  1258.242
 854  1232.135
 855  1238.531
 856  1225.625
 857  1148.548
 858  1079.515
 859  1067.512
 860  1082.723
 861  1019.872
 862  1001.831
 863  1077.276
 864  1092.182
 865  974.1282
 866  1019.811
 867  1045.734
 868  1143.359
 869  1101.226
 870  1132.796
 871  1026.086
 872  1003.325
 873  1020.381
 874  1069.137
 875  1097.371
 876  1045.711
 877  1119.355
 878  1145.462
 879  1136.063
 880  1121.913
 881  1193.119
 882  1138.799
 883  1071.405
 884  1041.443
 885  1110.192
 886  1223.167
 887  1201.884
 888  1218.431
 889  1085.68
 890  1087.173
 891  1272.942
 892  1310.051
 893  1339.734
 894  1302.593
 895  1311.596
 896  1306.391
 897  1207.484
 898  1186.165
 899  1227.259
 900  1188.812
 901  1281.89
 902  1345.567
 903  1404.681
 904  1396.709
 905  1485.76
 906  1522.503
 907  1525.875
 908  1485.892
 909  1374.595
 910  1322.597
 911  1326.676
 912  1340.522
 913  1230.298
 914  1177.071
 915  1180.784
 916  1246.058
 917  1303.059
 918  1302.791
 919  1216.213
 920  1211.806
 921  1230.712
 922  1332.387
 923  1346.649
 924  1351.298
 925  1323.483
 926  1336.494
 927  1338.953
 928  1330.245
 929  1329.3
 930  1284.24
 931  1365.232
 932  1367.686
 933  1436.1
 934  1476.595
 935  1472.017
 936  1424.598
 937  1298.047
 938  1256.559
 939  1257.238
 940  1318.412
 941  1478.575
 942  1516.643
 943  1432.135
 944  1361.656
 945  1301.281
 946  1343.055
 947  1343.349
 948  1257.095
 949  1301.744
 950  1386.64
 951  1447.419
 952  1341.171
 953  1242.724
 954  1292.58
 955  1471.339
 956  1510.515
 957  1424.067
 958  1321.706
 959  1250.143
 960  1170.744
 961  1197.618
 962  1265.277
 963  1297.994
 964  1275.296
 965  1292.962
 966  1314.988
 967  1268.75
 968  1239.702
 969  1208.42
 970  1164.265
 971  1218.62
 972  1243.349
 973  1233.028
 974  1188.835
 975  1180.705
 976  1118.43
 977  1168.572
 978  1158.459
 979  1229.165
 980  1152.254
 981  1147.649
 982  1252.104
 983  1227.534
 984  1174.894
 985  1215.26
 986  1259.601
 987  1299.82
 988  1146.996
 989  1139.511
 990  1160.888
 991  1096.283
 992  1071.837
 993  1048.541
 994  1148.711
 995  1075.606
 996  933.2175
 997  968.2397
 998  1050.153
 999  1280.727
1000  1319.428
1001  1330.154
1002  1234.051
1003  1229.781
1004  1224.582
1005  1219.901
1006  1130.066
1007  1120.003
1008  1032.199
1009  966.2946
1010  840.8886
1011  859.5821
1012  1020.603
1013  1137.671
1014  1119.804
1015  1137.915
1016  1203.651
1017  1255.75
1018  1245.763
1019  1287.013
1020  1234.29
1021  1216.683
1022  1138.607
1023  1217.434
