# Input file       =  1184573858.104995_cleaned.dat
# Candidate        =  PSR_0332+5434
# Telescope        =  AR
# Epoch_topo       =  57954.345799826333
# Epoch_bary       =  N/A
# T_sample         =  0.002
# Data Folded      =  7340032
# Data Avg         =  0.367392866933577
# Data StdDev      =  5.8090169036759  
# Profile Bins     =  1024
# Profile Avg      =  2633.44261317445 
# Profile StdDev   =  491.814850844701 
# Reduced chi-sqr  =  1.046
# Prob(Noise)      <  0.149   (~1.0 sigma)
# P_topo (ms)      =  714.475866566402  +/- 0.0002
# P'_topo (s/s)    =  -0                +/- 1.05e-10
# P''_topo (s/s^2) =  0                 +/- 4.66e-14
# P_bary (ms)      =  N/A
# P'_bary (s/s)    =  N/A
# P''_bary (s/s^2) =  N/A
# P_orb (s)        =  N/A
# asin(i)/c (s)    =  N/A
# eccentricity     =  N/A
# w (rad)          =  N/A
# T_peri           =  N/A
######################################################
   0  2783.431
   1  2793.12
   2  2750.053
   3  2672.719
   4  2708.563
   5  2698.348
   6  2956.926
   7  3013.26
   8  2980.253
   9  2903.848
  10  2893.862
  11  2923.569
  12  2858.777
  13  2904.374
  14  2859.616
  15  2768.101
  16  2725.839
  17  2528.308
  18  2589.688
  19  2511.548
  20  2481.41
  21  2534.541
  22  2764.772
  23  2951.618
  24  2992.457
  25  2896.555
  26  2774.708
  27  2684.656
  28  2802.794
  29  2854.186
  30  2855.416
  31  2645.445
  32  2656.36
  33  2620.205
  34  2657.946
  35  2832.083
  36  2972.935
  37  3061.476
  38  3044.393
  39  3024.257
  40  2899.372
  41  2735.024
  42  2712.827
  43  2707.335
  44  2616.064
  45  2511.215
  46  2493.18
  47  2460.409
  48  2461.955
  49  2603.371
  50  2713.861
  51  2752.869
  52  2688.143
  53  2616.151
  54  2575.074
  55  2405.219
  56  2371.22
  57  2404.24
  58  2472.041
  59  2436.67
  60  2492.514
  61  2696.681
  62  2763.294
  63  2665.014
  64  2661.651
  65  2616.163
  66  2726.484
  67  2821.983
  68  2879.335
  69  2775.291
  70  2722.432
  71  2806.98
  72  2858.318
  73  2770.308
  74  2571.349
  75  2400.145
  76  2439.472
  77  2443.542
  78  2620.035
  79  2577.529
  80  2627.144
  81  2699.731
  82  2805.502
  83  2883.319
  84  2632.256
  85  2519.521
  86  2514.684
  87  2492.439
  88  2475.184
  89  2471.411
  90  2543.087
  91  2547.935
  92  2541.067
  93  2612.739
  94  2652.241
  95  2630.268
  96  2615.22
  97  2726.159
  98  2848.804
  99  2808.364
 100  2756.977
 101  2747.987
 102  2697.674
 103  2771.625
 104  2798.269
 105  2787.692
 106  2620.037
 107  2751.846
 108  2732.885
 109  2851.136
 110  2827.333
 111  2926.98
 112  2902.048
 113  2866.585
 114  2955.34
 115  2944.373
 116  2946.654
 117  2818.018
 118  2824.246
 119  2924.388
 120  3023.506
 121  2983.243
 122  2845.294
 123  2796.753
 124  2847.806
 125  2763.433
 126  2749.32
 127  2546.669
 128  2641.276
 129  2680.806
 130  2682.224
 131  2606.172
 132  2521.118
 133  2522.599
 134  2507.857
 135  2662.453
 136  2789.234
 137  2731.036
 138  2708.783
 139  2764.179
 140  2899.625
 141  2797.541
 142  2647.163
 143  2658.155
 144  2603.911
 145  2689.376
 146  2664.85
 147  2671.872
 148  2744.928
 149  2732.83
 150  2769.842
 151  2684.062
 152  2682.877
 153  2673.731
 154  2565.512
 155  2500.829
 156  2686.087
 157  2788.343
 158  2832.647
 159  2776.434
 160  2724.905
 161  2808.503
 162  2860.858
 163  2937.79
 164  2887.304
 165  2668.287
 166  2823.73
 167  2849.707
 168  2937.631
 169  2853.474
 170  2889.726
 171  2906.834
 172  2937.184
 173  2859.434
 174  2879.012
 175  2918.456
 176  3031.418
 177  3031.977
 178  2927.562
 179  2713.046
 180  2774.728
 181  2972.661
 182  3089.8
 183  3141.19
 184  3099.346
 185  3127.509
 186  2927.643
 187  2627.511
 188  2480.388
 189  2387.775
 190  2601.134
 191  2692.336
 192  2620.321
 193  2470.679
 194  2398.876
 195  2475.292
 196  2409.201
 197  2514.419
 198  2533.487
 199  2570.206
 200  2687.516
 201  2703.745
 202  2663.936
 203  2400.831
 204  2405.654
 205  2414.527
 206  2519.121
 207  2545.09
 208  2591.03
 209  2610.229
 210  2527.901
 211  2458.711
 212  2439.582
 213  2657.937
 214  2750.356
 215  2760.301
 216  2590.882
 217  2511.589
 218  2264.671
 219  2324.057
 220  2296.683
 221  2287.517
 222  2314.322
 223  2422.399
 224  2551.278
 225  2487.198
 226  2600.327
 227  2632.631
 228  2717.193
 229  2649.198
 230  2746.752
 231  2785.684
 232  2697.624
 233  2697.546
 234  2663.604
 235  2640.787
 236  2775.573
 237  2823.236
 238  2869.852
 239  2760.02
 240  2902.906
 241  2992.943
 242  2896.709
 243  2779.204
 244  2627.878
 245  2541.305
 246  2440.871
 247  2420.23
 248  2339.292
 249  2355.44
 250  2486.8
 251  2486.715
 252  2375.054
 253  2318.62
 254  2429.932
 255  2568.26
 256  2538.632
 257  2542.598
 258  2437.427
 259  2382.498
 260  2397.522
 261  2504.493
 262  2666.809
 263  2714.652
 264  2926.275
 265  3003.371
 266  2978.837
 267  2724.304
 268  2747.881
 269  2869.83
 270  2916.084
 271  2798.187
 272  2884.088
 273  2998.903
 274  2890.733
 275  2697.541
 276  2753.096
 277  2934.382
 278  3084.203
 279  3288.212
 280  3317.082
 281  3212.057
 282  2937.523
 283  2977.305
 284  3013.52
 285  2884.601
 286  2706.434
 287  2724.637
 288  2848.317
 289  2839.596
 290  3007.212
 291  3100.573
 292  3099.676
 293  3075.511
 294  3137.287
 295  3126.606
 296  3009.004
 297  2963.917
 298  3070.066
 299  3050.893
 300  2972.267
 301  2861.412
 302  2766.907
 303  2680.171
 304  2765.849
 305  2800.003
 306  2686.585
 307  2516.366
 308  2578.558
 309  2740.63
 310  2853.092
 311  2896.345
 312  2766.031
 313  2532.3
 314  2530.469
 315  2687.931
 316  2687.431
 317  2697.727
 318  2630.504
 319  2624.957
 320  2537.05
 321  2506.233
 322  2473.751
 323  2345.198
 324  2323.222
 325  2341.887
 326  2535.903
 327  2461.731
 328  2644.633
 329  2756.262
 330  2657.788
 331  2425.5
 332  2413.535
 333  2719.455
 334  2774.727
 335  2737.55
 336  2775.354
 337  2815.351
 338  2963.969
 339  2868.7
 340  2809.287
 341  2633.994
 342  2715.032
 343  2814.694
 344  2917.74
 345  2938.011
 346  2895.434
 347  2905.216
 348  2881.089
 349  2840.624
 350  2800.169
 351  2948.675
 352  3010.597
 353  3049.768
 354  2959.783
 355  2887.624
 356  2875.972
 357  2874.398
 358  2834.076
 359  2695.608
 360  2569.648
 361  2644.123
 362  2687.795
 363  2716.109
 364  2688.949
 365  2654.643
 366  2636.767
 367  2563.109
 368  2545.144
 369  2558.593
 370  2621.755
 371  2717.961
 372  2836.228
 373  2863.814
 374  2788.698
 375  2670.265
 376  2725.026
 377  2717.298
 378  2867.211
 379  2940.467
 380  2947.728
 381  2809.925
 382  2793.788
 383  2882.485
 384  2864.639
 385  2917.933
 386  2925.021
 387  2986.433
 388  3137.515
 389  3120.396
 390  3251.772
 391  3079.255
 392  3107.451
 393  3129.446
 394  3105.26
 395  2991.213
 396  3000.69
 397  3030.869
 398  2811.341
 399  2761.506
 400  3042.422
 401  3214.654
 402  3197.355
 403  3228.483
 404  3357.051
 405  3296.299
 406  3271.486
 407  3145.761
 408  3223.034
 409  3019.508
 410  3017.128
 411  2761.9
 412  2688.027
 413  2506.377
 414  2808.23
 415  2935.51
 416  3122.928
 417  3132.652
 418  3135.486
 419  2943.404
 420  2620.723
 421  2601.838
 422  2732.206
 423  2661.784
 424  2691.017
 425  2645.87
 426  2723.727
 427  2661.563
 428  2687.438
 429  2616.746
 430  2572.848
 431  2610.882
 432  2738.549
 433  2667.558
 434  2542.489
 435  2575.192
 436  2658.118
 437  2579.876
 438  2615.45
 439  2625.674
 440  2702.154
 441  2686.61
 442  2605.841
 443  2780.843
 444  2850.029
 445  2858.143
 446  2668.935
 447  2748.57
 448  2926.778
 449  2866.038
 450  2810.141
 451  2696.75
 452  2645.928
 453  2649.772
 454  2643.318
 455  2676.094
 456  2595.185
 457  2688.891
 458  2705.563
 459  2715.937
 460  2861.68
 461  3006.501
 462  3053.572
 463  2983.96
 464  2939.595
 465  2869.669
 466  2834.71
 467  2799.332
 468  2868.94
 469  2847.872
 470  2710.391
 471  2688.026
 472  2726.933
 473  2774.008
 474  2808.802
 475  2798.115
 476  2819.539
 477  2777.451
 478  2809.261
 479  2883.568
 480  2742.55
 481  2667.246
 482  2701.605
 483  2905.599
 484  2997.013
 485  2931.722
 486  2928.628
 487  2933.337
 488  2928.654
 489  3008.248
 490  3134.511
 491  3081.201
 492  2861.171
 493  2717.749
 494  2717.988
 495  2683.774
 496  2741.227
 497  2732.896
 498  2691.473
 499  2669.289
 500  2685.31
 501  2692.935
 502  2658.784
 503  2626.796
 504  2654.102
 505  2808.397
 506  2721.635
 507  2624.585
 508  2547.825
 509  2639.491
 510  2732.425
 511  2630.532
 512  2642.117
 513  2500.038
 514  2504.078
 515  2676.162
 516  2731.795
 517  2751.117
 518  2656.706
 519  2811.334
 520  2912.943
 521  2841.339
 522  2776.935
 523  2764.787
 524  2745.176
 525  2576.355
 526  2560.512
 527  2597.903
 528  2715.274
 529  2721.884
 530  2680.803
 531  2522.997
 532  2723.827
 533  2783.891
 534  2741.295
 535  2511.307
 536  2545.749
 537  2564.887
 538  2534.53
 539  2577.442
 540  2479.111
 541  2454.693
 542  2384.303
 543  2380.897
 544  2490.546
 545  2554.668
 546  2782.594
 547  2801.373
 548  2937.729
 549  3001.171
 550  2916.922
 551  2795.151
 552  2835.385
 553  3029.596
 554  3047.508
 555  2953.853
 556  2856.387
 557  2736.188
 558  2713.647
 559  2799.421
 560  3016.783
 561  3100.672
 562  3086.065
 563  2986.796
 564  2992.227
 565  3126.443
 566  3116.145
 567  3146.696
 568  3119.432
 569  3092.876
 570  2891.967
 571  2593.616
 572  2684.885
 573  2838.105
 574  3128.862
 575  3137.103
 576  3273.445
 577  3258.716
 578  3125.796
 579  3021.013
 580  2921.216
 581  2823.035
 582  2809.978
 583  2873.65
 584  2930.117
 585  2771.42
 586  2689.012
 587  2728.114
 588  2763.474
 589  2780.716
 590  2716.465
 591  2698.276
 592  2674.62
 593  2629.291
 594  2522.56
 595  2406.286
 596  2385.902
 597  2456.157
 598  2509.661
 599  2410.79
 600  2204.061
 601  2180.095
 602  2274.679
 603  2376.904
 604  2555.329
 605  2688.289
 606  2784.223
 607  2861.378
 608  2748.038
 609  2584.063
 610  2375.91
 611  2296.521
 612  2453.768
 613  2514.129
 614  2617.573
 615  2849.221
 616  3031.156
 617  2940.067
 618  2774.378
 619  2745.124
 620  2748.911
 621  2477.656
 622  2487.416
 623  2666.839
 624  2681.278
 625  2592.874
 626  2573.223
 627  2576.218
 628  2439.874
 629  2390.241
 630  2362.627
 631  2427.361
 632  2312.489
 633  2441.616
 634  2584.875
 635  2648.538
 636  2632.075
 637  2692.418
 638  2609.76
 639  2455.073
 640  2293.034
 641  2345.995
 642  2320.368
 643  2317.363
 644  2443.386
 645  2686.605
 646  2799.598
 647  3056.175
 648  3292.453
 649  3423.185
 650  3491.228
 651  3563.153
 652  3666.36
 653  3533.097
 654  3366.451
 655  3188.87
 656  2982.894
 657  2680.874
 658  2628.051
 659  2642.381
 660  2600.411
 661  2605.148
 662  2608.629
 663  2671.078
 664  2537.819
 665  2511.128
 666  2435.511
 667  2399.185
 668  2316.903
 669  2240.174
 670  2275.109
 671  2183.787
 672  2285.729
 673  2352.072
 674  2429.912
 675  2299.73
 676  2194.068
 677  2260.77
 678  2313.213
 679  2314.827
 680  2376.848
 681  2297.143
 682  2138.823
 683  2110.501
 684  2226.15
 685  2241.465
 686  2288.765
 687  2379.23
 688  2416.492
 689  2386.099
 690  2360.399
 691  2434.484
 692  2379.435
 693  2433.82
 694  2483.485
 695  2482.501
 696  2492.409
 697  2382.869
 698  2309.019
 699  2153.533
 700  2249.728
 701  2440.924
 702  2525.885
 703  2586.937
 704  2670.709
 705  2844.175
 706  2837.914
 707  2724.919
 708  2839.039
 709  2831.549
 710  2800.807
 711  2573.884
 712  2492.639
 713  2388.917
 714  2282.5
 715  2380.845
 716  2345.811
 717  2318.321
 718  2277.436
 719  2362.452
 720  2549.767
 721  2655.072
 722  2741.076
 723  2826.816
 724  2701.838
 725  2697.238
 726  2479.714
 727  2372.465
 728  2169.65
 729  2156.83
 730  2287.033
 731  2292.194
 732  2292.418
 733  2267.735
 734  2267.994
 735  2204.826
 736  2325.948
 737  2518.116
 738  2491.481
 739  2429.289
 740  2372.816
 741  2213.235
 742  2140.131
 743  2124.725
 744  2234.573
 745  2159.901
 746  2276.701
 747  2407.333
 748  2535.039
 749  2531.59
 750  2524.44
 751  2412.806
 752  2294.237
 753  2184.564
 754  2274.29
 755  2434.784
 756  2367.75
 757  2187.78
 758  2170.599
 759  2117.934
 760  2090.291
 761  2066.579
 762  2272.009
 763  2497.468
 764  2551.415
 765  2559.802
 766  2450.224
 767  2245.731
 768  2028.318
 769  2037.305
 770  2152.303
 771  2010.385
 772  1924.563
 773  1946.486
 774  2024.346
 775  2094.163
 776  2258.993
 777  2298.822
 778  2189.296
 779  2119.416
 780  2289.1
 781  2329.603
 782  2273.574
 783  2022.135
 784  1951.688
 785  1884.059
 786  1876.372
 787  1972.803
 788  2003.791
 789  2028.359
 790  1955.483
 791  2153.52
 792  2279.407
 793  2477.761
 794  2451.174
 795  2360.445
 796  2183.508
 797  2156.644
 798  2215.435
 799  2143.811
 800  2040.647
 801  2007.378
 802  2038.743
 803  2191.081
 804  2240.202
 805  2322.996
 806  2470.682
 807  2501.534
 808  2552.032
 809  2451.696
 810  2332.667
 811  2146.725
 812  2025.167
 813  2113.727
 814  2096.959
 815  1995.952
 816  1883.819
 817  1850.461
 818  1929.956
 819  2084.18
 820  2293.376
 821  2332.893
 822  2365.715
 823  2439.417
 824  2388.424
 825  2330.355
 826  2158.568
 827  2191.992
 828  2090.843
 829  2135.233
 830  2090.517
 831  2145.226
 832  2069.169
 833  1964.316
 834  1975.905
 835  2067.484
 836  2236.633
 837  2405.847
 838  2386.854
 839  2406.143
 840  2154.167
 841  2019.122
 842  2008.291
 843  2057.076
 844  2195.299
 845  2121.96
 846  2169.629
 847  1967.276
 848  1927.898
 849  1989.112
 850  1982.612
 851  1949.574
 852  2025.771
 853  2101.168
 854  2162.599
 855  2159.066
 856  2244.134
 857  2163.409
 858  2261.092
 859  2386.784
 860  2445.172
 861  2490.598
 862  2455.528
 863  2504.854
 864  2406.824
 865  2419.474
 866  2461.925
 867  2441.48
 868  2337.875
 869  2289.325
 870  2400.344
 871  2418.987
 872  2411.42
 873  2564.368
 874  2711.276
 875  2863.194
 876  2725.768
 877  2608.374
 878  2538.815
 879  2526.896
 880  2644.546
 881  2719.393
 882  2751.759
 883  2540.887
 884  2387.899
 885  2439.174
 886  2435.318
 887  2521.092
 888  2569.77
 889  2807.765
 890  2743.833
 891  2722.196
 892  2716.021
 893  2661.324
 894  2718.079
 895  2755.27
 896  2803.642
 897  2745.388
 898  2574.597
 899  2608.631
 900  2487.928
 901  2530.543
 902  2533.149
 903  2552.868
 904  2530.954
 905  2509.559
 906  2592.268
 907  2611.956
 908  2557.914
 909  2405.625
 910  2321.094
 911  2306.944
 912  2196.62
 913  2188.351
 914  2239.487
 915  2309.642
 916  2317.504
 917  2319.43
 918  2401.539
 919  2519.005
 920  2489.973
 921  2570.404
 922  2674.407
 923  2827.295
 924  2732.198
 925  2767.673
 926  2657.675
 927  2556.965
 928  2418.761
 929  2349.677
 930  2454.075
 931  2293.498
 932  2372.928
 933  2303.449
 934  2323.313
 935  2268.095
 936  2230.653
 937  2408.978
 938  2532.807
 939  2668.641
 940  2799.348
 941  2678.921
 942  2641.177
 943  2612.416
 944  2697.151
 945  2681.872
 946  2579.309
 947  2471.486
 948  2305.851
 949  2347.468
 950  2486.535
 951  2537.885
 952  2531.404
 953  2522.392
 954  2705.274
 955  2636.404
 956  2723.434
 957  2570.834
 958  2622.27
 959  2660.446
 960  2562.492
 961  2561.825
 962  2444.759
 963  2589.324
 964  2736.727
 965  2757.61
 966  2796.819
 967  2588.434
 968  2640.04
 969  2537.13
 970  2389.93
 971  2348.499
 972  2440.552
 973  2771.031
 974  2808.914
 975  2837.92
 976  2630.128
 977  2688.922
 978  2717.297
 979  2664.281
 980  2665.297
 981  2584.55
 982  2677.369
 983  2668.199
 984  2718.583
 985  2703.88
 986  2835.604
 987  3061.535
 988  3186.033
 989  3030.865
 990  2860.284
 991  2725.243
 992  2773.923
 993  2775.629
 994  2791.618
 995  2755.051
 996  2676.643
 997  2657.75
 998  2568.335
 999  2585.209
1000  2568.271
1001  2545.023
1002  2729.654
1003  2717.505
1004  2711.169
1005  2600.721
1006  2744.217
1007  2851.577
1008  2797.066
1009  2835.927
1010  2786.585
1011  2760.624
1012  2681.398
1013  2726.876
1014  2819.796
1015  2830.331
1016  2973.932
1017  2911.622
1018  2885.267
1019  2660.438
1020  2582.507
1021  2647.801
1022  2590.722
1023  2753.282
