# Input file       =  1185263182.108499_cleaned.dat
# Candidate        =  PSR_0332+5434
# Telescope        =  AR
# Epoch_topo       =  57962.324086903922
# Epoch_bary       =  N/A
# T_sample         =  0.002
# Data Folded      =  7340032
# Data Avg         =  0.329675347419522
# Data StdDev      =  5.31806305432503 
# Profile Bins     =  512
# Profile Avg      =  4725.24442597177 
# Profile StdDev   =  636.747837137435 
# Reduced chi-sqr  =  0.884
# Prob(Noise)      <  0.972   (~0.0 sigma)
# P_topo (ms)      =  714.471515373803  +/- 0.000677
# P'_topo (s/s)    =  -0                +/- 3.57e-10
# P''_topo (s/s^2) =  0                 +/- 1.58e-13
# P_bary (ms)      =  N/A
# P'_bary (s/s)    =  N/A
# P''_bary (s/s^2) =  N/A
# P_orb (s)        =  N/A
# asin(i)/c (s)    =  N/A
# eccentricity     =  N/A
# w (rad)          =  N/A
# T_peri           =  N/A
######################################################
   0  5274.855
   1  4816.414
   2  4804.891
   3  4968.065
   4  5329.383
   5  5243.631
   6  4827.672
   7  4773.001
   8  4854.521
   9  5171.408
  10  5022.37
  11  5084.736
  12  4877.183
  13  4808.774
  14  4939.741
  15  5096.489
  16  5229.768
  17  5028.952
  18  4683.298
  19  4819.663
  20  4694.609
  21  5083.178
  22  5050.269
  23  4925.527
  24  4854.292
  25  4400.174
  26  4326.29
  27  4600.658
  28  4874.824
  29  4924.066
  30  4942.265
  31  4966.094
  32  5092.736
  33  4911.36
  34  4978.187
  35  4913.826
  36  5035.156
  37  4789.212
  38  4704.564
  39  4604.519
  40  4969.947
  41  5048.052
  42  4969.807
  43  5215.702
  44  4942.178
  45  4894.859
  46  4869.021
  47  4916.662
  48  4904.156
  49  5245.347
  50  5245.03
  51  5226.955
  52  5484.741
  53  5058.812
  54  5031.462
  55  5378.894
  56  5669.002
  57  5117.109
  58  5159.102
  59  5311.587
  60  4770.024
  61  4737.755
  62  4996.423
  63  4536.211
  64  4500.158
  65  4912.023
  66  4732.231
  67  4769.289
  68  4625.146
  69  4708.009
  70  4753.768
  71  4699.771
  72  4858.873
  73  4898.838
  74  4651.022
  75  4492.212
  76  4558.894
  77  4419.914
  78  4781.542
  79  4439.189
  80  4420.977
  81  4239.046
  82  4043.75
  83  4137.548
  84  4268.818
  85  4237.775
  86  4089.84
  87  4218.881
  88  3889.26
  89  3780.742
  90  3824.893
  91  4034.397
  92  3989.362
  93  3772.05
  94  4132.906
  95  4531.664
  96  4906.696
  97  5091.541
  98  4650.184
  99  4464.404
 100  4503.219
 101  4516.9
 102  4589.003
 103  4376.288
 104  4519.036
 105  4587.667
 106  4499.343
 107  4412.219
 108  4525.369
 109  4544.052
 110  4596.133
 111  4570.987
 112  4627.074
 113  4447.287
 114  4641.354
 115  5073.391
 116  5286.285
 117  5172.616
 118  4889.675
 119  5043.822
 120  4764.146
 121  5004.842
 122  5205.341
 123  5139.233
 124  4825.209
 125  4645.697
 126  5082.374
 127  5074.572
 128  5167.237
 129  4729.756
 130  5039.911
 131  5044.954
 132  4814.539
 133  4838.005
 134  4566.537
 135  4710.508
 136  4738.909
 137  4706.879
 138  4939.31
 139  4941.799
 140  4894.314
 141  4495.8
 142  4700.06
 143  4568.31
 144  4541.583
 145  4992.886
 146  4651.043
 147  4625.74
 148  5009.487
 149  4684.712
 150  4667.138
 151  4558.17
 152  4275.336
 153  4537.497
 154  4778.903
 155  5036.812
 156  4959.474
 157  5111.064
 158  4947.084
 159  4692.744
 160  4681.238
 161  4462.646
 162  4719.219
 163  4905.152
 164  5142.5
 165  5007.473
 166  4785.526
 167  5236.845
 168  5177.657
 169  4827.209
 170  4695.735
 171  4396.44
 172  4782.224
 173  5029.686
 174  4707.487
 175  4339.14
 176  4089.051
 177  4201.706
 178  4634.8
 179  4492.481
 180  4390.706
 181  4240.3
 182  4816.764
 183  4966.219
 184  5196.223
 185  4880.458
 186  5273.355
 187  5552.777
 188  5772.651
 189  5980.944
 190  5871.667
 191  5560.52
 192  5654.053
 193  5579.775
 194  5393.942
 195  5408.747
 196  5434.731
 197  5580.824
 198  5680.316
 199  5385.259
 200  5206.562
 201  5298.929
 202  5353.752
 203  5021.189
 204  4949.735
 205  4877.449
 206  4639.667
 207  4825.829
 208  4876.212
 209  4781.853
 210  4964.79
 211  5049.975
 212  4877.568
 213  5049.352
 214  5141.424
 215  5002.059
 216  4782.309
 217  4662.571
 218  4697.682
 219  4814.556
 220  5160.073
 221  4842.89
 222  4578.741
 223  4799.298
 224  4733.745
 225  4442.313
 226  4422.15
 227  4608.865
 228  4690.498
 229  4520.909
 230  4573.198
 231  4452.544
 232  4354.091
 233  4436.929
 234  4559.2
 235  4248.663
 236  4362.068
 237  4658.29
 238  4113.807
 239  4171.239
 240  4304.136
 241  4685.624
 242  4662.867
 243  4695.162
 244  4212.201
 245  3896.166
 246  4144.499
 247  4045.581
 248  4230.148
 249  4090.104
 250  4642.135
 251  4319.046
 252  3582.538
 253  4269.072
 254  4198.523
 255  3837.219
 256  4048.164
 257  4107.768
 258  4238.779
 259  4547.253
 260  4826.268
 261  5142.675
 262  4852.823
 263  4536.931
 264  4534.324
 265  4572.677
 266  4631.527
 267  4710.65
 268  4816.696
 269  4519.889
 270  4623.593
 271  4407.972
 272  4464.805
 273  4710.555
 274  4539.504
 275  4554.74
 276  4320.736
 277  4508.393
 278  4537.483
 279  4394.655
 280  4387.817
 281  4594.574
 282  4702.194
 283  4419.908
 284  4369.796
 285  4421.446
 286  3963.889
 287  3696.018
 288  4227.812
 289  4525.571
 290  4469.813
 291  4024.167
 292  3833.883
 293  3642.551
 294  3910.552
 295  4006.749
 296  4023.668
 297  3979.846
 298  4170.836
 299  4152.159
 300  4199.045
 301  3908.711
 302  4045.456
 303  4366.946
 304  4352.701
 305  4257.374
 306  3988.239
 307  4420.36
 308  4402.666
 309  4476.25
 310  4447.132
 311  4396.729
 312  3975.862
 313  3637.06
 314  3621.904
 315  3794.307
 316  3685.943
 317  3819.939
 318  4106.336
 319  3903.324
 320  4150.32
 321  4310.638
 322  4634.967
 323  4874.948
 324  5266.155
 325  5552.403
 326  5798.505
 327  5727.167
 328  4773.072
 329  4653.118
 330  4579.198
 331  4518.39
 332  4671.5
 333  4819.206
 334  4640.854
 335  4792.834
 336  4963.647
 337  4829.77
 338  4861.479
 339  4968.275
 340  5419.153
 341  5180.99
 342  4855.001
 343  4729.625
 344  4571.82
 345  4434.087
 346  4588.423
 347  4896.151
 348  4443.046
 349  3984.33
 350  4154.905
 351  3977.042
 352  4104.951
 353  4316.134
 354  4173.683
 355  4069.068
 356  4146.826
 357  4142.878
 358  4197.095
 359  4072.106
 360  3944.889
 361  3860.1
 362  4290.249
 363  4712.303
 364  4385.635
 365  4049.315
 366  4107.897
 367  3845.724
 368  4083.511
 369  4118.619
 370  4273.924
 371  4294.443
 372  4337.418
 373  4195.779
 374  4635.054
 375  4666.735
 376  4541.545
 377  4504.314
 378  4311.9
 379  4559.353
 380  4496.039
 381  4692.306
 382  4622.619
 383  4481.38
 384  4726.28
 385  4742.616
 386  4607.612
 387  4706.061
 388  4686.529
 389  4179.435
 390  4091.263
 391  4460.382
 392  4178.853
 393  4386.293
 394  4694.098
 395  4714.878
 396  4837.77
 397  4821.016
 398  4664.971
 399  4360.582
 400  4429.291
 401  4934.592
 402  4857.277
 403  4725.561
 404  4696.865
 405  4927.247
 406  4597.707
 407  4640.466
 408  4587.157
 409  5036.619
 410  4950.711
 411  4700.039
 412  4256.68
 413  4156.479
 414  4533.523
 415  4610.035
 416  4763.173
 417  4547.335
 418  4567.825
 419  4427.93
 420  4942.496
 421  4875.051
 422  4686.908
 423  4998.58
 424  4682.451
 425  4556.914
 426  4588.545
 427  4944.362
 428  5229.359
 429  4711.926
 430  4821.671
 431  4957.748
 432  5212.169
 433  5301.942
 434  5079.931
 435  4830.273
 436  5251.14
 437  5075.72
 438  5037.575
 439  5112.637
 440  5227.479
 441  4967.652
 442  4999.215
 443  5225.052
 444  5237.916
 445  5170.629
 446  5359.737
 447  5282.359
 448  4929.909
 449  4731.877
 450  4569.832
 451  4547.09
 452  4651.708
 453  4541.631
 454  4533.69
 455  4777.669
 456  4834.489
 457  5023.263
 458  4678.187
 459  4932.658
 460  4772.089
 461  4745.566
 462  4620.116
 463  4839.795
 464  4954.899
 465  4922.296
 466  4889.751
 467  4731.19
 468  4722.894
 469  4848.109
 470  4949.368
 471  4543.569
 472  4772.07
 473  5232.519
 474  5345.018
 475  5291.579
 476  5323.541
 477  5203.698
 478  5245.945
 479  5201.679
 480  5226.996
 481  5721.423
 482  5334.657
 483  5344.327
 484  5601.68
 485  5425.831
 486  5379.5
 487  5134.157
 488  5388.506
 489  5581.01
 490  5413.528
 491  5643.752
 492  5616.42
 493  5593.452
 494  5554.976
 495  5423.047
 496  5627.187
 497  5513.671
 498  5499.41
 499  5446.158
 500  5242.599
 501  5106.639
 502  5198.512
 503  5395.958
 504  5104.342
 505  5036.947
 506  4872.992
 507  5031.042
 508  5158.326
 509  4971.045
 510  5049.917
 511  5240.501
