# Input file       =  1185851408.100563_cleaned.dat
# Candidate        =  PSR_0332+5434
# Telescope        =  AR
# Epoch_topo       =  57969.132258108366
# Epoch_bary       =  N/A
# T_sample         =  0.002
# Data Folded      =  7340032
# Data Avg         =  0.126742073202746
# Data StdDev      =  6.07162140133564 
# Profile Bins     =  512
# Profile Avg      =  1816.71412481195 
# Profile StdDev   =  726.973666112072 
# Reduced chi-sqr  =  0.876
# Prob(Noise)      <  0.98   (~0.0 sigma)
# P_topo (ms)      =  714.468212520885  +/- 0.000298
# P'_topo (s/s)    =  -0                +/- 1.57e-10
# P''_topo (s/s^2) =  0                 +/- 6.94e-14
# P_bary (ms)      =  N/A
# P'_bary (s/s)    =  N/A
# P''_bary (s/s^2) =  N/A
# P_orb (s)        =  N/A
# asin(i)/c (s)    =  N/A
# eccentricity     =  N/A
# w (rad)          =  N/A
# T_peri           =  N/A
######################################################
   0  1607.498
   1  2379.53
   2  2302.333
   3  2100.96
   4  2303.836
   5  2502.495
   6  2253.384
   7  2126.66
   8  1784.144
   9  1631.827
  10  1686.61
  11  2124.171
  12  2132.736
  13  2005.897
  14  1748.159
  15  1753.199
  16  1657.711
  17  1375.284
  18  1435.43
  19  1661.863
  20  2228.023
  21  1843.262
  22  1985.7
  23  1789.76
  24  1598.731
  25  1729.7
  26  1844.875
  27  2122.391
  28  2248.399
  29  1807.368
  30  1491.803
  31  1904.09
  32  2001.552
  33  1490.114
  34  1551.466
  35  1539.837
  36  1602.517
  37  1814.305
  38  2057.042
  39  1575.837
  40  1859.189
  41  1749.164
  42  1625.587
  43  1904.113
  44  2599.606
  45  2287.259
  46  1706.537
  47  1730.663
  48  1396.168
  49  1402.047
  50  2040.208
  51  1951.817
  52  2244.31
  53  2261.313
  54  1728.404
  55  1662.056
  56  1096.944
  57  978.4745
  58  2407.274
  59  2550.108
  60  2363.072
  61  1854.453
  62  1699.446
  63  2013.799
  64  1731.955
  65  924.1133
  66  799.2701
  67  815.1458
  68  600.7903
  69  773.8797
  70  1237.684
  71  1717.564
  72  1318.247
  73  1291.916
  74  1432.283
  75  1588.997
  76  1027.057
  77  918.184
  78  1129.913
  79  1304.848
  80  1266.605
  81  1638.481
  82  1941.795
  83  1402.741
  84  2021.766
  85  2175.141
  86  1772.857
  87  1658.097
  88  1174.29
  89  1130.219
  90  518.9965
  91  1002.423
  92  2216.744
  93  1986.98
  94  1524.97
  95  963.4338
  96  835.4458
  97  919.6605
  98  1373.243
  99  1291.152
 100  1298.577
 101  1259.901
 102  1034.728
 103  998.8103
 104  391.1996
 105  625.1213
 106  886.0117
 107  1092.125
 108  1150.165
 109  1159.25
 110  1541.355
 111  1010.388
 112  1355.307
 113  1824.904
 114  2096.677
 115  1357.63
 116  1384.297
 117  2206.104
 118  1734.675
 119  1852.608
 120  1269.801
 121  1691.856
 122  2283.704
 123  2129.505
 124  1968.421
 125  1773.08
 126  1923.772
 127  2435.843
 128  1995.813
 129  2542.575
 130  2305.713
 131  1523.693
 132  1776.751
 133  1846.144
 134  1696.299
 135  2320.471
 136  1931.256
 137  2002.847
 138  1822.443
 139  2059.5
 140  1958.811
 141  1887.876
 142  2184.991
 143  1718.806
 144  1606.423
 145  1459.898
 146  1031.135
 147  1521.339
 148  2056.033
 149  1902.336
 150  1501.924
 151  1707.458
 152  2059.391
 153  2193.197
 154  2155.979
 155  1724.477
 156  1663.808
 157  1593.865
 158  1712.303
 159  1436.269
 160  1651.384
 161  1792.503
 162  1919.139
 163  1446.632
 164  1542.742
 165  1512.943
 166  2088.014
 167  2390.576
 168  1460.834
 169  1419.563
 170  2263.546
 171  2049.817
 172  1833.484
 173  2146.27
 174  1709.374
 175  879.0136
 176  1352.202
 177  1724.31
 178  1919.823
 179  1735.314
 180  1590.086
 181  1679.813
 182  1641.265
 183  1285.163
 184  1921.337
 185  2181.672
 186  2464.573
 187  2329.319
 188  1760.25
 189  1679.512
 190  1556.985
 191  1963.468
 192  2091.138
 193  2360.57
 194  2382.074
 195  1887.263
 196  1946.138
 197  1482.019
 198  2468.299
 199  2180.866
 200  1163.496
 201  1645.419
 202  1442.18
 203  1177.091
 204  1734.178
 205  2262.764
 206  2337.925
 207  1976.745
 208  2075.688
 209  2358.539
 210  2304.258
 211  2381.329
 212  2186.278
 213  1974.373
 214  1970.772
 215  3235.062
 216  3410.986
 217  3527.667
 218  3750.587
 219  3572.757
 220  3983.084
 221  3800.927
 222  2805.146
 223  2237.905
 224  1841.132
 225  1868.437
 226  1729.253
 227  1961.49
 228  1859.585
 229  2206.098
 230  1801.738
 231  1755.151
 232  2154.034
 233  1263.328
 234  1400.536
 235  2105.425
 236  1623.969
 237  1489.09
 238  2103.776
 239  2031.651
 240  1457.521
 241  1689.456
 242  1541.975
 243  2049.989
 244  2548.24
 245  2284.076
 246  1597.406
 247  1132.731
 248  1552.754
 249  1842.914
 250  2293.908
 251  2473.235
 252  1401.598
 253  1104.438
 254  1206.452
 255  1209.229
 256  1802.729
 257  2542.799
 258  2335.524
 259  2271.699
 260  1724.938
 261  1931.189
 262  1476.667
 263  1397.441
 264  1658.372
 265  1468.251
 266  1415.946
 267  850.0355
 268  1006.215
 269  1676.021
 270  1779.017
 271  1878.63
 272  1343.759
 273  1188.269
 274  1143.602
 275  1437.059
 276  2239.952
 277  1804.1
 278  1612.84
 279  2112.699
 280  2114.122
 281  1749.436
 282  1764.75
 283  2023.486
 284  2086.489
 285  1882.345
 286  1592.281
 287  1766.931
 288  1240.18
 289  1440.555
 290  2081.057
 291  2162.51
 292  1372.755
 293  932.1915
 294  1475.693
 295  1750.917
 296  1460.042
 297  1732.995
 298  2018.372
 299  1526.342
 300  1518.772
 301  1338.643
 302  1631.464
 303  1943.566
 304  1742.806
 305  1517.03
 306  1621.739
 307  1723.29
 308  1677.542
 309  2122.605
 310  1719.699
 311  1946.567
 312  1884.967
 313  1890.529
 314  1882.622
 315  1642.455
 316  1803.624
 317  1659.029
 318  1526.517
 319  1922.916
 320  2120.541
 321  2345.596
 322  2595.705
 323  2452.623
 324  1832.912
 325  1500.022
 326  1844.782
 327  2119.004
 328  1910.729
 329  1444.884
 330  1851.867
 331  1479.652
 332  1816.632
 333  1612.713
 334  1573.889
 335  1710.72
 336  1601.872
 337  1965.305
 338  1797.906
 339  1269.766
 340  868.522
 341  1521.219
 342  1587.752
 343  1401.439
 344  1333.827
 345  1762.163
 346  1494.114
 347  1356.984
 348  1812.349
 349  2180.206
 350  1999.135
 351  1985.865
 352  2383.016
 353  1623.859
 354  1319.915
 355  1573.865
 356  2005.386
 357  1711.856
 358  1744.122
 359  1790.085
 360  2042.882
 361  1492.373
 362  1570.124
 363  1338.104
 364  1095.072
 365  1015.861
 366  1513.525
 367  1947.671
 368  1655.432
 369  1882.479
 370  2088.616
 371  2076.125
 372  1699.868
 373  2168.597
 374  1461.962
 375  1445.474
 376  1602.506
 377  1961.738
 378  1686.313
 379  1725.153
 380  2202.57
 381  1863.795
 382  1946.296
 383  1703.044
 384  2161.913
 385  2827.951
 386  2666.833
 387  2342.31
 388  2177.462
 389  2237.239
 390  1879.894
 391  1707.131
 392  1627.228
 393  2143.722
 394  2036.331
 395  2180.475
 396  2236.35
 397  1739.521
 398  1456.914
 399  1398.767
 400  1095.567
 401  924.295
 402  1635.126
 403  1860.166
 404  1083.154
 405  1115.275
 406  2374.573
 407  2997.112
 408  2895.129
 409  3042.409
 410  1845.784
 411  1484.298
 412  1556.861
 413  2481.166
 414  2437.661
 415  2820.478
 416  2223.683
 417  2271.398
 418  2089.742
 419  2700.1
 420  3033.784
 421  2253.828
 422  2698.183
 423  3033.47
 424  2505.339
 425  2483.519
 426  2137.03
 427  2732.183
 428  2557.765
 429  2005.875
 430  2235.873
 431  1453.675
 432  1754.113
 433  2375.843
 434  1669.258
 435  1750.929
 436  1410.269
 437  893.4828
 438  1200.997
 439  1816.628
 440  2325.74
 441  2239.683
 442  2030.719
 443  1588.149
 444  1502.01
 445  2133.412
 446  2554.336
 447  2237.956
 448  2360.698
 449  2384.838
 450  2232.606
 451  2274.133
 452  2032.354
 453  1492.76
 454  1594.987
 455  1624.177
 456  2402.562
 457  2984.049
 458  2029.086
 459  1687.079
 460  1727.907
 461  1860.102
 462  1872.548
 463  2441.071
 464  2719.586
 465  2249.897
 466  2639.952
 467  2687.352
 468  1986.926
 469  1477.408
 470  1967.031
 471  1890.165
 472  2179.955
 473  1882.413
 474  1887.229
 475  1355.554
 476  1186.103
 477  1737.107
 478  1236.771
 479  1609.32
 480  1496.468
 481  1780.008
 482  1547.815
 483  1655.143
 484  1804.706
 485  2144.725
 486  2175.5
 487  1137.016
 488  1504.955
 489  1312.133
 490  1524.712
 491  1145.193
 492  1378.727
 493  1490.694
 494  1800.12
 495  1382.328
 496  2063.632
 497  2521.258
 498  1988.323
 499  1768.453
 500  1000.501
 501  930.6763
 502  1785.251
 503  1734.632
 504  1913.002
 505  2055.571
 506  2562.748
 507  2637.376
 508  2594.004
 509  1974.984
 510  1580.758
 511  1668.372
