# Input file       =  1185090823.101021_cleaned.dat
# Candidate        =  PSR_0332+5434
# Telescope        =  AR
# Epoch_topo       =  57960.329190984041
# Epoch_bary       =  N/A
# T_sample         =  0.002
# Data Folded      =  7340032
# Data Avg         =  0.0444245108579673
# Data StdDev      =  1.00044237989966 
# Profile Bins     =  512
# Profile Avg      =  636.491390461854 
# Profile StdDev   =  119.786003865384 
# Reduced chi-sqr  =  1.319
# Prob(Noise)      <  1.62e-06   (~4.7 sigma)
# P_topo (ms)      =  714.472513487262  +/- 0.000286
# P'_topo (s/s)    =  -0                +/- 1.51e-10
# P''_topo (s/s^2) =  0                 +/- 6.67e-14
# P_bary (ms)      =  N/A
# P'_bary (s/s)    =  N/A
# P''_bary (s/s^2) =  N/A
# P_orb (s)        =  N/A
# asin(i)/c (s)    =  N/A
# eccentricity     =  N/A
# w (rad)          =  N/A
# T_peri           =  N/A
######################################################
   0  1157.754
   1  1187.336
   2  1044.875
   3  873.2098
   4  758.6611
   5  739.8508
   6  834.8497
   7  701.1485
   8  609.0228
   9  608.5024
  10  601.3782
  11  631.038
  12  657.1841
  13  603.0082
  14  689.5934
  15  664.5092
  16  741.1783
  17  587.2943
  18  658.2885
  19  673.4623
  20  697.3735
  21  622.2014
  22  594.7918
  23  582.0133
  24  618.0461
  25  621.1641
  26  714.1077
  27  679.5096
  28  671.3945
  29  590.9603
  30  597.4707
  31  645.0563
  32  546.7953
  33  626.2864
  34  697.1046
  35  655.9819
  36  651.0262
  37  680.7109
  38  740.3046
  39  774.1596
  40  680.0281
  41  549.3957
  42  573.8258
  43  572.3182
  44  558.4579
  45  577.9539
  46  680.6956
  47  704.9374
  48  659.2471
  49  628.4087
  50  440.0606
  51  498.1313
  52  606.5859
  53  563.7858
  54  600.0008
  55  577.4315
  56  526.6284
  57  526.5401
  58  628.949
  59  568.6353
  60  541.3473
  61  458.8022
  62  366.1285
  63  340.1711
  64  423.0688
  65  484.5332
  66  459.834
  67  529.0828
  68  448.2232
  69  368.6208
  70  466.7075
  71  590.1467
  72  584.4319
  73  577.4387
  74  477.562
  75  574.3381
  76  529.3815
  77  537.5441
  78  637.9485
  79  697.7277
  80  577.5421
  81  492.58
  82  664.6058
  83  683.9182
  84  673.9758
  85  586.0333
  86  565.6708
  87  589.4231
  88  566.0436
  89  689.6611
  90  693.7756
  91  571.7651
  92  551.204
  93  653.8406
  94  562.2198
  95  543.1266
  96  510.7445
  97  517.8796
  98  518.0526
  99  482.0678
 100  531.6149
 101  404.0078
 102  423.0145
 103  498.1793
 104  425.2388
 105  508.2293
 106  433.6706
 107  386.9489
 108  609.2027
 109  537.1264
 110  510.0473
 111  637.934
 112  609.3771
 113  555.4988
 114  574.3722
 115  575.8322
 116  540.5893
 117  614.7454
 118  620.3047
 119  540.2885
 120  462.7362
 121  535.2686
 122  615.0945
 123  648.7315
 124  568.987
 125  598.8868
 126  616.7325
 127  586.2244
 128  584.572
 129  595.6968
 130  697.5215
 131  690.0592
 132  658.8007
 133  703.7809
 134  667.5528
 135  503.2458
 136  461.9574
 137  528.5128
 138  532.2272
 139  576.1545
 140  602.4953
 141  543.4844
 142  538.9571
 143  482.4876
 144  579.0093
 145  669.2056
 146  658.187
 147  619.811
 148  651.977
 149  609.1403
 150  582.5875
 151  583.7352
 152  685.164
 153  718.696
 154  652.874
 155  683.0146
 156  733.615
 157  797.0457
 158  781.3088
 159  713.6034
 160  634.6782
 161  690.9655
 162  631.8917
 163  612.094
 164  694.2322
 165  640.7407
 166  571.3488
 167  635.9091
 168  797.766
 169  727.5515
 170  652.6679
 171  824.4011
 172  700.8825
 173  541.9749
 174  631.8596
 175  648.9407
 176  629.937
 177  775.5842
 178  722.9768
 179  672.4832
 180  693.0721
 181  679.0718
 182  732.9691
 183  731.0615
 184  688.4589
 185  735.3584
 186  720.7615
 187  738.9042
 188  666.1234
 189  777.9712
 190  752.7946
 191  695.7262
 192  701.1595
 193  743.0873
 194  772.0377
 195  838.0797
 196  798.7792
 197  831.092
 198  800.1066
 199  674.2838
 200  663.3983
 201  740.6475
 202  788.9657
 203  688.4362
 204  606.178
 205  669.1311
 206  567.3666
 207  701.5811
 208  706.1932
 209  681.0445
 210  611.4919
 211  599.5709
 212  610.1669
 213  598.3217
 214  533.3146
 215  526.0485
 216  595.8165
 217  606.7944
 218  562.4366
 219  626.4871
 220  724.1468
 221  738.8543
 222  692.503
 223  618.261
 224  642.8205
 225  656.7745
 226  598.3292
 227  676.9703
 228  706.085
 229  638.7753
 230  596.4951
 231  729.7288
 232  658.5084
 233  525.2465
 234  524.3262
 235  683.3713
 236  820.1893
 237  949.1682
 238  884.757
 239  735.4911
 240  741.3785
 241  660.576
 242  643.737
 243  644.5748
 244  628.1937
 245  754.8491
 246  803.6675
 247  714.4991
 248  675.9519
 249  650.403
 250  636.9079
 251  576.4141
 252  618.282
 253  657.3864
 254  729.3512
 255  681.6201
 256  727.9337
 257  714.4131
 258  666.7314
 259  582.996
 260  493.2675
 261  564.6146
 262  587.3975
 263  583.1519
 264  592.9196
 265  653.8591
 266  671.189
 267  774.8885
 268  692.5149
 269  656.1694
 270  637.1627
 271  501.5817
 272  540.5903
 273  561.4208
 274  526.7324
 275  655.4556
 276  639.0092
 277  647.9667
 278  709.9114
 279  694.6363
 280  545.8511
 281  526.168
 282  664.587
 283  627.9364
 284  720.8156
 285  730.6524
 286  687.5099
 287  541.1772
 288  617.4584
 289  600.6685
 290  559.7569
 291  616.509
 292  644.0884
 293  642.4062
 294  747.8044
 295  643.7139
 296  726.3314
 297  713.3188
 298  666.7515
 299  621.4884
 300  582.4841
 301  541.6889
 302  602.5701
 303  638.1152
 304  611.0591
 305  582.8634
 306  645.4661
 307  738.7853
 308  648.5302
 309  611.8107
 310  748.5536
 311  684.4114
 312  702.8589
 313  672.6396
 314  677.4944
 315  682.3378
 316  595.3087
 317  638.325
 318  655.1676
 319  706.7634
 320  716.1661
 321  682.7464
 322  607.0954
 323  571.5759
 324  649.7823
 325  540.7566
 326  466.8907
 327  664.1871
 328  699.1355
 329  651.2568
 330  520.7957
 331  510.9067
 332  575.3356
 333  467.9446
 334  522.2371
 335  577.0498
 336  598.7449
 337  685.9194
 338  569.8885
 339  485.4406
 340  624.488
 341  615.6037
 342  514.5349
 343  577.4066
 344  660.186
 345  614.9653
 346  529.7184
 347  609.1571
 348  669.3797
 349  671.2953
 350  730.8102
 351  737.9441
 352  722.0958
 353  731.8889
 354  743.8177
 355  701.5538
 356  724.7233
 357  715.6859
 358  646.5287
 359  614.1425
 360  609.1073
 361  655.3873
 362  639.3568
 363  614.0685
 364  576.7073
 365  635.3936
 366  635.3992
 367  697.362
 368  673.269
 369  724.6995
 370  671.1003
 371  640.8351
 372  732.6268
 373  706.5564
 374  797.506
 375  791.5288
 376  763.8966
 377  761.792
 378  637.1005
 379  610.0703
 380  679.7964
 381  765.8027
 382  733.598
 383  600.2554
 384  526.3455
 385  669.1387
 386  624.2087
 387  673.0898
 388  668.9211
 389  682.2802
 390  618.7418
 391  661.3317
 392  665.4611
 393  604.8607
 394  672.6268
 395  785.0026
 396  656.9603
 397  536.8401
 398  634.3869
 399  647.8043
 400  567.9343
 401  605.2883
 402  530.0323
 403  603.3546
 404  667.5783
 405  615.5707
 406  715.7921
 407  643.5554
 408  514.9728
 409  572.2625
 410  608.1454
 411  545.6731
 412  549.7275
 413  566.18
 414  636.1463
 415  669.3492
 416  758.6432
 417  741.7405
 418  695.2137
 419  694.4443
 420  670.9406
 421  614.0338
 422  655.8304
 423  580.8652
 424  586.8348
 425  619.7177
 426  663.7066
 427  739.9666
 428  720.563
 429  639.2768
 430  540.5247
 431  553.4156
 432  528.2427
 433  528.4644
 434  515.2456
 435  552.0754
 436  584.3274
 437  669.1459
 438  658.4974
 439  627.4273
 440  604.558
 441  521.0931
 442  530.2067
 443  697.203
 444  628.2769
 445  612.0034
 446  732.0847
 447  707.7203
 448  644.634
 449  565.3465
 450  597.5179
 451  633.1494
 452  557.643
 453  618.8534
 454  696.8587
 455  708.0911
 456  569.1838
 457  523.2605
 458  480.0184
 459  540.9112
 460  552.4141
 461  555.7444
 462  551.8342
 463  602.8959
 464  648.5823
 465  686.0192
 466  630.1373
 467  591.4413
 468  664.7506
 469  620.1188
 470  517.3245
 471  605.0873
 472  683.9454
 473  631.9626
 474  463.3586
 475  499.7216
 476  560.2031
 477  595.8973
 478  610.6633
 479  643.353
 480  481.939
 481  494.2079
 482  690.4778
 483  709.241
 484  603.2485
 485  635.752
 486  722.2495
 487  662.7794
 488  737.6852
 489  783.7717
 490  779.2766
 491  719.5084
 492  808.9611
 493  711.1796
 494  603.5452
 495  588.1674
 496  591.5366
 497  657.4301
 498  568.853
 499  558.9268
 500  629.8745
 501  628.8814
 502  630.3365
 503  661.0975
 504  608.2206
 505  637.3911
 506  712.3881
 507  697.2662
 508  702.5496
 509  964.3578
 510  1130.604
 511  1142.451
