# Input file       =  1185263182.108499_cleaned.dat
# Candidate        =  PSR_0332+5434
# Telescope        =  AR
# Epoch_topo       =  57962.324086903922
# Epoch_bary       =  N/A
# T_sample         =  0.002
# Data Folded      =  7340032
# Data Avg         =  0.329675347419522
# Data StdDev      =  5.31806305432503 
# Profile Bins     =  512
# Profile Avg      =  4725.24442597369 
# Profile StdDev   =  636.747837137435 
# Reduced chi-sqr  =  0.884
# Prob(Noise)      <  0.972   (~0.0 sigma)
# P_topo (ms)      =  714.47151537403   +/- 0.000677
# P'_topo (s/s)    =  -0                +/- 3.57e-10
# P''_topo (s/s^2) =  0                 +/- 1.58e-13
# P_bary (ms)      =  N/A
# P'_bary (s/s)    =  N/A
# P''_bary (s/s^2) =  N/A
# P_orb (s)        =  N/A
# asin(i)/c (s)    =  N/A
# eccentricity     =  N/A
# w (rad)          =  N/A
# T_peri           =  N/A
######################################################
   0  4219.673
   1  3901.65
   2  3779.071
   3  3819.715
   4  4027.652
   5  3998.698
   6  3771.964
   7  4120.896
   8  4520.785
   9  4892.187
  10  5103.854
  11  4655.292
  12  4471.815
  13  4495.37
  14  4521.07
  15  4581.922
  16  4387.775
  17  4506.034
  18  4594.105
  19  4496.885
  20  4421.588
  21  4517.911
  22  4544.774
  23  4592.527
  24  4576.562
  25  4625.112
  26  4444.713
  27  4634.327
  28  5065.814
  29  5285.425
  30  5172.956
  31  4893.114
  32  5045.109
  33  4775.051
  34  4988.838
  35  5206.468
  36  5145.208
  37  4833.007
  38  4637.01
  39  5078.972
  40  5073.809
  41  5172.383
  42  4729.47
  43  5027.143
  44  5056.609
  45  4821.904
  46  4837.747
  47  4569.081
  48  4704.333
  49  4749.303
  50  4699.139
  51  4933.693
  52  4944.638
  53  4899.096
  54  4495.707
  55  4697.045
  56  4579.102
  57  4532.214
  58  4986.102
  59  4667.091
  60  4614.559
  61  5009.518
  62  4687.056
  63  4668.239
  64  4570.047
  65  4270.516
  66  4531.318
  67  4766.047
  68  5038.696
  69  4957.834
  70  5109.978
  71  4956.295
  72  4697.012
  73  4684.422
  74  4464.641
  75  4708.932
  76  4900.301
  77  5131.812
  78  5026.013
  79  4777.092
  80  5228.686
  81  5189.559
  82  4831.262
  83  4701.509
  84  4398.942
  85  4762.365
  86  5038.936
  87  4715.22
  88  4353.771
  89  4089.208
  90  4190.791
  91  4624.922
  92  4500.62
  93  4392.387
  94  4234.919
  95  4810.006
  96  4953.749
  97  5206.509
  98  4878.708
  99  5260.309
 100  5545.52
 101  5763.569
 102  5983.593
 103  5881.523
 104  5562.282
 105  5653.067
 106  5581.743
 107  5401.114
 108  5404.344
 109  5437.284
 110  5571.087
 111  5687.82
 112  5391.377
 113  5204.202
 114  5297.992
 115  5359.481
 116  5027.007
 117  4942.983
 118  4890.524
 119  4635.733
 120  4821.087
 121  4874.915
 122  4791.932
 123  4954.132
 124  5056.283
 125  4875.237
 126  5039.896
 127  5145.377
 128  5003.158
 129  4792.128
 130  4658.542
 131  4700.981
 132  4808.612
 133  5155.562
 134  4857.22
 135  4575.15
 136  4795.792
 137  4740.041
 138  4445.273
 139  4419.598
 140  4604.59
 141  4694.251
 142  4527.221
 143  4570.207
 144  4453.273
 145  4359.517
 146  4427.359
 147  4566.317
 148  4255.093
 149  4347.671
 150  4668.81
 151  4121.906
 152  4167.315
 153  4286.583
 154  4692.109
 155  4656.678
 156  4702.421
 157  4228.541
 158  3888.318
 159  4147.783
 160  4040.863
 161  4231.522
 162  4086.521
 163  4630.537
 164  4348.417
 165  3580.694
 166  4247.202
 167  4215.964
 168  3840.598
 169  4045.805
 170  4102.902
 171  4234.127
 172  4534.405
 173  4813.881
 174  5140.918
 175  4870.339
 176  4541.268
 177  4531
 178  4567.428
 179  4632.537
 180  4704.502
 181  4821.214
 182  4521.592
 183  4620.569
 184  4419.438
 185  4454.599
 186  4713.771
 187  4538.943
 188  4561.689
 189  4323.93
 190  4500.02
 191  4541.083
 192  4396.396
 193  4387.274
 194  4585.242
 195  4707.881
 196  4424.599
 197  4371.358
 198  4422.948
 199  3981.243
 200  3689.597
 201  4211.151
 202  4521.12
 203  4479.16
 204  4035.159
 205  3843.031
 206  3635.253
 207  3905.677
 208  4008.182
 209  4025.573
 210  3976.929
 211  4163.293
 212  4152.666
 213  4202.615
 214  3915.717
 215  4036.102
 216  4361.154
 217  4351.431
 218  4267.124
 219  3981.412
 220  4415.355
 221  4400.223
 222  4479.152
 223  4444.016
 224  4404.162
 225  3987.667
 226  3647.426
 227  3617.259
 228  3796.876
 229  3687.264
 230  3808.425
 231  4108.535
 232  3902.533
 233  4137.592
 234  4305.285
 235  4632.595
 236  4862.457
 237  5258.758
 238  5543.746
 239  5794.893
 240  5741.21
 241  4797.198
 242  4643.063
 243  4586.2
 244  4516.216
 245  4664.987
 246  4820.46
 247  4646.826
 248  4783.288
 249  4966.373
 250  4825.833
 251  4868.893
 252  4954.877
 253  5410.24
 254  5194.044
 255  4867.259
 256  4726.261
 257  4581.379
 258  4429.341
 259  4585.154
 260  4893.033
 261  4455.477
 262  3991.07
 263  4153.187
 264  3980.418
 265  4096.77
 266  4311.604
 267  4187.177
 268  4067.407
 269  4144.558
 270  4141.602
 271  4193.763
 272  4078.625
 273  3951.538
 274  3859.021
 275  4268.041
 276  4715.109
 277  4399.162
 278  4047.755
 279  4112.757
 280  3847.582
 281  4072.936
 282  4120.66
 283  4271.512
 284  4290.665
 285  4339.032
 286  4197.034
 287  4628.518
 288  4667.298
 289  4545.395
 290  4501.731
 291  4315.428
 292  4553.775
 293  4498.732
 294  4682.751
 295  4631.653
 296  4475.827
 297  4720.165
 298  4748.229
 299  4614.356
 300  4698.812
 301  4690.5
 302  4196.476
 303  4076.74
 304  4463.593
 305  4188.267
 306  4367.588
 307  4696.543
 308  4705.175
 309  4839.529
 310  4824.939
 311  4670.002
 312  4371.685
 313  4415.485
 314  4925.842
 315  4860.991
 316  4731.241
 317  4690.898
 318  4927.474
 319  4606.9
 320  4636.732
 321  4589.305
 322  5023.622
 323  4959.016
 324  4706.353
 325  4271.766
 326  4145.684
 327  4528.09
 328  4604.54
 329  4770.301
 330  4541.296
 331  4576.154
 332  4421.468
 333  4930.772
 334  4886.958
 335  4678.685
 336  5001.211
 337  4693.787
 338  4551.497
 339  4589.675
 340  4922.941
 341  5243.026
 342  4718.174
 343  4813.476
 344  4956.324
 345  5204.667
 346  5305.277
 347  5089.179
 348  4823.283
 349  5248.982
 350  5077.049
 351  5036.671
 352  5107.976
 353  5232.271
 354  4966.853
 355  4999.044
 356  5221.004
 357  5244.701
 358  5162.917
 359  5362.64
 360  5291.409
 361  4933.741
 362  4735.097
 363  4569.751
 364  4552.661
 365  4647.624
 366  4542.889
 367  4530.675
 368  4768.238
 369  4838.381
 370  5022.733
 371  4685.278
 372  4925.146
 373  4776.771
 374  4751.789
 375  4614.81
 376  4834.601
 377  4950.389
 378  4923.184
 379  4893.446
 380  4734.396
 381  4726.443
 382  4837.288
 383  4958.824
 384  4544.491
 385  4765.462
 386  5219.304
 387  5349.981
 388  5286.374
 389  5327.522
 390  5207.99
 391  5239.9
 392  5207.587
 393  5217.864
 394  5718.073
 395  5347.193
 396  5331.858
 397  5602.378
 398  5430.002
 399  5380.31
 400  5140.704
 401  5375.724
 402  5579.488
 403  5415.896
 404  5635.981
 405  5622.038
 406  5596.252
 407  5558.598
 408  5419.596
 409  5629.674
 410  5515.591
 411  5493.866
 412  5455.566
 413  5243.314
 414  5110.054
 415  5188.15
 416  5402.545
 417  5099.689
 418  5051.257
 419  4868.472
 420  5032.007
 421  5148.696
 422  4987.082
 423  5035.475
 424  5240.867
 425  5276.573
 426  4827.987
 427  4803.939
 428  4956.022
 429  5329.84
 430  5248.851
 431  4840.269
 432  4770.075
 433  4842.084
 434  5171.801
 435  5019.969
 436  5088.936
 437  4883.999
 438  4807.635
 439  4933.236
 440  5094.106
 441  5227.446
 442  5039.496
 443  4690.472
 444  4812.17
 445  4698.871
 446  5068.503
 447  5058.77
 448  4924.04
 449  4863.918
 450  4408.709
 451  4322.231
 452  4589.641
 453  4872.539
 454  4924.077
 455  4941.557
 456  4967.195
 457  5087.741
 458  4920.256
 459  4968.568
 460  4918.389
 461  5037.371
 462  4796.196
 463  4709.313
 464  4597.225
 465  4955.045
 466  5059.608
 467  4964.781
 468  5215.477
 469  4949.17
 470  4893.495
 471  4863.829
 472  4918.043
 473  4902.407
 474  5242.77
 475  5242.89
 476  5220.205
 477  5488.362
 478  5073.182
 479  5025.408
 480  5363.797
 481  5672.73
 482  5133.759
 483  5143.548
 484  5322.728
 485  4777.415
 486  4733.702
 487  4989.312
 488  4560.799
 489  4482.223
 490  4916.592
 491  4731.795
 492  4771.802
 493  4625.68
 494  4706.383
 495  4756.692
 496  4696.004
 497  4853.199
 498  4902.757
 499  4657.322
 500  4488.398
 501  4567.041
 502  4416.069
 503  4777.068
 504  4449.578
 505  4423.84
 506  4244.346
 507  4049.92
 508  4128.193
 509  4266.061
 510  4243.06
 511  4087.579
