# Input file       =  1185061324.110495_cleaned.dat
# Candidate        =  PSR_0332+5434
# Telescope        =  AR
# Epoch_topo       =  57959.987767482584
# Epoch_bary       =  N/A
# T_sample         =  0.002
# Data Folded      =  7143424
# Data Avg         =  0.0944394520569351
# Data StdDev      =  4.11628584422138 
# Profile Bins     =  512
# Profile Avg      =  1317.72103355968 
# Profile StdDev   =  486.209857242177 
# Reduced chi-sqr  =  0.683
# Prob(Noise)      <  1   (~0.0 sigma)
# P_topo (ms)      =  714.472343908669  +/- 6.7e-05
# P'_topo (s/s)    =  -0                +/- 3.63e-11
# P''_topo (s/s^2) =  0                 +/- 1.65e-14
# P_bary (ms)      =  N/A
# P'_bary (s/s)    =  N/A
# P''_bary (s/s^2) =  N/A
# P_orb (s)        =  N/A
# asin(i)/c (s)    =  N/A
# eccentricity     =  N/A
# w (rad)          =  N/A
# T_peri           =  N/A
######################################################
   0  1093.184
   1  1400.559
   2  913.339
   3  1092.229
   4  1680.16
   5  1639.331
   6  1270.169
   7  1092.353
   8  1185.31
   9  1062.992
  10  867.1166
  11  1133.849
  12  1243.879
  13  1256.242
  14  1507.927
  15  1615.172
  16  1544.512
  17  1321.222
  18  1344.701
  19  1509.8
  20  1354.667
  21  1349.431
  22  1066.365
  23  1183.568
  24  1112.514
  25  1000.479
  26  1211.312
  27  1558.875
  28  1401.038
  29  1522.712
  30  1352.734
  31  1415.669
  32  1236.656
  33  1603.889
  34  1387.88
  35  1375.939
  36  1356.125
  37  1222.613
  38  1307.974
  39  1445.86
  40  1270.394
  41  1436.48
  42  1535.487
  43  1104.308
  44  899.9294
  45  1431.613
  46  1715.61
  47  1615.602
  48  1495.091
  49  1660.907
  50  1615.339
  51  945.3233
  52  934.8708
  53  1200.384
  54  1267.529
  55  985.205
  56  1028.797
  57  1254.677
  58  1374.06
  59  1432.038
  60  1154.656
  61  1045.985
  62  1517.862
  63  1653.507
  64  1036.256
  65  756.6038
  66  1102.817
  67  1882.196
  68  1299.759
  69  1260.083
  70  1361.79
  71  1742.517
  72  1183.919
  73  975.9971
  74  1340.012
  75  1360.932
  76  1102.028
  77  987.5997
  78  1590.173
  79  1853.049
  80  1530.811
  81  1458.368
  82  1069.793
  83  935.8545
  84  897.7589
  85  1182.325
  86  1194.153
  87  1446.719
  88  1609.059
  89  1144.891
  90  868.9485
  91  1092.211
  92  795.9601
  93  1282.412
  94  1480.275
  95  1271.119
  96  1431.405
  97  1576.25
  98  1396.975
  99  1505.174
 100  1639.768
 101  1412.823
 102  1430.911
 103  1200.146
 104  933.3328
 105  1018.569
 106  1169.823
 107  1447.754
 108  1128.711
 109  1260.451
 110  1227.937
 111  1366.344
 112  1542.134
 113  1790.979
 114  1305.737
 115  1547.25
 116  1488.857
 117  1283.432
 118  1342.867
 119  1532.802
 120  1872.51
 121  1569.855
 122  1337.867
 123  1318.672
 124  1632.866
 125  1439.126
 126  1268.529
 127  1211.564
 128  1379.793
 129  1554.456
 130  1746.791
 131  1332.399
 132  1384.79
 133  1881.799
 134  1868.567
 135  928.738
 136  1307.027
 137  1498.695
 138  1254.982
 139  1112.672
 140  1467.748
 141  1578.176
 142  1382.583
 143  994.919
 144  1497.607
 145  1700.446
 146  1527.755
 147  1174.776
 148  1017.379
 149  1405.855
 150  1545.511
 151  1304.571
 152  1531.972
 153  1496.349
 154  1335.902
 155  1183.942
 156  901.608
 157  815.6013
 158  1265.88
 159  1222.512
 160  1474.02
 161  1226.151
 162  1195.492
 163  1396.644
 164  1292.752
 165  1206.329
 166  891.9707
 167  1145.08
 168  1135.085
 169  1173.349
 170  1368.406
 171  1160.291
 172  1156.801
 173  770.0419
 174  843.4601
 175  630.5813
 176  912.0909
 177  948.146
 178  1232.705
 179  1518.658
 180  1195.519
 181  1209.753
 182  1499.672
 183  1216.141
 184  982.5579
 185  1036.341
 186  1229.778
 187  1774.678
 188  1493.531
 189  1337.866
 190  1224.598
 191  1333.041
 192  962.9588
 193  893.0811
 194  1213.222
 195  1450.721
 196  1599.77
 197  1430.813
 198  1397.916
 199  1613.183
 200  1264.585
 201  1160.285
 202  1090.159
 203  1381.176
 204  1567.729
 205  1368.129
 206  1319.384
 207  1186.335
 208  923.9108
 209  766.873
 210  826.3958
 211  1099.419
 212  872.3024
 213  1015.552
 214  1280.658
 215  1322.867
 216  1235.457
 217  1144.501
 218  1814.325
 219  1841.781
 220  1459.86
 221  1335.179
 222  1318.613
 223  1325.483
 224  937.0883
 225  1091.444
 226  1282.438
 227  1478.399
 228  1465.315
 229  1395.554
 230  1259.88
 231  1216.818
 232  1176.452
 233  1035.595
 234  1245.082
 235  1033.953
 236  1497.851
 237  1413.426
 238  1264.486
 239  1466.802
 240  1580.932
 241  1314.767
 242  1142.974
 243  1181.674
 244  1429.35
 245  1126.844
 246  938.4999
 247  1431.792
 248  1466.31
 249  1370.566
 250  1243.557
 251  1324.285
 252  1607.115
 253  1248.929
 254  1041.497
 255  1286.088
 256  1652.968
 257  1436.517
 258  1170.401
 259  1200.963
 260  1156.748
 261  1314.99
 262  1732.967
 263  2071.646
 264  1651.915
 265  1575.151
 266  1706.843
 267  1125.988
 268  827.5694
 269  1256.548
 270  1637.981
 271  1395.582
 272  1220.969
 273  1337.388
 274  1649.087
 275  1368.353
 276  1381.113
 277  1211.178
 278  1602.493
 279  1323.571
 280  1164.162
 281  1645.197
 282  1338.462
 283  1132.09
 284  1224.82
 285  1687.239
 286  1377.969
 287  1677.688
 288  1464.573
 289  1060.55
 290  1126.525
 291  1196.479
 292  1547.086
 293  1467.747
 294  1703.856
 295  1737.408
 296  1248.224
 297  1206.127
 298  768.0018
 299  1034.209
 300  1524.929
 301  1588.756
 302  1431.97
 303  1241.968
 304  1295.58
 305  1222.944
 306  1361.666
 307  1108.614
 308  1070.077
 309  1188.821
 310  1392.854
 311  1377.632
 312  991.5339
 313  1384.192
 314  1797.382
 315  1564.632
 316  1308.739
 317  952.6983
 318  1087.259
 319  1077.427
 320  1117.239
 321  1691.897
 322  1513.333
 323  1247.748
 324  1048.965
 325  1211.048
 326  1419.663
 327  1364.446
 328  1459.9
 329  1353.73
 330  1289.011
 331  1123.905
 332  917.3862
 333  1036.849
 334  1045.971
 335  1241.705
 336  1217.031
 337  1040.261
 338  738.3591
 339  757.1346
 340  1242.756
 341  1073.69
 342  714.4457
 343  1001.715
 344  1346.01
 345  1293.229
 346  1378.858
 347  1819.398
 348  1498.052
 349  775.3338
 350  1086.519
 351  1089.694
 352  1318.482
 353  1168.438
 354  1275.26
 355  1251.049
 356  869.0343
 357  936.8854
 358  1105.668
 359  1429.313
 360  1290.424
 361  1343.371
 362  1398.453
 363  1275.387
 364  1183.038
 365  989.7617
 366  1606.899
 367  1738.087
 368  1746.821
 369  1646.42
 370  1295.901
 371  1160.777
 372  992.9342
 373  1176.456
 374  954.7229
 375  1139.153
 376  1559.88
 377  1566.225
 378  1164.991
 379  1317.234
 380  1434.59
 381  1304.052
 382  950.8914
 383  1121.366
 384  1703.657
 385  1478.964
 386  1164.29
 387  972.0869
 388  1448.058
 389  1450.974
 390  1158.234
 391  1038.639
 392  1025.773
 393  1120.388
 394  1181.02
 395  1394.016
 396  1487.031
 397  1417.686
 398  1540.42
 399  1438.976
 400  1852.046
 401  1404.287
 402  1394.04
 403  1411.298
 404  839.6318
 405  1161.228
 406  1358.072
 407  1178.214
 408  1301.212
 409  1397.273
 410  1757.611
 411  1283.554
 412  589.4967
 413  610.769
 414  860.141
 415  763.653
 416  605.1718
 417  805.068
 418  1220.852
 419  1012.624
 420  972.6509
 421  1207.404
 422  1147.397
 423  911.4933
 424  1079.233
 425  1058.174
 426  1090.13
 427  855.6796
 428  1281.439
 429  1490.32
 430  1581.043
 431  1147.353
 432  1418.523
 433  1436.459
 434  1303.586
 435  1549.407
 436  1578.074
 437  1304.978
 438  934.5773
 439  1010.563
 440  1028.607
 441  1175.632
 442  1532.346
 443  1631.306
 444  1425.925
 445  1274.665
 446  1352.11
 447  1294.738
 448  955.9679
 449  1176.721
 450  1641.737
 451  1895.121
 452  1107.992
 453  1041.721
 454  1318.662
 455  1495.621
 456  1468.774
 457  1100.365
 458  1148.183
 459  904.4088
 460  1195.174
 461  1498.087
 462  1330.861
 463  1442.264
 464  1578.937
 465  1486.166
 466  1304.847
 467  1258.799
 468  1471.704
 469  1612.366
 470  1571.577
 471  1514.252
 472  1705.29
 473  1554.744
 474  1703.458
 475  1786.413
 476  1643.856
 477  1607.467
 478  1137.324
 479  1398.942
 480  1695.774
 481  1458.285
 482  1316.213
 483  1534.48
 484  1523.159
 485  1494.484
 486  1509.782
 487  1727.701
 488  1671.921
 489  1340.905
 490  1459.174
 491  1807.938
 492  1859.364
 493  2109.45
 494  2357.332
 495  3183.994
 496  3087.083
 497  2536.994
 498  2349.865
 499  1634.911
 500  1562.509
 501  1478.767
 502  1239.251
 503  1347.174
 504  1334.9
 505  1244.063
 506  1138.199
 507  1390.122
 508  1288.637
 509  1311.364
 510  1254.065
 511  977.4427
