# Input file       =  1185664428.103452_cleaned.dat
# Candidate        =  PSR_0332+5434
# Telescope        =  AR
# Epoch_topo       =  57966.968137771437
# Epoch_bary       =  N/A
# T_sample         =  0.002
# Data Folded      =  7208960
# Data Avg         =  0.114587684522848
# Data StdDev      =  4.42216890341484 
# Profile Bins     =  512
# Profile Avg      =  1613.38349665533 
# Profile StdDev   =  524.730917298986 
# Reduced chi-sqr  =  0.629
# Prob(Noise)      <  1   (~0.0 sigma)
# P_topo (ms)      =  714.46906937444   +/- 5.23e-05
# P'_topo (s/s)    =  -0                +/- 2.81e-11
# P''_topo (s/s^2) =  0                 +/- 1.26e-14
# P_bary (ms)      =  N/A
# P'_bary (s/s)    =  N/A
# P''_bary (s/s^2) =  N/A
# P_orb (s)        =  N/A
# asin(i)/c (s)    =  N/A
# eccentricity     =  N/A
# w (rad)          =  N/A
# T_peri           =  N/A
######################################################
   0  1264.521
   1  1443.804
   2  1629.744
   3  1778.092
   4  2114.68
   5  2034.428
   6  1538.058
   7  1536.399
   8  1338.86
   9  1484.291
  10  1318.874
  11  1494.937
  12  1414.829
  13  1233.538
  14  1429.107
  15  1652.555
  16  1088.429
  17  1086.237
  18  1349.334
  19  1992.762
  20  1666.713
  21  1798.444
  22  2247.262
  23  1753.876
  24  1374.826
  25  959.8135
  26  1371.172
  27  1295.93
  28  1095.295
  29  1715.848
  30  1797.55
  31  1361.115
  32  847.0623
  33  1100.047
  34  1547.885
  35  1431.539
  36  1315.073
  37  1861.595
  38  2370.373
  39  1941.195
  40  1362.675
  41  1735.673
  42  1418.357
  43  1245.37
  44  1325.15
  45  1615.342
  46  1997.528
  47  1767.221
  48  1705.155
  49  1674.824
  50  1563.926
  51  1448.432
  52  1358.16
  53  1391.123
  54  1313.467
  55  1774.61
  56  1849.248
  57  1538.442
  58  1496.361
  59  1580.315
  60  1716.187
  61  1717.495
  62  1716.042
  63  1868.995
  64  1421.523
  65  1401.719
  66  1459.374
  67  1649.54
  68  1841.57
  69  1621.21
  70  1778.266
  71  1690.628
  72  1337.789
  73  1078.711
  74  1425.275
  75  1415.405
  76  1523.14
  77  1680.139
  78  1793.411
  79  1685.193
  80  1459.951
  81  1321.49
  82  1564.082
  83  1154.105
  84  1416.08
  85  1647.004
  86  1529.136
  87  1475.082
  88  1517.564
  89  1866.296
  90  1774.913
  91  1869.168
  92  1586.007
  93  1663.632
  94  1653.861
  95  1558.206
  96  1414.249
  97  1225.767
  98  1309.944
  99  1187.011
 100  1455.242
 101  1617.01
 102  1697.558
 103  2011.01
 104  2049.494
 105  1546.645
 106  1099.765
 107  1161.89
 108  1530.449
 109  1362.584
 110  1320.334
 111  1831.48
 112  1901.267
 113  1553.864
 114  1315.877
 115  1082.021
 116  1222.209
 117  1134.747
 118  1147.148
 119  1372.853
 120  1714.125
 121  1835.893
 122  1590.257
 123  1437.785
 124  1015.431
 125  1230.688
 126  1620.025
 127  1636.6
 128  1628.892
 129  1817.79
 130  1972.034
 131  1507.476
 132  1532.295
 133  1246.578
 134  1589.598
 135  1463.613
 136  1681.394
 137  2167.811
 138  1544.231
 139  1307.921
 140  1507.474
 141  1587.076
 142  1285.391
 143  1862.86
 144  2049.111
 145  1934.509
 146  1637.352
 147  1965.333
 148  1884.038
 149  2128.149
 150  1946.757
 151  2538.701
 152  3335.227
 153  3346.273
 154  3147.593
 155  2681.118
 156  2499.889
 157  1732.003
 158  1758.367
 159  1712.932
 160  1752.342
 161  1605.157
 162  1842.622
 163  2114.361
 164  1644.595
 165  1722.215
 166  1907.528
 167  2068.316
 168  1562.762
 169  1568.442
 170  1856.393
 171  1951.532
 172  1327.249
 173  1555.461
 174  1890.792
 175  1699.498
 176  1574.27
 177  1260
 178  2051.571
 179  1421.744
 180  1492.905
 181  1609.257
 182  1372.535
 183  1617.978
 184  1735.544
 185  1947.742
 186  1945.029
 187  1939.473
 188  1860
 189  1763.262
 190  1121.921
 191  1338.835
 192  1695.956
 193  1866.248
 194  1956.406
 195  1992.957
 196  1792.907
 197  1578.809
 198  1109.16
 199  1421.961
 200  1606.24
 201  1548.874
 202  1823.616
 203  1835.745
 204  2377.571
 205  1925.332
 206  1637.427
 207  1698.762
 208  1334.919
 209  1640.839
 210  1884.062
 211  2166.678
 212  1802.912
 213  1242.033
 214  1491.641
 215  1312.664
 216  1378.444
 217  1607.661
 218  2063.807
 219  1979.742
 220  1570.86
 221  1789.545
 222  1752.94
 223  1536.139
 224  1585.62
 225  1817.62
 226  1667.464
 227  1590.153
 228  1817.728
 229  1650.599
 230  1402.971
 231  1622.252
 232  1617.949
 233  2011.733
 234  1649.079
 235  1639.257
 236  1624.036
 237  1422.148
 238  1569.863
 239  1339.408
 240  1887.887
 241  1805.357
 242  1417.453
 243  1543.852
 244  1448.544
 245  1823.115
 246  1509.937
 247  1391.723
 248  1650.651
 249  1524.814
 250  1690.673
 251  1986.755
 252  1781.093
 253  1694.937
 254  1724.779
 255  1821.328
 256  1249.209
 257  1537.523
 258  2189.686
 259  1952.989
 260  1937.208
 261  1958.635
 262  1991.011
 263  1274.604
 264  1129.54
 265  1543.57
 266  1436.818
 267  1793.085
 268  2032.199
 269  2258.446
 270  2068.032
 271  1379.266
 272  1293.865
 273  1440.275
 274  1568.901
 275  1647.267
 276  1622.18
 277  1759.127
 278  1938.874
 279  1650.876
 280  1384.925
 281  1192.116
 282  1387.407
 283  1820.079
 284  1992.041
 285  1802.732
 286  1990.081
 287  1659.406
 288  1408.008
 289  1375.968
 290  1385.636
 291  1336.718
 292  1303.46
 293  1789.752
 294  1945.87
 295  1971.079
 296  1592.588
 297  1324.555
 298  1306.268
 299  1559.743
 300  1818.813
 301  1520.142
 302  2017.065
 303  2283.545
 304  1640.302
 305  1254.433
 306  1240.605
 307  1708.472
 308  1399.515
 309  1694.827
 310  2045.246
 311  1623.328
 312  1502.858
 313  1251.072
 314  1271.999
 315  1881.826
 316  1604.631
 317  1695.571
 318  2104.546
 319  1879.624
 320  1725.104
 321  1720.123
 322  1796.308
 323  1495.715
 324  1480.31
 325  1925.967
 326  1718.34
 327  1625.326
 328  1767.276
 329  1777.095
 330  1136.22
 331  1212.622
 332  1616.654
 333  1581.439
 334  1831.531
 335  1578.445
 336  1862.151
 337  1592.846
 338  1337.649
 339  1706.74
 340  1272.707
 341  1208.976
 342  1740.557
 343  1734.784
 344  1610.776
 345  1283.663
 346  1254.692
 347  1576.389
 348  1226.462
 349  1280.36
 350  1708.408
 351  1950.042
 352  1889.609
 353  1930.902
 354  1477.977
 355  1340.788
 356  1204.567
 357  1309.578
 358  1410.738
 359  1432.953
 360  1883.453
 361  1768.582
 362  1144.57
 363  1294.782
 364  1504.961
 365  1845.152
 366  1777.791
 367  1451.036
 368  1647.855
 369  1709.188
 370  1766.334
 371  1372.35
 372  1473.973
 373  1857.977
 374  1848.187
 375  1718.528
 376  1649.654
 377  1930.114
 378  1666.428
 379  1206.542
 380  1188.307
 381  1027.444
 382  1337.128
 383  1365.717
 384  1697.18
 385  2120.719
 386  1760.361
 387  1530.904
 388  1457.498
 389  1422.062
 390  1604.035
 391  1732.846
 392  2092.79
 393  1742.745
 394  1833.039
 395  1704.618
 396  1426.392
 397  1304.824
 398  1668.015
 399  1668.664
 400  1416.603
 401  1753.028
 402  1938.984
 403  1838.492
 404  1514.622
 405  1405.688
 406  1460.829
 407  1279.554
 408  1296.691
 409  1599.43
 410  1579.367
 411  1485.777
 412  1330.171
 413  1544.955
 414  1483.707
 415  1640.657
 416  1528.583
 417  1639.807
 418  1905.018
 419  1281.554
 420  1348.019
 421  1759.447
 422  1294.839
 423  1500.646
 424  1296.56
 425  1705.839
 426  1778.105
 427  1814.331
 428  1751.205
 429  1345.971
 430  1669.465
 431  1837.119
 432  1601.968
 433  1697.017
 434  1908.453
 435  2060.093
 436  1843.313
 437  1496.407
 438  1643.332
 439  1968.741
 440  1854.604
 441  1558.759
 442  2015.535
 443  1934.853
 444  1401.93
 445  1366.994
 446  1513.144
 447  1794.856
 448  1311.225
 449  1593.493
 450  2079.733
 451  1962.787
 452  1788.625
 453  1182.958
 454  1304.517
 455  1312.142
 456  1324.529
 457  1855.508
 458  1897.766
 459  1843.055
 460  1701.034
 461  1268.224
 462  1386.785
 463  1468.605
 464  1750.169
 465  1363.923
 466  1530.098
 467  1660.806
 468  2033.486
 469  1700.711
 470  1372.281
 471  1616.736
 472  1817.501
 473  1272.162
 474  1219.229
 475  1450.769
 476  1553.832
 477  1594.222
 478  1575.902
 479  1619.475
 480  1223.98
 481  1150.904
 482  1331.501
 483  1481.384
 484  1912.61
 485  1672.8
 486  1499.208
 487  1532.021
 488  1171.367
 489  1082.749
 490  1345.019
 491  1859.82
 492  1451.134
 493  1415.092
 494  1176.335
 495  1348.622
 496  1336.283
 497  1341.738
 498  1906.955
 499  1900.709
 500  1575.587
 501  1624.406
 502  1807.869
 503  1547.39
 504  1467.44
 505  1642.454
 506  1382.162
 507  1518.593
 508  1787.504
 509  1419.078
 510  967.4092
 511  897.6699
