# Input file       =  1185075916.114914_cleaned.dat
# Candidate        =  PSR_0332+5434
# Telescope        =  AR
# Epoch_topo       =  57960.156656422616
# Epoch_bary       =  N/A
# T_sample         =  0.002
# Data Folded      =  7340032
# Data Avg         =  0.145194999651201
# Data StdDev      =  3.40219160272649 
# Profile Bins     =  512
# Profile Avg      =  2081.48174491596 
# Profile StdDev   =  407.354730929979 
# Reduced chi-sqr  =  1.676
# Prob(Noise)      <  7.24e-20   (~9.0 sigma)
# P_topo (ms)      =  714.472269151624  +/- 0.000382
# P'_topo (s/s)    =  -0                +/- 2.02e-10
# P''_topo (s/s^2) =  0                 +/- 8.9e-14
# P_bary (ms)      =  N/A
# P'_bary (s/s)    =  N/A
# P''_bary (s/s^2) =  N/A
# P_orb (s)        =  N/A
# asin(i)/c (s)    =  N/A
# eccentricity     =  N/A
# w (rad)          =  N/A
# T_peri           =  N/A
######################################################
   0  2178.612
   1  2002.296
   2  1801.069
   3  1944.37
   4  1996.506
   5  1876.042
   6  1715.773
   7  1533.457
   8  1989.71
   9  1989.302
  10  2202.557
  11  2403.526
  12  2445.598
  13  2571.623
  14  2596.859
  15  1757.374
  16  1932.132
  17  2280.828
  18  2372.663
  19  2315.756
  20  2179.859
  21  2284.04
  22  2270.828
  23  2220.869
  24  2038.646
  25  1872.799
  26  2191.501
  27  2174.025
  28  2168.201
  29  2461.33
  30  2295.676
  31  2195.969
  32  2138.243
  33  2185.632
  34  2173.497
  35  2425.484
  36  2590.074
  37  2276.221
  38  2171.272
  39  2035.151
  40  2325.118
  41  2398.867
  42  2621.704
  43  2400.03
  44  2354.399
  45  2444.591
  46  2305.958
  47  2295.562
  48  2164.147
  49  2083.153
  50  2441.165
  51  2740.467
  52  2352.251
  53  2050.442
  54  2101.712
  55  2052.695
  56  1946.898
  57  2119.682
  58  2139.711
  59  1978.273
  60  1847.755
  61  2265.1
  62  2016.009
  63  1869.675
  64  1866.016
  65  1928.008
  66  2010.894
  67  1859.988
  68  2114.019
  69  2292.899
  70  2166.113
  71  1998.616
  72  2109.839
  73  2203.297
  74  2206.664
  75  1861.145
  76  1942.523
  77  2174.397
  78  1914.257
  79  2224.832
  80  2114.627
  81  2022.984
  82  1951.707
  83  1843.076
  84  1900.279
  85  2163.59
  86  2290.309
  87  2272.05
  88  2204.32
  89  2143.86
  90  2024.308
  91  2017.811
  92  2018.42
  93  2243.221
  94  2338.231
  95  1979.824
  96  1976.915
  97  1900.297
  98  1834.394
  99  1695.644
 100  1677.085
 101  1913.018
 102  1884.431
 103  2133.253
 104  1857.332
 105  1986.423
 106  1930.055
 107  1748.525
 108  1962.317
 109  2034.125
 110  2142.857
 111  2043.439
 112  1648.921
 113  1814.14
 114  1948.006
 115  1923.722
 116  2066.636
 117  2010.941
 118  2122.263
 119  1887.939
 120  1818.83
 121  1945.259
 122  1835.298
 123  1915.702
 124  2058.39
 125  2024.234
 126  2100.359
 127  2242.468
 128  2167.531
 129  2372.56
 130  2415.184
 131  2380.432
 132  2250.165
 133  2357.174
 134  2364.88
 135  2205.621
 136  2236.807
 137  2065.618
 138  2015.058
 139  1769.489
 140  1744.389
 141  2221.274
 142  2303.753
 143  2309.894
 144  2261.752
 145  2190.245
 146  2481.866
 147  2075.967
 148  1831.929
 149  1923.482
 150  2093.196
 151  2622.187
 152  2677.281
 153  2273.698
 154  2089.057
 155  2291.477
 156  2224.497
 157  2286.017
 158  2285.635
 159  2007.447
 160  1939.55
 161  2159.808
 162  2069.092
 163  2080.819
 164  2131.343
 165  2094.938
 166  1784.869
 167  1765.31
 168  2035.664
 169  2089.759
 170  2212.988
 171  2361.798
 172  2189.055
 173  2323.73
 174  2184.332
 175  2327.069
 176  2303.756
 177  2393.754
 178  2213.5
 179  2130.429
 180  2282.424
 181  2306.498
 182  2376.134
 183  2239.082
 184  1963.159
 185  1860.752
 186  2163.685
 187  2497.429
 188  2355.798
 189  1896.326
 190  2242.399
 191  2492.16
 192  2811.191
 193  2655.677
 194  2236.683
 195  2557.064
 196  2645.12
 197  2698.761
 198  2596.082
 199  2447.818
 200  2431.706
 201  2331.72
 202  2565.668
 203  2601.234
 204  2381.672
 205  2338.479
 206  2303.096
 207  1781.797
 208  1947.732
 209  2181.126
 210  2295.592
 211  2539.205
 212  2176.845
 213  2008.581
 214  1876.4
 215  2127.608
 216  2047.884
 217  1996.868
 218  2037.939
 219  2001.243
 220  2049.992
 221  2272.664
 222  2053.82
 223  2239.057
 224  2401.731
 225  2418.666
 226  2426.665
 227  2164.08
 228  2073.618
 229  2071.943
 230  1909.82
 231  2127.633
 232  2096.993
 233  2180.612
 234  2409.83
 235  2140.357
 236  2358.668
 237  2411.465
 238  2174.981
 239  2389.55
 240  2369.825
 241  2149.792
 242  2339.408
 243  2578.044
 244  2549.657
 245  2602.5
 246  2675.204
 247  2799.982
 248  3055.154
 249  3187.567
 250  3182.919
 251  3244.68
 252  3929.407
 253  4535.691
 254  4505.19
 255  4345.562
 256  3635.894
 257  3050.518
 258  3062.203
 259  2897.227
 260  2859.778
 261  2655.826
 262  2666.622
 263  2574.695
 264  2636.926
 265  2730.262
 266  2688.164
 267  3014.816
 268  2805.698
 269  2499.305
 270  2458.802
 271  2408.371
 272  2417.848
 273  2383.438
 274  2151.271
 275  2003.861
 276  2068.72
 277  2225.155
 278  2546.015
 279  2653.719
 280  2213.692
 281  1941.226
 282  2021.556
 283  2292.367
 284  2012.964
 285  2087.143
 286  2150.351
 287  1923.828
 288  1807.893
 289  1725.368
 290  1775.849
 291  1941.569
 292  2077.304
 293  2196.373
 294  1909.558
 295  1850.624
 296  2058.511
 297  1872.319
 298  1993.676
 299  2400.397
 300  2314.97
 301  2282.845
 302  2250.657
 303  2214.746
 304  2048.764
 305  2035.802
 306  2036.566
 307  2088.283
 308  2402.484
 309  2399.781
 310  1933.225
 311  1789.054
 312  1965.157
 313  2118.036
 314  2032.112
 315  2011.401
 316  2259.8
 317  2101.083
 318  2230.671
 319  2362.639
 320  2151.012
 321  1997.276
 322  1935.031
 323  1904.555
 324  1772.139
 325  2142.766
 326  1902.661
 327  1874.004
 328  1600.611
 329  1803.536
 330  1609.086
 331  1523.677
 332  1523.758
 333  1439.216
 334  1465.364
 335  1373.416
 336  1536.546
 337  1502.619
 338  1281.357
 339  1241.331
 340  1401.602
 341  1696.049
 342  1862.555
 343  1734.467
 344  1519.684
 345  1545.822
 346  1580.969
 347  1304.515
 348  1570.351
 349  1793.252
 350  2040.194
 351  2051.872
 352  1608.568
 353  1770.779
 354  1993.126
 355  1768.463
 356  1598.133
 357  1861.079
 358  1814.48
 359  1665.112
 360  1719.786
 361  1968.453
 362  2064.198
 363  2048.72
 364  1940.283
 365  2012.465
 366  1961.464
 367  2015.649
 368  1937.752
 369  1873.903
 370  1815.818
 371  1894.115
 372  1971.58
 373  1936.446
 374  1688.853
 375  1654.451
 376  1940.141
 377  1789.982
 378  1862.537
 379  1729.272
 380  1719.146
 381  1770.999
 382  1493.252
 383  1614.795
 384  1561.76
 385  1602.806
 386  1680.39
 387  1810.092
 388  1652.522
 389  1821.573
 390  1960.759
 391  1540.577
 392  1690.791
 393  1909.978
 394  1942.41
 395  1897.15
 396  2002.524
 397  2067.695
 398  1516.569
 399  1726.677
 400  1869.817
 401  1732.172
 402  1439.485
 403  1540.884
 404  1933.777
 405  1965.889
 406  1690.215
 407  1804.62
 408  1832.178
 409  1745.699
 410  1730.016
 411  1627.908
 412  1759.413
 413  1908.271
 414  1669.341
 415  1574.141
 416  2084.625
 417  2110.988
 418  1839.682
 419  1905.945
 420  2196.33
 421  2096.595
 422  2355.321
 423  2416.38
 424  1950.234
 425  2449.869
 426  2277.158
 427  2410.955
 428  2245.429
 429  2091.892
 430  2004.036
 431  1915.554
 432  2027.467
 433  1971.975
 434  2120.238
 435  2108.051
 436  1868.623
 437  1851.255
 438  1722.982
 439  1732.378
 440  1459.598
 441  1648.529
 442  1559.503
 443  1375.761
 444  1542.49
 445  1535.606
 446  1530.591
 447  1742.798
 448  1749.105
 449  1678.531
 450  1662.344
 451  1592.315
 452  1693.444
 453  1671.816
 454  1626.73
 455  1294.313
 456  1293.568
 457  1576.232
 458  1675.66
 459  1842.26
 460  1975.127
 461  1972.864
 462  1877.155
 463  1934.809
 464  1934.726
 465  1937.159
 466  2013.646
 467  2154.396
 468  1911.408
 469  1869.616
 470  2074.351
 471  2064.578
 472  1758.848
 473  1739.931
 474  1805.834
 475  1941.87
 476  2045.85
 477  2108.362
 478  2066.431
 479  1936.349
 480  2290.655
 481  2275.377
 482  2324.019
 483  2463.411
 484  2183.331
 485  2091.689
 486  2175.379
 487  2105.192
 488  2053.823
 489  2017.151
 490  2079.013
 491  2228.952
 492  2144.834
 493  1947.134
 494  1775.469
 495  1974.615
 496  1735.903
 497  1777.017
 498  1830.717
 499  1948.706
 500  2004.107
 501  1873.007
 502  1877.327
 503  1699.843
 504  1759.635
 505  1677.556
 506  1503.794
 507  1488.301
 508  1702.13
 509  1939.361
 510  2060.174
 511  2101.042
