# Input file       =  1185679067.110193_cleaned.dat
# Candidate        =  PSR_0332+5434
# Telescope        =  AR
# Epoch_topo       =  57967.137570719824
# Epoch_bary       =  N/A
# T_sample         =  0.002
# Data Folded      =  7340032
# Data Avg         =  0.0083759859686335
# Data StdDev      =  1.00003642478395 
# Profile Bins     =  512
# Profile Avg      =  120.072667071951 
# Profile StdDev   =  119.737397626748 
# Reduced chi-sqr  =  1.735
# Prob(Noise)      <  1.35e-22   (~9.7 sigma)
# P_topo (ms)      =  714.469010619956  +/- 0.00016
# P'_topo (s/s)    =  -0                +/- 8.43e-11
# P''_topo (s/s^2) =  0                 +/- 3.72e-14
# P_bary (ms)      =  N/A
# P'_bary (s/s)    =  N/A
# P''_bary (s/s^2) =  N/A
# P_orb (s)        =  N/A
# asin(i)/c (s)    =  N/A
# eccentricity     =  N/A
# w (rad)          =  N/A
# T_peri           =  N/A
######################################################
   0  999.2668
   1  775.9076
   2  510.4498
   3  268.9973
   4  166.8002
   5  79.50533
   6  192.3023
   7  232.11
   8  159.9189
   9  146.7771
  10  140.9263
  11  76.8306
  12  -57.51785
  13  -13.79891
  14  213.9477
  15  184.4641
  16  114.2894
  17  41.74714
  18  110.9621
  19  195.4324
  20  162.2801
  21  226.3678
  22  137.0341
  23  124.313
  24  151.2072
  25  150.4296
  26  116.6871
  27  53.07104
  28  51.06515
  29  1.49542
  30  103.8721
  31  -81.70197
  32  9.418396
  33  -7.675295
  34  27.91262
  35  14.53998
  36  23.25733
  37  -47.55817
  38  79.23961
  39  112.8495
  40  235.1377
  41  200.9678
  42  153.4226
  43  178.9134
  44  99.7015
  45  155.3296
  46  195.4043
  47  219.6326
  48  109.4562
  49  137.9331
  50  218.1327
  51  175.5796
  52  39.74649
  53  -16.01273
  54  54.93423
  55  122.2033
  56  53.85558
  57  128.6949
  58  22.78541
  59  35.4748
  60  50.45189
  61  191.5043
  62  238.5764
  63  137.3845
  64  50.01184
  65  120.0151
  66  67.79836
  67  115.5793
  68  -0.781998
  69  -5.637096
  70  193.7338
  71  227.4422
  72  56.89003
  73  188.7388
  74  107.9999
  75  87.84115
  76  32.12215
  77  39.07747
  78  -39.64507
  79  142.7948
  80  224.2724
  81  118.463
  82  104.9542
  83  133.8552
  84  187.1664
  85  229.1969
  86  228.3952
  87  109.2501
  88  -13.62917
  89  67.27422
  90  97.0855
  91  118.6798
  92  1.370606
  93  15.45738
  94  -20.47568
  95  154.7806
  96  177.2516
  97  201.9455
  98  175.8443
  99  -3.754272
 100  -74.09045
 101  20.23575
 102  107.8527
 103  149.1804
 104  98.64816
 105  103.9306
 106  127.0618
 107  93.26445
 108  113.411
 109  123.8393
 110  245.6578
 111  112.8288
 112  59.52759
 113  248.3357
 114  171.5092
 115  214.1
 116  102.8737
 117  191.0379
 118  253.4312
 119  119.8631
 120  178.7757
 121  309.0572
 122  103.7104
 123  163.4562
 124  123.2569
 125  151.6053
 126  207.1096
 127  181.0449
 128  198.3451
 129  137.5141
 130  53.17096
 131  56.94359
 132  140.0467
 133  102.4035
 134  -34.93055
 135  60.15698
 136  59.7777
 137  134.689
 138  86.11923
 139  97.71549
 140  177.3992
 141  89.72373
 142  93.73982
 143  181.0335
 144  57.019
 145  120.0526
 146  185.2918
 147  70.40501
 148  47.15016
 149  193.9549
 150  201.3203
 151  172.4493
 152  63.37616
 153  167.5357
 154  298.0698
 155  269.6444
 156  63.06657
 157  149.7666
 158  91.90411
 159  145.3891
 160  80.34885
 161  141.6733
 162  253.8285
 163  76.57494
 164  30.54066
 165  162.8478
 166  94.48583
 167  106.5121
 168  155.7026
 169  22.60683
 170  90.48277
 171  215.5707
 172  177.663
 173  165.1094
 174  57.46862
 175  41.64122
 176  154.3624
 177  101.903
 178  78.0937
 179  227.4673
 180  93.40538
 181  117.6766
 182  172.8276
 183  175.0527
 184  168.7167
 185  87.40941
 186  179.2836
 187  302.6306
 188  229.0491
 189  168.2223
 190  89.34949
 191  56.23684
 192  154.1073
 193  130.3688
 194  120.7563
 195  204.7634
 196  187.7366
 197  166.7356
 198  120.7684
 199  148.8284
 200  165.4023
 201  211.997
 202  132.9912
 203  102.7434
 204  101.0232
 205  238.2915
 206  313.016
 207  327.1697
 208  387.6801
 209  254.2782
 210  102.4384
 211  217.3828
 212  245.6874
 213  134.1672
 214  149.104
 215  217.1846
 216  168.9039
 217  97.91737
 218  144.229
 219  202.8822
 220  220.1053
 221  97.9482
 222  27.30708
 223  80.35886
 224  168.6388
 225  149.8306
 226  147.9809
 227  248.4489
 228  342.3318
 229  201.1962
 230  35.88188
 231  -199.705
 232  -74.33749
 233  136.4172
 234  259.7869
 235  119.8506
 236  13.01458
 237  53.33254
 238  224.4828
 239  234.1882
 240  297.7756
 241  153.1192
 242  70.37844
 243  126.6583
 244  64.43675
 245  74.73988
 246  82.35713
 247  114.5176
 248  69.26689
 249  102.4421
 250  154.322
 251  75.98962
 252  55.67601
 253  135.5799
 254  179.3769
 255  94.33125
 256  113.6119
 257  224.259
 258  264.6602
 259  151.9345
 260  185.0854
 261  262.3357
 262  165.7493
 263  -41.39227
 264  -40.1447
 265  19.3226
 266  -16.45883
 267  -58.2452
 268  -16.1045
 269  -5.252025
 270  102.2479
 271  218.0197
 272  175.1966
 273  87.81017
 274  80.5864
 275  56.07392
 276  105.0464
 277  212.3712
 278  210.6727
 279  99.95403
 280  169.3054
 281  244.373
 282  275.5966
 283  94.06989
 284  169.7221
 285  173.5685
 286  209.9784
 287  132.3152
 288  19.35123
 289  74.1425
 290  135.8873
 291  43.49742
 292  -102.8429
 293  130.082
 294  163.0673
 295  -111.6157
 296  -87.03283
 297  -31.04048
 298  53.13684
 299  -47.06746
 300  65.19812
 301  156.66
 302  194.4284
 303  59.81716
 304  204.4679
 305  -11.33451
 306  -187.8438
 307  -160.0079
 308  -16.70412
 309  122.9898
 310  239.4337
 311  209.0294
 312  198.5439
 313  110.8199
 314  -64.59824
 315  -40.2136
 316  41.61852
 317  162.9258
 318  135.8764
 319  -102.1919
 320  -73.35128
 321  163.9997
 322  99.5313
 323  57.87508
 324  41.99664
 325  140.8089
 326  202.1714
 327  141.3394
 328  157.373
 329  119.6988
 330  189.4886
 331  197.6236
 332  180.8697
 333  248.0498
 334  124.7516
 335  55.2583
 336  100.1868
 337  152.5415
 338  63.77807
 339  69.44939
 340  136.9305
 341  63.49566
 342  120.8417
 343  169.249
 344  264.2516
 345  269.0511
 346  85.56557
 347  92.73766
 348  138.8302
 349  276.4348
 350  194.9488
 351  182.998
 352  137.5546
 353  147.1398
 354  103.6968
 355  74.24516
 356  77.58205
 357  49.95769
 358  100.0345
 359  183.7341
 360  150.6714
 361  375.1811
 362  273.3649
 363  132.7734
 364  -28.15793
 365  38.2476
 366  92.91479
 367  144.1828
 368  230.8628
 369  109.3587
 370  -71.22707
 371  75.05562
 372  199.3941
 373  192.7281
 374  305.7718
 375  277.804
 376  130.5126
 377  -15.64408
 378  98.07935
 379  24.69798
 380  -22.56623
 381  158.857
 382  123.2478
 383  -0.3698974
 384  126.0255
 385  66.97125
 386  12.39849
 387  11.40441
 388  34.41092
 389  64.71648
 390  129.5432
 391  32.8583
 392  2.022107
 393  159.6363
 394  114.9669
 395  -49.67062
 396  18.72041
 397  97.92406
 398  50.13856
 399  45.29194
 400  189.5415
 401  120.7629
 402  52.82737
 403  -32.34676
 404  -10.23046
 405  120.4196
 406  184.5061
 407  166.7814
 408  123.5486
 409  101.0489
 410  17.69782
 411  38.05207
 412  102.9592
 413  27.85809
 414  14.4841
 415  103.8903
 416  95.00439
 417  116.7289
 418  122.2802
 419  29.85222
 420  24.09499
 421  23.73145
 422  -25.71751
 423  170.0783
 424  173.28
 425  32.55582
 426  35.60142
 427  20.2719
 428  115.0351
 429  81.84863
 430  94.45554
 431  66.45249
 432  -116.5728
 433  8.737456
 434  121.0696
 435  238.0677
 436  203.5491
 437  104.8731
 438  105.3818
 439  47.21501
 440  117.099
 441  113.9207
 442  29.98122
 443  -29.39083
 444  76.2626
 445  66.47995
 446  68.24439
 447  160.382
 448  129.3066
 449  185.6323
 450  200.89
 451  178.2506
 452  36.83707
 453  22.09252
 454  -86.37904
 455  17.42142
 456  225.9868
 457  147.0717
 458  274.3148
 459  327.9894
 460  92.44094
 461  109.1315
 462  186.0697
 463  151.2281
 464  69.33099
 465  121.0984
 466  79.95509
 467  64.39382
 468  103.2199
 469  5.093889
 470  78.4865
 471  101.3702
 472  92.82259
 473  87.58418
 474  111.1154
 475  7.728087
 476  -95.33842
 477  -81.43238
 478  -41.4922
 479  -13.93705
 480  56.44333
 481  56.29288
 482  -1.086423
 483  73.71209
 484  33.01167
 485  80.50932
 486  171.2489
 487  102.5165
 488  43.48137
 489  126.8555
 490  91.99495
 491  -38.57659
 492  6.937692
 493  51.95798
 494  112.6602
 495  61.41307
 496  30.59709
 497  131.9632
 498  127.53
 499  48.73412
 500  43.6906
 501  51.30148
 502  111.7398
 503  153.0981
 504  137.1845
 505  393.9926
 506  385.3016
 507  287.0903
 508  440.4573
 509  582.532
 510  710.9764
 511  840.0581
