# Input file       =  1185177007.112782_cleaned.dat
# Candidate        =  PSR_0332+5434
# Telescope        =  AR
# Epoch_topo       =  57961.326691120164
# Epoch_bary       =  N/A
# T_sample         =  0.002
# Data Folded      =  7340032
# Data Avg         =  0.320454461853452
# Data StdDev      =  5.15210693280542 
# Profile Bins     =  1024
# Profile Avg      =  2296.78114375618 
# Profile StdDev   =  436.198197510877 
# Reduced chi-sqr  =  0.644
# Prob(Noise)      <  1   (~0.0 sigma)
# P_topo (ms)      =  714.472007311528  +/- 0.000494
# P'_topo (s/s)    =  -0                +/- 2.61e-10
# P''_topo (s/s^2) =  0                 +/- 1.15e-13
# P_bary (ms)      =  N/A
# P'_bary (s/s)    =  N/A
# P''_bary (s/s^2) =  N/A
# P_orb (s)        =  N/A
# asin(i)/c (s)    =  N/A
# eccentricity     =  N/A
# w (rad)          =  N/A
# T_peri           =  N/A
######################################################
   0  2162.449
   1  2061.919
   2  2024.812
   3  2025.567
   4  2005.438
   5  1987.833
   6  2068.085
   7  2183.051
   8  2222.893
   9  2205.126
  10  2265.799
  11  2293.588
  12  2279.669
  13  2269.037
  14  2367.084
  15  2472.308
  16  2343.208
  17  2213.422
  18  2140.833
  19  2052.633
  20  2122.084
  21  2199.176
  22  2279.749
  23  2231.122
  24  2127.019
  25  2099.003
  26  2218.846
  27  2275.079
  28  2341.469
  29  2142.375
  30  2117.918
  31  2145.721
  32  2170.285
  33  2253.512
  34  2148.366
  35  2142.44
  36  2124.545
  37  2138.246
  38  2180.969
  39  2233.988
  40  2224.157
  41  2227.733
  42  2180.499
  43  2156.143
  44  2002.49
  45  1967.37
  46  2026.89
  47  2107.247
  48  2285.304
  49  2396.509
  50  2453.68
  51  2288.992
  52  2230.037
  53  2277.785
  54  2359.895
  55  2443.347
  56  2165.103
  57  2173.877
  58  2197.942
  59  2242.53
  60  2261.118
  61  2298.068
  62  2407.034
  63  2419.946
  64  2386.305
  65  2244.923
  66  2331.596
  67  2330.499
  68  2319.005
  69  2266.303
  70  2369.361
  71  2506.062
  72  2417.846
  73  2334.697
  74  2309.966
  75  2359.74
  76  2427.232
  77  2419.802
  78  2515.887
  79  2586.5
  80  2521.989
  81  2447.237
  82  2277.532
  83  2191.195
  84  2114.13
  85  2190.122
  86  2244.988
  87  2237.803
  88  2124.147
  89  1923.348
  90  1878.477
  91  2012.921
  92  2207.877
  93  2327.744
  94  2313.58
  95  2382.602
  96  2408.691
  97  2259.993
  98  2232.711
  99  2166.591
 100  2342.892
 101  2262.562
 102  2216.499
 103  2191.698
 104  2282.262
 105  2300.743
 106  2206.803
 107  2180.99
 108  2172.919
 109  2180.972
 110  2213.594
 111  2347.234
 112  2401.498
 113  2323.09
 114  2281.47
 115  2276.238
 116  2327.04
 117  2351.989
 118  2341.42
 119  2363.128
 120  2424.779
 121  2483.142
 122  2637.142
 123  2548.193
 124  2587.981
 125  2590.639
 126  2616.75
 127  2680.52
 128  2660.645
 129  2613.738
 130  2543.718
 131  2616.972
 132  2587.069
 133  2502.265
 134  2478.141
 135  2514.383
 136  2475.292
 137  2470.765
 138  2497.038
 139  2496.942
 140  2403.612
 141  2385.851
 142  2405.755
 143  2429.875
 144  2442.817
 145  2253.67
 146  2170.933
 147  2135.361
 148  2257.378
 149  2409.838
 150  2397.4
 151  2297.872
 152  2088.183
 153  1971.367
 154  1922.94
 155  1902.634
 156  2056.481
 157  2218.502
 158  2298.245
 159  2287.846
 160  2234.886
 161  2234.466
 162  2186.122
 163  2196.253
 164  2161.394
 165  2088.926
 166  2051.979
 167  2105.22
 168  2176.004
 169  2208.635
 170  2272.177
 171  2365.938
 172  2373.487
 173  2340.455
 174  2331.485
 175  2427.971
 176  2428.167
 177  2387.283
 178  2384.662
 179  2492.547
 180  2548.913
 181  2565.054
 182  2553.59
 183  2524.187
 184  2467.528
 185  2401.808
 186  2543.007
 187  2551.968
 188  2630.091
 189  2570.371
 190  2606.811
 191  2546.646
 192  2651.543
 193  2632.874
 194  2612.849
 195  2498.375
 196  2542.653
 197  2555.395
 198  2633.034
 199  2733.933
 200  2681.045
 201  2544.064
 202  2539.71
 203  2474.162
 204  2403.086
 205  2115.876
 206  2124.639
 207  2309.619
 208  2576.44
 209  2645.493
 210  2638.105
 211  2645.843
 212  2784.335
 213  2870.217
 214  2784.851
 215  2591.38
 216  2566.28
 217  2574.558
 218  2575.705
 219  2464.385
 220  2427.24
 221  2398.92
 222  2321.633
 223  2354.548
 224  2323.488
 225  2313.53
 226  2311.791
 227  2489.389
 228  2678.936
 229  2759.063
 230  2711.42
 231  2652.446
 232  2575.027
 233  2593.67
 234  2682.918
 235  2657.307
 236  2534.608
 237  2443.15
 238  2520.889
 239  2528.134
 240  2442.228
 241  2299.276
 242  2347.965
 243  2499.996
 244  2586.725
 245  2652.118
 246  2653.02
 247  2651.444
 248  2611.529
 249  2577.823
 250  2565.662
 251  2560.932
 252  2637.025
 253  2647.027
 254  2490.881
 255  2368.555
 256  2501.835
 257  2574.68
 258  2624.671
 259  2649.226
 260  2675.331
 261  2647.408
 262  2578.918
 263  2469.385
 264  2511.854
 265  2515.14
 266  2552.592
 267  2679.874
 268  2702.992
 269  2642.59
 270  2465.873
 271  2409.308
 272  2526.605
 273  2620.581
 274  2671.463
 275  2517.987
 276  2342.878
 277  2325.784
 278  2431.273
 279  2451.074
 280  2406.927
 281  2425.465
 282  2415.611
 283  2330.007
 284  2283.827
 285  2382.36
 286  2394.034
 287  2265.124
 288  2186.192
 289  2102.123
 290  2165.774
 291  2172.266
 292  2220.156
 293  2170.24
 294  2192.678
 295  2172.114
 296  2137.214
 297  2044.278
 298  2033.553
 299  2115.719
 300  2145.012
 301  2167.611
 302  2102.441
 303  2082.259
 304  2163.1
 305  2190.606
 306  2079.311
 307  2021.252
 308  2069.871
 309  2209.613
 310  2320.887
 311  2292.369
 312  2338.644
 313  2309.782
 314  2253.848
 315  2111.001
 316  2181.013
 317  2225.368
 318  2158.101
 319  2053.927
 320  2138.136
 321  2363.369
 322  2293.584
 323  2336.58
 324  2448.376
 325  2493.264
 326  2340.554
 327  2326.816
 328  2471.812
 329  2578.577
 330  2463.081
 331  2477.397
 332  2539.963
 333  2595.505
 334  2577.469
 335  2570.16
 336  2548.591
 337  2491.269
 338  2508.132
 339  2533.162
 340  2617.852
 341  2440.604
 342  2325.777
 343  2333.467
 344  2434.323
 345  2420.918
 346  2344.44
 347  2146.874
 348  2228.847
 349  2273.064
 350  2560.054
 351  2556.135
 352  2547.048
 353  2463.114
 354  2393.53
 355  2345.298
 356  2318.596
 357  2321.615
 358  2331.872
 359  2341.357
 360  2551.04
 361  2689.583
 362  2628.582
 363  2417.503
 364  2389.368
 365  2347.756
 366  2411.213
 367  2419.491
 368  2349.645
 369  2189.909
 370  2179.773
 371  2323.321
 372  2380.373
 373  2284.831
 374  2268.622
 375  2276.293
 376  2274.701
 377  2269.25
 378  2248.556
 379  2269.769
 380  2230.952
 381  2235.207
 382  2339.375
 383  2383.932
 384  2352.899
 385  2376.581
 386  2452.265
 387  2609.067
 388  2559.219
 389  2458.484
 390  2411.468
 391  2422.161
 392  2286.334
 393  2331.153
 394  2224.143
 395  2240.167
 396  2275.602
 397  2386.089
 398  2467.503
 399  2374.025
 400  2409.987
 401  2438.777
 402  2444.935
 403  2465.054
 404  2407.339
 405  2367.118
 406  2198.038
 407  2243.755
 408  2306.478
 409  2349.221
 410  2299.282
 411  2192.698
 412  2165.025
 413  2210.55
 414  2363.944
 415  2432.965
 416  2374.775
 417  2340.416
 418  2416.309
 419  2429.282
 420  2296.667
 421  2182.749
 422  2268.731
 423  2314.804
 424  2274.452
 425  2147.148
 426  2135.287
 427  2153.517
 428  2201.424
 429  2277.087
 430  2352.49
 431  2245.382
 432  2184.965
 433  2080.085
 434  2125.118
 435  2045.754
 436  2100.224
 437  2159.772
 438  2247.615
 439  2282.688
 440  2270.593
 441  2374.453
 442  2374.768
 443  2241.365
 444  2188.111
 445  2066.742
 446  2019.458
 447  1985.91
 448  1992.851
 449  2132.002
 450  2191.03
 451  2261.841
 452  2206.459
 453  2171.079
 454  2024.835
 455  2051.59
 456  2043.285
 457  2127.053
 458  2168.252
 459  2138.539
 460  2131.124
 461  2158.653
 462  2248.077
 463  2215.626
 464  2303.825
 465  2293.799
 466  2426.994
 467  2301.357
 468  2263.423
 469  2196.488
 470  2348.048
 471  2460.8
 472  2380.177
 473  2208.194
 474  2177.298
 475  2221.953
 476  2263.332
 477  2214.284
 478  2130.694
 479  2115.232
 480  2202.554
 481  2185.211
 482  2248.266
 483  2221.865
 484  2187.135
 485  2092.809
 486  2092.539
 487  2098.826
 488  2094.035
 489  2060.125
 490  2151.666
 491  2127.67
 492  2023.664
 493  2018.085
 494  2062.171
 495  2173.016
 496  2031.853
 497  1969.752
 498  1969.471
 499  2125.78
 500  2152.654
 501  2221.443
 502  2144.953
 503  2195.224
 504  2147.792
 505  2166.939
 506  2069.615
 507  2162.525
 508  2123.353
 509  2091.709
 510  2097.101
 511  2147.534
 512  2240.46
 513  2302.212
 514  2314.779
 515  2284.738
 516  2136.453
 517  2153.163
 518  2249.304
 519  2216.279
 520  2241.337
 521  2185.335
 522  2225.611
 523  2275.999
 524  2373.688
 525  2367.697
 526  2339.709
 527  2413.966
 528  2642.121
 529  2663.388
 530  2577.263
 531  2483.938
 532  2484.583
 533  2442.844
 534  2357.568
 535  2374.308
 536  2425.037
 537  2410.523
 538  2408.508
 539  2487.484
 540  2523.884
 541  2565.89
 542  2664.719
 543  2707.329
 544  2610.873
 545  2498.978
 546  2535.719
 547  2558.265
 548  2482.558
 549  2482.522
 550  2553.142
 551  2506.49
 552  2414.457
 553  2219.704
 554  2295.559
 555  2322.444
 556  2398.34
 557  2309.722
 558  2194
 559  2109.147
 560  2141.508
 561  2139.978
 562  2151.894
 563  2040.106
 564  2061.02
 565  2057.431
 566  2135.322
 567  2120.072
 568  2167.364
 569  2195.627
 570  2134.845
 571  2139.645
 572  2140.453
 573  2111.117
 574  2092.212
 575  2116.962
 576  2254.256
 577  2179.855
 578  2285.899
 579  2275.237
 580  2296.985
 581  2260.318
 582  2360.74
 583  2309.965
 584  2215.736
 585  2216.59
 586  2347.677
 587  2415.36
 588  2519.927
 589  2634.072
 590  2551.243
 591  2380.294
 592  2325.145
 593  2308.684
 594  2344.299
 595  2410.967
 596  2484.463
 597  2497.589
 598  2247.917
 599  2125.274
 600  2126.103
 601  2251.778
 602  2277.822
 603  2283.105
 604  2282.807
 605  2295.515
 606  2294.14
 607  2378.211
 608  2351.568
 609  2246.393
 610  2172.403
 611  2201.065
 612  2146.962
 613  2116.761
 614  2239.589
 615  2306.244
 616  2291.249
 617  2228.604
 618  2283.311
 619  2349.62
 620  2298.429
 621  2357.455
 622  2491.252
 623  2323.664
 624  2138.548
 625  2131.607
 626  2246.955
 627  2274.5
 628  2109.845
 629  2102.18
 630  1991.615
 631  1905.756
 632  1834.941
 633  1885.382
 634  1890.873
 635  1886.492
 636  2000.812
 637  2268.931
 638  2370.354
 639  2396.083
 640  2352.6
 641  2364.36
 642  2342.761
 643  2439.546
 644  2525.829
 645  2721.063
 646  2812.286
 647  2875.171
 648  2871.578
 649  2877.459
 650  2962.035
 651  2865.332
 652  3042.935
 653  2943.086
 654  2958.782
 655  2811.382
 656  2766.696
 657  2634.684
 658  2469.586
 659  2435.763
 660  2464.301
 661  2367.461
 662  2202.656
 663  2027.751
 664  2035.996
 665  2141.435
 666  2357.118
 667  2495.208
 668  2518.491
 669  2350.511
 670  2205.097
 671  2169.744
 672  2212.434
 673  2293.449
 674  2371.482
 675  2393.907
 676  2456.296
 677  2388.039
 678  2460.246
 679  2464.793
 680  2513.015
 681  2531.096
 682  2585.772
 683  2493.82
 684  2337.912
 685  2159.698
 686  2279.131
 687  2212.925
 688  2155.981
 689  2104.484
 690  2270.906
 691  2299.423
 692  2413.301
 693  2499.48
 694  2678.238
 695  2611.95
 696  2723.497
 697  2844.542
 698  2706.489
 699  2412.765
 700  2209.817
 701  2268.817
 702  2246.738
 703  2188.566
 704  2083.167
 705  2102.907
 706  2091.532
 707  2141.411
 708  2245.505
 709  2367.629
 710  2415.926
 711  2473.796
 712  2360.65
 713  2239.302
 714  1971.306
 715  1941.349
 716  2081.798
 717  2071.53
 718  2046.907
 719  1941.911
 720  1956.346
 721  2086.111
 722  2093.344
 723  2136.28
 724  2141.114
 725  2129.68
 726  2204.04
 727  2225.865
 728  2176.318
 729  2055.657
 730  2074.306
 731  2194.371
 732  2223.902
 733  2176.681
 734  2224.826
 735  2378.806
 736  2338.079
 737  2344.888
 738  2344.233
 739  2395.821
 740  2285.659
 741  2195.254
 742  2254.218
 743  2243.151
 744  2256.26
 745  2285.254
 746  2309.886
 747  2324.195
 748  2420.933
 749  2425.694
 750  2432.387
 751  2442.295
 752  2420.271
 753  2400.781
 754  2249.448
 755  2259.47
 756  2337.722
 757  2352.968
 758  2319.852
 759  2289.201
 760  2238.32
 761  2217.906
 762  2235.015
 763  2348.431
 764  2471.59
 765  2435.076
 766  2288.866
 767  2244.896
 768  2151.598
 769  2175.588
 770  2148.809
 771  2126.538
 772  2067.166
 773  2057.162
 774  2167.798
 775  2110.123
 776  2188.733
 777  2286.051
 778  2438.089
 779  2295.505
 780  2298.009
 781  2323.989
 782  2373.78
 783  2351.475
 784  2334.74
 785  2332.022
 786  2344.802
 787  2218.328
 788  2200.851
 789  2119.042
 790  2193.505
 791  2241.031
 792  2202.714
 793  2053.723
 794  2008.579
 795  2092.976
 796  2182.136
 797  2162.643
 798  2145.768
 799  2144.366
 800  2065.44
 801  2013.152
 802  2054.669
 803  2124.696
 804  2152.481
 805  2072.589
 806  2004.942
 807  2023.051
 808  1986.968
 809  1987.224
 810  1973.902
 811  1929.779
 812  1906.015
 813  1933.712
 814  1948.578
 815  1940.361
 816  1870.632
 817  1836.096
 818  1911.851
 819  2043.685
 820  2270.368
 821  2251.377
 822  2129.314
 823  2026.217
 824  1881.462
 825  1769.182
 826  1709.431
 827  1923.432
 828  2131.716
 829  2299.902
 830  2202.455
 831  2060.945
 832  1913.257
 833  1890.005
 834  2015.557
 835  2041.746
 836  2039.462
 837  2055.758
 838  2013.456
 839  2047.522
 840  2121.489
 841  2164.874
 842  2183.711
 843  2104.557
 844  2150.74
 845  2196.958
 846  2211.34
 847  2376.88
 848  2445.649
 849  2484.473
 850  2301.595
 851  2295.963
 852  2271.781
 853  2414.397
 854  2279.507
 855  2177.198
 856  2072.313
 857  2027.426
 858  2100.268
 859  2189.309
 860  2297.75
 861  2345.395
 862  2216.111
 863  2053.421
 864  1921.079
 865  2007.375
 866  2092.159
 867  2092.095
 868  2077.09
 869  2162.561
 870  2205.741
 871  2159.62
 872  2064.211
 873  2055.479
 874  1979.798
 875  1912.377
 876  1920.273
 877  1854.846
 878  1812.352
 879  1918.513
 880  2088.995
 881  2149.117
 882  2188.394
 883  2314.987
 884  2254.076
 885  2265.734
 886  2219.91
 887  2054.335
 888  1942.05
 889  1986.097
 890  2231.763
 891  2252.461
 892  2236.005
 893  2259.854
 894  2252.018
 895  2217.106
 896  2190.97
 897  2243.594
 898  2226.774
 899  2178.815
 900  2109.56
 901  2045.989
 902  2060.007
 903  2065.815
 904  2251.553
 905  2273.515
 906  2238.167
 907  2137.601
 908  2079.9
 909  1962.597
 910  1955.737
 911  2024.315
 912  2156.656
 913  2170.741
 914  2163.193
 915  2124.701
 916  2113.48
 917  2053.954
 918  2086.944
 919  2119.143
 920  2225.562
 921  2106.463
 922  2153.714
 923  2166.668
 924  2201.791
 925  2257.599
 926  2333.792
 927  2323.443
 928  2382.294
 929  2415.803
 930  2486.524
 931  2456.64
 932  2408.585
 933  2330.537
 934  2247.928
 935  2184.909
 936  2341.167
 937  2383.602
 938  2493.39
 939  2555.432
 940  2521.433
 941  2435.99
 942  2255.362
 943  2325.522
 944  2318.534
 945  2248.07
 946  2216.683
 947  2348.969
 948  2421.992
 949  2326.373
 950  2278.033
 951  2255.1
 952  2328.088
 953  2414.262
 954  2498.336
 955  2606.44
 956  2607.952
 957  2567.282
 958  2403.167
 959  2307.123
 960  2337.214
 961  2246.181
 962  2247.478
 963  2167.585
 964  2258.056
 965  2318.954
 966  2316.326
 967  2358.738
 968  2426.894
 969  2504.067
 970  2453.205
 971  2378.009
 972  2260.061
 973  2194.782
 974  2207.508
 975  2230.197
 976  2249.736
 977  2264.431
 978  2311.884
 979  2331.106
 980  2504.224
 981  2537.804
 982  2487.014
 983  2384.53
 984  2433.368
 985  2453.861
 986  2379
 987  2339
 988  2283.572
 989  2346.635
 990  2418.928
 991  2495.175
 992  2458.986
 993  2437.737
 994  2572.344
 995  2658.752
 996  2653.566
 997  2547.97
 998  2371.818
 999  2148.776
1000  2054.696
1001  2079.661
1002  2206.358
1003  2278.962
1004  2376.134
1005  2417.289
1006  2401.621
1007  2273.084
1008  2255.888
1009  2145.224
1010  2160.282
1011  2190.134
1012  2232.737
1013  2235.839
1014  2164.642
1015  2278.862
1016  2380.37
1017  2410.841
1018  2361.941
1019  2306.177
1020  2189.608
1021  2185.217
1022  2229.865
1023  2269.195
