# Input file       =  1185578274.108979_cleaned.dat
# Candidate        =  PSR_0332+5434
# Telescope        =  AR
# Epoch_topo       =  57965.970985057626
# Epoch_bary       =  N/A
# T_sample         =  0.002
# Data Folded      =  7208960
# Data Avg         =  0.146777216357772
# Data StdDev      =  4.74019270899246 
# Profile Bins     =  1024
# Profile Avg      =  1033.35477986469 
# Profile StdDev   =  397.724484417835 
# Reduced chi-sqr  =  0.489
# Prob(Noise)      <  1   (~0.0 sigma)
# P_topo (ms)      =  714.469492963275  +/- 9.27e-05
# P'_topo (s/s)    =  -0                +/- 4.98e-11
# P''_topo (s/s^2) =  0                 +/- 2.24e-14
# P_bary (ms)      =  N/A
# P'_bary (s/s)    =  N/A
# P''_bary (s/s^2) =  N/A
# P_orb (s)        =  N/A
# asin(i)/c (s)    =  N/A
# eccentricity     =  N/A
# w (rad)          =  N/A
# T_peri           =  N/A
######################################################
   0  1026.048
   1  1068.213
   2  842.1336
   3  755.238
   4  845.5392
   5  866.4448
   6  926.5779
   7  1068.132
   8  1146.766
   9  977.9234
  10  923.5104
  11  1108.742
  12  1248.831
  13  1128.062
  14  1121.911
  15  1055.165
  16  958.1188
  17  817.0997
  18  860.7782
  19  908.8463
  20  1107.491
  21  1144.74
  22  1302.021
  23  1133.016
  24  1224.995
  25  1198.087
  26  1190.557
  27  1210.418
  28  1030.984
  29  1040.399
  30  954.1248
  31  1032.307
  32  965.5684
  33  929.9167
  34  999.8365
  35  993.8925
  36  1029.719
  37  1087.927
  38  1212.124
  39  1136.901
  40  1110.179
  41  1138.149
  42  1218.441
  43  1090.457
  44  1054.043
  45  1140.839
  46  982.4543
  47  955.004
  48  766.1985
  49  785.8786
  50  610.6783
  51  750.7922
  52  954.956
  53  1042.954
  54  1246.672
  55  1327.786
  56  1316.462
  57  1107.496
  58  1166.868
  59  1165.897
  60  1103.881
  61  1038.003
  62  1141.151
  63  1199.885
  64  1150.068
  65  1114.727
  66  1032.24
  67  934.014
  68  1018.238
  69  1118.185
  70  1191.516
  71  1095.241
  72  1117.759
  73  972.7943
  74  909.7719
  75  972.6506
  76  1043.724
  77  914.058
  78  792.962
  79  919.5574
  80  1075.572
  81  1096.06
  82  1167.034
  83  1114.665
  84  993.3251
  85  855.2447
  86  935.8882
  87  1023.49
  88  1010.934
  89  1186.566
  90  1241.969
  91  1244.954
  92  1182.274
  93  1097.571
  94  1067.918
  95  967.114
  96  959.4395
  97  869.7604
  98  769.0742
  99  771.2571
 100  778.9782
 101  917.9213
 102  993.7275
 103  1209.565
 104  1134.165
 105  1147.188
 106  1194.483
 107  1309.414
 108  1143.409
 109  1084.719
 110  1118.858
 111  1155.18
 112  1040.923
 113  981.4401
 114  929.8216
 115  784.1643
 116  849.1794
 117  892.1019
 118  900.7228
 119  893.1739
 120  1103.222
 121  1089.319
 122  1076.599
 123  1103.459
 124  1299.308
 125  1250.364
 126  1289.331
 127  1234.513
 128  1211.796
 129  1046.671
 130  1004.681
 131  921.3083
 132  843.3335
 133  822.4855
 134  758.5083
 135  747.7047
 136  757.0381
 137  928.8829
 138  1031.078
 139  1020.44
 140  917.2079
 141  968.5007
 142  1088.605
 143  1154.714
 144  1187.756
 145  1012.53
 146  790.9574
 147  806.5109
 148  1031.423
 149  1175.11
 150  1180.319
 151  1150.152
 152  1056.274
 153  1076.875
 154  1023.539
 155  1032.717
 156  960.4749
 157  1038.923
 158  1030.111
 159  1027.954
 160  866.7716
 161  945.7574
 162  907.9913
 163  1006.314
 164  927.3689
 165  1004.135
 166  972.0795
 167  900.8098
 168  926.3118
 169  887.2399
 170  987.5873
 171  1074.116
 172  1143.729
 173  1133.308
 174  1102.805
 175  1263.685
 176  1206.181
 177  1056.212
 178  1009.478
 179  998.6376
 180  1000.239
 181  966.1303
 182  886.6237
 183  760.483
 184  725.8344
 185  824.0498
 186  1034.802
 187  879.1218
 188  984.5436
 189  1012.779
 190  1162.706
 191  1086.484
 192  1071.115
 193  1099.08
 194  1017.747
 195  999.9532
 196  969.5118
 197  850.1096
 198  853.6373
 199  809.4902
 200  936.3959
 201  935.1443
 202  1000.697
 203  977.5482
 204  1029.753
 205  1168.835
 206  1244.088
 207  1199.7
 208  1244.195
 209  1255.386
 210  1108.793
 211  930.9526
 212  890.7758
 213  920.6694
 214  767.5743
 215  886.94
 216  978.7325
 217  1001.474
 218  1026.76
 219  1122.093
 220  1191.265
 221  980.4128
 222  1020.338
 223  958.1323
 224  922.5156
 225  891.6996
 226  1078.527
 227  1132.829
 228  1079.828
 229  1040.46
 230  1154.594
 231  1074.052
 232  915.5729
 233  829.4536
 234  852.0305
 235  1020.895
 236  1192.678
 237  1205.13
 238  1065.932
 239  916.1694
 240  1035.143
 241  956.3881
 242  1012.74
 243  993.9462
 244  1103.747
 245  910.2695
 246  906.3259
 247  882.16
 248  904.7018
 249  990.8135
 250  1110.019
 251  1048.634
 252  861.2525
 253  909.6324
 254  1075.858
 255  1110.583
 256  1136.658
 257  1197.595
 258  1152.435
 259  1105.769
 260  1083.778
 261  1118.477
 262  1083.702
 263  1114.144
 264  1137.875
 265  872.0557
 266  748.6704
 267  806.0543
 268  863.4835
 269  893.9819
 270  873.1198
 271  1145.98
 272  1008.605
 273  961.5559
 274  871.7834
 275  999.6679
 276  1121.663
 277  1155.751
 278  1271.037
 279  1194.271
 280  1101.726
 281  1029.963
 282  890.0264
 283  799.6206
 284  888.1115
 285  901.2062
 286  811.9645
 287  773.4773
 288  958.9062
 289  1045.359
 290  1050.918
 291  1070.727
 292  1094.883
 293  993.4534
 294  1063.638
 295  1127.811
 296  1163.193
 297  1133.104
 298  1128.092
 299  1187.193
 300  1035.212
 301  1053.44
 302  1048.943
 303  936.8739
 304  865.5772
 305  908.3354
 306  912.1821
 307  902.2726
 308  866.2899
 309  989.9245
 310  868.4919
 311  1011.352
 312  1082.927
 313  1119.127
 314  1023.304
 315  1029.031
 316  1074.597
 317  1090.428
 318  1229.456
 319  1258.792
 320  1266.83
 321  1188.812
 322  1150.774
 323  1153.081
 324  1100.555
 325  1072.644
 326  937.1398
 327  820.7548
 328  707.7539
 329  723.9183
 330  637.5616
 331  765.3818
 332  854.3655
 333  977.187
 334  1085.581
 335  1151.51
 336  1281.927
 337  974.7831
 338  875.0696
 339  932.9758
 340  902.2875
 341  935.6874
 342  984.7863
 343  1174.972
 344  1042.568
 345  918.9632
 346  787.7451
 347  701.0157
 348  792.4978
 349  957.4094
 350  929.9506
 351  806.4697
 352  966.645
 353  1214.336
 354  1195.635
 355  1010.419
 356  1215.241
 357  1303.105
 358  1221.371
 359  1115.907
 360  1166.145
 361  1082.293
 362  879.0273
 363  1004.543
 364  1118.911
 365  947.0901
 366  741.7446
 367  873.6053
 368  1016.208
 369  1097.258
 370  1105.639
 371  1081.734
 372  951.3871
 373  926.1943
 374  990.0329
 375  1036.936
 376  904.2712
 377  878.6642
 378  869.1465
 379  869.4099
 380  865.0626
 381  846.4096
 382  850.959
 383  1012.028
 384  1055.018
 385  1129.224
 386  1111.776
 387  1237.484
 388  1137.858
 389  1040.167
 390  1283.654
 391  1310.834
 392  1183.28
 393  811.1097
 394  874.4921
 395  926.2379
 396  1048.441
 397  1084.952
 398  1034.982
 399  814.8408
 400  729.4774
 401  966.237
 402  964.2685
 403  955.7684
 404  925.9282
 405  1109.529
 406  1096.118
 407  1148.834
 408  1160.528
 409  1052.429
 410  1016.279
 411  1027.617
 412  1195.386
 413  1022.329
 414  1038.452
 415  991.7371
 416  937.8827
 417  934.9305
 418  1011.325
 419  1040.784
 420  979.8398
 421  1178.362
 422  1265.304
 423  1315.535
 424  1285.455
 425  1314.177
 426  1228.72
 427  1132.847
 428  1209.043
 429  1355.824
 430  1238.878
 431  1011.979
 432  1001.991
 433  976.204
 434  1033.7
 435  1100.207
 436  1138.608
 437  1182.54
 438  1140.134
 439  1278.578
 440  1152.32
 441  1081.079
 442  1178.122
 443  1228.543
 444  1190.482
 445  1029.224
 446  973.347
 447  1004.144
 448  1038.827
 449  1223.204
 450  1253.232
 451  1199.588
 452  1264.696
 453  1169.89
 454  1075.213
 455  1001.09
 456  1109.474
 457  1176.72
 458  1133.028
 459  1171.328
 460  1196.713
 461  1115.544
 462  1101.029
 463  1074.7
 464  1072.562
 465  1129.336
 466  1172.786
 467  1187.697
 468  1057.785
 469  1117.687
 470  1183.293
 471  1041.355
 472  1060.218
 473  1092.68
 474  1135.828
 475  1004.2
 476  908.607
 477  965.6333
 478  864.736
 479  1103.071
 480  1200.154
 481  1130.172
 482  1005.851
 483  1061.617
 484  1178.823
 485  1108.402
 486  1247.839
 487  1296.103
 488  1274.61
 489  1211.346
 490  1097.891
 491  1060.63
 492  910.0589
 493  1044.823
 494  1133.063
 495  973.4927
 496  881.2511
 497  846.836
 498  945.394
 499  837.2981
 500  940.183
 501  1111.039
 502  1212.723
 503  1144.254
 504  1161.746
 505  1095.041
 506  1024.744
 507  1066.305
 508  1056.424
 509  1048.891
 510  936.1601
 511  1026.203
 512  1070.405
 513  1145.352
 514  1088.318
 515  1031.927
 516  1072.659
 517  1219.3
 518  1125.476
 519  1072.785
 520  1027.006
 521  1059.444
 522  910.2976
 523  851.4414
 524  998.1177
 525  906.5784
 526  663.4451
 527  758.2634
 528  921.9581
 529  863.4107
 530  795.126
 531  955.6514
 532  944.7045
 533  936.5219
 534  977.9901
 535  1183.69
 536  914.0484
 537  707.2142
 538  794.9061
 539  975.9278
 540  1086.233
 541  1019.218
 542  1153.912
 543  1105.552
 544  1095.637
 545  973.1273
 546  816.9502
 547  712.317
 548  859.9312
 549  930.9237
 550  960.2969
 551  944.7254
 552  1033.036
 553  1046.598
 554  1046.365
 555  1077.439
 556  1146.831
 557  1054.112
 558  1132.656
 559  1188.709
 560  1195.501
 561  1112.729
 562  1065.77
 563  1034.63
 564  851.3315
 565  828.2304
 566  861.7421
 567  982.0398
 568  981.0368
 569  991.0974
 570  927.9325
 571  999.3483
 572  1110.385
 573  1156.867
 574  1130.542
 575  1126.232
 576  1186.504
 577  1075.934
 578  1011.801
 579  960.5038
 580  895.3655
 581  901.3354
 582  931.7637
 583  1045.859
 584  1005.881
 585  1165.979
 586  1198.003
 587  1164.211
 588  1045.802
 589  1074.947
 590  1036.469
 591  1023.541
 592  1053.287
 593  1188.941
 594  1104.988
 595  965.6339
 596  1069.214
 597  1015.611
 598  1091.709
 599  1069.724
 600  1182.646
 601  1024.383
 602  997.8834
 603  1112.855
 604  1210.62
 605  1168.887
 606  1202.634
 607  1260.117
 608  1137.196
 609  1026.855
 610  976.0515
 611  1023.176
 612  1014.849
 613  1075.457
 614  1114.543
 615  1081.613
 616  1166.896
 617  1167.037
 618  1243.662
 619  1178.217
 620  1307.839
 621  1217.248
 622  1093.304
 623  995.0112
 624  959.4424
 625  964.8273
 626  1035.911
 627  1099.029
 628  1037.391
 629  829.4944
 630  840.6842
 631  845.8576
 632  976.2971
 633  966.106
 634  1068.826
 635  1127.37
 636  1121.504
 637  1149.2
 638  1048.477
 639  1143.589
 640  1187.582
 641  1307.991
 642  1241.545
 643  1290.021
 644  1336.182
 645  1395.762
 646  1507.059
 647  1669.092
 648  1773.601
 649  1744.899
 650  1897.369
 651  1941.702
 652  1795.398
 653  1585.142
 654  1545.35
 655  1407.476
 656  1151.866
 657  1096.545
 658  1132.98
 659  1224.104
 660  1132.115
 661  1182.082
 662  1099.051
 663  981.7071
 664  1042.171
 665  1099.846
 666  1048.086
 667  908.4404
 668  1014.264
 669  992.3068
 670  859.5923
 671  798.2552
 672  928.0535
 673  854.186
 674  885.1499
 675  934.5095
 676  1149.148
 677  1090.662
 678  1167.453
 679  1231.619
 680  1095.794
 681  1071.16
 682  988.2951
 683  1174.978
 684  1197.714
 685  1312.471
 686  1236.121
 687  1220.418
 688  1098.311
 689  945.3658
 690  826.5887
 691  801.9214
 692  903.0201
 693  763.4868
 694  733.3956
 695  738.2053
 696  781.3376
 697  880.5674
 698  819.9702
 699  813.4578
 700  698.6161
 701  877.8715
 702  1125.062
 703  1055.115
 704  855.7996
 705  860.2181
 706  1064.145
 707  1156.23
 708  1152.187
 709  1187.374
 710  1050.108
 711  1006.428
 712  1002.321
 713  979.1342
 714  750.1063
 715  748.5083
 716  980.6758
 717  918.6053
 718  720.1216
 719  671.8306
 720  894.3764
 721  928.8043
 722  1167.373
 723  1247
 724  1335.051
 725  1006.177
 726  1032.962
 727  1075.419
 728  1067.394
 729  998.5487
 730  900.8607
 731  993.6345
 732  999.0663
 733  1073.916
 734  1043.304
 735  1078.784
 736  1061.816
 737  1055.561
 738  966.801
 739  1020.242
 740  928.4608
 741  892.144
 742  784.5005
 743  978.3931
 744  925.1881
 745  910.8079
 746  935.3719
 747  1071.031
 748  1002.43
 749  942.6119
 750  1107.445
 751  1191.494
 752  1154.502
 753  948.6995
 754  809.1915
 755  817.473
 756  742.6472
 757  913.5192
 758  801.8828
 759  884.9863
 760  767.2989
 761  865.5244
 762  809.2708
 763  810.0206
 764  988.0302
 765  1079.97
 766  1207.364
 767  1277.749
 768  1217.541
 769  1083.42
 770  1030.032
 771  1097.684
 772  1019.983
 773  944.4413
 774  1002.223
 775  993.1247
 776  764.4422
 777  721.1747
 778  754.821
 779  818.281
 780  955.6343
 781  1001.962
 782  1045.101
 783  1055.859
 784  1229.354
 785  1355.086
 786  1124.621
 787  1133.019
 788  1077.224
 789  1206.594
 790  1050.754
 791  1058.816
 792  1197.99
 793  1143.107
 794  1014.788
 795  870.024
 796  878.0186
 797  925.8983
 798  951.9561
 799  945.1405
 800  945.8014
 801  868.5777
 802  1013.238
 803  929.0708
 804  958.2519
 805  969.9711
 806  1082.209
 807  1086.949
 808  1107.769
 809  1025.737
 810  886.0841
 811  822.7858
 812  1004.401
 813  1031.794
 814  1057.887
 815  1158.045
 816  1302.105
 817  1245.421
 818  1268.171
 819  1112.051
 820  1004.757
 821  719.2476
 822  817.2908
 823  818.631
 824  874.2324
 825  982.1014
 826  1135.164
 827  1137.448
 828  932.9476
 829  958.5543
 830  1012.365
 831  1016.273
 832  1208.527
 833  1297.065
 834  1162.02
 835  1091.793
 836  1059.803
 837  987.9567
 838  798.0187
 839  847.7111
 840  1004.392
 841  857.0286
 842  932.4421
 843  990.6344
 844  1014.418
 845  1017.568
 846  956.863
 847  1038.381
 848  925.4101
 849  1194.256
 850  1329.185
 851  1233.352
 852  1028.255
 853  1041.055
 854  1125.782
 855  995.1945
 856  914.2182
 857  1128.373
 858  1038.512
 859  906.7023
 860  830.5718
 861  902.897
 862  874.3052
 863  903.5509
 864  898.9865
 865  966.7006
 866  851.4432
 867  1044.64
 868  974.0389
 869  952.1473
 870  940.7363
 871  1137.469
 872  1322.212
 873  1242.323
 874  1093.159
 875  894.5621
 876  998.3608
 877  1090.263
 878  1094.094
 879  1036.958
 880  1067.039
 881  908.1335
 882  825.9652
 883  814.8399
 884  882.279
 885  865.0359
 886  783.8941
 887  979.2316
 888  1064.011
 889  1025.843
 890  1035.479
 891  1015.084
 892  979.9943
 893  938.5383
 894  1024.538
 895  958.8055
 896  856.6383
 897  738.5017
 898  934.3666
 899  886.6993
 900  942.2195
 901  1100.943
 902  1059.416
 903  1072.835
 904  994.7723
 905  1038.252
 906  837.7463
 907  809.0506
 908  861.3573
 909  816.0219
 910  740.0083
 911  848.744
 912  1025.56
 913  1171.934
 914  1297.178
 915  1391.846
 916  1360.38
 917  1197.402
 918  1156.222
 919  1017.137
 920  1006.927
 921  990.2307
 922  960.1929
 923  920.8574
 924  910.5512
 925  997.2205
 926  946.0503
 927  909.5971
 928  1007.356
 929  1006.083
 930  1040.669
 931  980.5336
 932  1173.75
 933  1144.007
 934  983.6115
 935  910.5803
 936  980.9499
 937  1073.966
 938  1071.884
 939  1034.995
 940  1016.158
 941  1037.086
 942  997.4789
 943  979.4446
 944  873.6479
 945  1043.74
 946  1058.195
 947  1023.204
 948  919.8894
 949  1006.245
 950  1118.169
 951  1100.993
 952  1042.195
 953  1012.994
 954  973.2684
 955  1082.039
 956  1091.368
 957  1098.407
 958  1043.604
 959  1077.341
 960  1047.471
 961  958.106
 962  931.9254
 963  1017.03
 964  1068.084
 965  1253.648
 966  1314.029
 967  1192.41
 968  1065.275
 969  952.6342
 970  890.4552
 971  675.5326
 972  725.643
 973  786.371
 974  880.3148
 975  831.6694
 976  1022.141
 977  1056.172
 978  1073.282
 979  1213.646
 980  1355.813
 981  1362.189
 982  1223.156
 983  1315.844
 984  1360.646
 985  1291.045
 986  1183.894
 987  1062.261
 988  1036.747
 989  981.9226
 990  938.2684
 991  798.8923
 992  778.6531
 993  904.7673
 994  932.2602
 995  966.0474
 996  926.6887
 997  974.3652
 998  939.1095
 999  979.4439
1000  1217.14
1001  1163.706
1002  1117.73
1003  998.7151
1004  1142.955
1005  1068.214
1006  999.6819
1007  931.6938
1008  855.0363
1009  867.0994
1010  950.9794
1011  925.7774
1012  800.0255
1013  912.6993
1014  1046.055
1015  1182.998
1016  1106.957
1017  1277.215
1018  1326.905
1019  1306.009
1020  1229.712
1021  1174.486
1022  1045.04
1023  984.2257
