# Input file       =  1185750573.115542_cleaned.dat
# Candidate        =  PSR_0332+5434
# Telescope        =  AR
# Epoch_topo       =  57967.965186522473
# Epoch_bary       =  N/A
# T_sample         =  0.002
# Data Folded      =  7208960
# Data Avg         =  0.309095695365052
# Data StdDev      =  5.04839556183323 
# Profile Bins     =  512
# Profile Avg      =  4352.09582444214 
# Profile StdDev   =  599.038456446848 
# Reduced chi-sqr  =  0.416
# Prob(Noise)      <  1   (~0.0 sigma)
# P_topo (ms)      =  714.468660445087  +/- 9.7e-05
# P'_topo (s/s)    =  -0                +/- 5.21e-11
# P''_topo (s/s^2) =  0                 +/- 2.34e-14
# P_bary (ms)      =  N/A
# P'_bary (s/s)    =  N/A
# P''_bary (s/s^2) =  N/A
# P_orb (s)        =  N/A
# asin(i)/c (s)    =  N/A
# eccentricity     =  N/A
# w (rad)          =  N/A
# T_peri           =  N/A
######################################################
   0  4141.893
   1  4351.32
   2  4174.518
   3  4059.205
   4  4138.173
   5  4061.993
   6  4075.742
   7  4199.201
   8  4607.791
   9  4632.453
  10  4671.956
  11  4654.775
  12  4594.683
  13  4510.786
  14  4511.461
  15  4842.316
  16  4619.779
  17  4394.755
  18  4488.015
  19  4471
  20  4247.232
  21  4028.126
  22  4209.494
  23  4618.849
  24  4277.372
  25  4229.39
  26  4372.407
  27  4824.159
  28  4815.695
  29  4434.922
  30  4300.209
  31  3951.356
  32  3903.649
  33  4114.801
  34  4495.295
  35  4491.169
  36  4550.716
  37  4418.953
  38  4318.34
  39  4076.039
  40  4096.201
  41  4408.091
  42  4498.931
  43  4373.64
  44  4581.787
  45  4385.185
  46  4204.712
  47  4205.133
  48  4074.809
  49  4046.022
  50  3973.07
  51  4130.839
  52  4169.821
  53  4325.403
  54  4916.164
  55  4621.128
  56  4388.367
  57  4393.835
  58  4226.777
  59  4296.065
  60  4527
  61  4843.477
  62  4626.447
  63  4991.993
  64  4472.4
  65  4237.091
  66  4426.425
  67  4227.339
  68  4244.701
  69  4196.068
  70  4307.088
  71  4251.083
  72  4374.041
  73  4257.414
  74  4195.749
  75  4321.107
  76  4488.512
  77  4375.372
  78  4500.875
  79  4658.027
  80  4482.463
  81  4599.283
  82  4558.14
  83  3943.425
  84  3980.183
  85  4449.032
  86  4363.27
  87  4199.495
  88  4205.259
  89  4122.107
  90  3809.076
  91  4090.251
  92  4172.78
  93  4126.1
  94  4316.486
  95  4713.979
  96  4460.299
  97  4005.44
  98  3910.616
  99  3655.484
 100  4223.624
 101  4312.949
 102  4592.333
 103  4835.07
 104  4296.267
 105  4014.326
 106  4004.45
 107  4193.727
 108  3969.604
 109  4412.162
 110  4403.44
 111  4375.508
 112  4111.955
 113  3727.635
 114  4241.287
 115  4183.95
 116  4173.84
 117  4418.329
 118  4831.844
 119  4370.465
 120  4234.043
 121  4277.412
 122  3942.537
 123  3987.486
 124  4015.627
 125  4382.63
 126  4085.283
 127  4453.135
 128  4681.025
 129  4321.271
 130  4183.422
 131  4156.961
 132  4244.343
 133  4129.456
 134  4221.68
 135  4360.187
 136  4136.059
 137  4518.1
 138  4291.692
 139  4661.032
 140  3979.327
 141  4038.877
 142  4125.094
 143  4169.979
 144  4632.914
 145  4567.054
 146  4518.592
 147  4565.341
 148  4219.055
 149  4288.34
 150  4091.183
 151  4525.219
 152  4489.536
 153  4499.827
 154  4376.566
 155  4325.656
 156  4156.889
 157  4331.269
 158  4740.29
 159  4853.975
 160  4664.658
 161  4700.932
 162  4717.052
 163  4520.342
 164  4162.59
 165  4214.746
 166  4006.807
 167  4060.512
 168  4428.421
 169  4663.537
 170  4562.531
 171  4052.188
 172  4162.08
 173  4235.561
 174  4082.781
 175  4105.646
 176  4545.102
 177  4190.354
 178  4530.239
 179  4372.555
 180  3982.129
 181  4393.897
 182  4289.901
 183  4252.838
 184  4555.848
 185  4439.68
 186  4038.165
 187  4031.39
 188  4009.484
 189  3837.841
 190  4605.287
 191  4130.803
 192  4435.011
 193  4611.886
 194  4646.511
 195  4424.882
 196  4486.245
 197  4399.452
 198  4238.248
 199  4725.018
 200  4806.13
 201  4567.922
 202  4643.165
 203  4663.878
 204  4096.785
 205  4008.714
 206  4312.738
 207  4226.025
 208  4350.002
 209  4431.294
 210  4359.316
 211  4464.295
 212  4008.254
 213  3808.354
 214  4322.948
 215  4170.531
 216  4520.347
 217  4310.368
 218  4428.182
 219  4057.05
 220  4369.668
 221  4543.7
 222  4363.481
 223  4378.795
 224  3895.371
 225  4162.218
 226  4255.574
 227  4432.938
 228  4331.182
 229  4522.675
 230  4143.984
 231  4165.741
 232  4352.029
 233  4109.685
 234  4104.015
 235  4547.394
 236  4616.977
 237  3838.863
 238  3939.531
 239  4231.513
 240  4257.631
 241  4411.739
 242  4442.154
 243  4625.81
 244  4422.01
 245  4216.411
 246  4205.633
 247  4326.301
 248  4096.088
 249  3803.981
 250  4359.922
 251  4241.866
 252  4143.005
 253  4455.771
 254  4401.96
 255  4316.446
 256  4450.577
 257  4652.648
 258  4913.269
 259  4693.68
 260  4803.012
 261  4942.49
 262  4832.905
 263  4179.146
 264  3905.596
 265  4008.111
 266  3935.899
 267  4149.036
 268  4540.461
 269  4821.97
 270  4377.574
 271  4409.722
 272  4643.864
 273  4609.238
 274  4532.03
 275  4543.694
 276  4485.248
 277  4414.45
 278  4364.94
 279  4140.288
 280  4547.004
 281  4091.448
 282  4212.968
 283  4773.648
 284  4344.95
 285  4514.771
 286  4420.995
 287  4434.49
 288  4351.174
 289  4609.83
 290  4656.449
 291  4259.412
 292  4433.652
 293  4236.04
 294  4271.513
 295  4346.543
 296  4284.919
 297  4137.959
 298  3985.185
 299  3960.067
 300  3931.74
 301  3979.06
 302  3871.824
 303  4513.109
 304  4297.391
 305  4678.746
 306  4763.776
 307  4341.745
 308  3839.766
 309  4191.049
 310  4335.22
 311  4064.291
 312  4549.412
 313  4538.323
 314  4426.589
 315  4669.579
 316  4721.724
 317  4564.541
 318  4463.256
 319  4585.837
 320  4586.632
 321  4781.685
 322  5437.554
 323  5524.862
 324  5759.741
 325  5831.288
 326  5418.526
 327  5113.831
 328  4738.804
 329  4716.731
 330  4397.865
 331  4363.978
 332  4467.23
 333  4338.757
 334  4551.552
 335  4564.832
 336  4273.276
 337  3908.347
 338  4016.452
 339  4397.494
 340  4223.887
 341  5018.62
 342  4745.83
 343  4506.09
 344  4497.286
 345  4397.115
 346  4278.776
 347  4414.191
 348  4569.183
 349  4543.967
 350  4715.174
 351  4134.62
 352  3768.181
 353  4155.92
 354  4475.22
 355  4469.973
 356  4636.333
 357  4548.877
 358  4432.685
 359  4872.936
 360  4347.642
 361  4484.925
 362  4327.668
 363  4190.993
 364  4392.412
 365  4579.789
 366  4611.258
 367  4372.443
 368  4286.122
 369  4041.913
 370  3889.547
 371  3861.512
 372  4209.418
 373  4315.035
 374  4521.997
 375  4604.057
 376  4433.227
 377  4209.782
 378  4338.337
 379  4369.334
 380  4052.519
 381  3555.651
 382  3859.468
 383  4591.805
 384  4400.224
 385  4333.637
 386  4359.407
 387  4121.108
 388  3868.661
 389  4067.507
 390  4249.566
 391  4255.764
 392  4493.428
 393  4456.462
 394  3760.07
 395  3918.892
 396  4078.989
 397  4494.175
 398  4943.274
 399  4495.343
 400  3969.292
 401  4429.005
 402  4182.669
 403  3970.231
 404  3892.686
 405  4517.035
 406  4570.641
 407  4575.392
 408  4665.345
 409  4171.332
 410  3856.762
 411  3704.345
 412  4365.4
 413  4570.724
 414  4483.672
 415  4320.899
 416  4296.369
 417  4180.678
 418  3840.644
 419  3985.475
 420  3960.781
 421  4177.055
 422  4041.723
 423  4160.678
 424  4284.831
 425  4431.373
 426  4227.077
 427  4300.317
 428  4249.305
 429  4077.079
 430  4540.068
 431  4441.333
 432  4062.683
 433  3911.671
 434  4278.632
 435  4358.448
 436  4547.615
 437  4799.94
 438  4192.024
 439  4281.262
 440  4418.529
 441  4656.89
 442  4422.317
 443  4544.658
 444  4277.583
 445  4102.924
 446  4155.794
 447  4064.733
 448  4640.217
 449  4630.215
 450  4757.328
 451  4380.37
 452  4007.444
 453  4315.611
 454  4449.576
 455  4722.856
 456  4445.701
 457  4707.354
 458  4448.217
 459  4088.708
 460  4314.25
 461  4371.59
 462  4335.887
 463  4220.442
 464  4505.888
 465  4486.442
 466  4298.654
 467  4674.727
 468  4439.823
 469  4184.059
 470  4174.794
 471  3976.302
 472  4367.071
 473  4486.465
 474  4569.768
 475  4331.43
 476  4201.323
 477  4199.555
 478  4137.834
 479  4328.089
 480  4350.334
 481  4365.046
 482  4468.934
 483  4745.986
 484  4387.376
 485  4093.858
 486  4214.288
 487  4543.709
 488  4084.294
 489  4327.271
 490  4446.689
 491  4485.877
 492  4384.512
 493  4216.44
 494  4551.555
 495  4390.527
 496  4095.137
 497  4207.629
 498  4534.251
 499  4717.919
 500  4170.804
 501  4399.472
 502  4347.731
 503  3999.735
 504  4278.823
 505  4324.405
 506  4558.002
 507  4661.285
 508  4792.896
 509  4587.478
 510  4284.418
 511  4200.988
