# Input file       =  1185349336.100742_cleaned.dat
# Candidate        =  PSR_0332+5434
# Telescope        =  AR
# Epoch_topo       =  57963.321239591925
# Epoch_bary       =  N/A
# T_sample         =  0.002
# Data Folded      =  7340032
# Data Avg         =  0.0474146541808692
# Data StdDev      =  1.00030517651447 
# Profile Bins     =  512
# Profile Avg      =  679.693991235277 
# Profile StdDev   =  119.769576087475 
# Reduced chi-sqr  =  1.847
# Prob(Noise)      <  3.52e-28   (~10.9 sigma)
# P_topo (ms)      =  714.471037698165  +/- 0.000237
# P'_topo (s/s)    =  -0                +/- 1.25e-10
# P''_topo (s/s^2) =  0                 +/- 5.52e-14
# P_bary (ms)      =  N/A
# P'_bary (s/s)    =  N/A
# P''_bary (s/s^2) =  N/A
# P_orb (s)        =  N/A
# asin(i)/c (s)    =  N/A
# eccentricity     =  N/A
# w (rad)          =  N/A
# T_peri           =  N/A
######################################################
   0  621.8807
   1  700.0989
   2  716.4867
   3  724.2231
   4  657.9904
   5  714.8626
   6  759.8003
   7  730.7192
   8  744.345
   9  671.8104
  10  732.317
  11  904.2593
  12  855.9534
  13  707.7477
  14  709.1465
  15  695.4489
  16  796.0242
  17  703.7278
  18  733.2382
  19  696.881
  20  669.855
  21  677.8121
  22  813.1567
  23  708.1292
  24  635.6504
  25  570.6296
  26  628.4841
  27  613.7391
  28  674.6557
  29  701.0392
  30  693.1586
  31  606.3808
  32  622.9239
  33  686.6587
  34  564.9879
  35  486.5168
  36  603.9288
  37  461.0362
  38  493.0873
  39  609.214
  40  542.2073
  41  478.5591
  42  531.0067
  43  513.9584
  44  455.1656
  45  535.1148
  46  583.0756
  47  618.184
  48  618.4298
  49  533.6373
  50  521.5715
  51  449.8734
  52  400.7969
  53  446.7543
  54  420.0765
  55  384.1756
  56  490.7317
  57  578.1051
  58  554.5838
  59  546.707
  60  700.9065
  61  639.0865
  62  523.8562
  63  582.3234
  64  653.3251
  65  598.1495
  66  568.7682
  67  586.3083
  68  585.895
  69  698.7922
  70  630.4703
  71  537.6252
  72  557.1122
  73  610.1542
  74  604.2302
  75  700.4311
  76  645.8729
  77  603.1014
  78  668.7736
  79  666.4045
  80  817.2009
  81  820.7516
  82  856.1645
  83  749.2386
  84  665.3901
  85  784.9848
  86  850.9328
  87  689.9386
  88  706.8406
  89  838.8923
  90  890.918
  91  876.5064
  92  778.1667
  93  796.6316
  94  942.2314
  95  774.0468
  96  795.9888
  97  902.7095
  98  1101.706
  99  1255.267
 100  1210.743
 101  1223.357
 102  1249.375
 103  1006.701
 104  907.2097
 105  848.5871
 106  694.7579
 107  732.8932
 108  773.6679
 109  780.2196
 110  739.1866
 111  765.4141
 112  756.7632
 113  748.164
 114  719.3611
 115  785.0582
 116  720.0339
 117  702.7703
 118  657.0484
 119  656.0731
 120  716.4112
 121  769.8562
 122  784.5024
 123  717.2623
 124  781.3124
 125  745.8268
 126  615.363
 127  662.8576
 128  625.0532
 129  667.071
 130  639.007
 131  635.2857
 132  611.6086
 133  664.5859
 134  623.9807
 135  698.3303
 136  681.8444
 137  739.2233
 138  663.7377
 139  595.4661
 140  603.6588
 141  662.7488
 142  691.438
 143  760.259
 144  733.2828
 145  731.3621
 146  748.5581
 147  785.5343
 148  861.3876
 149  778.1819
 150  754.6417
 151  789.5189
 152  792.0199
 153  896.2913
 154  825.3207
 155  854.6
 156  911.3658
 157  827.6252
 158  859.9292
 159  901.0056
 160  774.765
 161  764.8282
 162  829.9275
 163  704.6328
 164  677.5331
 165  758.4658
 166  788.8942
 167  870.946
 168  832.7519
 169  758.3998
 170  730.4337
 171  777.5724
 172  833.8201
 173  850.5974
 174  762.9966
 175  751.1931
 176  754.0094
 177  763.115
 178  673.4061
 179  612.6968
 180  644.2894
 181  655.4809
 182  781.5793
 183  817.3292
 184  683.0849
 185  643.7734
 186  632.9153
 187  657.2972
 188  642.5192
 189  651.0397
 190  582.9954
 191  632.7782
 192  605.6641
 193  577.5225
 194  614.3776
 195  561.0445
 196  494.8671
 197  501.1598
 198  638.1071
 199  651.6516
 200  576.2203
 201  625.5529
 202  649.4071
 203  583.2807
 204  647.5641
 205  636.6882
 206  611.8123
 207  655.6684
 208  644.2332
 209  498.9408
 210  599.6408
 211  716.838
 212  784.6016
 213  791.8975
 214  745.4137
 215  697.2733
 216  662.3188
 217  719.1119
 218  774.2991
 219  794.5296
 220  755.9823
 221  753.1624
 222  785.7534
 223  719.9805
 224  671.6481
 225  623.0045
 226  725.0901
 227  728.2361
 228  703.7971
 229  764.5138
 230  811.7672
 231  812.6703
 232  767.8607
 233  736.7037
 234  703.4115
 235  668.363
 236  627.1144
 237  731.3892
 238  768.4464
 239  700.9777
 240  745.7583
 241  705.4093
 242  603.2786
 243  590.0652
 244  708.1129
 245  675.6002
 246  637.0168
 247  681.3369
 248  656.2496
 249  605.4419
 250  585.5359
 251  647.8411
 252  641.5711
 253  625.3541
 254  589.2726
 255  686.1992
 256  677.5851
 257  563.1083
 258  691.6442
 259  614.205
 260  471.4215
 261  561.5417
 262  557.2716
 263  595.6237
 264  590.9437
 265  607.5428
 266  599.0021
 267  653.0154
 268  734.674
 269  775.2094
 270  702.4512
 271  680.5466
 272  692.0806
 273  563.8084
 274  558.0011
 275  559.3139
 276  597.7991
 277  654.7629
 278  661.3629
 279  653.4068
 280  613.6095
 281  609.2298
 282  650.889
 283  672.4593
 284  616.9953
 285  687.179
 286  628.7559
 287  462.7906
 288  588.6113
 289  698.5668
 290  728.3314
 291  683.1981
 292  684.2437
 293  607.8824
 294  637.9656
 295  664.596
 296  646.0651
 297  724.775
 298  748.8012
 299  752.1638
 300  730.7086
 301  800.4958
 302  846.7238
 303  907.1199
 304  915.2723
 305  880.2712
 306  875.6132
 307  928.7034
 308  925.5004
 309  903.7693
 310  908.85
 311  875.2529
 312  794.6819
 313  839.7376
 314  807.1821
 315  675.3594
 316  803.2662
 317  784.8142
 318  642.3138
 319  653.2052
 320  686.9684
 321  675.1531
 322  663.8668
 323  713.6332
 324  760.8393
 325  719.2277
 326  753.9968
 327  716.0435
 328  667.1723
 329  679.7543
 330  699.093
 331  692.8862
 332  683.428
 333  771.0535
 334  600.2324
 335  659.2531
 336  742.0067
 337  688.5881
 338  600.4573
 339  598.9642
 340  699.791
 341  592.1656
 342  540.1537
 343  475.2468
 344  537.2982
 345  513.4502
 346  479.3201
 347  553.6978
 348  704.8289
 349  733.2278
 350  686.4672
 351  611.4767
 352  620.3973
 353  718.04
 354  731.2427
 355  676.9145
 356  555.364
 357  794.5369
 358  801.8622
 359  703.5668
 360  629.5938
 361  597.1337
 362  578.7321
 363  647.5035
 364  699.8217
 365  775.434
 366  722.4562
 367  766.1222
 368  721.4617
 369  697.2084
 370  685.0717
 371  678.4387
 372  763.9786
 373  831.515
 374  880.7114
 375  828.9543
 376  814.8207
 377  879.8294
 378  835.5024
 379  757.1644
 380  833.7759
 381  963.6557
 382  813.1752
 383  748.7789
 384  788.1603
 385  746.8325
 386  717.9626
 387  771.506
 388  728.4466
 389  707.2234
 390  785.5243
 391  764.9288
 392  754.8216
 393  689.4967
 394  723.4449
 395  701.3359
 396  648.2872
 397  696.7815
 398  679.7752
 399  686.442
 400  669.4614
 401  637.8755
 402  699.7793
 403  746.364
 404  689.0379
 405  655.4509
 406  681.0714
 407  707.1685
 408  738.8035
 409  685.8201
 410  624.0021
 411  530.5733
 412  504.4968
 413  579.5861
 414  667.1188
 415  721.9317
 416  665.613
 417  629.9329
 418  614.6009
 419  597.466
 420  636.0568
 421  561.3477
 422  617.4235
 423  634.1204
 424  618.1315
 425  530.9061
 426  600.8825
 427  685.7321
 428  566.1761
 429  460.2021
 430  562.3171
 431  614.1768
 432  557.2162
 433  671.9114
 434  695.6429
 435  638.0692
 436  600.5881
 437  725.325
 438  712.8831
 439  730.3255
 440  768.7014
 441  672.575
 442  680.5903
 443  616.9762
 444  703.7794
 445  714.7112
 446  669.1976
 447  683.3507
 448  742.3902
 449  792.7695
 450  770.3376
 451  681.0454
 452  651.0005
 453  638.1373
 454  606.5145
 455  586.3752
 456  705.9043
 457  667.0285
 458  706.1606
 459  643.328
 460  728.3096
 461  751.4415
 462  704.4891
 463  662.546
 464  623.2571
 465  620.6855
 466  624.366
 467  675.0565
 468  694.4857
 469  691.7299
 470  680.1627
 471  568.3138
 472  521.7167
 473  556.9964
 474  601.4715
 475  523.1495
 476  472.0244
 477  499.4915
 478  507.0609
 479  425.9915
 480  409.0137
 481  482.7784
 482  506.6167
 483  446.8255
 484  485.4694
 485  469.717
 486  443.9209
 487  505.7948
 488  573.7516
 489  541.0096
 490  508.8183
 491  534.481
 492  556.7211
 493  553.1331
 494  567.8821
 495  601.9215
 496  545.7679
 497  505.7554
 498  557.2506
 499  571.7632
 500  596.9368
 501  471.5018
 502  451.4697
 503  522.2757
 504  569.8925
 505  583.1471
 506  616.2267
 507  543.5381
 508  522.0458
 509  468.301
 510  579.6818
 511  603.7766
