# Input file       =  1185664428.103452_cleaned.dat
# Candidate        =  PSR_0332+5434
# Telescope        =  AR
# Epoch_topo       =  57966.968137771437
# Epoch_bary       =  N/A
# T_sample         =  0.002
# Data Folded      =  7208960
# Data Avg         =  0.114587684522848
# Data StdDev      =  4.42216890341484 
# Profile Bins     =  512
# Profile Avg      =  1613.38349686443 
# Profile StdDev   =  524.730917298986 
# Reduced chi-sqr  =  0.643
# Prob(Noise)      <  1   (~0.0 sigma)
# P_topo (ms)      =  714.46906923247   +/- 4.92e-05
# P'_topo (s/s)    =  -0                +/- 2.64e-11
# P''_topo (s/s^2) =  0                 +/- 1.19e-14
# P_bary (ms)      =  N/A
# P'_bary (s/s)    =  N/A
# P''_bary (s/s^2) =  N/A
# P_orb (s)        =  N/A
# asin(i)/c (s)    =  N/A
# eccentricity     =  N/A
# w (rad)          =  N/A
# T_peri           =  N/A
######################################################
   0  1111.731
   1  1517.462
   2  1870.263
   3  1605.349
   4  1454.876
   5  1199.142
   6  1454.131
   7  1447.069
   8  1132.887
   9  1570.961
  10  1958.3
  11  1788.18
  12  2060.587
  13  1524.576
  14  1521.415
  15  1191.947
  16  1170.167
  17  1537.176
  18  1179.891
  19  1879.965
  20  1766.99
  21  1481.278
  22  1119.484
  23  1419.708
  24  1781.155
  25  1748.004
  26  1669.095
  27  1406.423
  28  1749.129
  29  1805.229
  30  1481.289
  31  1494.428
  32  1597.509
  33  1918.074
  34  1798.241
  35  1578.021
  36  1929.262
  37  1749.097
  38  1404.262
  39  1166.786
  40  1101.477
  41  1251.633
  42  1308.762
  43  1534.85
  44  1939.545
  45  2036.14
  46  1619.68
  47  1368.989
  48  1525.147
  49  1392.292
  50  1748.487
  51  1926.947
  52  1888.571
  53  1832.153
  54  1671.479
  55  1730.527
  56  1126.062
  57  1620.682
  58  1702.861
  59  1474.762
  60  1701.359
  61  1737.904
  62  2095.344
  63  1480.218
  64  1456.678
  65  1444.801
  66  1375.427
  67  1306.409
  68  1445.153
  69  1571.636
  70  1617.915
  71  1231.284
  72  1587.435
  73  1391.751
  74  1626.363
  75  1636.587
  76  1441.518
  77  2053.381
  78  1347.53
  79  1363.383
  80  1537.34
  81  1589.424
  82  1387.732
  83  1292.074
  84  1634.922
  85  1636.38
  86  1934.161
  87  1741.554
  88  1511.865
  89  1478.883
  90  1784.86
  91  1788.73
  92  1495.213
  93  1911.77
  94  2048.149
  95  1919.053
  96  1699.913
  97  1385.975
  98  1990.548
  99  1934.89
 100  1568.518
 101  1831.539
 102  1964.775
 103  1734.538
 104  1240.86
 105  1467.438
 106  1757.9
 107  1464.927
 108  1399.755
 109  1858.551
 110  2126.797
 111  1903.046
 112  1379.539
 113  1268.653
 114  1235.688
 115  1416.852
 116  1497.375
 117  2008.328
 118  1870.161
 119  1741.562
 120  1538.511
 121  1179.152
 122  1476.993
 123  1684.571
 124  1500.951
 125  1498.188
 126  1415.396
 127  2048.378
 128  1819.542
 129  1501.411
 130  1498.674
 131  1721.523
 132  1631.956
 133  1066.436
 134  1404.759
 135  1557.041
 136  1472.904
 137  1677.95
 138  1531.672
 139  1510.536
 140  1057.293
 141  1305.373
 142  1388.836
 143  1699.737
 144  1964.926
 145  1423.31
 146  1608.248
 147  1320.071
 148  985.587
 149  1299.089
 150  1572.806
 151  1794.418
 152  1306.993
 153  1345.928
 154  1234.572
 155  1353.818
 156  1304.618
 157  1592.192
 158  2039.591
 159  1675.498
 160  1522.189
 161  1832.087
 162  1607.608
 163  1536.877
 164  1534.508
 165  1501.744
 166  1467.076
 167  1626.978
 168  1768.478
 169  1007.72
 170  930.9413
 171  1150.474
 172  1300.912
 173  1669.129
 174  1521.572
 175  2108.087
 176  2055.152
 177  1760.135
 178  1537.209
 179  1349.379
 180  1517.096
 181  1295.556
 182  1471.103
 183  1518.028
 184  1210.562
 185  1373.064
 186  1541.666
 187  1402.986
 188  994.4377
 189  1141.16
 190  1848.316
 191  1772.358
 192  1717.605
 193  2112.421
 194  2037.561
 195  1537.638
 196  987.5333
 197  1321.48
 198  1312.21
 199  1148.091
 200  1421.341
 201  1804.406
 202  1686.834
 203  880.1582
 204  1004.471
 205  1309.721
 206  1586.952
 207  1321.672
 208  1495.216
 209  2342.159
 210  2126.685
 211  1606.04
 212  1462.548
 213  1671.124
 214  1258.91
 215  1251.203
 216  1491.836
 217  1837.948
 218  1928.72
 219  1721.804
 220  1691.66
 221  1635.989
 222  1426.591
 223  1426.707
 224  1416.425
 225  1286.185
 226  1643.045
 227  1756.323
 228  1809.013
 229  1376.725
 230  1565.305
 231  1663.692
 232  1638.08
 233  1820.178
 234  1752.508
 235  1755.221
 236  1264.749
 237  1457.048
 238  1563.261
 239  1724.274
 240  1854.698
 241  1534.91
 242  1860.259
 243  1468.275
 244  1080.777
 245  1327.753
 246  1436.199
 247  1490.549
 248  1607.251
 249  1668.173
 250  1915.734
 251  1453.437
 252  1398.576
 253  1438.36
 254  1328.914
 255  1339.126
 256  1484.374
 257  1755.841
 258  1272.85
 259  1591.807
 260  1695.715
 261  1798.179
 262  1931.595
 263  1548.927
 264  1768.502
 265  1565.97
 266  1690.544
 267  1471.832
 268  1190.129
 269  1345.227
 270  1139.587
 271  1404.29
 272  1563.291
 273  1664.89
 274  1899.377
 275  1985.439
 276  1881.077
 277  1191.963
 278  1106.87
 279  1432.667
 280  1413.241
 281  1344.522
 282  1499.258
 283  2024.884
 284  1726.092
 285  1348.207
 286  1252.697
 287  989.9639
 288  1333.048
 289  1021.355
 290  1291.255
 291  1643.543
 292  1711.811
 293  1844.829
 294  1386.455
 295  1289.298
 296  948.3701
 297  1488.61
 298  1739.336
 299  1539.818
 300  1793.421
 301  1931.333
 302  1637.244
 303  1646.159
 304  1229.613
 305  1546.407
 306  1430.091
 307  1572.687
 308  2040.8
 309  1896.391
 310  1367.79
 311  1283.617
 312  1701.021
 313  1296.095
 314  1542.572
 315  2155.055
 316  1864.822
 317  1814.372
 318  1808.168
 319  1911.594
 320  2146.029
 321  1810.003
 322  2357.417
 323  2865.991
 324  3595.042
 325  3179.506
 326  2834.834
 327  2711.576
 328  1851.75
 329  1921.916
 330  1579.327
 331  1847.393
 332  1613.145
 333  1643.632
 334  2184.101
 335  1823.379
 336  1661.328
 337  1797.902
 338  2027.037
 339  1873.234
 340  1393.679
 341  1793.091
 342  1961.88
 343  1555.889
 344  1409.945
 345  1677.802
 346  1959.286
 347  1567.539
 348  1342.461
 349  1765.967
 350  1710.591
 351  1433.617
 352  1477.252
 353  1614.026
 354  1359.833
 355  1823.733
 356  1824.535
 357  1919.046
 358  2036.572
 359  1734.659
 360  1986.463
 361  1321.419
 362  1106.571
 363  1696.958
 364  1659.917
 365  2047.668
 366  1856.49
 367  1967.287
 368  1720.099
 369  1288.876
 370  1193.397
 371  1579.888
 372  1519.241
 373  1741.995
 374  1764.9
 375  2246.766
 376  2115.385
 377  1769.39
 378  1670.307
 379  1491.54
 380  1467.036
 381  1707.123
 382  2159.635
 383  2000.38
 384  1444.324
 385  1355.201
 386  1384.492
 387  1408.18
 388  1385.659
 389  1990.583
 390  1989.706
 391  1777.268
 392  1667.501
 393  1748.077
 394  1733.192
 395  1380.182
 396  1852.875
 397  1743.547
 398  1514.377
 399  1791.748
 400  1698.358
 401  1495.055
 402  1538.151
 403  1588.994
 404  1932.837
 405  1721.687
 406  1692.234
 407  1549.646
 408  1581.599
 409  1517.39
 410  1373.591
 411  1690.934
 412  1842.942
 413  1654.95
 414  1380.287
 415  1506.209
 416  1677.731
 417  1666.886
 418  1442.855
 419  1477.479
 420  1699.428
 421  1489.627
 422  1934.907
 423  1910.482
 424  1663.73
 425  1724.119
 426  1805.663
 427  1461.81
 428  1291.143
 429  1928.668
 430  2229.4
 431  1871.058
 432  1888.637
 433  2148.891
 434  1455.184
 435  1253.874
 436  1221.225
 437  1631.846
 438  1497.562
 439  2033.406
 440  2220.298
 441  2090.133
 442  1826.027
 443  1019.859
 444  1584.233
 445  1410.691
 446  1672.097
 447  1688.522
 448  1542.443
 449  2000.66
 450  1759.123
 451  1484.116
 452  1324.392
 453  1128.241
 454  1703.578
 455  1926.749
 456  1882.669
 457  1989.194
 458  1745.148
 459  1593.491
 460  1227.315
 461  1504.757
 462  1331.265
 463  1254.568
 464  1620.261
 465  1830.086
 466  2095.458
 467  1743.375
 468  1435.807
 469  1303.063
 470  1312.623
 471  1885.228
 472  1485.308
 473  1839.774
 474  2271.018
 475  1919.257
 476  1447.078
 477  1024.779
 478  1712.325
 479  1465.879
 480  1489.111
 481  2001.521
 482  1766.368
 483  1594.922
 484  1331.075
 485  1183.381
 486  1664.983
 487  1772.939
 488  1600.759
 489  1897.849
 490  2089.61
 491  1706.776
 492  1699.559
 493  1854.352
 494  1551.577
 495  1562.557
 496  1653.347
 497  1903.406
 498  1671.054
 499  1571.775
 500  2008.421
 501  1237.553
 502  1169.05
 503  1418.805
 504  1626.362
 505  1806.137
 506  1585.161
 507  1809.999
 508  1654.673
 509  1490.417
 510  1480.957
 511  1570.96
