# Input file       =  1185090823.101021_cleaned.dat
# Candidate        =  PSR_0332+5434
# Telescope        =  AR
# Epoch_topo       =  57960.329190984041
# Epoch_bary       =  N/A
# T_sample         =  0.002
# Data Folded      =  7340032
# Data Avg         =  0.0444245108579673
# Data StdDev      =  1.00044237989966 
# Profile Bins     =  512
# Profile Avg      =  636.491395429113 
# Profile StdDev   =  119.786003865384 
# Reduced chi-sqr  =  1.319
# Prob(Noise)      <  1.6e-06   (~4.7 sigma)
# P_topo (ms)      =  714.472514234527  +/- 0.000282
# P'_topo (s/s)    =  -0                +/- 1.49e-10
# P''_topo (s/s^2) =  0                 +/- 6.56e-14
# P_bary (ms)      =  N/A
# P'_bary (s/s)    =  N/A
# P''_bary (s/s^2) =  N/A
# P_orb (s)        =  N/A
# asin(i)/c (s)    =  N/A
# eccentricity     =  N/A
# w (rad)          =  N/A
# T_peri           =  N/A
######################################################
   0  647.3391
   1  736.5845
   2  724.9918
   3  654.9048
   4  539.3657
   5  553.6036
   6  533.4916
   7  530.8667
   8  518.3145
   9  543.8268
  10  580.022
  11  652.4417
  12  667.4998
  13  629.854
  14  614.5801
  15  530.8618
  16  512.7089
  17  687.0079
  18  642.4471
  19  600.5972
  20  716.9061
  21  725.4738
  22  647.6065
  23  577.5079
  24  584.071
  25  642.9808
  26  559.9356
  27  600.428
  28  691.0788
  29  708.8787
  30  593.9662
  31  524.7275
  32  484.9098
  33  531.7518
  34  554.7969
  35  558.0808
  36  539.0905
  37  610.0637
  38  633.6506
  39  690.291
  40  632.772
  41  593.4599
  42  653.4048
  43  639.7882
  44  522.3721
  45  584.3713
  46  678.0403
  47  650.7279
  48  481.7394
  49  489.5403
  50  546.8795
  51  596.1504
  52  605.9708
  53  648.5057
  54  506.2572
  55  467.2426
  56  671.6797
  57  728.5916
  58  613.1273
  59  612.8713
  60  723.1462
  61  670.055
  62  724.4412
  63  771.3131
  64  797.0995
  65  707.0684
  66  808.0416
  67  729.4037
  68  615.9783
  69  589.6475
  70  585.4995
  71  659.4098
  72  576.9664
  73  555.6788
  74  610.2159
  75  643.0565
  76  617.8837
  77  671.6827
  78  616.1118
  79  626.5447
  80  695.4844
  81  706.8387
  82  681.1328
  83  929.2901
  84  1116.236
  85  1149.436
  86  1151.685
  87  1188.197
  88  1073.766
  89  887.7731
  90  783.2881
  91  720.2444
  92  841.1826
  93  727.5075
  94  601.7841
  95  617.9053
  96  603.0903
  97  619.5408
  98  665.0311
  99  593.0478
 100  684.6177
 101  659.881
 102  749.3673
 103  599.8361
 104  643.939
 105  679.6054
 106  686.3715
 107  648.033
 108  584.6118
 109  588.0459
 110  614.1024
 111  617.5353
 112  705.1345
 113  677.2642
 114  680.2444
 115  601.078
 116  592.1841
 117  644.4985
 118  559.3695
 119  601.311
 120  699.348
 121  659.1531
 122  654.803
 123  672.4438
 124  735.1677
 125  770.3155
 126  704.3226
 127  558.9971
 128  564.2013
 129  577.1595
 130  562.4516
 131  558.475
 132  675.3204
 133  701.4798
 134  670.3511
 135  641.022
 136  463.8009
 137  469.9364
 138  606.1098
 139  571.0781
 140  589.7451
 141  585.8119
 142  535.9606
 143  515.1133
 144  621.4426
 145  577.2966
 146  548.7108
 147  478.8395
 148  375.1637
 149  336.1549
 150  404.7159
 151  486.6041
 152  455.8511
 153  528.5212
 154  462.5054
 155  372.6317
 156  434.7125
 157  586.887
 158  586.0309
 159  582.3943
 160  490.9823
 161  554.2926
 162  547.915
 163  524.3664
 164  612.8345
 165  709.249
 166  594.717
 167  489.2389
 168  637.79
 169  697.753
 170  677.057
 171  600.1956
 172  558.6661
 173  594.7599
 174  561.3549
 175  667.9716
 176  706.319
 177  589.027
 178  544.5518
 179  645.9318
 180  573.9822
 181  547.2836
 182  517.0983
 183  508.4162
 184  526.1103
 185  472.0158
 186  540.8354
 187  425.0197
 188  403.1837
 189  502.4345
 190  429.5822
 191  492.8409
 192  460.4568
 193  364.3511
 194  594.7242
 195  549.8641
 196  503.8047
 197  620.6035
 198  629.0104
 199  553.1346
 200  570.1605
 201  578.8398
 202  547.5858
 203  595.4855
 204  627.9233
 205  547.8017
 206  472.8889
 207  514.3054
 208  612.8126
 209  645.5184
 210  589.8186
 211  583.0511
 212  620.6435
 213  583.4213
 214  590.7064
 215  587.8166
 216  678.1691
 217  711.0969
 218  640.1384
 219  712.6932
 220  674.4377
 221  532.4146
 222  452.568
 223  526.3853
 224  527.9106
 225  565.8633
 226  606.3196
 227  553.8527
 228  543.6979
 229  487.5736
 230  546.1264
 231  670.1589
 232  665.0533
 233  619.0035
 234  652.5133
 235  610.7383
 236  586.4186
 237  580.4902
 238  664.5812
 239  722.9017
 240  665.4985
 241  677.3145
 242  722.2156
 243  787.3101
 244  787.6346
 245  726.017
 246  639.9099
 247  686.1241
 248  645.1502
 249  601.1158
 250  691.3234
 251  653.3618
 252  579.4637
 253  610.507
 254  784.5967
 255  751.8254
 256  642.3959
 257  798.4838
 258  744.558
 259  541.8962
 260  616.4904
 261  655.1685
 262  625.4683
 263  759.0594
 264  746.107
 265  662.6527
 266  691.3347
 267  680.6402
 268  719.0193
 269  741.4912
 270  688.0959
 271  735.465
 272  719.8762
 273  743.5781
 274  666.8403
 275  763.3926
 276  769.9457
 277  699.8382
 278  694.7485
 279  736.6736
 280  763.0268
 281  835.5474
 282  805.1407
 283  820.2365
 284  822.7265
 285  688.5408
 286  653.4838
 287  726.5125
 288  787.823
 289  707.2338
 290  597.7356
 291  683.29
 292  566.3294
 293  687.6167
 294  709.7529
 295  687.8554
 296  616.2684
 297  603.9651
 298  605.5229
 299  615.6192
 300  525.0579
 301  530.7606
 302  584.1784
 303  610.5532
 304  567.6005
 305  602.3263
 306  724.4316
 307  731.7817
 308  703.1932
 309  623.7971
 310  638.7791
 311  660.5607
 312  599.771
 313  658.5103
 314  712.8863
 315  655.3141
 316  588.1931
 317  713.8018
 318  678.1141
 319  547.3046
 320  510.0204
 321  655.6014
 322  801.2714
 323  933.8922
 324  912.2139
 325  746.5623
 326  737.5192
 327  683.0571
 328  635.4599
 329  654.4539
 330  615.8235
 331  733.6556
 332  812.0453
 333  725.1824
 334  674.4308
 335  665.4372
 336  627.2972
 337  588.9024
 338  605.1232
 339  654.3122
 340  721.3276
 341  687.6013
 342  723.5449
 343  719.1702
 344  680.3146
 345  593.6555
 346  505.7328
 347  541.979
 348  592.064
 349  578.8995
 350  594.1884
 351  643.5004
 352  660.1706
 353  773.6636
 354  705.9254
 355  659.3677
 356  640.7681
 357  519.4887
 358  530.5662
 359  568.0469
 360  510.3145
 361  644.4573
 362  643.7377
 363  649.8754
 364  691.9455
 365  717.2969
 366  568.0566
 367  509.7737
 368  653.2845
 369  627.9063
 370  714.9515
 371  729.6104
 372  706.8742
 373  541.6166
 374  606.3021
 375  613.7411
 376  553.0562
 377  608.8982
 378  647.8292
 379  639.5359
 380  737.9385
 381  656.2544
 382  707.1279
 383  725.9778
 384  665.4243
 385  634.855
 386  581.8203
 387  553.4811
 388  582.1701
 389  649.5974
 390  602.6058
 391  591.5609
 392  625.4932
 393  738.2056
 394  668.8867
 395  594.4479
 396  737.8378
 397  702.9668
 398  699.4893
 399  680.2816
 400  662.7123
 401  696.7248
 402  596.9454
 403  637.5205
 404  645.4398
 405  703.7674
 406  713.8408
 407  692.7295
 408  618.7433
 409  564.7889
 410  640.3124
 411  571.4771
 412  454.8538
 413  643.5834
 414  698.8146
 415  660.9944
 416  547.8086
 417  489.2968
 418  582.5471
 419  477.7008
 420  508.4729
 421  584.8267
 422  585.8789
 423  674.9684
 424  597.7333
 425  478.7224
 426  602.9805
 427  631.954
 428  520.8019
 429  559.0859
 430  660.1029
 431  628.6729
 432  540.4875
 433  584.1835
 434  669.3917
 435  666.2493
 436  724.6109
 437  745.3755
 438  715.9178
 439  730.2855
 440  747.5353
 441  704.929
 442  711.3978
 443  727.9545
 444  649.4821
 445  624.953
 446  597.2726
 447  660.8827
 448  632.8649
 449  629.6928
 450  578.0281
 451  626.7712
 452  638.0178
 453  683.3808
 454  675.7322
 455  718.1208
 456  688.455
 457  634.1413
 458  718.9962
 459  708.5479
 460  786.2206
 461  795.8275
 462  773.7055
 463  763.3426
 464  660.5999
 465  599.1492
 466  671.6903
 467  749.9023
 468  753.6141
 469  614.4332
 470  527.0629
 471  647.0461
 472  633.3475
 473  657.9045
 474  678.3854
 475  676.564
 476  630.5699
 477  652.5265
 478  674.445
 479  605.2717
 480  656.6153
 481  774.002
 482  692.0986
 483  535.1682
 484  624.0895
 485  658.2623
 486  573.186
 487  601.5793
 488  542.6145
 489  579.6138
 490  665.7182
 491  618.119
 492  699.8258
 493  671.9629
 494  520.2695
 495  565.1038
 496  616.7633
 497  540.9927
 498  552.5594
 499  554.4824
 500  634.834
 501  655.2896
 502  753.9785
 503  737.8605
 504  707.4513
 505  692.1295
 506  682.6884
 507  615.2371
 508  647.2103
 509  604.5526
 510  574.1834
 511  623.2554
