# Input file       =  1185162103.119705_cleaned.dat
# Candidate        =  PSR_0332+5434
# Telescope        =  AR
# Epoch_topo       =  57961.154191200287
# Epoch_bary       =  N/A
# T_sample         =  0.002
# Data Folded      =  7340032
# Data Avg         =  0.162324476047486
# Data StdDev      =  3.65265044418336 
# Profile Bins     =  1024
# Profile Avg      =  1160.97702293159 
# Profile StdDev   =  309.248150449881 
# Reduced chi-sqr  =  0.809
# Prob(Noise)      <  1   (~0.0 sigma)
# P_topo (ms)      =  714.471759456694  +/- 0.000573
# P'_topo (s/s)    =  -0                +/- 3.02e-10
# P''_topo (s/s^2) =  0                 +/- 1.33e-13
# P_bary (ms)      =  N/A
# P'_bary (s/s)    =  N/A
# P''_bary (s/s^2) =  N/A
# P_orb (s)        =  N/A
# asin(i)/c (s)    =  N/A
# eccentricity     =  N/A
# w (rad)          =  N/A
# T_peri           =  N/A
######################################################
   0  945.3844
   1  1079.179
   2  1238.18
   3  1188.152
   4  1094.788
   5  1046.045
   6  1159.94
   7  1183.001
   8  1303.539
   9  1302.205
  10  1231.472
  11  1250.262
  12  1250.636
  13  1222.637
  14  1119.662
  15  1040.168
  16  1051.31
  17  1141.64
  18  1239.604
  19  1327.641
  20  1302.274
  21  1307.75
  22  1206.381
  23  1191.459
  24  1227.847
  25  1339.701
  26  1332.94
  27  1316.306
  28  1380.067
  29  1416.946
  30  1462.596
  31  1410.055
  32  1363.924
  33  1326.312
  34  1316.812
  35  1414.74
  36  1480.708
  37  1495.068
  38  1385.031
  39  1355.064
  40  1305.285
  41  1262.593
  42  1237.397
  43  1314.786
  44  1463.337
  45  1552.777
  46  1505.16
  47  1457.118
  48  1405.934
  49  1378.786
  50  1368.326
  51  1324.995
  52  1346.844
  53  1274.486
  54  1226.772
  55  1227.793
  56  1343.282
  57  1449.593
  58  1399.799
  59  1333.64
  60  1240.086
  61  1356.812
  62  1370.08
  63  1327.785
  64  1213.63
  65  1212.787
  66  1255.14
  67  1304.636
  68  1313.094
  69  1245.712
  70  1214.618
  71  1142.904
  72  1202.837
  73  1255.511
  74  1389.08
  75  1385.399
  76  1391.582
  77  1283.548
  78  1316.286
  79  1349.475
  80  1412.068
  81  1413.779
  82  1338.802
  83  1354.189
  84  1203.468
  85  1158.779
  86  1189.057
  87  1247.984
  88  1158.341
  89  1031.85
  90  1009.377
  91  999.4189
  92  1047.814
  93  1091.287
  94  1244.953
  95  1250.084
  96  1287.298
  97  1218.322
  98  1231.353
  99  1328.43
 100  1411.678
 101  1298.603
 102  1142.765
 103  1126.229
 104  1208.069
 105  1172.918
 106  1037.989
 107  1034.822
 108  1085.672
 109  1194.882
 110  1250.022
 111  1221.509
 112  1259.141
 113  1290.986
 114  1256.496
 115  1151.373
 116  1141.954
 117  1219.977
 118  1258.881
 119  1229.71
 120  1143.297
 121  1168.597
 122  1199.188
 123  1271.754
 124  1233.876
 125  1208.593
 126  1161.299
 127  1211.823
 128  1190.026
 129  1205.409
 130  1232.215
 131  1205.597
 132  1259.745
 133  1254.119
 134  1231.307
 135  1173.508
 136  1183.619
 137  1206.454
 138  1161.925
 139  1029.758
 140  984.0767
 141  1002.962
 142  1109.56
 143  1213.03
 144  1237.43
 145  1217.746
 146  1209.322
 147  1178.498
 148  1249.173
 149  1190.376
 150  1222.325
 151  1216.633
 152  1262.88
 153  1225.855
 154  1175.456
 155  1149.861
 156  1219.996
 157  1210.619
 158  1112.827
 159  1060.586
 160  1077.525
 161  1181.521
 162  1230.851
 163  1158.303
 164  1158.374
 165  1179.368
 166  1221.643
 167  1143.007
 168  1193.482
 169  1170.126
 170  1158.71
 171  1136.251
 172  1229.448
 173  1227.906
 174  1141.662
 175  1174.927
 176  1233.177
 177  1230.847
 178  1223.734
 179  1250.826
 180  1314.749
 181  1298.779
 182  1310.283
 183  1244.521
 184  1146.006
 185  1121.12
 186  1232.29
 187  1244.811
 188  1140.655
 189  1013.025
 190  1066.773
 191  1005.31
 192  1044.438
 193  1027.472
 194  1190.481
 195  1168.725
 196  1318.468
 197  1348.742
 198  1376.724
 199  1161.5
 200  1046.554
 201  1048.173
 202  1069.903
 203  1142.462
 204  1148.251
 205  1084.913
 206  946.93
 207  867.1265
 208  848.8438
 209  886.8544
 210  990.2501
 211  1116.254
 212  1195.748
 213  1194.437
 214  1172.904
 215  1150.32
 216  1133.3
 217  1104.585
 218  1045.713
 219  968.6598
 220  979.0782
 221  1031.785
 222  1124.6
 223  1219.007
 224  1233.919
 225  1225.228
 226  1163.396
 227  1098.51
 228  1101.137
 229  1131.02
 230  1199.479
 231  1093.32
 232  1091.965
 233  1072.84
 234  1091.929
 235  946.7178
 236  934.5799
 237  985.1726
 238  1079.324
 239  1125.517
 240  1102.193
 241  931.4261
 242  862.9739
 243  918.1277
 244  1058.627
 245  1095.442
 246  1009.992
 247  991.2197
 248  999.3527
 249  985.4252
 250  1026.849
 251  1112.957
 252  1134.757
 253  1052.681
 254  982.5297
 255  991.053
 256  942.5974
 257  906.4659
 258  892.3055
 259  896.1937
 260  941.8897
 261  988.8093
 262  1020.276
 263  1025.473
 264  1046.094
 265  1079.954
 266  1122.799
 267  1106.964
 268  1168.776
 269  1240.825
 270  1251.929
 271  1267.318
 272  1125.989
 273  1071.508
 274  921.7818
 275  937.2869
 276  937.1812
 277  976.4162
 278  1011.221
 279  1065.789
 280  1125.692
 281  1105.816
 282  983.487
 283  914.6222
 284  915.3105
 285  912.2189
 286  956.0264
 287  967.5787
 288  981.47
 289  922.9822
 290  975.8453
 291  1190.412
 292  1235.611
 293  1201.857
 294  1140.564
 295  1257.099
 296  1359.099
 297  1304.369
 298  1296.037
 299  1094.901
 300  953.5698
 301  887.8837
 302  898.1064
 303  951.8154
 304  1034.311
 305  1153.727
 306  1276.247
 307  1199.01
 308  1210.394
 309  1118.092
 310  1124.732
 311  1089.215
 312  1106.896
 313  1056.287
 314  998.6268
 315  971.313
 316  1046.454
 317  1052.642
 318  1063.148
 319  1003.408
 320  1055.15
 321  1131.811
 322  1215.989
 323  1223.938
 324  1078.613
 325  955.5104
 326  1025.008
 327  1090.936
 328  1200.502
 329  1051.248
 330  1099.485
 331  1051.165
 332  1032.079
 333  1001.985
 334  1043.052
 335  1130.257
 336  1091.366
 337  1098.659
 338  1061.914
 339  1034.379
 340  966.815
 341  919.2301
 342  983.6681
 343  988.1151
 344  1092.205
 345  1183.615
 346  1179.7
 347  1151.724
 348  1133.244
 349  1162.73
 350  1201.911
 351  1204.506
 352  1192.603
 353  1134.349
 354  1099.867
 355  1037.853
 356  1135.162
 357  1059.943
 358  1152.616
 359  1171.345
 360  1237.13
 361  1162.418
 362  1086.585
 363  1196.255
 364  1220.415
 365  1205.049
 366  1137.549
 367  1003.746
 368  991.9026
 369  878.3511
 370  908.7938
 371  964.7542
 372  988.7659
 373  983.7139
 374  1030.197
 375  1153.512
 376  1234.745
 377  1228.093
 378  1223.783
 379  1145.353
 380  1105.421
 381  1064.484
 382  1050.111
 383  1088.465
 384  1174.263
 385  1236.945
 386  1191.464
 387  1087.498
 388  1042.94
 389  1065.258
 390  1151.129
 391  1183.576
 392  1177.466
 393  1154.202
 394  1150.11
 395  1212.215
 396  1208.863
 397  1215.011
 398  1210.876
 399  1228.118
 400  1187.848
 401  1171.523
 402  1060.494
 403  923.3781
 404  960.383
 405  998.0977
 406  1061.725
 407  1031.331
 408  1080.587
 409  1055.701
 410  1040.189
 411  1086.667
 412  1212.916
 413  1148.12
 414  1092.824
 415  953.937
 416  1009.559
 417  992.3198
 418  1046.432
 419  994.0126
 420  892.3856
 421  804.8125
 422  871.1226
 423  1000.258
 424  1086.989
 425  1122.738
 426  1113.179
 427  1019.89
 428  1034.167
 429  1052.288
 430  1123.075
 431  1078.373
 432  1061.577
 433  1041.322
 434  963.5156
 435  857.4592
 436  901.8566
 437  955.8639
 438  1104.377
 439  1186.822
 440  1170.896
 441  1120.214
 442  956.7162
 443  892.464
 444  911.2056
 445  867.0233
 446  993.8146
 447  968.3538
 448  935.5353
 449  846.4007
 450  965.2667
 451  1182.615
 452  1277.8
 453  1158.572
 454  1010.524
 455  966.2533
 456  1087.93
 457  1092.969
 458  1002.268
 459  887.6895
 460  961.713
 461  1073.077
 462  1135.568
 463  1095.128
 464  1096.071
 465  1249.74
 466  1398.795
 467  1386.487
 468  1318.323
 469  1257.558
 470  1340.614
 471  1339.115
 472  1346.61
 473  1259.731
 474  1209.61
 475  1114.545
 476  1180.297
 477  1249.768
 478  1217.476
 479  1246.792
 480  1219.879
 481  1253.99
 482  1139.344
 483  1091.328
 484  1009.232
 485  1007.234
 486  1025.854
 487  1055.192
 488  1007.848
 489  1052.205
 490  1082.38
 491  1137.506
 492  1082.955
 493  1115.622
 494  1160.917
 495  1103.974
 496  977.4941
 497  921.0005
 498  969.9799
 499  1005.919
 500  1100.136
 501  1130.664
 502  1139.879
 503  1163.024
 504  1176.819
 505  1177.485
 506  977.6774
 507  856.8036
 508  846.4159
 509  905.3135
 510  924.7872
 511  998.7187
 512  1074.688
 513  1097.457
 514  1066.115
 515  1088.741
 516  1140.889
 517  940.9933
 518  867.7098
 519  923.1897
 520  1021.379
 521  1021.359
 522  982.3904
 523  1012.364
 524  1002.533
 525  962.8909
 526  958.6472
 527  976.8221
 528  990.2929
 529  1019.653
 530  1137.393
 531  1186.008
 532  1139.002
 533  1191.612
 534  1293.866
 535  1352.985
 536  1292.975
 537  1122.704
 538  1066.521
 539  1065.785
 540  1200.952
 541  1225.188
 542  1242.428
 543  1099.514
 544  1074.04
 545  1065.564
 546  1133.231
 547  1179.965
 548  1262.108
 549  1353.021
 550  1408.401
 551  1314.657
 552  1166.275
 553  1017.596
 554  938.9455
 555  1000.158
 556  1015.275
 557  1074.334
 558  1102.464
 559  1157.473
 560  1066.934
 561  1057.763
 562  997.6522
 563  987.4046
 564  1005.188
 565  1049.858
 566  1124.45
 567  1051.545
 568  1035.442
 569  968.1633
 570  920.0009
 571  915.5886
 572  986.4439
 573  1110.173
 574  1085.958
 575  903.3983
 576  890.9771
 577  1016.004
 578  1126.927
 579  1014.634
 580  984.1556
 581  1062.419
 582  1114.792
 583  1076.545
 584  1068.291
 585  1025.253
 586  1022.317
 587  969.7841
 588  1047.275
 589  1150.604
 590  1212.743
 591  1204.239
 592  1229.969
 593  1170.316
 594  1158.898
 595  1138.119
 596  1158.839
 597  1149.018
 598  1203.88
 599  1233.992
 600  1203.947
 601  1302.351
 602  1395.731
 603  1441.463
 604  1334.107
 605  1247.632
 606  1130.011
 607  1008.352
 608  1002.815
 609  1002.624
 610  1083.395
 611  1076.623
 612  1092.901
 613  1139.516
 614  1269.917
 615  1323.738
 616  1318.528
 617  1193.092
 618  1142.171
 619  1099.932
 620  1084.526
 621  1119.354
 622  1172.453
 623  1102.966
 624  1089.113
 625  1119.68
 626  1195.633
 627  1165.23
 628  1179.69
 629  1236.29
 630  1255.576
 631  1198.49
 632  1182.038
 633  1137.469
 634  1149.792
 635  1180.442
 636  1132.994
 637  1133.007
 638  1034.062
 639  974.6098
 640  1025.677
 641  1166.71
 642  1328.406
 643  1484.529
 644  1607.374
 645  1627.835
 646  1587.761
 647  1635.573
 648  1696.44
 649  1723.63
 650  1777.592
 651  1813.698
 652  1883.014
 653  1906.191
 654  1871.551
 655  1715.946
 656  1512.63
 657  1363.727
 658  1196.121
 659  1119.264
 660  993.1611
 661  993.0915
 662  975.7914
 663  940.5198
 664  960.2308
 665  980.5785
 666  1057.477
 667  1091.872
 668  1038.85
 669  938.7593
 670  964.8937
 671  1177.547
 672  1250.663
 673  1287.91
 674  1271.457
 675  1295.363
 676  1112.471
 677  1005.069
 678  939.6214
 679  908.2017
 680  1012.008
 681  1092.382
 682  1218.318
 683  1174.025
 684  1207.473
 685  1230.853
 686  1230.388
 687  1140.745
 688  1100.335
 689  978.8511
 690  920.3963
 691  996.5779
 692  1143.549
 693  1058.287
 694  995.0965
 695  949.2742
 696  1121.575
 697  1180.852
 698  1153.722
 699  1027.594
 700  991.0415
 701  1083.818
 702  1114.119
 703  1016.323
 704  941.6069
 705  927.2269
 706  951.1428
 707  976.728
 708  980.1747
 709  1107.535
 710  1068.782
 711  1012.726
 712  1032.087
 713  1086.328
 714  1068.934
 715  920.1479
 716  886.6519
 717  920.4345
 718  1080.038
 719  1154.796
 720  1062.408
 721  978.5109
 722  934.5881
 723  960.5202
 724  935.0272
 725  1007.443
 726  1130.897
 727  1198.399
 728  1176.378
 729  1166.002
 730  1104.083
 731  1130.397
 732  1058.65
 733  1057.153
 734  1044.607
 735  1128.701
 736  1183.338
 737  1296.513
 738  1375.476
 739  1542.225
 740  1443.027
 741  1370.242
 742  1266.334
 743  1173.186
 744  1128.503
 745  1129.453
 746  1245.317
 747  1387.029
 748  1361.99
 749  1286.875
 750  1299.083
 751  1366.368
 752  1365.638
 753  1370.224
 754  1338.982
 755  1295.676
 756  1304.181
 757  1284.559
 758  1269.603
 759  1161.114
 760  1192.406
 761  1241.845
 762  1332.743
 763  1381.886
 764  1254.431
 765  1045.08
 766  968.1831
 767  920.8034
 768  928.2602
 769  950.5788
 770  1004.432
 771  1069.858
 772  1089.222
 773  1175.966
 774  1292.085
 775  1310.568
 776  1291.5
 777  1279.112
 778  1317.281
 779  1218.817
 780  1143.386
 781  1144.198
 782  1146.352
 783  1214.346
 784  1275.909
 785  1272.762
 786  1141.722
 787  975.2166
 788  994.4186
 789  952.3066
 790  1000.992
 791  1014.535
 792  1109.623
 793  1154.48
 794  1210.156
 795  1248.984
 796  1223.891
 797  1236.541
 798  1375.065
 799  1339.1
 800  1097.961
 801  1013.984
 802  1054.687
 803  1078.184
 804  1157.581
 805  1227.126
 806  1290.111
 807  1249.004
 808  1198.001
 809  1269.47
 810  1243.118
 811  1197.63
 812  1127.089
 813  1140.148
 814  1165.334
 815  1175.046
 816  1236.73
 817  1247.897
 818  1237.881
 819  1258.574
 820  1296.218
 821  1248.331
 822  1160.122
 823  1192.448
 824  1100.393
 825  1110.794
 826  1046.763
 827  1011.567
 828  1016.56
 829  962.8738
 830  999.3787
 831  1057.195
 832  1102.732
 833  1198.274
 834  1248.495
 835  1249.057
 836  1164.995
 837  1118.732
 838  1148.481
 839  1153.338
 840  1166.03
 841  1117.828
 842  1094.072
 843  1163.154
 844  1159.79
 845  1147.62
 846  1048.83
 847  1112.7
 848  1108.354
 849  1172.393
 850  1119.142
 851  1088.697
 852  1152.017
 853  1264.056
 854  1318.893
 855  1334.434
 856  1405.903
 857  1343.467
 858  1337.469
 859  1221.895
 860  1189.786
 861  1145.39
 862  1204.711
 863  1248.694
 864  1330.351
 865  1274.719
 866  1241.705
 867  1196.768
 868  1213.188
 869  1204.479
 870  1133.475
 871  1082.276
 872  1167.602
 873  1191.648
 874  1301.481
 875  1269.626
 876  1245.253
 877  1282.13
 878  1262.055
 879  1337.576
 880  1227.033
 881  1210.509
 882  1127.95
 883  1087.876
 884  1150.451
 885  1072.37
 886  1129.489
 887  1071.037
 888  1186.058
 889  1138.398
 890  1262.159
 891  1333.153
 892  1423.042
 893  1314.954
 894  1218.683
 895  1118.572
 896  973.4633
 897  896.1544
 898  931.0862
 899  1114.652
 900  1121.176
 901  1137.482
 902  1085.627
 903  1150.591
 904  1117.346
 905  1142.522
 906  1167.26
 907  1133.276
 908  1174.393
 909  1276.294
 910  1301.475
 911  1203.836
 912  1124.811
 913  1176.297
 914  1221.345
 915  1215.398
 916  1255.721
 917  1399.955
 918  1413.447
 919  1433.399
 920  1307.239
 921  1336.867
 922  1380.926
 923  1410.595
 924  1482.552
 925  1543.627
 926  1627.304
 927  1645.066
 928  1643.055
 929  1619.491
 930  1570.969
 931  1489.384
 932  1427.682
 933  1464.957
 934  1586.601
 935  1504.242
 936  1512.797
 937  1545.559
 938  1648.024
 939  1587.294
 940  1432.644
 941  1382.4
 942  1418.146
 943  1454.73
 944  1311.108
 945  1183.941
 946  1154.364
 947  1255.892
 948  1337.438
 949  1283.203
 950  1249.82
 951  1178.495
 952  1307.457
 953  1245.748
 954  1259.726
 955  1241.484
 956  1289.391
 957  1339.136
 958  1303.46
 959  1250.118
 960  1200.081
 961  1112.948
 962  1089.386
 963  1151.233
 964  1227.625
 965  1103.779
 966  1107.366
 967  1210.032
 968  1291.479
 969  1209.947
 970  1150.006
 971  1121.825
 972  1173.935
 973  1142.235
 974  1137.677
 975  1041.153
 976  1022.611
 977  1127.985
 978  1290.703
 979  1403.589
 980  1260.696
 981  1212.905
 982  1157.999
 983  1162.442
 984  1180.594
 985  1318.166
 986  1373.034
 987  1389.184
 988  1318.438
 989  1346.784
 990  1222.543
 991  1156.325
 992  1168.268
 993  1267.671
 994  1236.521
 995  1233.417
 996  1312.976
 997  1393.318
 998  1389.98
 999  1421.306
1000  1390.804
1001  1334.804
1002  1306.268
1003  1245.819
1004  1124.137
1005  1088.478
1006  1128.044
1007  1109.443
1008  990.0117
1009  1009.735
1010  1068.17
1011  1133.789
1012  1111.619
1013  1155.423
1014  1237.792
1015  1231.75
1016  1237.73
1017  1236.503
1018  1203.822
1019  1117.512
1020  1081.874
1021  1114.373
1022  1097.558
1023  941.2036
