# Input file       =  1185679067.110193_cleaned.dat
# Candidate        =  PSR_0332+5434
# Telescope        =  AR
# Epoch_topo       =  57967.137570719824
# Epoch_bary       =  N/A
# T_sample         =  0.002
# Data Folded      =  7340032
# Data Avg         =  0.0157592342075077
# Data StdDev      =  2.14541407669572 
# Profile Bins     =  1024
# Profile Avg      =  112.956752697709 
# Profile StdDev   =  181.639427398212 
# Reduced chi-sqr  =  1.577
# Prob(Noise)      <  3.12e-29   (~11.2 sigma)
# P_topo (ms)      =  714.469011379659  +/- 0.000159
# P'_topo (s/s)    =  -0                +/- 8.39e-11
# P''_topo (s/s^2) =  0                 +/- 3.7e-14
# P_bary (ms)      =  N/A
# P'_bary (s/s)    =  N/A
# P''_bary (s/s^2) =  N/A
# P_orb (s)        =  N/A
# asin(i)/c (s)    =  N/A
# eccentricity     =  N/A
# w (rad)          =  N/A
# T_peri           =  N/A
######################################################
   0  297.1155
   1  309.923
   2  222.6823
   3  229.0973
   4  170.3523
   5  158.8901
   6  77.58689
   7  90.47878
   8  26.40025
   9  70.6467
  10  147.5151
  11  200.5688
  12  182.8647
  13  62.44612
  14  117.0077
  15  120.9256
  16  257.1725
  17  180.4744
  18  203.5418
  19  181.7695
  20  164.3654
  21  133.0695
  22  81.44398
  23  120.1346
  24  145.1381
  25  181.2012
  26  153.2037
  27  200.0544
  28  188.714
  29  240.0043
  30  130.6065
  31  130.3105
  32  88.44138
  33  131.9799
  34  73.97504
  35  137.4414
  36  194.3318
  37  337.7702
  38  310.5639
  39  301.745
  40  288.4477
  41  364.2738
  42  433.8879
  43  391.231
  44  303.6696
  45  181.7164
  46  118.9983
  47  102.3665
  48  207.0167
  49  271.3359
  50  281.2226
  51  209.3792
  52  177.4364
  53  104.0608
  54  146.3391
  55  223.0424
  56  254.4948
  57  178.0184
  58  178.8862
  59  126.0598
  60  98.14071
  61  81.9687
  62  178.2425
  63  170.713
  64  216.2925
  65  225.6551
  66  258.5569
  67  195.7746
  68  112.2835
  69  68.71388
  70  5.359982
  71  52.34352
  72  74.21951
  73  131.5457
  74  202.6882
  75  187.4259
  76  171.6435
  77  141.2442
  78  145.9445
  79  169.5472
  80  228.8721
  81  335.0193
  82  346.4999
  83  286.2379
  84  197.9341
  85  157.8073
  86  65.79725
  87  -113.7885
  88  -238.8387
  89  -258.1968
  90  -120.8992
  91  18.25988
  92  127.3645
  93  208.991
  94  260.6215
  95  258.9888
  96  163.0292
  97  53.33438
  98  25.67721
  99  -41.26361
 100  31.95342
 101  83.98485
 102  252.9744
 103  225.9293
 104  225.4775
 105  285.1485
 106  279.9208
 107  269.0412
 108  126.736
 109  80.55817
 110  54.23163
 111  48.64522
 112  120.403
 113  85.60784
 114  47.58659
 115  36.02527
 116  64.87069
 117  54.46251
 118  92.32859
 119  76.4015
 120  132.5059
 121  79.19661
 122  70.63703
 123  8.474863
 124  74.18987
 125  155.8715
 126  206.2588
 127  137.1139
 128  100.3744
 129  60.46845
 130  19.18763
 131  37.53066
 132  101.2036
 133  158.2076
 134  203.0219
 135  147.259
 136  114.5645
 137  21.47569
 138  93.59663
 139  154.0066
 140  204.1924
 141  294.5777
 142  262.086
 143  265.2409
 144  140.8753
 145  154.8511
 146  169.7775
 147  183.5442
 148  267.6686
 149  244.2317
 150  206.933
 151  32.38598
 152  -41.55905
 153  -118.4987
 154  -86.36261
 155  -23.47582
 156  -23.5556
 157  3.339637
 158  -37.07503
 159  -35.41231
 160  -60.48743
 161  -125.6782
 162  -22.52204
 163  -11.37741
 164  4.351438
 165  -64.02811
 166  68.81219
 167  170.6532
 168  191.1988
 169  203.1543
 170  186.9858
 171  129.7647
 172  65.3176
 173  60.16322
 174  59.63669
 175  38.63066
 176  50.89898
 177  40.46153
 178  65.76362
 179  87.7851
 180  189.7806
 181  288.9384
 182  240.467
 183  133.3311
 184  63.31505
 185  136.4203
 186  161.0178
 187  193.9521
 188  260.5475
 189  283.6172
 190  312.3792
 191  163.1691
 192  87.94332
 193  57.06661
 194  153.9405
 195  191.56
 196  169.7405
 197  179.8887
 198  196.5796
 199  228.9514
 200  150.9774
 201  91.50371
 202  -9.094124
 203  64.21488
 204  48.15638
 205  87.14636
 206  104.7216
 207  187.2948
 208  48.57986
 209  -77.86748
 210  -133.5706
 211  -29.10946
 212  127.2343
 213  179.6788
 214  203.5065
 215  17.82445
 216  -134.12
 217  -188.2328
 218  -149.8082
 219  -76.36586
 220  -68.18999
 221  -1.443247
 222  57.92874
 223  1.291408
 224  -46.01269
 225  -30.64118
 226  63.29596
 227  78.94882
 228  116.3959
 229  212.0533
 230  189.8921
 231  113.5724
 232  -22.02834
 233  111.1096
 234  157.7585
 235  194.7112
 236  -18.67818
 237  -140.4507
 238  -228.1833
 239  -217.1934
 240  -191.3132
 241  -146.1444
 242  -74.94675
 243  6.626233
 244  55.38728
 245  199.2818
 246  221.2531
 247  223.6971
 248  202.8999
 249  206.0554
 250  211.8378
 251  177.1674
 252  130.4478
 253  33.46972
 254  -47.37658
 255  -133.2888
 256  -62.54029
 257  -18.01795
 258  7.29085
 259  32.27339
 260  136.4505
 261  214.3259
 262  178.487
 263  22.69414
 264  -122.2625
 265  -175.9383
 266  -122.6933
 267  27.74568
 268  148.7529
 269  216.9113
 270  80.95464
 271  36.76054
 272  9.851837
 273  72.44115
 274  19.56102
 275  43.38259
 276  121.3581
 277  210.2556
 278  214.9107
 279  186.4972
 280  115.4656
 281  133.1537
 282  156.8191
 283  160.6436
 284  130.4954
 285  114.5335
 286  177.444
 287  217.4067
 288  198.0126
 289  157.5965
 290  145.7555
 291  206.4963
 292  251.7531
 293  208.6614
 294  139.3521
 295  68.24763
 296  74.24455
 297  44.25965
 298  81.82051
 299  129.1601
 300  112.3906
 301  145.3343
 302  42.44008
 303  -0.6260498
 304  3.369723
 305  139.2276
 306  119.5317
 307  90.93726
 308  29.01835
 309  101.0214
 310  123.6513
 311  143.914
 312  155.4109
 313  175.3909
 314  239.2632
 315  332.0455
 316  302.5182
 317  166.5439
 318  62.41221
 319  66.49052
 320  92.97596
 321  54.70382
 322  116.3873
 323  210.1172
 324  311.6393
 325  237.6648
 326  197.8945
 327  207.5919
 328  206.7155
 329  160.9794
 330  115.4063
 331  150.5943
 332  129.9503
 333  121.6001
 334  92.64796
 335  110.2393
 336  85.56061
 337  82.56395
 338  92.91638
 339  41.11108
 340  19.79184
 341  16.29632
 342  73.83063
 343  118.0182
 344  182.4697
 345  192.9958
 346  107.7153
 347  224.8873
 348  349.8995
 349  433.3772
 350  309.4645
 351  184.7335
 352  162.3774
 353  75.34686
 354  -24.8801
 355  -107.1313
 356  -29.23474
 357  86.67888
 358  75.52616
 359  97.44612
 360  137.0056
 361  180.9482
 362  221.2895
 363  282.9924
 364  115.2289
 365  18.12008
 366  -132.9787
 367  -12.29912
 368  28.85177
 369  183.7036
 370  235.6253
 371  130.9299
 372  171.631
 373  215.5955
 374  362.9326
 375  281.8293
 376  319.5189
 377  251.8426
 378  180.3848
 379  20.02573
 380  -30.31928
 381  30.12723
 382  90.55592
 383  112.2359
 384  7.448105
 385  -6.428779
 386  -76.51792
 387  16.55949
 388  121.7347
 389  231.7181
 390  144.852
 391  37.85196
 392  -19.3171
 393  6.591423
 394  141.9179
 395  141.7492
 396  77.4276
 397  3.122685
 398  -16.32073
 399  -8.003813
 400  -22.06278
 401  -9.100581
 402  33.58821
 403  14.09028
 404  27.57643
 405  62.8503
 406  107.6498
 407  92.98804
 408  38.59961
 409  -60.09546
 410  -49.56972
 411  41.28761
 412  169.5904
 413  191.8705
 414  179.09
 415  11.3416
 416  -32.39506
 417  -114.7504
 418  -23.03474
 419  38.72665
 420  64.17822
 421  89.0159
 422  62.49626
 423  13.72518
 424  18.82372
 425  119.1481
 426  201.7286
 427  169.522
 428  113.4424
 429  88.75318
 430  77.01225
 431  7.842122
 432  -32.62926
 433  -66.71503
 434  -59.33991
 435  50.60104
 436  81.8434
 437  155.8378
 438  157.5739
 439  217.5748
 440  164.9995
 441  118.0702
 442  95.60792
 443  111.2081
 444  113.0898
 445  91.23528
 446  1.367691
 447  10.93212
 448  -4.985966
 449  87.01687
 450  84.92371
 451  112.6494
 452  39.65712
 453  -1.394658
 454  -18.27923
 455  52.09758
 456  77.96571
 457  98.38461
 458  114.7195
 459  115.1079
 460  123.0536
 461  96.86763
 462  135.6052
 463  84.06774
 464  34.29439
 465  -1.94991
 466  -2.385596
 467  21.12425
 468  37.94265
 469  -20.02935
 470  -28.31015
 471  -9.963864
 472  159.8666
 473  249.3943
 474  226.8114
 475  80.01143
 476  20.44458
 477  -47.75898
 478  30.47488
 479  1.672322
 480  -11.88071
 481  12.95604
 482  69.4191
 483  118.8592
 484  92.39592
 485  46.77485
 486  77.60081
 487  109.3346
 488  88.90722
 489  -30.02137
 490  -135.3817
 491  -89.90792
 492  -19.80443
 493  44.80513
 494  99.78366
 495  193.287
 496  233.4225
 497  289.143
 498  225.6611
 499  190.6872
 500  99.96408
 501  116.4885
 502  100.4547
 503  46.49598
 504  33.80468
 505  42.70722
 506  104.1199
 507  177.3343
 508  118.8486
 509  78.36362
 510  8.096817
 511  18.75855
 512  -80.79107
 513  -2.269671
 514  25.62124
 515  150.3416
 516  29.05025
 517  49.42708
 518  12.13121
 519  105.3409
 520  131.3222
 521  162.3732
 522  123.5097
 523  113.4872
 524  177.6493
 525  194.8195
 526  215.6974
 527  173.4858
 528  180.9735
 529  120.9312
 530  55.39286
 531  -0.4305273
 532  7.316435
 533  -20.92409
 534  -84.30336
 535  -140.3759
 536  -13.85007
 537  145.0376
 538  250.363
 539  169.8358
 540  116.1814
 541  167.4905
 542  280.6143
 543  348.6548
 544  354.1056
 545  259.1158
 546  83.92822
 547  60.8944
 548  74.43989
 549  150.462
 550  155.385
 551  226.6631
 552  201.4787
 553  52.13738
 554  26.19851
 555  86.82182
 556  125.4557
 557  107.2497
 558  49.21305
 559  51.60114
 560  -16.50304
 561  59.70609
 562  78.78718
 563  73.78694
 564  -32.04678
 565  -9.117775
 566  56.83696
 567  111.4317
 568  74.42612
 569  98.88608
 570  57.75491
 571  78.62856
 572  35.90464
 573  103.6139
 574  99.04969
 575  64.90542
 576  16.03383
 577  -47.32177
 578  -95.62234
 579  -188.7607
 580  -115.545
 581  -72.69958
 582  -65.93948
 583  -66.42642
 584  -27.73585
 585  30.87568
 586  67.99222
 587  72.1727
 588  54.20735
 589  15.63191
 590  -24.3923
 591  -66.44246
 592  46.10328
 593  89.71262
 594  10.72175
 595  -14.19548
 596  29.81742
 597  175.2167
 598  154.6973
 599  169.6051
 600  119.0572
 601  52.49792
 602  42.72515
 603  12.39176
 604  105.7928
 605  131.3996
 606  151.9041
 607  1.416583
 608  -18.82825
 609  -67.34756
 610  23.47061
 611  20.41111
 612  48.52203
 613  62.68628
 614  104.4657
 615  66.66142
 616  26.04632
 617  30.15905
 618  -1.825834
 619  34.80448
 620  110.2294
 621  166.7544
 622  147.4982
 623  76.03502
 624  49.6861
 625  25.55667
 626  6.014692
 627  42.71455
 628  23.86141
 629  86.74885
 630  65.96327
 631  158.3936
 632  141.3924
 633  152.1519
 634  85.6963
 635  195.328
 636  358.2553
 637  503.1182
 638  414.6514
 639  303.7766
 640  276.3958
 641  399.2862
 642  440.6731
 643  510.6175
 644  572.4705
 645  658.1721
 646  731.5241
 647  727.3065
 648  850.8573
 649  931.036
 650  1075.727
 651  972.4447
 652  841.6378
 653  671.4725
 654  539.1085
 655  407.4101
 656  289.103
 657  186.7525
 658  153.5916
 659  135.5564
 660  34.40603
 661  31.91422
 662  108.0246
 663  303.3937
 664  247.3713
 665  197.2135
 666  165.0453
 667  170.2999
 668  136.8762
 669  109.4422
 670  110.2744
 671  125.1445
 672  66.77175
 673  -17.42638
 674  -117.9899
 675  -93.27513
 676  -78.73549
 677  40.86213
 678  182.1635
 679  274.9724
 680  182.7635
 681  115.6711
 682  111.3732
 683  92.18855
 684  2.852828
 685  1.529657
 686  59.93079
 687  151.6836
 688  163.7591
 689  179.3136
 690  157.7968
 691  183.1494
 692  245.6859
 693  181.9815
 694  152.415
 695  90.61433
 696  121.2863
 697  122.6766
 698  140.209
 699  176.8892
 700  128.334
 701  136.0148
 702  118.032
 703  77.70203
 704  39.35987
 705  17.36504
 706  53.75704
 707  40.1997
 708  -23.94461
 709  22.68361
 710  85.92942
 711  44.73271
 712  -107.0309
 713  -136.6884
 714  7.032866
 715  -21.26879
 716  -4.890166
 717  0.9133242
 718  50.40973
 719  17.91319
 720  -13.92525
 721  29.45946
 722  18.62581
 723  -53.0415
 724  -96.46141
 725  -55.47278
 726  54.77342
 727  34.52589
 728  64.21981
 729  150.6641
 730  225.8725
 731  222.9481
 732  204.6391
 733  167.9123
 734  115.7422
 735  175.6035
 736  188.5985
 737  146.602
 738  45.9075
 739  88.40078
 740  143.1488
 741  142.9584
 742  149.2718
 743  228.9928
 744  208.3312
 745  196.9449
 746  64.94611
 747  162.6476
 748  114.8042
 749  170.173
 750  166.6923
 751  252.793
 752  178.2015
 753  96.80923
 754  25.86138
 755  -48.89581
 756  -39.50049
 757  -30.8131
 758  43.79922
 759  98.82146
 760  109.9944
 761  95.18901
 762  22.82892
 763  75.49796
 764  98.84619
 765  83.29373
 766  -18.03732
 767  3.384631
 768  52.08278
 769  20.87232
 770  32.20991
 771  86.47458
 772  201.3006
 773  245.211
 774  249.8445
 775  236.7911
 776  138.2913
 777  57.48206
 778  -24.1277
 779  60.69925
 780  91.81778
 781  108.8249
 782  37.95415
 783  107.9472
 784  103.4243
 785  82.85039
 786  -10.08127
 787  -77.09068
 788  -69.21487
 789  44.56129
 790  142.2715
 791  274.2191
 792  233.3568
 793  94.73576
 794  -0.8913234
 795  81.35304
 796  175.2879
 797  141.4026
 798  68.24781
 799  89.55936
 800  87.23749
 801  41.32134
 802  41.78684
 803  4.57493
 804  54.53176
 805  -19.48038
 806  -53.73875
 807  -57.76083
 808  124.6368
 809  200.7539
 810  262.5056
 811  185.9251
 812  137.5926
 813  76.09449
 814  112.5782
 815  90.03828
 816  136.4446
 817  127.0018
 818  165.5722
 819  186.569
 820  208.9941
 821  255.6581
 822  237.4097
 823  227.2009
 824  124.002
 825  22.77964
 826  -32.74687
 827  -26.13876
 828  71.0228
 829  79.74246
 830  92.30392
 831  115.9605
 832  114.8048
 833  61.59612
 834  -30.01458
 835  -10.20189
 836  35.32203
 837  -64.16367
 838  -95.99289
 839  45.65024
 840  134.7683
 841  164.8932
 842  143.6978
 843  213.6748
 844  204.4878
 845  154.8261
 846  181.0168
 847  119.93
 848  32.57738
 849  -87.85939
 850  -92.22259
 851  -41.38074
 852  5.558738
 853  30.80612
 854  68.68456
 855  204.6627
 856  156.2827
 857  126.8215
 858  62.61774
 859  145.2437
 860  108.8501
 861  88.69876
 862  119.6582
 863  149.0459
 864  93.67327
 865  83.16136
 866  102.3948
 867  114.459
 868  94.97514
 869  175.1404
 870  264.7911
 871  237.703
 872  139.817
 873  -19.31938
 874  -11.8865
 875  130.435
 876  270.511
 877  208.9672
 878  167.9986
 879  199.3902
 880  264.0089
 881  168.1185
 882  81.39359
 883  86.51205
 884  156.445
 885  251.1178
 886  275.7948
 887  194.065
 888  114.1855
 889  93.05123
 890  175.1283
 891  269.2671
 892  360.9593
 893  281.5088
 894  118.072
 895  80.641
 896  160.6365
 897  183.6179
 898  125.4712
 899  55.92583
 900  117.6529
 901  179.8735
 902  220.3074
 903  182.779
 904  196.8922
 905  207.4779
 906  224.2795
 907  157.0055
 908  157.5302
 909  93.10177
 910  76.09328
 911  41.15675
 912  42.50876
 913  81.82022
 914  139.1524
 915  206.8936
 916  170.092
 917  48.11509
 918  -28.67924
 919  -59.61227
 920  39.52842
 921  65.52853
 922  38.36023
 923  53.52421
 924  102.1637
 925  178.6057
 926  95.48196
 927  63.2665
 928  86.78035
 929  171.6945
 930  187.1421
 931  150.7218
 932  83.25722
 933  75.8103
 934  95.66334
 935  138.2893
 936  210.1512
 937  182.1792
 938  72.52177
 939  -8.115643
 940  105.2347
 941  193.3244
 942  206.3382
 943  146.4216
 944  85.58401
 945  16.14185
 946  3.013162
 947  98.34191
 948  183.4249
 949  192.4109
 950  211.0024
 951  231.5646
 952  209.4563
 953  98.26804
 954  52.60762
 955  87.59283
 956  135.9826
 957  253.5529
 958  298.7011
 959  350.075
 960  306.3446
 961  177.8375
 962  76.01931
 963  -0.2536827
 964  148.4546
 965  167.6851
 966  93.22173
 967  47.06818
 968  142.5186
 969  187.206
 970  54.59124
 971  -3.274238
 972  67.50047
 973  240.5332
 974  278.0117
 975  211.5992
 976  52.31287
 977  23.43308
 978  34.29039
 979  57.84323
 980  183.8134
 981  254.7711
 982  135.5538
 983  2.49587
 984  62.65775
 985  220.4363
 986  175.5675
 987  101.3732
 988  22.15527
 989  11.37868
 990  68.064
 991  145.4975
 992  225.0478
 993  217.5435
 994  213.9169
 995  171.112
 996  174.1104
 997  118.974
 998  51.08109
 999  24.41492
1000  -4.623184
1001  76.73528
1002  119.6119
1003  222.2769
1004  119.1824
1005  64.59982
1006  59.92099
1007  155.4344
1008  241.6982
1009  197.3728
1010  90.21838
1011  49.27045
1012  85.26587
1013  168.1337
1014  166.3656
1015  206.3635
1016  193.0509
1017  203.4262
1018  188.5735
1019  136.7928
1020  100.8833
1021  90.18169
1022  147.978
1023  242.9139
