# Input file       =  1185836768.110852_cleaned.dat
# Candidate        =  PSR_0332+5434
# Telescope        =  AR
# Epoch_topo       =  57968.962813783008
# Epoch_bary       =  N/A
# T_sample         =  0.002
# Data Folded      =  7208960
# Data Avg         =  0.0955841368815696
# Data StdDev      =  3.97327902344162 
# Profile Bins     =  512
# Profile Avg      =  1345.86410571187 
# Profile StdDev   =  471.466014119307 
# Reduced chi-sqr  =  0.560
# Prob(Noise)      <  1   (~0.0 sigma)
# P_topo (ms)      =  714.468265302819  +/- 0.000101
# P'_topo (s/s)    =  -0                +/- 5.45e-11
# P''_topo (s/s^2) =  0                 +/- 2.45e-14
# P_bary (ms)      =  N/A
# P'_bary (s/s)    =  N/A
# P''_bary (s/s^2) =  N/A
# P_orb (s)        =  N/A
# asin(i)/c (s)    =  N/A
# eccentricity     =  N/A
# w (rad)          =  N/A
# T_peri           =  N/A
######################################################
   0  1639.374
   1  1243.164
   2  933.4092
   3  1028.467
   4  1172.587
   5  1182.975
   6  1644.026
   7  1838.702
   8  1506.017
   9  960.4763
  10  748.7471
  11  1249.267
  12  1227.538
  13  1083.73
  14  1637.276
  15  1638.394
  16  1742.705
  17  1267.285
  18  915.7318
  19  1195.461
  20  1494.75
  21  1608.243
  22  1422.709
  23  1143.155
  24  1221.005
  25  1125.099
  26  1285.783
  27  1667.164
  28  1474.527
  29  1515.656
  30  1285.324
  31  1369.032
  32  1293.571
  33  1462.713
  34  1455.59
  35  1057.783
  36  1444.251
  37  1672.258
  38  1762.062
  39  1623.816
  40  1363.414
  41  1254.359
  42  1212.4
  43  1035.253
  44  988.9416
  45  1087.069
  46  1215.159
  47  1283.174
  48  1437.808
  49  1457.885
  50  1346.286
  51  1127.354
  52  1196.916
  53  1312.409
  54  1164.974
  55  1194.896
  56  1390.309
  57  1415.623
  58  1225.806
  59  1390.467
  60  1302.6
  61  1572.185
  62  1425.739
  63  1124.297
  64  1409.085
  65  1481.458
  66  1082.153
  67  874.4767
  68  1041.217
  69  1244.013
  70  1374.227
  71  1793.4
  72  1586.89
  73  1713.315
  74  1697.038
  75  1266.915
  76  1375.492
  77  1495.733
  78  1506.128
  79  1198.001
  80  1036.881
  81  1664.154
  82  1485.362
  83  1567.465
  84  1544.384
  85  1753.3
  86  1872.718
  87  2169.367
  88  2037.77
  89  2272.964
  90  2565.249
  91  2837.519
  92  2512.53
  93  2102.76
  94  1727.509
  95  1417.403
  96  1535.763
  97  1569.107
  98  1716.964
  99  1676.046
 100  1357.445
 101  1517.771
 102  1652.929
 103  1451.958
 104  1217.384
 105  1143.682
 106  1996.516
 107  1774.409
 108  1204.367
 109  1028.352
 110  1575.112
 111  1336.903
 112  1012.768
 113  1289.711
 114  1583.424
 115  1641.978
 116  1230.209
 117  1271.486
 118  1170.159
 119  1223.857
 120  1416.552
 121  1250.242
 122  1369.809
 123  1477.825
 124  1525.707
 125  1387.345
 126  1141.835
 127  1112.087
 128  1327.589
 129  1347.024
 130  1256.033
 131  1180.217
 132  1542.248
 133  1440.284
 134  1128.312
 135  1319.647
 136  1608.55
 137  1437.28
 138  1267.674
 139  1051.562
 140  1156.15
 141  1107.458
 142  1262.066
 143  1501.355
 144  1226.376
 145  1231.1
 146  1402.753
 147  1287.667
 148  1321.685
 149  1281.783
 150  1196.983
 151  1365.207
 152  1132.129
 153  1406.83
 154  1574.889
 155  1487.268
 156  1346.658
 157  1403.088
 158  1646.506
 159  1144.039
 160  1228.687
 161  1505.506
 162  1569.016
 163  1261.313
 164  1129.033
 165  1320.965
 166  1293.161
 167  1124.857
 168  1124.453
 169  1424.051
 170  1470.464
 171  1099.057
 172  1286.8
 173  1511.667
 174  1197.856
 175  1200.948
 176  1320.35
 177  1585.63
 178  1459.633
 179  1477.496
 180  1476.777
 181  1246.636
 182  1359.036
 183  1335.102
 184  1203.549
 185  1282.162
 186  1036.193
 187  1063.163
 188  1001.916
 189  837.0978
 190  1354.635
 191  1154.108
 192  1167.06
 193  1382.268
 194  1420.16
 195  1436.127
 196  1432.374
 197  1278.094
 198  1329.052
 199  911.4081
 200  928.4726
 201  1190.235
 202  1378.908
 203  1517.866
 204  1590.081
 205  1349.525
 206  827.4818
 207  1033.351
 208  900.1525
 209  1328.156
 210  1397.56
 211  1113.39
 212  1304.554
 213  1298.594
 214  1207.244
 215  1226.28
 216  896.6728
 217  1069.098
 218  1123.031
 219  1092.175
 220  1260.011
 221  1283.507
 222  1207.495
 223  1295.341
 224  959.1108
 225  1015.497
 226  1189.341
 227  1210.267
 228  1471.236
 229  1264.316
 230  1526.138
 231  1683.516
 232  1623.771
 233  1151.138
 234  1161.977
 235  1371.31
 236  1665.717
 237  1672.359
 238  1279.024
 239  1315.086
 240  1405.69
 241  1391.838
 242  1362.504
 243  1372.172
 244  1051.232
 245  1238.038
 246  1757.078
 247  1437.499
 248  989.1489
 249  1044.59
 250  1351.476
 251  1390.002
 252  1374.856
 253  1529.19
 254  1539.466
 255  1618.77
 256  1282.054
 257  1552.8
 258  1294.233
 259  1154.66
 260  1154.937
 261  1527.018
 262  1710.176
 263  1382.016
 264  1303.544
 265  1553.06
 266  1561.446
 267  1640.84
 268  1461.752
 269  1071.659
 270  1142.863
 271  1066.231
 272  1255.355
 273  1331.396
 274  1172.901
 275  1280.494
 276  1107.586
 277  1402.702
 278  1264.75
 279  1528.3
 280  1344.986
 281  1412.418
 282  1376.763
 283  1248.18
 284  823.9996
 285  957.8955
 286  1189.26
 287  1321.22
 288  1069.04
 289  972.2057
 290  1064.987
 291  1247.441
 292  1417.542
 293  1483.731
 294  1086.452
 295  1170.846
 296  1162.745
 297  1386.795
 298  1361.605
 299  1193.626
 300  1360.457
 301  1449.917
 302  1388.865
 303  1529.756
 304  1598.475
 305  1583.409
 306  1181.758
 307  1190.347
 308  1203.398
 309  1242.446
 310  1373.272
 311  1362.689
 312  1262.677
 313  1111.139
 314  1258.996
 315  1296.03
 316  1288.569
 317  1524.805
 318  1504.436
 319  1103.984
 320  1361.558
 321  1448.958
 322  1264.094
 323  814.209
 324  563.8385
 325  728.6423
 326  1412.908
 327  1507.955
 328  1414.01
 329  1311.035
 330  1473.499
 331  1424.037
 332  1198.12
 333  1080.645
 334  1191.285
 335  1233.661
 336  1251.585
 337  1613.153
 338  1659.278
 339  1385.728
 340  1181.9
 341  1378.307
 342  1436.638
 343  1410.627
 344  1609.432
 345  1369.301
 346  1073.058
 347  971.8406
 348  1051.449
 349  955.2478
 350  1100.148
 351  1189.43
 352  1073.734
 353  1235.171
 354  1205.127
 355  1242.363
 356  731.4439
 357  885.4862
 358  1247.546
 359  1283.062
 360  1350.605
 361  1626.198
 362  1242.502
 363  1244.61
 364  1169.361
 365  1171.199
 366  1303.493
 367  1486.514
 368  1858.757
 369  1343.718
 370  1177.226
 371  1010.916
 372  1081.095
 373  1294.823
 374  1520.505
 375  1648.198
 376  1299.342
 377  1175.863
 378  1066.515
 379  1360.232
 380  1551.62
 381  1067.497
 382  1491.904
 383  1427.093
 384  1221.997
 385  1162.116
 386  1191.74
 387  1382.26
 388  1351.831
 389  1460.939
 390  1363.07
 391  1504.489
 392  1559.373
 393  1383.307
 394  1487.023
 395  1718.947
 396  1470.361
 397  1196.869
 398  981.9174
 399  1212.193
 400  1401.645
 401  1653.342
 402  1586.597
 403  1652.815
 404  1785.664
 405  1297.587
 406  953.4815
 407  909.6526
 408  1215.099
 409  1237.947
 410  1622.014
 411  1400.53
 412  1547.895
 413  1485.911
 414  1448.151
 415  1148.081
 416  1359.516
 417  1464.427
 418  1442.408
 419  1252.455
 420  1176.036
 421  1258.847
 422  1244.119
 423  1130.962
 424  1219.93
 425  1206.644
 426  1393.998
 427  1339.194
 428  1561.384
 429  1424.878
 430  1155.167
 431  1000.508
 432  1176.829
 433  1052.754
 434  1072.208
 435  1176.564
 436  1207.066
 437  1237.231
 438  1021.923
 439  796.6844
 440  857.319
 441  1487.873
 442  1823.318
 443  1861.845
 444  1881.662
 445  1606.652
 446  1508.68
 447  1171.905
 448  1170.012
 449  1397.541
 450  1199.87
 451  1230.251
 452  920.3044
 453  938.2874
 454  1452.059
 455  1490.629
 456  1604
 457  1250.446
 458  1199.603
 459  1590.457
 460  1383.485
 461  1465.064
 462  1230.688
 463  1218.728
 464  1486.43
 465  1564.531
 466  1816.242
 467  1949.266
 468  1431.09
 469  1264.293
 470  1717.509
 471  1446.104
 472  1157.333
 473  1200.562
 474  1220.314
 475  1564.474
 476  1377.107
 477  1610.068
 478  1800.066
 479  1389.049
 480  1459.587
 481  1300.044
 482  850.5551
 483  1216.593
 484  1592.096
 485  1631.797
 486  1702.586
 487  1375
 488  1029.382
 489  1123.145
 490  1423.162
 491  1797.719
 492  1528.699
 493  1694.55
 494  1589.836
 495  1487.927
 496  1387.278
 497  1365.585
 498  1361.549
 499  1678.635
 500  1729.734
 501  1436.709
 502  1488.388
 503  1225.352
 504  1256.213
 505  1117.223
 506  1090.724
 507  1563.19
 508  1823.946
 509  1870.277
 510  1438.957
 511  1644.523
