# Input file       =  1185750573.115542_cleaned.dat
# Candidate        =  PSR_0332+5434
# Telescope        =  AR
# Epoch_topo       =  57967.965186522473
# Epoch_bary       =  N/A
# T_sample         =  0.002
# Data Folded      =  7208960
# Data Avg         =  0.309095695365052
# Data StdDev      =  5.04839556183323 
# Profile Bins     =  512
# Profile Avg      =  4352.09582412663 
# Profile StdDev   =  599.038456446848 
# Reduced chi-sqr  =  0.415
# Prob(Noise)      <  1   (~0.0 sigma)
# P_topo (ms)      =  714.468660468008  +/- 9.68e-05
# P'_topo (s/s)    =  -0                +/- 5.2e-11
# P''_topo (s/s^2) =  0                 +/- 2.34e-14
# P_bary (ms)      =  N/A
# P'_bary (s/s)    =  N/A
# P''_bary (s/s^2) =  N/A
# P_orb (s)        =  N/A
# asin(i)/c (s)    =  N/A
# eccentricity     =  N/A
# w (rad)          =  N/A
# T_peri           =  N/A
######################################################
   0  4420.951
   1  4449.959
   2  4210.889
   3  4686.237
   4  4832.818
   5  4592.242
   6  4625.879
   7  4657.824
   8  4220.391
   9  3940.793
  10  4271.681
  11  4296.212
  12  4258.532
  13  4500.534
  14  4297.391
  15  4502.051
  16  4076.218
  17  3759.038
  18  4282.539
  19  4184.377
  20  4495.981
  21  4332.356
  22  4452.161
  23  4096.827
  24  4274.575
  25  4575.599
  26  4330.117
  27  4432.89
  28  3938.738
  29  4106.087
  30  4252.606
  31  4445.272
  32  4295.248
  33  4552.034
  34  4169.474
  35  4174.104
  36  4322.795
  37  4162.404
  38  4057.629
  39  4464.833
  40  4728.924
  41  3873.25
  42  3876.514
  43  4222.918
  44  4237.35
  45  4397.222
  46  4423.833
  47  4623.383
  48  4458.117
  49  4256.166
  50  4183.708
  51  4323.054
  52  4157.793
  53  3788.867
  54  4286.49
  55  4291.889
  56  4133.383
  57  4432.63
  58  4439.842
  59  4291.172
  60  4454.531
  61  4603.898
  62  4904.484
  63  4725.463
  64  4739.828
  65  4948.117
  66  4860.795
  67  4265.387
  68  3891.735
  69  4038.631
  70  3936.873
  71  4105.326
  72  4476.761
  73  4806.277
  74  4452.434
  75  4382.185
  76  4613.854
  77  4608.787
  78  4551.787
  79  4542.254
  80  4503.803
  81  4445.436
  82  4358.246
  83  4144.532
  84  4501.402
  85  4176.662
  86  4122.201
  87  4787.122
  88  4378.067
  89  4504.636
  90  4393.01
  91  4465.562
  92  4326.513
  93  4572.404
  94  4655.125
  95  4340.319
  96  4399.978
  97  4274.607
  98  4234.807
  99  4344.178
 100  4306.233
 101  4174.125
 102  3982.191
 103  3966.908
 104  3929.052
 105  3984.985
 106  3853.218
 107  4435.022
 108  4365.998
 109  4582.683
 110  4810.579
 111  4406.708
 112  3855.8
 113  4134.365
 114  4323.454
 115  4124.828
 116  4453.03
 117  4600.102
 118  4389.673
 119  4631.848
 120  4748.52
 121  4567.462
 122  4516.16
 123  4492.251
 124  4648.92
 125  4677.471
 126  5398.842
 127  5524.787
 128  5673.606
 129  5902.388
 130  5428.505
 131  5185.692
 132  4761.168
 133  4736.696
 134  4448.35
 135  4326.38
 136  4502.582
 137  4312.302
 138  4555.049
 139  4546.984
 140  4330.863
 141  3956.085
 142  3974.464
 143  4378.359
 144  4221.167
 145  4922.699
 146  4812.7
 147  4521.008
 148  4474.832
 149  4416.628
 150  4263.849
 151  4401.791
 152  4566.218
 153  4540.634
 154  4735.348
 155  4209.946
 156  3776.502
 157  4092.25
 158  4453.643
 159  4481.567
 160  4573.292
 161  4648.008
 162  4359.054
 163  4901.329
 164  4365.786
 165  4527.732
 166  4303.152
 167  4223.114
 168  4349.222
 169  4530.149
 170  4652.14
 171  4390.283
 172  4293.433
 173  4078.589
 174  3911.813
 175  3805.32
 176  4191.711
 177  4278.752
 178  4502.07
 179  4632.754
 180  4453.302
 181  4215.652
 182  4309.814
 183  4391.362
 184  4128.244
 185  3595.829
 186  3728.191
 187  4561.7
 188  4448.054
 189  4341.137
 190  4331.396
 191  4230.241
 192  3838.432
 193  4042.45
 194  4243.27
 195  4223.341
 196  4458.815
 197  4530.585
 198  3788.361
 199  3886.659
 200  4085.332
 201  4418.293
 202  4889.52
 203  4613.288
 204  3937.228
 205  4417.737
 206  4217.045
 207  4007.815
 208  3867.854
 209  4427.393
 210  4587.243
 211  4560.273
 212  4686.417
 213  4270.302
 214  3882.341
 215  3680.289
 216  4265.503
 217  4599.715
 218  4512.17
 219  4300.781
 220  4318.63
 221  4186.495
 222  3891.33
 223  3959.537
 224  3962.846
 225  4136.352
 226  4066.893
 227  4158.552
 228  4233.851
 229  4477.237
 230  4187.623
 231  4304.377
 232  4266.951
 233  4077.177
 234  4494.924
 235  4473.638
 236  4115.156
 237  3893.906
 238  4267.698
 239  4306.984
 240  4541.644
 241  4812.937
 242  4261.424
 243  4236.918
 244  4409.819
 245  4615.44
 246  4456.464
 247  4541.954
 248  4302.434
 249  4140.188
 250  4149.682
 251  4067.908
 252  4551.806
 253  4635.762
 254  4770.413
 255  4459.146
 256  3998.21
 257  4237.048
 258  4442.664
 259  4696.661
 260  4474.875
 261  4685.417
 262  4501.783
 263  4121.192
 264  4288.529
 265  4386.68
 266  4312.634
 267  4256.653
 268  4415.698
 269  4571.363
 270  4248.513
 271  4631.802
 272  4524.799
 273  4183.294
 274  4202.877
 275  3966.066
 276  4337.18
 277  4455.128
 278  4567.86
 279  4378.533
 280  4182.053
 281  4229.552
 282  4118.498
 283  4330.971
 284  4344.79
 285  4351.159
 286  4429.283
 287  4730.278
 288  4461.267
 289  4111.551
 290  4153.814
 291  4568.387
 292  4131.823
 293  4275.45
 294  4446.776
 295  4483.516
 296  4441.417
 297  4177.102
 298  4520.605
 299  4428.061
 300  4115.59
 301  4191.183
 302  4490.664
 303  4739.308
 304  4214.354
 305  4363.837
 306  4366.709
 307  4015.052
 308  4222.669
 309  4346.998
 310  4532.662
 311  4641.981
 312  4757.219
 313  4646.671
 314  4308.573
 315  4205.982
 316  4151.181
 317  4312.335
 318  4223.466
 319  4050.508
 320  4165.583
 321  4038.967
 322  4086.427
 323  4171.044
 324  4530.125
 325  4684.562
 326  4605.237
 327  4726.305
 328  4574.123
 329  4550.351
 330  4454.548
 331  4837.448
 332  4674.697
 333  4367.905
 334  4525.103
 335  4410.385
 336  4352.919
 337  4014.716
 338  4170.86
 339  4617.093
 340  4310.88
 341  4200.202
 342  4307.53
 343  4790.338
 344  4834.956
 345  4541.509
 346  4257.22
 347  4059.102
 348  3867.449
 349  4087.204
 350  4431.165
 351  4527.731
 352  4545.968
 353  4397.89
 354  4393.47
 355  4041.021
 356  4116.791
 357  4327.871
 358  4536.54
 359  4354.083
 360  4588.437
 361  4407.941
 362  4213.339
 363  4204.72
 364  4065.433
 365  4081.123
 366  3959.519
 367  4110.402
 368  4190.746
 369  4256.833
 370  4855.872
 371  4703.551
 372  4409.197
 373  4368.997
 374  4284.502
 375  4241.901
 376  4489.629
 377  4886.921
 378  4570
 379  4998.553
 380  4547.493
 381  4255.667
 382  4370.372
 383  4308.944
 384  4212.132
 385  4222.107
 386  4285.768
 387  4238.108
 388  4368.538
 389  4259.017
 390  4202.825
 391  4266.95
 392  4515.562
 393  4394.406
 394  4447.496
 395  4657.204
 396  4508.901
 397  4574.234
 398  4622.213
 399  3987.008
 400  3915.219
 401  4429.997
 402  4388.341
 403  4224.12
 404  4199.761
 405  4148.841
 406  3838.711
 407  4013.207
 408  4227.904
 409  4087.65
 410  4269.655
 411  4670.8
 412  4545.345
 413  4031.31
 414  3966.558
 415  3640.309
 416  4138.926
 417  4300.177
 418  4546.462
 419  4854.378
 420  4356.091
 421  4069.594
 422  3933.598
 423  4229.339
 424  3965.058
 425  4354.118
 426  4404.884
 427  4418.889
 428  4137.549
 429  3753.491
 430  4157.14
 431  4233.259
 432  4139.473
 433  4394.703
 434  4799.279
 435  4447.811
 436  4233.402
 437  4259.474
 438  4009.844
 439  3943.682
 440  4004.723
 441  4380.672
 442  4108.554
 443  4369.049
 444  4699.647
 445  4376.916
 446  4143.343
 447  4213.779
 448  4179.86
 449  4206.269
 450  4146.199
 451  4389.437
 452  4139.37
 453  4481.675
 454  4307.525
 455  4640.324
 456  4087.784
 457  3959.347
 458  4139.611
 459  4157.64
 460  4567.792
 461  4663.477
 462  4440.273
 463  4626.62
 464  4217.775
 465  4327.988
 466  4045.37
 467  4495.637
 468  4530.379
 469  4447.57
 470  4434.628
 471  4275.219
 472  4208.587
 473  4275.825
 474  4685.539
 475  4852.809
 476  4700.82
 477  4691.825
 478  4709.123
 479  4581.055
 480  4184.985
 481  4214.321
 482  4046.014
 483  4023.12
 484  4379.862
 485  4640.581
 486  4606.241
 487  4096.78
 488  4146.527
 489  4232.542
 490  4115.068
 491  4058.367
 492  4497.489
 493  4273.716
 494  4443.612
 495  4462.219
 496  3950.874
 497  4365.426
 498  4327.899
 499  4240.028
 500  4496.999
 501  4479.061
 502  4101.769
 503  4011.507
 504  4030.386
 505  3810.153
 506  4555.002
 507  4178.458
 508  4366.863
 509  4601.641
 510  4646.976
 511  4498.099
