# Input file       =  1185334429.098027_cleaned.dat
# Candidate        =  PSR_0332+5434
# Telescope        =  AR
# Epoch_topo       =  57963.148704838277
# Epoch_bary       =  N/A
# T_sample         =  0.002
# Data Folded      =  7340032
# Data Avg         =  0.0375288931062036
# Data StdDev      =  1.00001036982262 
# Profile Bins     =  512
# Profile Avg      =  537.846440487141 
# Profile StdDev   =  119.734277987116 
# Reduced chi-sqr  =  1.463
# Prob(Noise)      <  3.59e-11   (~6.5 sigma)
# P_topo (ms)      =  714.470784554526  +/- 0.000313
# P'_topo (s/s)    =  -0                +/- 1.65e-10
# P''_topo (s/s^2) =  0                 +/- 7.28e-14
# P_bary (ms)      =  N/A
# P'_bary (s/s)    =  N/A
# P''_bary (s/s^2) =  N/A
# P_orb (s)        =  N/A
# asin(i)/c (s)    =  N/A
# eccentricity     =  N/A
# w (rad)          =  N/A
# T_peri           =  N/A
######################################################
   0  469.7379
   1  610.9799
   2  524.1044
   3  495.4179
   4  544.6138
   5  626.9318
   6  502.334
   7  569.7266
   8  477.8647
   9  367.9019
  10  398.8571
  11  503.6019
  12  588.5978
  13  530.141
  14  628.313
  15  589.9222
  16  616.8406
  17  684.1888
  18  678.6959
  19  533.6795
  20  496.9636
  21  553.851
  22  482.5241
  23  517.5248
  24  571.13
  25  564.5834
  26  569.7291
  27  590.5389
  28  581.0598
  29  601.1779
  30  651.0305
  31  668.4502
  32  591.9635
  33  530.3459
  34  451.2586
  35  573.4329
  36  664.5016
  37  684.915
  38  697.0013
  39  722.5265
  40  632.0234
  41  560.1458
  42  558.7966
  43  598.6502
  44  515.8866
  45  553.0052
  46  742.9525
  47  734.6733
  48  669.0483
  49  641.923
  50  652.1302
  51  587.9098
  52  606.7473
  53  583.8751
  54  658.3083
  55  631.6444
  56  664.8488
  57  647.7695
  58  637.4879
  59  696.3641
  60  680.3795
  61  639.1896
  62  646.39
  63  580.3079
  64  513.6803
  65  476.4576
  66  519.9097
  67  663.0322
  68  682.4406
  69  727.4291
  70  555.3533
  71  491.9391
  72  654.0386
  73  564.1179
  74  463.7068
  75  551.5272
  76  487.2963
  77  462.0558
  78  538.2286
  79  602.0679
  80  666.6566
  81  708.6068
  82  743.7156
  83  561.4561
  84  507.6231
  85  543.8467
  86  623.9766
  87  701.5039
  88  601.697
  89  710.5311
  90  589.6038
  91  513.5247
  92  577.5653
  93  703.9192
  94  573.907
  95  554.0621
  96  609.624
  97  568.5452
  98  629.9976
  99  645.4712
 100  682.8692
 101  710.7177
 102  639.124
 103  639.4738
 104  685.0889
 105  588.2965
 106  608.6246
 107  632.1874
 108  716.5798
 109  635.0185
 110  482.3099
 111  581.488
 112  730.3882
 113  626.7441
 114  646.2137
 115  627.6246
 116  519.7814
 117  526.9288
 118  588.4918
 119  580.7932
 120  552.3325
 121  620.1296
 122  696.2365
 123  576.2348
 124  650.1627
 125  545.457
 126  550.7553
 127  727.9462
 128  702.5784
 129  594.1223
 130  580.9062
 131  496.2487
 132  505.1432
 133  456.3418
 134  551.8964
 135  577.1097
 136  624.0865
 137  554.6397
 138  501.5034
 139  476.6705
 140  475.0226
 141  493.2989
 142  523.4701
 143  472.6542
 144  603.2926
 145  560.8697
 146  489.9941
 147  611.2056
 148  640.8224
 149  563.2225
 150  571.2228
 151  610.2062
 152  556.9531
 153  576.4163
 154  632.2514
 155  558.4513
 156  640.637
 157  676.3916
 158  657.6734
 159  514.0863
 160  602.3804
 161  700.661
 162  648.6696
 163  567.3485
 164  481.8116
 165  565.9453
 166  649.8583
 167  655.1423
 168  654.509
 169  687.3119
 170  611.1887
 171  667.1134
 172  659.5846
 173  641.7435
 174  607.65
 175  589.8286
 176  585.1793
 177  542.0982
 178  671.6135
 179  735.8983
 180  573.7635
 181  442.895
 182  553.8965
 183  607.7897
 184  599.2087
 185  507.0975
 186  642.1935
 187  703.6528
 188  670.8145
 189  507.7733
 190  496.748
 191  456.0912
 192  474.8224
 193  463.08
 194  466.457
 195  523.9298
 196  556.8561
 197  598.7059
 198  565.2892
 199  594.8802
 200  603.0521
 201  558.2612
 202  485.4493
 203  450.2366
 204  377.735
 205  461.0797
 206  513.5867
 207  511.2646
 208  554.4018
 209  660.6001
 210  565.746
 211  474.3757
 212  421.4253
 213  372.6805
 214  482.9758
 215  484.248
 216  436.4735
 217  397.9148
 218  523.5746
 219  481.1696
 220  556.4355
 221  534.0536
 222  463.7541
 223  311.5431
 224  402.827
 225  513.4392
 226  414.0126
 227  490.6719
 228  606.2871
 229  665.3354
 230  582.1986
 231  514.4894
 232  532.2902
 233  554.0502
 234  566.9467
 235  654.3051
 236  704.8542
 237  567.7119
 238  515.6886
 239  604.3325
 240  615.6688
 241  563.408
 242  561.2783
 243  535.7254
 244  482.5445
 245  485.3479
 246  524.878
 247  536.9379
 248  487.7573
 249  536.4029
 250  542.9608
 251  473.2626
 252  564.8377
 253  544.6266
 254  576.9036
 255  590.0131
 256  608.3718
 257  559.3505
 258  539.8433
 259  554.9294
 260  577.2054
 261  588.5368
 262  583.6859
 263  549.2744
 264  536.8189
 265  605.4999
 266  536.795
 267  581.322
 268  500.4522
 269  489.3675
 270  479.2405
 271  480.6644
 272  545.996
 273  570.0304
 274  431.8441
 275  441.0665
 276  486.9989
 277  471.2646
 278  507.4275
 279  471.0928
 280  528.5811
 281  516.5885
 282  462.7631
 283  432.4801
 284  457.575
 285  491.6364
 286  481.6105
 287  460.9456
 288  507.2359
 289  548.3195
 290  593.1565
 291  686.4977
 292  637.6368
 293  525.0568
 294  488.8117
 295  564.1064
 296  663.2774
 297  659.083
 298  642.4249
 299  635.8776
 300  669.9269
 301  949.3166
 302  1062.656
 303  1119.547
 304  1066.348
 305  968.6365
 306  647.4201
 307  537.6959
 308  374.7947
 309  372.0009
 310  500.6769
 311  550.0239
 312  586.8141
 313  482.724
 314  447.7771
 315  523.8421
 316  469.0052
 317  505.9402
 318  572.0787
 319  647.7776
 320  575.6631
 321  439.415
 322  461.805
 323  495.8139
 324  419.6013
 325  393.7
 326  324.5703
 327  453.0713
 328  500.9187
 329  418.5173
 330  475.4232
 331  574.625
 332  495.2062
 333  398.4657
 334  381.9624
 335  464.7807
 336  515.9822
 337  516.8187
 338  396.3005
 339  512.7766
 340  607.9788
 341  422.3089
 342  355.3481
 343  416.7024
 344  424.262
 345  439.6472
 346  527.3833
 347  432.0855
 348  496.9572
 349  488.2481
 350  488.7073
 351  542.8603
 352  516.8227
 353  531.3309
 354  450.4926
 355  544.9097
 356  536.5029
 357  447.1671
 358  406.9066
 359  388.7791
 360  423.3524
 361  365.2011
 362  349.5383
 363  314.5654
 364  264.1296
 365  458.6685
 366  426.618
 367  379.5603
 368  459.4906
 369  489.8943
 370  422.2326
 371  261.7577
 372  384.2462
 373  370.2749
 374  425.4742
 375  487.537
 376  423.552
 377  403.6942
 378  465.9687
 379  380.0562
 380  433.2341
 381  453.0872
 382  476.6519
 383  374.7006
 384  441.9871
 385  436.6712
 386  373.193
 387  378.5067
 388  457.3542
 389  370.4439
 390  467.6795
 391  479.5116
 392  305.6242
 393  384.9357
 394  491.024
 395  525.6088
 396  441.8149
 397  399.4399
 398  430.7262
 399  441.4473
 400  530.8981
 401  507.5099
 402  430.3923
 403  496.2462
 404  467.2589
 405  474.9319
 406  501.2488
 407  458.3668
 408  446.933
 409  460.7571
 410  442.3061
 411  394.7769
 412  453.5619
 413  470.5278
 414  433.133
 415  539.4357
 416  583.8419
 417  437.0175
 418  577.2175
 419  451.1915
 420  505.5579
 421  544.538
 422  465.3499
 423  453.0399
 424  396.7935
 425  403.9512
 426  420.8816
 427  412.4242
 428  390.2254
 429  414.7336
 430  261.6816
 431  284.9427
 432  389.5515
 433  477.729
 434  487.7966
 435  420.7708
 436  518.0209
 437  593.6733
 438  496.7252
 439  459.8688
 440  382.2021
 441  390.7291
 442  502.7536
 443  491.6253
 444  507.6711
 445  476.5399
 446  445.7709
 447  476.2731
 448  470.0895
 449  499.3081
 450  433.7828
 451  401.4831
 452  495.922
 453  544.7875
 454  515.4919
 455  432.0786
 456  465.6976
 457  447.9301
 458  479.4553
 459  638.7055
 460  660.8498
 461  506.9352
 462  561.2632
 463  551.9319
 464  561.369
 465  557.5523
 466  657.458
 467  740.4492
 468  647.7487
 469  532.6164
 470  499.2416
 471  615.7126
 472  601.8641
 473  547.6121
 474  677.3811
 475  669.7935
 476  737.3815
 477  622.8634
 478  553.5392
 479  509.0906
 480  568.1609
 481  641.8891
 482  616.0272
 483  538.8372
 484  605.9384
 485  640.4791
 486  572.6068
 487  510.4836
 488  495.4408
 489  548.1774
 490  597.5761
 491  641.9294
 492  454.2285
 493  371.5455
 494  404.8722
 495  467.3638
 496  615.439
 497  585.6892
 498  446.1804
 499  415.3932
 500  427.9991
 501  404.2433
 502  437.6182
 503  410.3214
 504  422.9175
 505  462.6136
 506  516.8438
 507  503.9638
 508  488.4607
 509  527.1277
 510  509.1143
 511  465.69
