# Input file       =  1185177007.112782_cleaned.dat
# Candidate        =  PSR_0332+5434
# Telescope        =  AR
# Epoch_topo       =  57961.326691120164
# Epoch_bary       =  N/A
# T_sample         =  0.002
# Data Folded      =  7340032
# Data Avg         =  0.320454461853452
# Data StdDev      =  5.15210693280542 
# Profile Bins     =  512
# Profile Avg      =  4593.56228751236 
# Profile StdDev   =  616.877406802581 
# Reduced chi-sqr  =  0.717
# Prob(Noise)      <  1   (~0.0 sigma)
# P_topo (ms)      =  714.472007311528  +/- 0.000494
# P'_topo (s/s)    =  -0                +/- 2.61e-10
# P''_topo (s/s^2) =  0                 +/- 1.15e-13
# P_bary (ms)      =  N/A
# P'_bary (s/s)    =  N/A
# P''_bary (s/s^2) =  N/A
# P_orb (s)        =  N/A
# asin(i)/c (s)    =  N/A
# eccentricity     =  N/A
# w (rad)          =  N/A
# T_peri           =  N/A
######################################################
   0  4333.041
   1  4551.218
   2  4574.415
   3  4646.236
   4  4650.621
   5  4381.605
   6  4262.792
   7  4505.256
   8  4527.732
   9  4620.698
  10  4631.582
  11  4862.308
  12  4285.633
  13  4509.091
  14  4261.266
  15  3936.26
  16  3735.067
  17  3776.255
  18  4140.874
  19  4748.294
  20  4732.485
  21  4740.746
  22  5161.724
  23  5646.616
  24  5765.019
  25  5819.619
  26  5970.592
  27  5818.963
  28  5453.646
  29  4948.822
  30  4868.508
  31  4311.596
  32  4135.993
  33  4761.25
  34  4922.86
  35  4412.701
  36  4458.508
  37  4737.958
  38  4853.892
  39  4904.594
  40  5005.606
  41  5135.88
  42  4562.605
  43  4474.109
  44  4287.078
  45  4530.564
  46  4829.997
  47  5272.759
  48  5503.837
  49  5278.492
  50  4477.317
  51  4478.326
  52  4203.418
  53  4219.863
  54  4532.563
  55  4878.969
  56  4676.512
  57  3984.663
  58  4117.422
  59  4025.669
  60  3995.332
  61  4221.333
  62  4268.539
  63  4420.85
  64  4281.083
  65  4199.145
  66  4413.007
  67  4544.128
  68  4705.994
  69  4721.282
  70  4530.8
  71  4487.753
  72  4526.151
  73  4618.256
  74  4828.276
  75  4864.38
  76  4862.17
  77  4525.026
  78  4677.416
  79  4620.081
  80  4468.992
  81  4499.445
  82  4922.78
  83  4583.401
  84  4364.325
  85  4289.467
  86  4117.178
  87  4288.319
  88  4411.643
  89  4766.77
  90  4576.347
  91  4721.481
  92  4683.873
  93  4599.323
  94  4339.771
  95  4396.468
  96  4321.314
  97  4082.99
  98  4328.199
  99  4299.566
 100  4125.91
 101  4113.428
 102  4284.967
 103  4021.465
 104  3989.966
 105  3916.92
 106  3824.874
 107  3903.194
 108  3723.298
 109  3877.58
 110  4493.963
 111  4216.378
 112  3742.066
 113  3533.231
 114  4351.268
 115  4365.273
 116  3828.286
 117  4011.236
 118  4072.668
 119  4076.325
 120  4256.312
 121  4313.306
 122  4298.661
 123  4536.072
 124  4934.032
 125  4638.717
 126  4670.538
 127  4524.914
 128  4114.587
 129  4237.553
 130  4610.801
 131  4366.575
 132  3920.291
 133  4173.109
 134  4215.249
 135  4383.823
 136  4142.77
 137  3908.992
 138  3812.931
 139  3674.567
 140  4196.315
 141  4456.743
 142  4534.854
 143  4362.749
 144  3895.98
 145  4424.132
 146  4505.263
 147  4490.833
 148  4425.824
 149  4419.932
 150  4182.788
 151  4105.47
 152  4464.064
 153  4444.042
 154  4093.613
 155  3950.338
 156  4286.661
 157  4305.688
 158  4190.349
 159  4176.489
 160  4321.059
 161  4296.854
 162  4431.44
 163  4653.392
 164  4777.253
 165  4931.031
 166  4783.04
 167  4456.156
 168  4675.694
 169  4984.392
 170  5036.455
 171  4585.28
 172  4585.577
 173  4541.086
 174  4765.415
 175  4548.513
 176  4675.85
 177  5058.893
 178  5204.645
 179  4769.944
 180  4593.45
 181  4445.121
 182  4530.771
 183  4658.88
 184  4885.694
 185  4897.934
 186  4501.08
 187  4444.438
 188  4474.591
 189  4607.907
 190  4999.502
 191  4922.103
 192  4863.938
 193  4761.936
 194  4599.207
 195  4887.33
 196  4921.714
 197  5159.591
 198  5231.948
 199  4655.73
 200  4116.456
 201  4421.718
 202  4777.921
 203  4712.797
 204  4450.576
 205  4330.514
 206  4467.222
 207  4401.783
 208  4761.968
 209  4729.643
 210  4387.212
 211  4472.027
 212  4293.469
 213  4054.805
 214  4010.648
 215  4184.854
 216  4436.63
 217  4531.099
 218  4532.656
 219  4790.027
 220  4646.065
 221  4234.952
 222  4259.751
 223  4513.089
 224  4266.733
 225  4437.17
 226  4533.378
 227  4259.389
 228  4399.363
 229  4316.914
 230  4247.13
 231  4386.384
 232  4459.122
 233  4386.948
 234  4004.647
 235  4076.495
 236  4620.227
 237  4787.141
 238  4492.534
 239  4771.44
 240  4400.546
 241  4422.905
 242  4536.257
 243  4801.422
 244  4679.095
 245  4632.839
 246  4616.796
 247  4794.161
 248  4820.633
 249  4642.819
 250  4815.731
 251  5076.755
 252  5026.438
 253  4533.766
 254  4275.375
 255  4476.376
 256  4162.133
 257  3829.952
 258  4455.839
 259  4687.298
 260  4721.91
 261  4397.255
 262  4583.069
 263  4429.673
 264  4569.192
 265  4411.785
 266  4366.758
 267  4478.473
 268  4764.442
 269  4558.467
 270  4648.969
 271  4699.289
 272  4861.69
 273  5183.958
 274  5160.911
 275  5267.764
 276  5313.481
 277  5147.202
 278  5147.882
 279  4978.818
 280  4957.055
 281  4995.013
 282  4807.542
 283  4812.613
 284  4770.071
 285  4314.82
 286  4595.207
 287  4754.962
 288  4133.589
 289  3842.483
 290  4171.123
 291  4579.916
 292  4493.233
 293  4391.254
 294  4286.193
 295  4135.374
 296  4349.483
 297  4587.843
 298  4741.32
 299  4739.305
 300  4821.623
 301  4834.636
 302  5096.876
 303  5092.528
 304  4894
 305  5047.273
 306  5209.201
 307  5157.75
 308  5272.474
 309  5145.366
 310  5077.568
 311  5317.274
 312  5268.33
 313  5046.609
 314  4640.057
 315  4338.483
 316  5151.686
 317  5265.872
 318  5588.569
 319  5467.627
 320  5129.788
 321  5081.965
 322  4852.457
 323  4684.844
 324  4652.313
 325  4731.342
 326  5377.407
 327  5404.478
 328  5166.672
 329  5342.699
 330  5012.814
 331  5044.933
 332  4806.903
 333  4769.132
 334  5199.886
 335  5318.572
 336  5203.478
 337  5119.281
 338  5294.631
 339  4910.37
 340  5002.24
 341  5264.181
 342  5348.249
 343  5104.195
 344  5002.11
 345  5173.296
 346  5396.233
 347  4887.583
 348  5087.967
 349  5263.219
 350  4688.057
 351  4873.665
 352  4822.585
 353  4802.154
 354  4622.848
 355  4718.956
 356  4322.586
 357  4319.928
 358  4393.234
 359  4357.011
 360  4219.614
 361  4108.336
 362  4318.828
 363  4216.64
 364  4309.124
 365  4141.485
 366  4230.689
 367  4591.198
 368  4670.855
 369  4408.738
 370  4369.385
 371  4243.622
 372  4408.411
 373  4643.486
 374  4903.825
 375  4696.891
 376  4983.515
 377  4958.03
 378  5104.537
 379  5171.303
 380  5056.267
 381  5027.405
 382  5109.068
 383  4647.829
 384  4864.295
 385  4578.576
 386  4444.044
 387  5048.361
 388  5037.632
 389  4787.939
 390  4631.891
 391  4643.476
 392  5151.346
 393  5151.915
 394  4736.529
 395  4802.671
 396  4617.34
 397  4456.679
 398  4668.584
 399  4552.083
 400  4551.328
 401  4530.736
 402  4487.28
 403  4648.971
 404  4726.348
 405  5001.129
 406  5054.771
 407  4861.201
 408  4646.227
 409  4492.212
 410  4590.007
 411  4874.233
 412  4834.519
 413  4888.409
 414  4820.644
 415  4450.917
 416  4649.605
 417  4529.358
 418  4349.724
 419  4734.251
 420  4751.477
 421  4824.833
 422  4549.096
 423  4538.863
 424  4492.22
 425  4277.179
 426  4433.337
 427  4615.83
 428  4302.453
 429  4203.076
 430  4196.027
 431  4517.886
 432  4621.158
 433  4656.42
 434  4306.074
 435  4013.329
 436  4077.482
 437  4416.199
 438  4418.238
 439  4093.079
 440  4156.57
 441  4329.214
 442  4249.44
 443  4461.984
 444  4557.935
 445  4740.144
 446  4477.615
 447  4737.789
 448  4674.312
 449  4372.773
 450  4508.413
 451  4275.879
 452  4360.491
 453  4448.071
 454  4333.284
 455  4181.131
 456  4173.591
 457  4271.142
 458  4052.476
 459  4201.803
 460  4039.007
 461  4046.759
 462  4357.319
 463  4331.652
 464  4328.404
 465  4231.241
 466  4248.137
 467  4216.584
 468  4504.196
 469  4626.701
 470  4316.232
 471  4451.665
 472  4430.173
 473  4459.361
 474  4738.487
 475  4705.743
 476  5267.451
 477  5100
 478  4949.66
 479  4732.889
 480  4813.913
 481  4875.926
 482  5079.742
 483  5336.275
 484  5168.892
 485  5076.161
 486  4991.423
 487  5053.828
 488  4724.761
 489  4576.6
 490  4737.26
 491  4343.67
 492  4265.76
 493  4230.225
 494  4098.05
 495  4239.581
 496  4328.157
 497  4291.076
 498  4280.877
 499  4184.938
 500  4430.631
 501  4532.024
 502  4554.656
 503  4678.381
 504  4443.128
 505  4692.67
 506  5113.188
 507  5022.295
 508  4639.474
 509  4714.492
 510  4951.992
 511  4504.375
