# Input file       =  1185679067.110193_cleaned.dat
# Candidate        =  PSR_0332+5434
# Telescope        =  AR
# Epoch_topo       =  57967.137570719824
# Epoch_bary       =  N/A
# T_sample         =  0.002
# Data Folded      =  7340032
# Data Avg         =  0.0083759859686335
# Data StdDev      =  1.00003642478395 
# Profile Bins     =  512
# Profile Avg      =  120.072646685759 
# Profile StdDev   =  119.737397626748 
# Reduced chi-sqr  =  1.718
# Prob(Noise)      <  8.18e-22   (~9.5 sigma)
# P_topo (ms)      =  714.469011379659  +/- 0.00016
# P'_topo (s/s)    =  -0                +/- 8.44e-11
# P''_topo (s/s^2) =  0                 +/- 3.73e-14
# P_bary (ms)      =  N/A
# P'_bary (s/s)    =  N/A
# P''_bary (s/s^2) =  N/A
# P_orb (s)        =  N/A
# asin(i)/c (s)    =  N/A
# eccentricity     =  N/A
# w (rad)          =  N/A
# T_peri           =  N/A
######################################################
   0  102.3616
   1  49.80206
   2  27.37214
   3  38.74334
   4  52.53836
   5  -85.78294
   6  11.47017
   7  9.913768
   8  22.92419
   9  40.77388
  10  -17.95791
  11  -12.29811
  12  71.48582
  13  168.7289
  14  225.1101
  15  186.4868
  16  174.053
  17  145.6511
  18  122.1192
  19  156.0842
  20  222.157
  21  162.8565
  22  133.9689
  23  165.9392
  24  231.2287
  25  117.5292
  26  1.59104
  27  -0.91018
  28  88.38318
  29  99.63365
  30  75.95701
  31  105.1716
  32  11.65664
  33  31.04828
  34  101.6019
  35  225.1399
  36  223.4595
  37  80.58371
  38  83.54256
  39  94.12805
  40  91.11438
  41  88.35773
  42  -36.55455
  43  60.76897
  44  252.0109
  45  125.7172
  46  112.5892
  47  156.0556
  48  113.7016
  49  69.43652
  50  36.40822
  51  1.962108
  52  -7.813737
  53  214.2203
  54  187.9874
  55  106.5605
  56  114.9748
  57  142.0543
  58  195.6536
  59  233.6762
  60  204.5707
  61  54.29488
  62  8.029052
  63  84.42788
  64  110.3979
  65  73.42062
  66  6.22405
  67  -18.50976
  68  55.82096
  69  165.8632
  70  204.1217
  71  188.509
  72  131.6697
  73  -69.90996
  74  -35.39083
  75  31.82992
  76  155.5203
  77  116.2229
  78  118.4342
  79  90.95126
  80  137.0965
  81  91.20564
  82  106.7437
  83  161.7723
  84  235.6273
  85  44.11106
  86  152.6411
  87  219.2886
  88  196.7515
  89  173.2577
  90  113.0367
  91  235.3566
  92  202.4817
  93  114.7097
  94  241.2255
  95  257.405
  96  85.01743
  97  196.6751
  98  95.85448
  99  188.8105
 100  179.3537
 101  206.4057
 102  181.6982
 103  90.46555
 104  50.81626
 105  82.97499
 106  161.5083
 107  45.59137
 108  -19.14021
 109  74.49142
 110  64.4772
 111  144.5045
 112  66.16438
 113  136.3168
 114  143.0596
 115  78.58265
 116  136.5408
 117  165.029
 118  25.11037
 119  179.967
 120  162.3477
 121  33.92558
 122  109.9724
 123  189.2318
 124  206.6009
 125  113.8956
 126  92.14304
 127  214.6798
 128  319.007
 129  197.6084
 130  60.0903
 131  165.3308
 132  68.13946
 133  160.9839
 134  60.23217
 135  218.2678
 136  193.4832
 137  43.40682
 138  54.29859
 139  205.6516
 140  36.87255
 141  161.1316
 142  88.36466
 143  32.65359
 144  155.1143
 145  207.6745
 146  176.7068
 147  125.9213
 148  39.65771
 149  75.42747
 150  163.0821
 151  51.82968
 152  151.6097
 153  202.987
 154  72.48511
 155  147.81
 156  171.7249
 157  175.7172
 158  136.6529
 159  106.432
 160  244.3936
 161  283.8831
 162  204.979
 163  134.8281
 164  64.66397
 165  77.32318
 166  184.9841
 167  102.2489
 168  164.4812
 169  188.7006
 170  182.0486
 171  147.4679
 172  132.0469
 173  156.9517
 174  170.6107
 175  196.6806
 176  109.0331
 177  112.2117
 178  129.4246
 179  293.2419
 180  306.1522
 181  359.5474
 182  363.2578
 183  194.6879
 184  106.9944
 185  259.4543
 186  204.8708
 187  105.1756
 188  198.5142
 189  191.1105
 190  147.9951
 191  91.632
 192  175.7433
 193  224.4556
 194  183.08
 195  55.27355
 196  34.47062
 197  119.3665
 198  181.0948
 199  134.1824
 200  151.4898
 201  302.562
 202  313.9677
 203  161.1406
 204  -59.99795
 205  -201.7706
 206  0.5722465
 207  198.2818
 208  249.47
 209  70.96438
 210  8.811694
 211  122.4938
 212  215.4523
 213  266.1952
 214  267.0291
 215  103.2737
 216  91.79256
 217  113.4445
 218  56.38326
 219  78.971
 220  98.98644
 221  96.25471
 222  46.94127
 223  148.4254
 224  135.8155
 225  62.72472
 226  71.5291
 227  160.8535
 228  167.2455
 229  70.32841
 230  155.7032
 231  243.3449
 232  223.5316
 233  164.7839
 234  222.0893
 235  261.0553
 236  71.01098
 237  -72.06953
 238  -5.824852
 239  11.38366
 240  -16.24533
 241  -70.22647
 242  9.640644
 243  -15.79041
 244  180.5647
 245  216.1792
 246  130.5316
 247  86.20525
 248  62.07229
 249  78.80454
 250  127.0555
 251  246.3957
 252  154.3198
 253  132.1053
 254  183.9533
 255  284.4567
 256  201.6607
 257  95.10722
 258  185.8679
 259  177.4299
 260  204.911
 261  66.47421
 262  43.54865
 263  86.51544
 264  154.6796
 265  -57.58274
 266  -33.06315
 267  193.7527
 268  58.26054
 269  -133.6432
 270  -60.74943
 271  11.44591
 272  16.1422
 273  -22.62043
 274  99.54608
 275  194.5099
 276  112.5931
 277  111.723
 278  183.4646
 279  -102.3435
 280  -195.4912
 281  -117.1553
 282  30.56922
 283  190.23
 284  229.3004
 285  209.1128
 286  171.6887
 287  47.52479
 288  -87.63586
 289  12.12682
 290  71.81317
 291  200.3238
 292  29.70383
 293  -139.3354
 294  10.41616
 295  188.6148
 296  56.29819
 297  60.25681
 298  59.34696
 299  190.8151
 300  180.5737
 301  140.8058
 302  143.0736
 303  119.8836
 304  221.3659
 305  186.8734
 306  220.474
 307  218.6365
 308  82.33331
 309  53.5
 310  122.6613
 311  134.6175
 312  30.95536
 313  122.139
 314  98.20672
 315  87.99227
 316  146.405
 317  179.486
 318  305.3907
 319  190.5345
 320  86.29203
 321  76.55425
 322  221.3239
 323  240.2207
 324  199.2469
 325  156.3907
 326  145.1155
 327  126.7651
 328  100.8001
 329  71.50063
 330  60.29732
 331  58.66696
 332  136.6117
 333  168.0669
 334  216.5407
 335  392.7244
 336  200.382
 337  86.3262
 338  -47.80792
 339  79.88732
 340  100.8904
 341  176.4481
 342  225.7759
 343  7.176038
 344  -40.55442
 345  159.2807
 346  178.1577
 347  257.8767
 348  292.8508
 349  246.7648
 350  27.7214
 351  28.6642
 352  94.69635
 353  -2.489945
 354  29.58582
 355  189.1196
 356  50.74033
 357  32.99668
 358  132.2336
 359  34.1824
 360  10.88016
 361  29.54535
 362  36.50507
 363  85.23631
 364  111.4694
 365  -4.491167
 366  60.63725
 367  182.4395
 368  42.93667
 369  -56.00535
 370  51.11378
 371  95.77579
 372  23.70552
 373  116.9464
 374  174.5376
 375  100.5639
 376  17.74824
 377  -48.59468
 378  34.46778
 379  143.7657
 380  204.6604
 381  141.8438
 382  120.091
 383  67.74483
 384  12.46515
 385  71.02562
 386  92.38382
 387  -7.611207
 388  61.42122
 389  101.5245
 390  110.4757
 391  118.992
 392  93.45579
 393  10.68287
 394  33.91489
 395  2.257654
 396  19.52328
 397  209.2078
 398  122.0065
 399  14.33119
 400  22.47807
 401  44.4388
 402  129.8955
 403  65.91252
 404  113.9192
 405  -19.08103
 406  -73.45753
 407  46.54846
 408  153.0531
 409  258.4626
 410  160.7731
 411  110.4383
 412  80.75313
 413  47.79359
 414  132.0737
 415  81.61618
 416  6.330102
 417  -8.382549
 418  107.3144
 419  49.21482
 420  115.3483
 421  155.4513
 422  133.5641
 423  197.0491
 424  203.346
 425  131.4298
 426  18.47338
 427  -4.209064
 428  -102.2773
 429  138.3478
 430  195.7267
 431  175.1214
 432  318.459
 433  253.7211
 434  57.2154
 435  142.8727
 436  206.3117
 437  96.8588
 438  95.33766
 439  98.02013
 440  71.45849
 441  85.01383
 442  72.00676
 443  11.60267
 444  101.846
 445  95.41108
 446  77.87244
 447  106.7659
 448  77.82932
 449  -13.43058
 450  -121.2122
 451  -55.94297
 452  -46.70584
 453  17.81374
 454  73.4037
 455  43.44066
 456  -6.308309
 457  91.88058
 458  4.778512
 459  143.6627
 460  164.0316
 461  75.54606
 462  62.9775
 463  141.5358
 464  25.02126
 465  -31.31767
 466  22.13035
 467  74.3644
 468  96.69048
 469  41.48969
 470  60.04613
 471  165.7621
 472  81.73444
 473  39.28655
 474  43.55189
 475  62.34757
 476  149.8484
 477  140.4811
 478  208.0273
 479  457.2793
 480  300.9467
 481  344.312
 482  489.4323
 483  630.8398
 484  742.7479
 485  914.906
 486  944.7924
 487  669.904
 488  433.2171
 489  213.3996
 490  151.1336
 491  74.1759
 492  248.2766
 493  184.0166
 494  163.9328
 495  136.3194
 496  135.3606
 497  19.78772
 498  -56.99878
 499  58.55429
 500  255.8739
 501  126.7865
 502  97.63005
 503  45.71183
 504  160.389
 505  181.1057
 506  183.4165
 507  200.143
 508  119.2008
 509  138.5041
 510  165.7162
 511  132.0258
