# Input file       =  1185836768.110852_cleaned.dat
# Candidate        =  PSR_0332+5434
# Telescope        =  AR
# Epoch_topo       =  57968.962813783008
# Epoch_bary       =  N/A
# T_sample         =  0.002
# Data Folded      =  7208960
# Data Avg         =  0.0955841368815696
# Data StdDev      =  3.97327902344162 
# Profile Bins     =  1024
# Profile Avg      =  672.932052855937 
# Profile StdDev   =  333.376815682755 
# Reduced chi-sqr  =  0.531
# Prob(Noise)      <  1   (~0.0 sigma)
# P_topo (ms)      =  714.468265302819  +/- 9.92e-05
# P'_topo (s/s)    =  -0                +/- 5.33e-11
# P''_topo (s/s^2) =  0                 +/- 2.39e-14
# P_bary (ms)      =  N/A
# P'_bary (s/s)    =  N/A
# P''_bary (s/s^2) =  N/A
# P_orb (s)        =  N/A
# asin(i)/c (s)    =  N/A
# eccentricity     =  N/A
# w (rad)          =  N/A
# T_peri           =  N/A
######################################################
   0  602.3612
   1  689.5356
   2  815.8964
   3  721.1657
   4  633.7309
   5  667.4536
   6  736.6898
   7  726.8962
   8  673.5953
   9  687.8037
  10  584.8704
  11  433.2823
  12  395.427
  13  481.937
  14  481.2119
  15  541.9973
  16  596.1293
  17  715.2242
  18  633.0972
  19  568.5181
  20  529.7978
  21  480.5596
  22  477.7642
  23  529.1518
  24  522.1134
  25  589.1847
  26  634.653
  27  704.9523
  28  704.352
  29  750.1754
  30  736.972
  31  645.0587
  32  485.4867
  33  531.0225
  34  617.463
  35  589.2738
  36  582.2318
  37  600.8492
  38  763.5364
  39  683.1819
  40  679.6683
  41  611.5788
  42  592.3751
  43  648.0391
  44  675.5804
  45  736.7221
  46  720.8385
  47  720.9813
  48  690.5721
  49  706.2634
  50  806.2639
  51  775.6797
  52  815.8578
  53  797.8865
  54  802.1077
  55  648.8255
  56  571.9554
  57  579.5943
  58  591.3964
  59  618.9144
  60  602.4175
  61  555.7197
  62  656.5018
  63  656.6134
  64  723.0667
  65  638.9557
  66  722.7853
  67  635.6102
  68  643.317
  69  552.4784
  70  550.0707
  71  621.9854
  72  621.0739
  73  625.9761
  74  662.647
  75  656.0385
  76  636.8499
  77  720.8015
  78  783.5434
  79  812.5654
  80  702.7534
  81  610.148
  82  530.5656
  83  592.5758
  84  728.4605
  85  752.7971
  86  696.9291
  87  693.0995
  88  606.7992
  89  469.4992
  90  377.6927
  91  341.3144
  92  252.2825
  93  237.6278
  94  411.9501
  95  659.519
  96  731.9255
  97  718.6784
  98  773.7014
  99  747.9432
 100  703.1418
 101  650.9484
 102  652.625
 103  710.7496
 104  750.9607
 105  740.5201
 106  704.2484
 107  604.6252
 108  595.6462
 109  552.6063
 110  540.0613
 111  587.9509
 112  593.9749
 113  608.3129
 114  619.6484
 115  642.3807
 116  616.3724
 117  693.5551
 118  866.0331
 119  919.2357
 120  772.8523
 121  724.9572
 122  666.7762
 123  593.7202
 124  599.4703
 125  677.5067
 126  684.6902
 127  673.1277
 128  741.5255
 129  762.2672
 130  676.065
 131  709.8069
 132  854.5762
 133  817.4262
 134  612.954
 135  536.7642
 136  540.5815
 137  522.5349
 138  462.6569
 139  503.8459
 140  529.7786
 141  505.6366
 142  468.545
 143  512.7212
 144  575.0112
 145  573.2577
 146  619.9932
 147  577.9287
 148  502.6071
 149  533.0497
 150  654.5522
 151  643.7831
 152  588.4116
 153  641.1746
 154  620.0005
 155  428.0175
 156  319.6558
 157  400.2951
 158  463.5793
 159  563.721
 160  655.35
 161  696.5412
 162  608.3212
 163  611.3655
 164  701.4064
 165  822.2845
 166  812.5152
 167  657.8414
 168  607.5613
 169  613.1478
 170  638.8942
 171  589.878
 172  575.1249
 173  592.6963
 174  577.139
 175  624.5331
 176  657.3449
 177  704.5969
 178  745.4472
 179  925.8349
 180  929.0528
 181  797.0572
 182  595.0575
 183  588.8569
 184  602.6876
 185  488.4774
 186  528.1508
 187  531.061
 188  558.7985
 189  561.0621
 190  679.709
 191  768.5386
 192  747.4701
 193  799.6508
 194  846.8938
 195  731.6915
 196  609.0797
 197  604.0475
 198  576.3695
 199  543.0277
 200  515.9366
 201  642.0825
 202  685.632
 203  800.0532
 204  766.1968
 205  601.6072
 206  490.5521
 207  625.2778
 208  814.2289
 209  803.1829
 210  671.5815
 211  604.5836
 212  619.3433
 213  569.9244
 214  609.411
 215  519.4946
 216  655.1662
 217  643.2701
 218  735.2894
 219  637.7155
 220  702.6275
 221  712.2501
 222  747.361
 223  701.5026
 224  663.7991
 225  713.5272
 226  763.5814
 227  829.7076
 228  752.3616
 229  697.2641
 230  675.3167
 231  728.5302
 232  753.153
 233  822.4218
 234  870.8229
 235  824.5015
 236  699.4055
 237  643.8687
 238  579.5871
 239  527.5428
 240  451.3244
 241  563.0231
 242  615.9597
 243  686.7365
 244  705.0744
 245  797.2936
 246  837.9347
 247  838.7403
 248  758.3911
 249  811.0215
 250  812.0781
 251  911.4277
 252  880.5641
 253  746.1487
 254  607.9493
 255  486.0012
 256  497.2664
 257  398.1566
 258  483.1341
 259  636.5082
 260  591.5154
 261  558.4922
 262  634.0508
 263  811.7613
 264  821.597
 265  697.7297
 266  693.9039
 267  737.1006
 268  792.7493
 269  771.1903
 270  729.5261
 271  758.0018
 272  695.628
 273  642.8187
 274  536.5464
 275  602.6739
 276  714.5941
 277  735.3256
 278  733.9271
 279  713.687
 280  738.1045
 281  672.8261
 282  604.8082
 283  603.3862
 284  577.6252
 285  625.6806
 286  630.9662
 287  633.4553
 288  609.5327
 289  604.3609
 290  545.1716
 291  561.2574
 292  636.1155
 293  635.6662
 294  572.2709
 295  641.2291
 296  731.0956
 297  687.3909
 298  652.1426
 299  748.5311
 300  783.9083
 301  777.2571
 302  688.6986
 303  593.3001
 304  576.6244
 305  503.9594
 306  510.0164
 307  544.4974
 308  599.6324
 309  576.152
 310  512.4157
 311  497.36
 312  571.0406
 313  542.9998
 314  637.5889
 315  556.8568
 316  616.723
 317  636.8438
 318  633.9113
 319  527.3021
 320  496.2676
 321  490.3554
 322  334.9085
 323  331.3392
 324  488.0004
 325  624.4411
 326  792.7271
 327  910.9371
 328  916.4672
 329  896.5616
 330  938.1191
 331  979.9286
 332  932.0865
 333  841.6546
 334  788.68
 335  765.7397
 336  740.3267
 337  675.7136
 338  546.263
 339  547.643
 340  586.2199
 341  664.7533
 342  722.946
 343  640.1168
 344  584.9793
 345  576.8755
 346  650.2161
 347  591.9008
 348  373.4233
 349  400.5846
 350  485.2665
 351  728.7474
 352  714.8231
 353  730.4476
 354  736.825
 355  846.1288
 356  763.024
 357  723.7527
 358  568.7012
 359  549.7862
 360  614.0115
 361  764.9918
 362  824.371
 363  674.4461
 364  703.0691
 365  763.0287
 366  709.491
 367  656.2609
 368  584.3198
 369  625.7939
 370  607.595
 371  662.4488
 372  777.1761
 373  772.8118
 374  798.9302
 375  848.7406
 376  929.9327
 377  1002.573
 378  970.4257
 379  842.0153
 380  657.4822
 381  523.5094
 382  703.4649
 383  793.3727
 384  899.8266
 385  791.5646
 386  698.6305
 387  558.9759
 388  598.4299
 389  662.8654
 390  584.4369
 391  507.572
 392  640.741
 393  838.2078
 394  749.3562
 395  658.6951
 396  709.3127
 397  763.6721
 398  828.9714
 399  879.7665
 400  902.0774
 401  802.6366
 402  630.7383
 403  693.0311
 404  731.1619
 405  738.7027
 406  611.8148
 407  485.6923
 408  394.0959
 409  473.9158
 410  660.967
 411  801.841
 412  789.606
 413  786.3881
 414  846.2048
 415  840.7673
 416  873.9754
 417  782.4152
 418  639.5572
 419  503.2164
 420  536.3456
 421  516.3565
 422  579.5038
 423  603.9756
 424  774.1504
 425  861.9845
 426  935.0529
 427  777.7021
 428  765.5328
 429  809.5772
 430  870.9856
 431  792.4518
 432  801.1655
 433  786.9026
 434  728.6726
 435  672.8243
 436  699.9977
 437  721.691
 438  663.701
 439  640.2686
 440  693.8334
 441  815.3976
 442  864.8062
 443  878.7626
 444  856.9994
 445  751.6672
 446  700.0176
 447  755.8812
 448  741.1884
 449  604.7885
 450  616.8599
 451  673.2478
 452  611.0271
 453  592.3679
 454  532.4078
 455  526.5916
 456  540.8422
 457  677.384
 458  826.5344
 459  879.5683
 460  933.4485
 461  979.6886
 462  904.2502
 463  807.6863
 464  673.9379
 465  734.5311
 466  869.3978
 467  878.1388
 468  797.2824
 469  673.5029
 470  597.8344
 471  502.6303
 472  445.963
 473  483.3764
 474  536.225
 475  588.8279
 476  572.236
 477  579.9715
 478  600.5361
 479  695.6907
 480  873.0191
 481  970.4913
 482  891.9948
 483  777.1155
 484  757.1381
 485  613.3853
 486  425.3115
 487  270.8113
 488  441.9423
 489  494.0045
 490  719.8408
 491  648.9777
 492  626.4779
 493  424.8168
 494  606.9138
 495  761.7527
 496  864.6815
 497  789.195
 498  826.8926
 499  914.9818
 500  837.7302
 501  736.2607
 502  587.9334
 503  504.0267
 504  426.6539
 505  465.1415
 506  673.6379
 507  726.3297
 508  750.9267
 509  809.5553
 510  798.5976
 511  799.221
 512  641.3767
 513  650.6273
 514  537.257
 515  582.2191
 516  613.2709
 517  621.7948
 518  524.754
 519  562.111
 520  683.8889
 521  790.5748
 522  853.8701
 523  812.8405
 524  699.3389
 525  733.3631
 526  760.6978
 527  698.1506
 528  620.1836
 529  661.9053
 530  681.5168
 531  649.5687
 532  646.7059
 533  678.2125
 534  777.7252
 535  726.5942
 536  752.1077
 537  549.3901
 538  531.2164
 539  619.8312
 540  772.8659
 541  847.989
 542  809.1824
 543  911.0694
 544  851.5158
 545  865.4944
 546  776.6751
 547  779.6799
 548  617.7534
 549  647.3304
 550  602.0192
 551  618.2257
 552  593.0113
 553  605.8172
 554  476.6012
 555  453.6107
 556  492.8363
 557  628.6614
 558  470.0999
 559  563.0356
 560  617.6468
 561  698.072
 562  596.2385
 563  706.0269
 564  714.6583
 565  779.2933
 566  695.1926
 567  712.7757
 568  647.7424
 569  589.4576
 570  543.1241
 571  582.2603
 572  610.563
 573  594.7592
 574  697.3282
 575  634.3708
 576  570.4846
 577  516.8472
 578  633.4682
 579  683.2667
 580  702.0993
 581  744.2656
 582  685.9831
 583  599.0504
 584  620.2416
 585  659.8779
 586  719.1793
 587  667.9935
 588  658.0289
 589  694.3677
 590  838.3882
 591  788.1829
 592  710.3748
 593  480.4145
 594  618.8375
 595  610.1028
 596  776.1426
 597  746.3673
 598  747.4402
 599  613.9102
 600  493.944
 601  448.1944
 602  445.3981
 603  448.1428
 604  556.7573
 605  613.8056
 606  637.9702
 607  600.5775
 608  721.3403
 609  899.867
 610  883.3032
 611  839.0231
 612  768.3194
 613  769.6946
 614  907.0956
 615  961.8193
 616  789.1319
 617  646.8624
 618  602.2125
 619  762.2613
 620  640.8846
 621  679.5666
 622  771.4031
 623  799.6583
 624  739.6082
 625  642.663
 626  591.8527
 627  449.9052
 628  546.2172
 629  801.9128
 630  841.7451
 631  798.9708
 632  692.0592
 633  803.4766
 634  768.0521
 635  732.2192
 636  796.9213
 637  850.9213
 638  881.0402
 639  925.4807
 640  922.579
 641  1082.934
 642  1095.029
 643  1066.951
 644  995.4026
 645  1027.012
 646  1192.969
 647  1243.554
 648  1285.087
 649  1412.775
 650  1423.955
 651  1328.412
 652  1227.161
 653  1147.034
 654  1008.968
 655  877.5995
 656  863.7791
 657  758.1043
 658  675.6789
 659  740.0031
 660  776.323
 661  777.3925
 662  796.6843
 663  822.3876
 664  882.082
 665  867.9208
 666  826.5981
 667  737.6772
 668  638.8921
 669  691.3848
 670  793.4966
 671  902.9304
 672  771.0822
 673  739.6239
 674  711.2001
 675  701.2237
 676  561.9512
 677  489.3897
 678  609.2674
 679  856.6089
 680  1052.242
 681  1055.659
 682  803.4427
 683  665.9969
 684  594.2928
 685  495.508
 686  523.3596
 687  659.7169
 688  862.1788
 689  753.8348
 690  634.7174
 691  453.1387
 692  550.548
 693  575.0499
 694  691.3765
 695  705.6121
 696  845.12
 697  856.5784
 698  814.4261
 699  678.722
 700  574.905
 701  610.1097
 702  661.1623
 703  590.9898
 704  596.4524
 705  566.2121
 706  632.758
 707  710.9943
 708  695.7377
 709  660.7664
 710  600.9241
 711  688.6086
 712  664.2523
 713  705.4554
 714  745.8809
 715  794.1444
 716  742.3596
 717  734.0776
 718  677.082
 719  625.2665
 720  540.4707
 721  534.1073
 722  557.7671
 723  670.8189
 724  652.5172
 725  697.8538
 726  639.4652
 727  725.9557
 728  566.1849
 729  566.1722
 730  577.8044
 731  751.2943
 732  763.9587
 733  748.9263
 734  725.0424
 735  663.4368
 736  497.8758
 737  543.1442
 738  709.9175
 739  816.2214
 740  811.2064
 741  747.027
 742  710.7861
 743  627.8788
 744  641.8264
 745  607.194
 746  493.0437
 747  466.7741
 748  637.1342
 749  637.3053
 750  507.5701
 751  469.8183
 752  725.9001
 753  779.3828
 754  739.9842
 755  620.6533
 756  622.4823
 757  625.2627
 758  595.8607
 759  687.4283
 760  699.1145
 761  708.5305
 762  622.3245
 763  607.5029
 764  694.3678
 765  685.6608
 766  611.5931
 767  580.1203
 768  583.4523
 769  707.5659
 770  671.0076
 771  594.8696
 772  534.0793
 773  667.9724
 774  718.8353
 775  803.2397
 776  765.3212
 777  806.129
 778  706.412
 779  718.9196
 780  644.5847
 781  669.015
 782  697.4536
 783  868.9239
 784  789.6308
 785  680.421
 786  493.6194
 787  572.2161
 788  621.1975
 789  716.2112
 790  766.5017
 791  792.9254
 792  797.2579
 793  704.2808
 794  598.7636
 795  553.6002
 796  569.649
 797  674.9745
 798  640.4418
 799  670.3636
 800  630.8782
 801  574.0148
 802  563.8086
 803  492.9757
 804  611.5593
 805  624.7185
 806  756.9387
 807  782.2588
 808  717.6219
 809  557.5187
 810  567.3416
 811  583.2269
 812  678.1639
 813  693.2523
 814  808.4228
 815  628.0172
 816  613.7701
 817  499.058
 818  666.2823
 819  654.6724
 820  671.7798
 821  764.2527
 822  793.6371
 823  805.9299
 824  673.6339
 825  709.0488
 826  736.8408
 827  777.8923
 828  732.3283
 829  631.832
 830  620.0561
 831  681.4764
 832  669.7999
 833  646.3369
 834  685.2341
 835  616.8438
 836  603.5647
 837  604.5609
 838  684.0472
 839  535.618
 840  520.1951
 841  517.0345
 842  551.437
 843  465.4622
 844  532.3234
 845  434.3983
 846  412.1309
 847  564.6547
 848  722.0438
 849  685.5807
 850  517.3527
 851  542.4911
 852  607.1368
 853  630.9167
 854  723.3412
 855  715.0722
 856  716.049
 857  657.8254
 858  760.3933
 859  776.7056
 860  689.9007
 861  613.4146
 862  656.7307
 863  684.8568
 864  664.1751
 865  482.128
 866  460.3376
 867  441.1559
 868  465.2444
 869  578.3655
 870  596.2413
 871  630.8727
 872  722.6364
 873  744.9144
 874  775.236
 875  734.9478
 876  830.6273
 877  772.4692
 878  633.3525
 879  477.5273
 880  383.4028
 881  485.5129
 882  512.3152
 883  521.5654
 884  398.3556
 885  569.1027
 886  702.1143
 887  786.5864
 888  641.1539
 889  612.9511
 890  497.7432
 891  610.9766
 892  659.9791
 893  710.3008
 894  615.7429
 895  615.4004
 896  587.1906
 897  641.4159
 898  601.3788
 899  562.41
 900  359.2129
 901  440.8243
 902  583.2863
 903  669.2819
 904  503.8765
 905  441.7512
 906  607.7614
 907  630.8719
 908  632.6449
 909  600.4077
 910  680.1871
 911  572.7158
 912  630.3741
 913  667.917
 914  658.0171
 915  455.9596
 916  505.8322
 917  498.3167
 918  524.7978
 919  536.4879
 920  627.5529
 921  615.0923
 922  584.0332
 923  667.2249
 924  800.944
 925  655.7952
 926  614.2283
 927  668.4998
 928  817.3459
 929  821.5074
 930  848.2266
 931  874.9035
 932  783.3981
 933  629.1081
 934  551.9711
 935  621.1903
 936  542.3668
 937  621.8369
 938  708.5708
 939  801.048
 940  856.0745
 941  832.6454
 942  852.5283
 943  714.637
 944  595.0026
 945  599.071
 946  688.4092
 947  731.1329
 948  690.3749
 949  676.3645
 950  711.8451
 951  680.4342
 952  669.7388
 953  696.4189
 954  697.3246
 955  565.8
 956  513.5601
 957  550.541
 958  645.0406
 959  778.2753
 960  933.3412
 961  886.2646
 962  639.6796
 963  472.3202
 964  494.7538
 965  538.3127
 966  530.5507
 967  560.0812
 968  740.5016
 969  743.7637
 970  673.022
 971  662.6723
 972  691.7075
 973  744.291
 974  774.0123
 975  744.8578
 976  784.5885
 977  790.2422
 978  834.7538
 979  710.8417
 980  612.3077
 981  680.7672
 982  825.4021
 983  728.1714
 984  620.6306
 985  584.1
 986  552.4771
 987  589.7328
 988  549.5344
 989  722.8625
 990  766.0723
 991  897.6451
 992  827.5484
 993  783.9783
 994  625.9593
 995  641.2703
 996  634.9381
 997  815.7278
 998  753.7733
 999  755.334
1000  782.1614
1001  843.7289
1002  811.6154
1003  762.8246
1004  712.6719
1005  600.7998
1006  508.9172
1007  541.2186
1008  574.6298
1009  582.4186
1010  513.8313
1011  556.3234
1012  654.6682
1013  698.0129
1014  651.7197
1015  580.8741
1016  601.0261
1017  620.6524
1018  652.7343
1019  579.7233
1020  542.9918
1021  626.7677
1022  736.8215
1023  683.8926
