# Input file       =  1185607824.109255_cleaned.dat
# Candidate        =  PSR_0332+5434
# Telescope        =  AR
# Epoch_topo       =  57966.312998949710
# Epoch_bary       =  N/A
# T_sample         =  0.002
# Data Folded      =  7340032
# Data Avg         =  0.0480669460003335
# Data StdDev      =  1.00035370616311 
# Profile Bins     =  512
# Profile Avg      =  689.086999387459 
# Profile StdDev   =  119.77538668966  
# Reduced chi-sqr  =  1.636
# Prob(Noise)      <  4.31e-18   (~8.6 sigma)
# P_topo (ms)      =  714.469693194827  +/- 0.000551
# P'_topo (s/s)    =  -0                +/- 2.91e-10
# P''_topo (s/s^2) =  0                 +/- 1.28e-13
# P_bary (ms)      =  N/A
# P'_bary (s/s)    =  N/A
# P''_bary (s/s^2) =  N/A
# P_orb (s)        =  N/A
# asin(i)/c (s)    =  N/A
# eccentricity     =  N/A
# w (rad)          =  N/A
# T_peri           =  N/A
######################################################
   0  717.5601
   1  731.9318
   2  714.2224
   3  645.9614
   4  667.949
   5  650.5647
   6  655.2571
   7  692.1128
   8  626.978
   9  653.3022
  10  679.0075
  11  698.3784
  12  705.4537
  13  677.4689
  14  714.5778
  15  568.3661
  16  628.2811
  17  621.6044
  18  639.301
  19  668.1532
  20  749.9444
  21  689.962
  22  584.7329
  23  612.3489
  24  605.4423
  25  586.0976
  26  615.4643
  27  754.7179
  28  726.5299
  29  717.2675
  30  830.4812
  31  679.9777
  32  623.4322
  33  741.3042
  34  734.0524
  35  632.5897
  36  708.4001
  37  815.4564
  38  976.7706
  39  778.9028
  40  753.0591
  41  738.3763
  42  729.1837
  43  803.2661
  44  770.2846
  45  661.2232
  46  739.0994
  47  743.1826
  48  720.0165
  49  740.6959
  50  805.6693
  51  852.9042
  52  774.621
  53  729.0224
  54  769.3414
  55  714.6494
  56  788.3156
  57  795.1292
  58  691.1969
  59  600.5651
  60  674.0035
  61  628.8087
  62  627.5266
  63  660.8952
  64  649.0587
  65  742.7078
  66  754.9627
  67  692.491
  68  604.1216
  69  654.7543
  70  697.35
  71  564.3801
  72  677.8193
  73  664.1705
  74  712.7726
  75  676.8714
  76  556.1753
  77  554.2132
  78  583.3819
  79  706.3019
  80  727.7935
  81  803.476
  82  777.2191
  83  785.1902
  84  772.947
  85  705.8715
  86  744.155
  87  795.9569
  88  843.4237
  89  896.3743
  90  812.2242
  91  810.2374
  92  893.8674
  93  938.1461
  94  884.1974
  95  736.7319
  96  730.4653
  97  698.3733
  98  832.3124
  99  835.4122
 100  944.0693
 101  918.7114
 102  801.1088
 103  757.3397
 104  750.3593
 105  748.6596
 106  751.3835
 107  793.0983
 108  769.3768
 109  800.5613
 110  820.2626
 111  789.9357
 112  815.3187
 113  798.0222
 114  779.4175
 115  813.582
 116  808.9427
 117  747.6107
 118  731.538
 119  771.3012
 120  640.6326
 121  712.8311
 122  787.4594
 123  808.9357
 124  731.2556
 125  714.2183
 126  753.4894
 127  682.6295
 128  693.177
 129  885.2292
 130  828.1575
 131  752.2181
 132  734.4896
 133  653.4141
 134  732.3284
 135  741.3911
 136  687.1665
 137  759.7452
 138  840.0773
 139  821.9659
 140  756.3275
 141  702.5998
 142  830.405
 143  809.2106
 144  883.3967
 145  878.4073
 146  947.5394
 147  827.4146
 148  813.4018
 149  817.9602
 150  776.2788
 151  920.7561
 152  901.4542
 153  864.869
 154  921.9349
 155  934.9835
 156  855.5217
 157  790.5528
 158  858.6508
 159  881.7501
 160  823.1633
 161  993.2233
 162  969.3057
 163  857.5128
 164  741.5558
 165  815.8703
 166  839.952
 167  774.9276
 168  761.0191
 169  724.0958
 170  746.4455
 171  756.8576
 172  766.4936
 173  680.4736
 174  706.8762
 175  786.4129
 176  810.1789
 177  653.8629
 178  715.5891
 179  776.5223
 180  733.5837
 181  778.8584
 182  773.5605
 183  783.2502
 184  680.2458
 185  658.4035
 186  602.3745
 187  726.3358
 188  771.887
 189  715.0486
 190  755.4808
 191  724.1699
 192  704.6752
 193  703.1501
 194  641.566
 195  600.5834
 196  675.4158
 197  700.9918
 198  632.8254
 199  526.3965
 200  643.2983
 201  736.5343
 202  735.7856
 203  681.6084
 204  600.3213
 205  651.2203
 206  629.507
 207  556.4175
 208  504.8067
 209  582.1679
 210  599.6916
 211  625.1585
 212  691.5332
 213  725.5419
 214  668.5093
 215  736.9506
 216  614.7849
 217  703.6686
 218  723.7199
 219  682.0958
 220  623.0035
 221  627.2321
 222  677.2237
 223  682.6096
 224  653.472
 225  627.7914
 226  573.9249
 227  644.1798
 228  599.638
 229  554.6537
 230  651.5469
 231  717.2475
 232  716.3074
 233  608.3236
 234  647.6039
 235  668.0414
 236  734.6137
 237  783.7264
 238  737.0503
 239  618.6485
 240  700.2975
 241  726.4575
 242  698.9932
 243  715.5058
 244  808.3279
 245  1014.716
 246  887.1016
 247  821.9055
 248  909.6104
 249  988.6281
 250  1142.981
 251  1136.823
 252  1025.008
 253  996.3795
 254  839.537
 255  722.3107
 256  693.7396
 257  628.3655
 258  678.4872
 259  735.2844
 260  759.2592
 261  619.5215
 262  676.166
 263  826.5908
 264  807.5602
 265  907.2699
 266  765.4239
 267  649.6243
 268  666.7588
 269  763.843
 270  656.2947
 271  744.3659
 272  724.8909
 273  474.5925
 274  547.4056
 275  607.8051
 276  613.5269
 277  702.8526
 278  729.3913
 279  609.4417
 280  587.3727
 281  616.9451
 282  680.7085
 283  642.0848
 284  513.8585
 285  574.256
 286  669.5062
 287  720.2632
 288  804.2683
 289  807.3385
 290  730.9696
 291  633.5739
 292  684.8285
 293  810.8433
 294  830.4326
 295  652.5338
 296  704.755
 297  691.1382
 298  700.5064
 299  706.2189
 300  672.2495
 301  692.5706
 302  700.5503
 303  639.5566
 304  715.0924
 305  741.4327
 306  813.0217
 307  737.9911
 308  724.187
 309  845.2059
 310  681.7546
 311  682.0072
 312  812.2505
 313  687.3525
 314  730.0156
 315  609.4858
 316  656.5262
 317  587.5577
 318  659.1459
 319  740.5469
 320  752.2385
 321  790.9308
 322  768.6539
 323  780.5211
 324  776.6512
 325  753.7664
 326  796.2477
 327  812.0413
 328  769.2717
 329  740.049
 330  739.4815
 331  771.5015
 332  776.8632
 333  683.4333
 334  736.4048
 335  732.6449
 336  737.0955
 337  743.7019
 338  687.8527
 339  695.077
 340  728.6684
 341  721.6694
 342  748.8784
 343  628.5211
 344  612.041
 345  735.3824
 346  735.4609
 347  740.6014
 348  671.7296
 349  570.7145
 350  570.4486
 351  609.5309
 352  714.3539
 353  715.8743
 354  688.0619
 355  762.5597
 356  730.5197
 357  726.6656
 358  726.9209
 359  776.285
 360  709.3382
 361  707.7919
 362  718.2574
 363  641.465
 364  687.084
 365  669.4814
 366  657.17
 367  695.6918
 368  761.5353
 369  695.2896
 370  685.4426
 371  658.2874
 372  720.216
 373  645.8324
 374  604.1171
 375  606.4705
 376  609.4425
 377  601.302
 378  638.5399
 379  711.8314
 380  670.0813
 381  683.8058
 382  711.5408
 383  699.6744
 384  641.6143
 385  665.5529
 386  681.7794
 387  736.2958
 388  766.3223
 389  678.0341
 390  640.3571
 391  602.6982
 392  607.5109
 393  520.694
 394  691.0976
 395  702.4329
 396  599.9431
 397  577.1628
 398  549.2043
 399  580.4584
 400  549.1281
 401  526.7708
 402  633.2431
 403  579.7482
 404  636.8191
 405  601.7863
 406  631.9597
 407  569.6434
 408  524.386
 409  569.7423
 410  605.3448
 411  594.1135
 412  600.4521
 413  600.2262
 414  645.9821
 415  483.8118
 416  448.1744
 417  506.7324
 418  515.5362
 419  505.9138
 420  464.3314
 421  436.7485
 422  600.5875
 423  564.1323
 424  388.907
 425  303.2059
 426  410.6888
 427  444.1855
 428  449.5214
 429  518.8642
 430  529.577
 431  490.0713
 432  456.197
 433  388.8855
 434  454.9597
 435  536.7247
 436  613.4572
 437  615.78
 438  624.9037
 439  640.2355
 440  571.8591
 441  603.3377
 442  538.2825
 443  491.0599
 444  543.4931
 445  551.3107
 446  561.6216
 447  614.2912
 448  663.4877
 449  630.9802
 450  561.5564
 451  591.0256
 452  666.5143
 453  679.1016
 454  680.1051
 455  608.7415
 456  547.4677
 457  513.5084
 458  508.4362
 459  542.7339
 460  577.2792
 461  495.2174
 462  544.9336
 463  602.2217
 464  551.6699
 465  477.8368
 466  557.8555
 467  540.4871
 468  555.5764
 469  546.0645
 470  602.326
 471  589.5193
 472  516.0793
 473  624.3518
 474  682.993
 475  586.6338
 476  615.8365
 477  601.2758
 478  639.9326
 479  643.3795
 480  634.0439
 481  567.7783
 482  508.6118
 483  550.951
 484  643.7521
 485  720.8141
 486  607.6758
 487  601.1769
 488  632.4814
 489  677.494
 490  558.1494
 491  596.3754
 492  626.3619
 493  573.485
 494  542.5714
 495  492.4323
 496  489.745
 497  502.3026
 498  555.6319
 499  531.0041
 500  516.9553
 501  568.0917
 502  503.1701
 503  661.0036
 504  668.767
 505  639.7386
 506  646.5315
 507  695.2233
 508  615.2553
 509  690.059
 510  634.6882
 511  652.8744
