# Input file       =  1185922931.11324_cleaned.dat
# Candidate        =  PSR_0332+5434
# Telescope        =  AR
# Epoch_topo       =  57969.960070755093
# Epoch_bary       =  N/A
# T_sample         =  0.002
# Data Folded      =  7208960
# Data Avg         =  0.141734984873753
# Data StdDev      =  4.90431643479535 
# Profile Bins     =  512
# Profile Avg      =  1995.73942909849 
# Profile StdDev   =  581.942145983483 
# Reduced chi-sqr  =  0.462
# Prob(Noise)      <  1   (~0.0 sigma)
# P_topo (ms)      =  714.467885040371  +/- 0.000147
# P'_topo (s/s)    =  -0                +/- 7.9e-11
# P''_topo (s/s^2) =  0                 +/- 3.55e-14
# P_bary (ms)      =  N/A
# P'_bary (s/s)    =  N/A
# P''_bary (s/s^2) =  N/A
# P_orb (s)        =  N/A
# asin(i)/c (s)    =  N/A
# eccentricity     =  N/A
# w (rad)          =  N/A
# T_peri           =  N/A
######################################################
   0  2146.624
   1  1981.63
   2  1961.139
   3  1714.956
   4  2161.114
   5  2210.721
   6  2094.509
   7  2001.821
   8  1789.815
   9  2152.124
  10  2324.994
  11  1974.754
  12  1824.736
  13  2199.916
  14  2026.439
  15  1891.075
  16  2087.082
  17  1678.605
  18  2153.454
  19  2286.007
  20  2039.597
  21  1962.669
  22  1835.855
  23  2247.01
  24  2056.998
  25  1946.524
  26  1722.509
  27  2072.896
  28  2171.924
  29  2199.14
  30  2857.612
  31  2609.867
  32  2239.418
  33  2016.709
  34  2187.365
  35  1533.185
  36  1490.113
  37  1692.857
  38  1876.765
  39  1987.39
  40  2343.838
  41  2186.128
  42  2241.925
  43  1939.701
  44  1793.171
  45  2009.38
  46  2096.714
  47  2053.434
  48  1941.541
  49  2576.642
  50  2145.345
  51  2162.906
  52  1514.631
  53  1672
  54  2050.285
  55  2405.494
  56  2586.521
  57  2104.344
  58  2085.796
  59  1823.354
  60  1931.417
  61  1610.988
  62  1985.595
  63  2213.63
  64  2307.565
  65  2317.408
  66  2127.31
  67  2040.658
  68  1940.841
  69  2282.546
  70  1957.783
  71  1789.68
  72  1852.454
  73  1727.371
  74  2270.566
  75  2026.43
  76  2266.244
  77  2268.445
  78  2200.093
  79  1677.422
  80  1995.811
  81  2020.502
  82  2024.746
  83  1899.781
  84  1848.092
  85  1763.737
  86  1917.562
  87  2261.198
  88  1910.885
  89  1821.65
  90  1730.22
  91  1686.375
  92  2385.306
  93  2564.171
  94  2446.907
  95  2096.708
  96  1928.59
  97  1712.198
  98  1945.164
  99  1782.611
 100  1825.759
 101  1878.722
 102  1511.349
 103  1667.073
 104  2049.407
 105  2269.965
 106  2244.075
 107  1927.698
 108  1692.648
 109  1844.624
 110  1799.983
 111  2184.432
 112  2260.994
 113  2518.568
 114  1912.882
 115  1754.69
 116  2042.078
 117  1958.011
 118  1838.798
 119  1847.618
 120  1735.351
 121  1624.456
 122  1836.207
 123  1871.928
 124  1493.653
 125  1822.298
 126  2073.115
 127  2141.786
 128  2122.631
 129  2093.39
 130  1788.125
 131  1953.748
 132  1983.737
 133  1944.544
 134  1920.867
 135  1633.922
 136  2031.382
 137  1983.827
 138  2183.759
 139  2143.75
 140  2395.783
 141  2077.573
 142  1973.185
 143  1967.798
 144  1798.72
 145  1805.617
 146  2164.415
 147  2133.992
 148  2319.875
 149  2196.293
 150  1852.819
 151  1649.651
 152  1834.962
 153  1576.625
 154  1672.38
 155  2141.492
 156  2303.398
 157  2206.184
 158  1849.11
 159  1935.755
 160  1536.39
 161  1693.995
 162  1412.464
 163  1713.196
 164  1967.394
 165  1732.731
 166  2128.065
 167  1992.106
 168  2170.454
 169  2174.099
 170  2507.849
 171  1934.159
 172  1710.547
 173  2124.782
 174  1565.765
 175  1542.203
 176  1757.164
 177  1656.639
 178  1959.962
 179  1882.705
 180  1902.647
 181  1823.7
 182  1952.671
 183  1729.014
 184  1396.009
 185  1613.879
 186  1478.601
 187  1787.349
 188  1877.858
 189  2048.262
 190  2173.151
 191  2121.933
 192  1969.932
 193  1641.431
 194  1852.122
 195  1530.294
 196  1636.085
 197  1910.502
 198  1884.547
 199  1997.661
 200  2328.113
 201  2186.316
 202  1814.423
 203  2217.604
 204  1841.767
 205  1752.244
 206  1628.82
 207  1866.631
 208  2047.774
 209  1930.064
 210  2184.146
 211  2263.385
 212  2049.956
 213  1880.437
 214  1971.698
 215  1910.865
 216  1490.424
 217  1372.08
 218  1808.147
 219  2130.837
 220  2199.474
 221  2444.324
 222  2288.443
 223  2475.334
 224  1714.044
 225  1425.215
 226  1680.282
 227  1996.683
 228  1836.609
 229  2047.229
 230  2229.895
 231  2216.757
 232  1955.587
 233  2231.82
 234  2020.651
 235  2026.831
 236  1753.74
 237  2017.34
 238  2148.189
 239  2046.987
 240  2717.963
 241  1918.251
 242  2005.932
 243  1913.513
 244  1732.073
 245  2113.058
 246  1455.933
 247  1547.643
 248  1667.148
 249  2093.196
 250  1802.485
 251  2089.858
 252  1909.114
 253  1805.073
 254  1771.472
 255  1662.41
 256  2069.346
 257  1836.245
 258  1948.366
 259  1601.642
 260  1748.401
 261  2164.241
 262  1987.75
 263  2092.565
 264  2136.607
 265  1718.044
 266  1445.626
 267  1909.749
 268  1589.877
 269  1734.047
 270  2160.241
 271  2005.927
 272  1884.296
 273  1919.399
 274  2143.27
 275  1896.793
 276  2324.712
 277  1766.732
 278  1554.347
 279  1584.169
 280  1197.535
 281  1878.519
 282  2124.865
 283  2075.206
 284  1917.937
 285  1818.413
 286  1740.688
 287  1733.514
 288  1806.612
 289  1707.916
 290  1917.846
 291  1813.267
 292  1596.117
 293  1980.376
 294  1826.004
 295  1893.785
 296  2125.586
 297  1908.914
 298  1791.437
 299  1469.105
 300  1656.663
 301  1593.513
 302  2027.019
 303  2080.188
 304  1637.233
 305  1814.794
 306  1904.624
 307  2195.875
 308  1787.947
 309  2228.535
 310  2026.693
 311  2328.165
 312  2050.648
 313  1740.563
 314  2110.519
 315  1807.751
 316  2072.102
 317  2151.554
 318  2254.218
 319  2166.834
 320  2227.846
 321  2474.249
 322  2828.931
 323  3207.971
 324  3437.423
 325  3320.581
 326  3132.084
 327  2695.089
 328  2161.811
 329  2228.878
 330  1916.405
 331  1900.41
 332  2276.778
 333  1992.572
 334  1757.769
 335  1842.692
 336  2363.612
 337  1935.524
 338  1826.884
 339  1898.085
 340  1970.96
 341  2195.833
 342  2121.927
 343  2473.765
 344  2300.772
 345  1855.548
 346  1296.251
 347  1682.826
 348  2437.696
 349  1808.741
 350  1935.719
 351  2105.819
 352  1923.14
 353  2272.2
 354  2101.418
 355  1925.122
 356  1717.625
 357  1879.147
 358  2285.414
 359  2605.676
 360  2530.805
 361  1940.44
 362  1574.079
 363  1956.773
 364  2038.394
 365  2227.811
 366  1880.295
 367  2120.111
 368  2050.131
 369  2198.467
 370  2265.839
 371  2331.666
 372  2210.861
 373  1705.476
 374  1948.85
 375  1758.425
 376  1903.192
 377  1995.177
 378  1827.485
 379  1643.461
 380  1709.819
 381  2183.427
 382  1906.702
 383  2010.39
 384  2243.985
 385  2326.237
 386  1613.893
 387  1327.089
 388  1727.634
 389  1732.158
 390  1945.047
 391  2037.132
 392  2284.5
 393  1912.057
 394  1733.983
 395  2002.179
 396  2043.548
 397  1671.797
 398  1747.154
 399  1779.3
 400  1749.455
 401  1931.348
 402  1988.961
 403  2415.103
 404  1760.483
 405  1604.677
 406  1272.455
 407  1338.468
 408  2022.401
 409  1702.459
 410  2082.181
 411  2057.212
 412  1901.673
 413  2065.63
 414  2171.03
 415  2089.466
 416  1850.169
 417  2373.828
 418  2158.099
 419  1912.281
 420  1723.316
 421  1967.68
 422  1926.193
 423  1729.546
 424  2127.812
 425  2350.603
 426  2253.055
 427  2004.436
 428  1515.51
 429  1906.56
 430  1661.589
 431  1823.198
 432  2146.081
 433  2196.311
 434  2262.787
 435  2354.731
 436  2301.874
 437  1498.897
 438  2181.474
 439  2091.225
 440  1837.568
 441  2320.638
 442  2389.542
 443  2127.95
 444  1988.78
 445  2254.763
 446  1956.942
 447  1789.564
 448  2093.224
 449  1980.35
 450  2326.675
 451  2165.89
 452  2154.696
 453  2304.749
 454  2392.746
 455  1905.868
 456  2065.544
 457  1983.791
 458  2063.632
 459  2314.286
 460  2141.558
 461  2006.477
 462  2092.356
 463  1953.82
 464  1687.949
 465  2118.939
 466  2387.736
 467  2428.528
 468  2604.617
 469  2463.944
 470  1925.785
 471  1814.226
 472  2284.23
 473  1861.822
 474  1928.698
 475  2290.845
 476  2033.288
 477  2294.483
 478  2174.145
 479  1977.765
 480  1910.042
 481  1736.979
 482  1408.024
 483  1719.855
 484  2218.006
 485  1962.968
 486  1926.203
 487  2267.491
 488  1865.534
 489  1832.801
 490  1719.023
 491  1844.695
 492  2231.306
 493  2092.166
 494  1905.516
 495  2323.786
 496  2233.472
 497  1767.315
 498  2095.862
 499  1996.202
 500  2386.034
 501  2477.164
 502  2099.132
 503  2252.383
 504  2566.71
 505  2124.521
 506  1873.391
 507  2243.018
 508  2450.131
 509  2780.742
 510  2465.456
 511  2063.753
