# Input file       =  1185263182.108499_cleaned.dat
# Candidate        =  PSR_0332+5434
# Telescope        =  AR
# Epoch_topo       =  57962.324086903922
# Epoch_bary       =  N/A
# T_sample         =  0.002
# Data Folded      =  7340032
# Data Avg         =  0.329675347419522
# Data StdDev      =  5.31806305432503 
# Profile Bins     =  256
# Profile Avg      =  9450.48885194355 
# Profile StdDev   =  900.497427091496 
# Reduced chi-sqr  =  1.162
# Prob(Noise)      <  0.0388   (~1.8 sigma)
# P_topo (ms)      =  714.471515373803  +/- 0.000673
# P'_topo (s/s)    =  -0                +/- 3.55e-10
# P''_topo (s/s^2) =  0                 +/- 1.57e-13
# P_bary (ms)      =  N/A
# P'_bary (s/s)    =  N/A
# P''_bary (s/s^2) =  N/A
# P_orb (s)        =  N/A
# asin(i)/c (s)    =  N/A
# eccentricity     =  N/A
# w (rad)          =  N/A
# T_peri           =  N/A
######################################################
   0  10091.27
   1  9772.956
   2  10573.01
   3  9600.674
   4  10025.93
   5  10107.11
   6  9685.958
   7  10036.23
   8  10258.72
   9  9502.961
  10  9777.787
  11  9975.796
  12  9254.466
  13  8926.947
  14  9798.89
  15  9908.358
  16  10004.1
  17  9892.013
  18  9824.368
  19  9309.083
  20  10018
  21  10185.51
  22  9837.037
  23  9785.683
  24  10149.5
  25  10471.98
  26  10543.55
  27  10410.36
  28  10786.11
  29  10470.69
  30  9507.779
  31  9532.634
  32  9412.182
  33  9501.521
  34  9333.155
  35  9453.539
  36  9757.711
  37  9143.234
  38  8978.809
  39  9220.73
  40  8660.022
  41  8181.298
  42  8506.594
  43  8308.721
  44  7670.002
  45  7859.29
  46  7761.412
  47  8664.569
  48  9998.236
  49  9114.588
  50  9020.119
  51  8965.291
  52  9106.703
  53  8911.562
  54  9069.421
  55  9167.12
  56  9074.36
  57  9714.744
  58  10458.9
  59  9933.498
  60  9768.987
  61  10344.57
  62  9470.907
  63  10156.95
  64  9896.993
  65  10084.87
  66  9652.544
  67  9277.045
  68  9445.789
  69  9881.108
  70  9390.114
  71  9268.369
  72  9534.47
  73  9276.782
  74  9694.199
  75  9225.309
  76  8812.833
  77  9815.716
  78  10070.54
  79  9639.828
  80  9143.884
  81  9624.371
  82  10149.97
  83  10022.37
  84  10004.87
  85  9092.175
  86  9811.909
  87  9046.627
  88  8290.757
  89  9127.281
  90  8631.006
  91  9782.983
  92  10076.68
  93  10826.13
  94  11753.6
  95  11432.19
  96  11233.83
  97  10802.69
  98  11015.55
  99  11065.57
 100  10505.49
 101  10374.94
 102  9827.185
 103  9465.497
 104  9658.065
 105  10014.76
 106  9926.92
 107  10143.48
 108  9444.88
 109  9512.237
 110  10002.96
 111  9378.039
 112  9176.058
 113  9031.016
 114  9211.407
 115  9025.742
 116  8791.02
 117  8807.862
 118  9020.357
 119  8285.046
 120  8989.76
 121  9358.029
 122  8108.367
 123  8190.08
 124  8320.252
 125  8961.181
 126  7851.609
 127  8035.743
 128  8155.932
 129  8786.032
 130  9968.942
 131  9389.754
 132  9107.001
 133  9342.178
 134  9336.585
 135  9031.564
 136  9175.36
 137  9094.244
 138  8829.129
 139  8932.139
 140  8982.391
 141  9122.102
 142  8791.242
 143  7659.907
 144  8753.383
 145  8493.979
 146  7476.434
 147  7917.301
 148  8003.514
 149  8322.995
 150  8107.756
 151  8412.401
 152  8610.074
 153  8408.599
 154  8878.916
 155  8843.861
 156  7612.922
 157  7416.211
 158  7505.882
 159  8009.66
 160  8460.958
 161  9509.915
 162  10818.56
 163  11525.67
 164  9426.19
 165  9097.588
 166  9490.706
 167  9433.688
 168  9793.418
 169  9829.753
 170  10600.14
 171  9584.626
 172  9005.907
 173  9484.574
 174  8427.376
 175  8131.947
 176  8421.085
 177  8242.751
 178  8289.703
 179  8269.201
 180  7804.989
 181  9002.552
 182  8434.949
 183  7953.621
 184  8202.131
 185  8568.367
 186  8533.198
 187  9301.789
 188  9045.859
 189  8871.253
 190  9188.345
 191  9103.999
 192  9468.896
 193  9313.673
 194  8865.964
 195  8551.646
 196  8565.146
 197  9408.976
 198  9658.786
 199  9025.553
 200  9363.883
 201  9582.839
 202  9624.112
 203  9238.173
 204  9623.775
 205  9650.749
 206  8413.159
 207  9143.559
 208  9310.508
 209  8995.755
 210  9817.547
 211  9685.488
 212  9239.365
 213  9532.907
 214  9941.285
 215  9779.419
 216  10514.11
 217  9910.204
 218  10326.86
 219  10150.21
 220  10195.13
 221  10224.27
 222  10408.54
 223  10642.1
 224  9661.787
 225  9116.922
 226  9193.34
 227  9311.36
 228  9857.752
 229  9610.845
 230  9517.655
 231  9459.911
 232  9877.195
 233  9620.942
 234  9571.003
 235  9492.938
 236  10004.59
 237  10636.6
 238  10527.24
 239  10447.62
 240  10948.42
 241  10678.98
 242  11027.51
 243  10513.66
 244  10969.52
 245  11057.28
 246  11209.87
 247  10978.02
 248  11140.86
 249  10945.57
 250  10349.24
 251  10594.47
 252  10141.29
 253  9904.034
 254  10129.37
 255  10290.42
