# Input file       =  1185147448.112553_cleaned.dat
# Candidate        =  PSR_0332+5434
# Telescope        =  AR
# Epoch_topo       =  57960.984573061956
# Epoch_bary       =  N/A
# T_sample         =  0.002
# Data Folded      =  7208960
# Data Avg         =  0.121398227100938
# Data StdDev      =  4.96979464458417 
# Profile Bins     =  1024
# Profile Avg      =  854.6030441257   
# Profile StdDev   =  416.989167746281 
# Reduced chi-sqr  =  0.509
# Prob(Noise)      <  1   (~0.0 sigma)
# P_topo (ms)      =  714.471832170207  +/- 4.27e-05
# P'_topo (s/s)    =  -0                +/- 2.29e-11
# P''_topo (s/s^2) =  0                 +/- 1.03e-14
# P_bary (ms)      =  N/A
# P'_bary (s/s)    =  N/A
# P''_bary (s/s^2) =  N/A
# P_orb (s)        =  N/A
# asin(i)/c (s)    =  N/A
# eccentricity     =  N/A
# w (rad)          =  N/A
# T_peri           =  N/A
######################################################
   0  1020.97
   1  923.328
   2  847.1077
   3  887.1369
   4  895.0167
   5  1079.548
   6  1010.431
   7  907.3686
   8  605.5889
   9  636.0397
  10  773.2574
  11  791.1141
  12  719.4557
  13  560.7994
  14  683.7352
  15  702.7165
  16  764.7039
  17  858.0663
  18  1103.688
  19  1199.534
  20  1106.183
  21  946.2778
  22  890.8774
  23  943.6603
  24  993.6509
  25  970.8724
  26  871.4688
  27  802.9535
  28  756.2081
  29  788.4599
  30  886.6796
  31  917.0397
  32  931.7396
  33  987.7419
  34  1002.703
  35  945.0256
  36  877.3253
  37  845.661
  38  765.6357
  39  835.6689
  40  875.8738
  41  923.9007
  42  804.2098
  43  850.1821
  44  778.9293
  45  762.0123
  46  642.6203
  47  703.7166
  48  690.7808
  49  643.8333
  50  607.7728
  51  454.5744
  52  523.3305
  53  766.2609
  54  997.2642
  55  928.5995
  56  760.7218
  57  813.66
  58  811.8424
  59  851.7292
  60  823.1396
  61  1014.658
  62  885.2494
  63  766.0912
  64  779.8658
  65  920.2671
  66  826.7229
  67  730.5344
  68  762.7473
  69  803.0802
  70  926.0262
  71  900.9249
  72  758.2593
  73  493.7244
  74  514.0262
  75  733.3618
  76  935.5427
  77  1033.909
  78  936.1708
  79  834.7022
  80  781.4367
  81  754.3217
  82  646.5696
  83  686.1448
  84  883.9498
  85  836.6476
  86  784.9461
  87  602.3409
  88  714.4407
  89  772.412
  90  819.2806
  91  835.9473
  92  860.3951
  93  832.7009
  94  763.7112
  95  827.2588
  96  823.8223
  97  832.4282
  98  858.5282
  99  875.9756
 100  815.5922
 101  836.5969
 102  905.3837
 103  835.4849
 104  734.6434
 105  743.7249
 106  845.6834
 107  898.5609
 108  980.4009
 109  913.7435
 110  766.6434
 111  698.5665
 112  705.7698
 113  794.0875
 114  793.5601
 115  924.8389
 116  827.9257
 117  874.053
 118  887.9222
 119  905.6516
 120  785.4982
 121  640.1458
 122  600.908
 123  710.3257
 124  881.0994
 125  873.4576
 126  867.0744
 127  751.9709
 128  816.7093
 129  905.3922
 130  855.2007
 131  775.6157
 132  856.7688
 133  830.4639
 134  734.2413
 135  639.7587
 136  838.8334
 137  703.581
 138  699.543
 139  642.3838
 140  787.8211
 141  651.9145
 142  696.0586
 143  846.0087
 144  986.5847
 145  1026.73
 146  977.4741
 147  848.9302
 148  851.4255
 149  1031.665
 150  1093.29
 151  1072.304
 152  821.0164
 153  700.6748
 154  633.8737
 155  624.2822
 156  593.5518
 157  763.6283
 158  829.8443
 159  962.2888
 160  979.5256
 161  889.1438
 162  817.4452
 163  828.818
 164  1032.663
 165  1126.576
 166  1237.45
 167  1206.146
 168  990.08
 169  804.3278
 170  756.0872
 171  842.7357
 172  878.0098
 173  1057.667
 174  1040.251
 175  997.9405
 176  879.7088
 177  826.2123
 178  772.9918
 179  820.2776
 180  1055.487
 181  947.0401
 182  978.0409
 183  844.1841
 184  797.8705
 185  654.7697
 186  677.0018
 187  864.2288
 188  1067.243
 189  1023.872
 190  1005.589
 191  1011.427
 192  1005.185
 193  884.6996
 194  942.2965
 195  1005.774
 196  1140.653
 197  1116.591
 198  1132.855
 199  1016.915
 200  918.0049
 201  785.2883
 202  852.9087
 203  989.3882
 204  1150.274
 205  1037.801
 206  804.4395
 207  749.3257
 208  893.1027
 209  1018.72
 210  1003.687
 211  767.8452
 212  661.9792
 213  847.1084
 214  990.2369
 215  1014.629
 216  941.2686
 217  1061.101
 218  1035.505
 219  1027.122
 220  818.1854
 221  738.4991
 222  568.1691
 223  618.5515
 224  715.8503
 225  973.8589
 226  872.8044
 227  837.7698
 228  810.2613
 229  935.8932
 230  910.313
 231  982.8226
 232  1100.629
 233  1148.949
 234  1107.52
 235  936.6258
 236  782.1877
 237  543.972
 238  698.1882
 239  806.046
 240  876.8856
 241  776.1854
 242  699.2698
 243  646.0345
 244  556.4543
 245  608.0629
 246  638.0641
 247  737.632
 248  608.8053
 249  561.6671
 250  423.3557
 251  446.3285
 252  522.6016
 253  764.4364
 254  870.3922
 255  1040.732
 256  1122.79
 257  1011.987
 258  882.8318
 259  817.5053
 260  787.9665
 261  642.1458
 262  596.5598
 263  839.3038
 264  923.9711
 265  864.8838
 266  646.6251
 267  728.0692
 268  679.9061
 269  886.3944
 270  887.7931
 271  942.4261
 272  922.7557
 273  989.8625
 274  836.3361
 275  793.4026
 276  723.3315
 277  939.8099
 278  864.138
 279  760.6298
 280  633.4604
 281  634.9045
 282  786.9609
 283  876.0286
 284  877.8323
 285  762.0214
 286  600.5891
 287  640.1207
 288  738.9376
 289  813.5015
 290  934.5909
 291  907.9261
 292  876.3428
 293  544.424
 294  497.8604
 295  540.394
 296  797.5905
 297  801.3904
 298  803.6817
 299  762.1097
 300  761.2884
 301  591.1257
 302  422.3209
 303  533.4716
 304  580.0104
 305  583.8868
 306  674.0497
 307  923.5311
 308  901.1591
 309  646.2339
 310  576.1582
 311  618.718
 312  671.1683
 313  714.7584
 314  752.3958
 315  779.8732
 316  700.6687
 317  779.3823
 318  736.909
 319  812.3094
 320  826.9413
 321  984.8575
 322  844.0653
 323  810.8893
 324  761.5709
 325  780.1541
 326  598.7238
 327  595.6832
 328  863.7859
 329  969.5171
 330  945.4555
 331  911.8091
 332  929.5534
 333  834.1611
 334  853.9904
 335  929.7977
 336  933.5568
 337  937.4466
 338  969.6
 339  967.119
 340  777.8331
 341  718.44
 342  743.5304
 343  846.0703
 344  918.3867
 345  835.8759
 346  859.4489
 347  799.5295
 348  913.648
 349  765.6046
 350  774.3563
 351  712.6825
 352  750.9521
 353  626.9777
 354  735.5672
 355  830.3142
 356  1008.72
 357  948.7312
 358  1012.487
 359  1004.405
 360  943.7791
 361  881.1396
 362  971.7923
 363  900.2606
 364  755.6627
 365  772.8002
 366  939.0903
 367  779.3259
 368  736.3849
 369  726.0921
 370  832.6235
 371  842.1382
 372  821.8372
 373  801.127
 374  650.7294
 375  612.2186
 376  610.7108
 377  649.2666
 378  582.9938
 379  810.1688
 380  884.6543
 381  910.165
 382  771.4052
 383  662.2491
 384  667.1367
 385  658.4641
 386  744.6265
 387  749.323
 388  814.1337
 389  770.1362
 390  866.2189
 391  796.8624
 392  742.2615
 393  806.0655
 394  810.2265
 395  850.2794
 396  953.0877
 397  1066.498
 398  1069.593
 399  855.0286
 400  628.7753
 401  553.2394
 402  724.3503
 403  837.0424
 404  775.6584
 405  555.4941
 406  693.707
 407  689.8301
 408  846.796
 409  720.4639
 410  778.2762
 411  585.0535
 412  555.0883
 413  687.5369
 414  757.7404
 415  721.6434
 416  786.3299
 417  844.2199
 418  883.3788
 419  783.4146
 420  695.4856
 421  781.8157
 422  742.9884
 423  801.6019
 424  790.2249
 425  747.59
 426  637.9854
 427  588.783
 428  623.5994
 429  813.6645
 430  881.5098
 431  772.0681
 432  488.449
 433  565.3686
 434  625.5027
 435  637.5247
 436  541.2629
 437  603.3309
 438  747.4517
 439  759.9238
 440  909.1265
 441  753.4723
 442  602.7541
 443  579.1175
 444  734.7029
 445  783.12
 446  673.9395
 447  725.6047
 448  665.3181
 449  595.9119
 450  560.4689
 451  621.2767
 452  796.2393
 453  840.1538
 454  914.1627
 455  960.2239
 456  929.7831
 457  817.8816
 458  846.9061
 459  707.5009
 460  762.5574
 461  828.3709
 462  1003.711
 463  867.079
 464  784.092
 465  810.9238
 466  883.6365
 467  858.5954
 468  978.1943
 469  905.9404
 470  760.5668
 471  595.3818
 472  697.51
 473  765.9888
 474  757.6899
 475  816.1456
 476  824.8837
 477  953.4387
 478  918.4274
 479  819.9494
 480  760.3628
 481  750.4969
 482  733.0578
 483  733.4501
 484  652.4981
 485  655.6323
 486  595.1584
 487  728.4774
 488  815.2043
 489  980.47
 490  864.1897
 491  849.1171
 492  759.1919
 493  685.8563
 494  569.5393
 495  692.7319
 496  911.8936
 497  986.3045
 498  952.0453
 499  877.5959
 500  757.4081
 501  556.3015
 502  591.2698
 503  635.7019
 504  668.9954
 505  773.8468
 506  741.5925
 507  805.3821
 508  724.2551
 509  774.3098
 510  677.4612
 511  678.5618
 512  837.3209
 513  903.7203
 514  1062.92
 515  891.1832
 516  904.686
 517  687.7338
 518  820.6312
 519  738.8929
 520  770.6935
 521  669.4605
 522  756.3005
 523  741.679
 524  669.509
 525  648.378
 526  757.5629
 527  1006.026
 528  1062.017
 529  1121.75
 530  919.7825
 531  808.833
 532  785.3076
 533  842.8414
 534  878.0906
 535  819.4536
 536  949.4999
 537  944.749
 538  818.0084
 539  706.318
 540  634.3627
 541  620.8839
 542  623.0482
 543  728.2365
 544  688.2463
 545  911.5898
 546  1034.906
 547  1129.367
 548  929.8361
 549  827.2825
 550  1002.885
 551  1020.291
 552  927.556
 553  805.8923
 554  808.0869
 555  823.7135
 556  821.3347
 557  937.2719
 558  841.1008
 559  618.4631
 560  677.9532
 561  858.087
 562  910.7213
 563  827.3012
 564  903.7629
 565  903.9088
 566  745.9934
 567  673.3423
 568  769.4946
 569  751.2281
 570  936.9319
 571  897.8038
 572  923.8638
 573  805.7969
 574  759.652
 575  677.0842
 576  609.4939
 577  740.1603
 578  877.1598
 579  918.8355
 580  873.3021
 581  901.1862
 582  867.8063
 583  875.1288
 584  863.4458
 585  855.8063
 586  922.6221
 587  948.8858
 588  1044.299
 589  954.1121
 590  952.0157
 591  946.6564
 592  987.1149
 593  900.4973
 594  817.2743
 595  760.2253
 596  664.005
 597  603.459
 598  594.1036
 599  660.9823
 600  587.1489
 601  788.999
 602  882.7713
 603  1010.735
 604  822.8353
 605  823.1874
 606  928.2619
 607  1062.945
 608  1091.571
 609  879.9474
 610  866.7399
 611  903.5935
 612  1004.834
 613  764.1687
 614  742.4149
 615  680.6736
 616  868.8102
 617  699.6454
 618  830.9017
 619  772.0524
 620  783.3281
 621  803.3303
 622  1054.136
 623  1115.339
 624  1049.544
 625  899.4728
 626  924.2343
 627  869.537
 628  942.3781
 629  1057.336
 630  1080.067
 631  903.9097
 632  912.1656
 633  908.2077
 634  820.6108
 635  795.4675
 636  839.1773
 637  1048.673
 638  1094.455
 639  1049.801
 640  934.5961
 641  893.5325
 642  909.3345
 643  1211.165
 644  1456.399
 645  1588.02
 646  1594.557
 647  1621.921
 648  1567.844
 649  1612.923
 650  1543.282
 651  1717.451
 652  1614.633
 653  1596.968
 654  1312.436
 655  1303.451
 656  1092.795
 657  1020.997
 658  894.6235
 659  1000.789
 660  1056.395
 661  1111.076
 662  1009.982
 663  971.672
 664  894.9592
 665  723.5098
 666  889.8589
 667  846.4305
 668  786.6248
 669  657.8604
 670  725.759
 671  743.0128
 672  665.9626
 673  709.9692
 674  720.3141
 675  816.6984
 676  858.9076
 677  967.212
 678  835.6009
 679  942.7701
 680  1081.49
 681  1102.491
 682  923.7558
 683  754.6584
 684  890.7627
 685  916.4507
 686  1017.713
 687  896.2751
 688  958.8602
 689  797.8274
 690  838.669
 691  837.7636
 692  732.4769
 693  697.4673
 694  790.5798
 695  962.6005
 696  830.0991
 697  887.9617
 698  876.8942
 699  771.8231
 700  671.6215
 701  659.5896
 702  874.1757
 703  919.8387
 704  986.9136
 705  878.2405
 706  762.075
 707  655.4005
 708  691.2217
 709  807.1982
 710  883.6328
 711  969.8102
 712  969.1376
 713  927.5782
 714  877.0648
 715  819.3707
 716  827.4621
 717  905.1085
 718  1030.133
 719  1090.027
 720  1121.255
 721  965.7642
 722  982.7926
 723  843.9559
 724  932.4526
 725  905.3098
 726  994.8875
 727  855.6949
 728  871.9252
 729  740.2615
 730  658.3203
 731  661.7006
 732  837.9446
 733  975.0851
 734  1028.395
 735  1002.108
 736  959.9626
 737  764.1002
 738  771.4554
 739  745.2737
 740  803.5917
 741  805.3281
 742  938.9449
 743  877.861
 744  867.0485
 745  946.2585
 746  957.6114
 747  856.924
 748  746.439
 749  845.2499
 750  824.8606
 751  934.5487
 752  891.9128
 753  1071.719
 754  1117.562
 755  1086.539
 756  1125.446
 757  1058.537
 758  1099.879
 759  1052.922
 760  934.3307
 761  962.3725
 762  1015.281
 763  1064.416
 764  827.8201
 765  775.2522
 766  828.3213
 767  920.8054
 768  891.6439
 769  1009.21
 770  1121.64
 771  1096.214
 772  1000.432
 773  715.3338
 774  727.641
 775  830.5796
 776  1208.845
 777  1068.991
 778  949.6403
 779  817.4493
 780  867.4819
 781  744.8768
 782  714.393
 783  809.149
 784  1039.77
 785  1103.646
 786  1180.762
 787  1104.951
 788  928.551
 789  716.0983
 790  689.5114
 791  761.2793
 792  974.7091
 793  1139.258
 794  1131.474
 795  926.0555
 796  945.1877
 797  855.3064
 798  902.4003
 799  851.1702
 800  1028.362
 801  908.9969
 802  571.6155
 803  486.0776
 804  548.2378
 805  651.7799
 806  644.8415
 807  827.3917
 808  864.6478
 809  925.7693
 810  940.2711
 811  982.3064
 812  898.3177
 813  876.1257
 814  958.5421
 815  977.8872
 816  865.0076
 817  786.4691
 818  973.8932
 819  997.5849
 820  933.1844
 821  1077.536
 822  1125.874
 823  1124.139
 824  912.1849
 825  982.5905
 826  963.8157
 827  1062.461
 828  1148.653
 829  1147.817
 830  1002.751
 831  822.8007
 832  771.8577
 833  647.5046
 834  643.7099
 835  795.3333
 836  1074.605
 837  1103.624
 838  1011.908
 839  889.7234
 840  1005.181
 841  1088.912
 842  1004.357
 843  935.0933
 844  952.9088
 845  855.9523
 846  672.542
 847  534.2347
 848  647.7298
 849  728.9102
 850  813.9819
 851  853.3525
 852  997.9981
 853  876.6967
 854  870.8879
 855  895.1487
 856  873.1041
 857  831.1956
 858  845.6039
 859  973.9451
 860  903.8207
 861  923.8864
 862  746.8125
 863  749.4857
 864  628.884
 865  802.0272
 866  838.9891
 867  920.2209
 868  1093.409
 869  1176.754
 870  1039.208
 871  871.4073
 872  926.9888
 873  902.6357
 874  965.1154
 875  1099.555
 876  1121.486
 877  1106.391
 878  992.2204
 879  1111.125
 880  963.7532
 881  970.1246
 882  1026.563
 883  1058.867
 884  804.9055
 885  647.731
 886  889.1501
 887  973.9055
 888  988.3927
 889  869.9249
 890  974.2285
 891  955.5837
 892  939.4069
 893  946.787
 894  976.5854
 895  985.4354
 896  1068.681
 897  1039.104
 898  892.7947
 899  818.2205
 900  952.2789
 901  1087.541
 902  924.7053
 903  732.7857
 904  711.5558
 905  652.3838
 906  570.6866
 907  467.2928
 908  675.6287
 909  930.4468
 910  1073.508
 911  972.3145
 912  709.9638
 913  658.3021
 914  679.7438
 915  834.5021
 916  823.4687
 917  978.2145
 918  931.6539
 919  1007.191
 920  919.2636
 921  824.7085
 922  753.4265
 923  831.7081
 924  1006.463
 925  959.8979
 926  843.6522
 927  643.5949
 928  660.7974
 929  693.317
 930  966.2148
 931  1022.618
 932  995.7789
 933  1113.026
 934  1126.726
 935  1082.687
 936  946.7446
 937  1041.009
 938  1056.589
 939  1003.631
 940  897.1028
 941  845.5375
 942  776.1594
 943  694.4657
 944  662.312
 945  633.8762
 946  719.3606
 947  770.1948
 948  873.5256
 949  863.8398
 950  851.3189
 951  832.7991
 952  942.4843
 953  989.921
 954  1057.02
 955  1106.589
 956  1167.053
 957  1015.94
 958  905.3993
 959  902.4111
 960  983.819
 961  1018.72
 962  961.4496
 963  803.7686
 964  774.759
 965  780.6553
 966  749.9422
 967  773.1903
 968  767.0278
 969  813.2278
 970  850.2725
 971  844.8936
 972  688.9581
 973  626.2774
 974  803.8758
 975  1019.153
 976  1042.452
 977  973.1983
 978  931.6795
 979  944.1964
 980  823.654
 981  731.1365
 982  721.6436
 983  759.9899
 984  874.1041
 985  964.8669
 986  987.3191
 987  959.3372
 988  921.5717
 989  1032.884
 990  1153.994
 991  1267.649
 992  1264.286
 993  1160.383
 994  798.2476
 995  653.6958
 996  558.6835
 997  639.6357
 998  758.6484
 999  834.2233
1000  910.6381
1001  816.2831
1002  895.6573
1003  942.1138
1004  1143.911
1005  1201.428
1006  1177.711
1007  1003.882
1008  817.9753
1009  778.3355
1010  788.4131
1011  875.4416
1012  843.5646
1013  822.508
1014  678.6971
1015  751.293
1016  816.9284
1017  865.7575
1018  883.3257
1019  870.2258
1020  917.6445
1021  917.0227
1022  895.4529
1023  1055.015
