# Input file       =  1185592917.121895_cleaned.dat
# Candidate        =  PSR_0332+5434
# Telescope        =  AR
# Epoch_topo       =  57966.140464373784
# Epoch_bary       =  N/A
# T_sample         =  0.002
# Data Folded      =  7340032
# Data Avg         =  0.1888026641318  
# Data StdDev      =  4.15286006517852 
# Profile Bins     =  1024
# Profile Avg      =  1353.2167440269  
# Profile StdDev   =  351.597918787643 
# Reduced chi-sqr  =  1.240
# Prob(Noise)      <  2.12e-07   (~5.1 sigma)
# P_topo (ms)      =  714.469432770943  +/- 0.000915
# P'_topo (s/s)    =  -0                +/- 4.83e-10
# P''_topo (s/s^2) =  0                 +/- 2.13e-13
# P_bary (ms)      =  N/A
# P'_bary (s/s)    =  N/A
# P''_bary (s/s^2) =  N/A
# P_orb (s)        =  N/A
# asin(i)/c (s)    =  N/A
# eccentricity     =  N/A
# w (rad)          =  N/A
# T_peri           =  N/A
######################################################
   0  1180.602
   1  1142.619
   2  1199.245
   3  1198.079
   4  1292.496
   5  1442.088
   6  1443.11
   7  1432.096
   8  1401.346
   9  1492.562
  10  1444.193
  11  1489.028
  12  1475.135
  13  1544.054
  14  1646.634
  15  1652.985
  16  1636.936
  17  1525.276
  18  1535.824
  19  1618.317
  20  1641.423
  21  1601.324
  22  1502.987
  23  1497.221
  24  1405.347
  25  1383.588
  26  1365.784
  27  1424.09
  28  1526.153
  29  1537.727
  30  1614.035
  31  1535.03
  32  1522.724
  33  1456.394
  34  1362.119
  35  1417.612
  36  1442.269
  37  1499.546
  38  1446.467
  39  1404.706
  40  1443.545
  41  1428.491
  42  1380.784
  43  1400.296
  44  1540.467
  45  1500.595
  46  1416.129
  47  1335.524
  48  1400.889
  49  1483.507
  50  1443.368
  51  1515.594
  52  1402.094
  53  1418.864
  54  1377.488
  55  1467.462
  56  1451.903
  57  1434.572
  58  1499.307
  59  1510.483
  60  1587.551
  61  1484.106
  62  1534.788
  63  1474.302
  64  1475.848
  65  1432.362
  66  1347.124
  67  1301.556
  68  1330.024
  69  1442.859
  70  1514.51
  71  1518.548
  72  1483.073
  73  1389.847
  74  1389.249
  75  1396.171
  76  1437.971
  77  1345.343
  78  1272.642
  79  1301.712
  80  1335.653
  81  1367.917
  82  1304.773
  83  1364.956
  84  1392.904
  85  1391.854
  86  1343.074
  87  1394.73
  88  1520.267
  89  1473.54
  90  1430.817
  91  1294.824
  92  1362.589
  93  1448.29
  94  1570.383
  95  1626.982
  96  1540.392
  97  1465.322
  98  1405.831
  99  1399.502
 100  1368.677
 101  1385.972
 102  1457.948
 103  1515.355
 104  1582.374
 105  1508.017
 106  1538.482
 107  1486.034
 108  1525.026
 109  1612.527
 110  1624.933
 111  1620.15
 112  1573.667
 113  1638.732
 114  1590.632
 115  1605.764
 116  1645.145
 117  1759
 118  1747.772
 119  1715.888
 120  1699.256
 121  1647.659
 122  1764.325
 123  1812.604
 124  1899.31
 125  1852.335
 126  1749.361
 127  1644.597
 128  1580.268
 129  1529.35
 130  1544.133
 131  1570.749
 132  1732.303
 133  1737.421
 134  1716.009
 135  1728.695
 136  1634.799
 137  1629.598
 138  1510.113
 139  1592.321
 140  1564.376
 141  1657.819
 142  1683.373
 143  1656.341
 144  1644.562
 145  1648.068
 146  1736.881
 147  1773.007
 148  1652.816
 149  1539.433
 150  1533.349
 151  1705.781
 152  1794.311
 153  1841.906
 154  1713.714
 155  1681.465
 156  1647.953
 157  1751.875
 158  1708.987
 159  1680.917
 160  1760.435
 161  1889.201
 162  1936.152
 163  1931.134
 164  1953.223
 165  1896.365
 166  1785.448
 167  1701.534
 168  1702.012
 169  1833.4
 170  1850.856
 171  2031.428
 172  1926.66
 173  1884.307
 174  1735.83
 175  1825.295
 176  1824.12
 177  1772.977
 178  1896.101
 179  1978.911
 180  2006.298
 181  1788.803
 182  1674.186
 183  1769.564
 184  1637.689
 185  1629.307
 186  1479.115
 187  1573.478
 188  1590.851
 189  1603.046
 190  1625.068
 191  1636.195
 192  1673.679
 193  1716.551
 194  1728.826
 195  1627.763
 196  1564.848
 197  1539.088
 198  1626.466
 199  1742.003
 200  1743.222
 201  1736.328
 202  1624.187
 203  1620.002
 204  1703.391
 205  1657.343
 206  1592.087
 207  1429.722
 208  1587.525
 209  1658.261
 210  1645.802
 211  1623.693
 212  1642.527
 213  1718.488
 214  1620.583
 215  1540.329
 216  1440.803
 217  1459.657
 218  1634.154
 219  1696.538
 220  1770.738
 221  1589.83
 222  1657.288
 223  1663.166
 224  1760.902
 225  1674.791
 226  1607.283
 227  1572.377
 228  1538.625
 229  1603.222
 230  1521.578
 231  1510.142
 232  1465.942
 233  1630.476
 234  1663.24
 235  1698.151
 236  1648.261
 237  1587.251
 238  1517.868
 239  1468.469
 240  1562.973
 241  1544.234
 242  1573.497
 243  1545.174
 244  1544.824
 245  1611.153
 246  1535.205
 247  1411.393
 248  1294.801
 249  1345.522
 250  1569.237
 251  1588.974
 252  1556.848
 253  1360.286
 254  1318.195
 255  1310.989
 256  1333.098
 257  1316.572
 258  1219.51
 259  1263.685
 260  1230.638
 261  1211.78
 262  1071.378
 263  1092.397
 264  1135.334
 265  1138.438
 266  1119.91
 267  1162.199
 268  1259.697
 269  1437.579
 270  1311.93
 271  1260.59
 272  1163.902
 273  1230.181
 274  1163.332
 275  1163.357
 276  1113.75
 277  1271.568
 278  1378.249
 279  1371.366
 280  1335.956
 281  1298.447
 282  1380.554
 283  1349.606
 284  1372.895
 285  1369.248
 286  1345.223
 287  1300.162
 288  1110.66
 289  983.1142
 290  835.2401
 291  877.775
 292  968.2466
 293  1112.866
 294  1152.626
 295  1108.453
 296  1206.389
 297  1221.32
 298  1198.997
 299  1202.717
 300  1208.084
 301  1187.436
 302  1128.757
 303  1279.698
 304  1301.591
 305  1279.963
 306  1268.114
 307  1361.361
 308  1325.856
 309  1243.188
 310  1173.291
 311  1133.975
 312  1031.98
 313  990.0102
 314  1067.539
 315  1184.05
 316  1201.698
 317  1247.807
 318  1218.52
 319  1249.361
 320  1128.801
 321  1068.553
 322  1017.208
 323  952.3455
 324  992.8339
 325  1024.65
 326  1113.879
 327  1124.226
 328  1069.97
 329  1106.854
 330  1065.276
 331  1102.405
 332  1017.984
 333  1022.01
 334  952.7969
 335  1040.155
 336  1149.671
 337  1249.006
 338  1160.211
 339  1027.712
 340  947.5105
 341  957.6454
 342  1092.893
 343  1171.607
 344  1247.55
 345  1056.89
 346  1018.916
 347  1124.702
 348  1213.114
 349  1226.187
 350  1015.579
 351  948.9959
 352  966.3591
 353  1090.628
 354  1109.785
 355  1108.975
 356  1167.339
 357  1267.321
 358  1293.402
 359  1211.545
 360  1232.5
 361  1207.864
 362  1250.718
 363  1244.136
 364  1239.412
 365  1152.281
 366  1063.388
 367  949.1783
 368  1080
 369  1168.125
 370  1267.58
 371  1150.668
 372  1213.764
 373  1189.971
 374  1112.539
 375  1042.257
 376  1099.733
 377  1192.55
 378  1211.016
 379  1188.368
 380  1103.239
 381  913.7354
 382  883.1913
 383  956.4937
 384  1098.648
 385  1168.749
 386  1191.23
 387  1187.472
 388  1140.018
 389  1043.435
 390  1112.81
 391  1195.836
 392  1167.992
 393  1080.459
 394  925.1341
 395  1002.742
 396  1035.357
 397  1172.326
 398  1132.193
 399  1095.596
 400  1087.673
 401  1075.631
 402  1136.674
 403  1091.912
 404  1099.396
 405  1052.12
 406  984.8804
 407  963.7026
 408  995.418
 409  1063.185
 410  1186.432
 411  1222.915
 412  1162.717
 413  1094.655
 414  1043.93
 415  1000.998
 416  1092.873
 417  1217.853
 418  1192.295
 419  1065.172
 420  922.3466
 421  942.9153
 422  929.199
 423  1061.536
 424  963.2101
 425  932.5942
 426  910.5145
 427  1055.625
 428  1128.701
 429  1143.158
 430  1176.804
 431  1138.062
 432  1218.923
 433  1107.976
 434  1134.356
 435  1065.444
 436  1044.061
 437  1080.719
 438  1018.278
 439  1109.972
 440  1080.862
 441  1141.76
 442  1082.148
 443  946.2746
 444  936.998
 445  920.1174
 446  1113.753
 447  1191.348
 448  1266.876
 449  1106.086
 450  1016.589
 451  917.7601
 452  928.3738
 453  934.0848
 454  921.5193
 455  933.8226
 456  952.8405
 457  987.9862
 458  1047.628
 459  996.7607
 460  1030.765
 461  1044.554
 462  1111.729
 463  1131.924
 464  1129.271
 465  1163.072
 466  1057.844
 467  1018.974
 468  964.9819
 469  997.2958
 470  978.484
 471  1024.499
 472  1154.328
 473  1271.406
 474  1285.386
 475  1255.679
 476  1155.319
 477  1113.827
 478  1121.763
 479  1197.314
 480  1201.013
 481  1139.66
 482  1079.175
 483  1122.948
 484  1140.059
 485  1241.588
 486  1301.64
 487  1321.051
 488  1268.878
 489  1140.464
 490  1100.351
 491  1190.24
 492  1254.225
 493  1299.543
 494  1181.94
 495  1188.122
 496  1122.336
 497  1235.761
 498  1141.167
 499  1082.494
 500  955.7554
 501  968.2607
 502  1021.499
 503  1125.688
 504  1212.666
 505  1202.165
 506  1282.892
 507  1375.992
 508  1390.101
 509  1274.502
 510  1114.528
 511  1129.665
 512  1101.14
 513  1168.395
 514  1121.268
 515  1160.301
 516  1299.221
 517  1316.323
 518  1336.291
 519  1273.923
 520  1267.048
 521  1202.609
 522  1147.897
 523  1186.912
 524  1130.083
 525  1158.839
 526  1170.515
 527  1239.203
 528  1242.368
 529  1305.866
 530  1397.09
 531  1348.941
 532  1316.408
 533  1255.53
 534  1235.012
 535  1221.828
 536  1256.145
 537  1262.604
 538  1253.83
 539  1309.598
 540  1382.114
 541  1450.288
 542  1336.17
 543  1376.433
 544  1280.401
 545  1197.882
 546  1097.158
 547  1110.685
 548  1280.227
 549  1387.069
 550  1550.431
 551  1479.657
 552  1487.106
 553  1455.395
 554  1489.53
 555  1519.505
 556  1445.484
 557  1414.259
 558  1389.273
 559  1480.558
 560  1556.223
 561  1530.556
 562  1342.338
 563  1230.154
 564  1288.767
 565  1372.405
 566  1492.943
 567  1501.884
 568  1505.579
 569  1489.818
 570  1395.896
 571  1406.221
 572  1387.243
 573  1445.144
 574  1449.581
 575  1440.326
 576  1321.24
 577  1287.041
 578  1366.886
 579  1423.93
 580  1483.507
 581  1477.646
 582  1456.704
 583  1404.754
 584  1338.304
 585  1391.691
 586  1417.165
 587  1532.673
 588  1523.235
 589  1479.712
 590  1404.188
 591  1357.9
 592  1367.316
 593  1371.948
 594  1461.451
 595  1395.03
 596  1318.563
 597  1222.619
 598  1233.812
 599  1349.045
 600  1406.012
 601  1502.553
 602  1492.646
 603  1509.383
 604  1453.723
 605  1309.516
 606  1217.794
 607  1100.3
 608  1210.636
 609  1299.147
 610  1484.138
 611  1470.802
 612  1399.526
 613  1249.546
 614  1175.598
 615  1260.569
 616  1225.354
 617  1260.648
 618  1193.912
 619  1172.484
 620  1137.568
 621  1141.652
 622  1297.829
 623  1486.957
 624  1588.612
 625  1413.117
 626  1334.798
 627  1246.585
 628  1236.234
 629  1269.52
 630  1251.819
 631  1372.108
 632  1317.142
 633  1417.617
 634  1446.553
 635  1505.454
 636  1534.247
 637  1448.096
 638  1448.963
 639  1473.285
 640  1601.458
 641  1636.677
 642  1721.612
 643  1829.389
 644  1864.006
 645  2019.977
 646  1998.522
 647  2132.249
 648  2077.351
 649  2060.151
 650  2071.516
 651  2073.004
 652  2077.684
 653  1981.832
 654  1863.783
 655  1715.197
 656  1653.165
 657  1534.994
 658  1386.815
 659  1340.299
 660  1351.323
 661  1354.219
 662  1284.351
 663  1231.86
 664  1209.235
 665  1156.374
 666  1054.438
 667  898.1998
 668  1012.32
 669  1186.231
 670  1367.908
 671  1348.695
 672  1317.212
 673  1292.368
 674  1327.576
 675  1414.562
 676  1375.269
 677  1335.94
 678  1312.429
 679  1289.395
 680  1311.902
 681  1291.26
 682  1320.319
 683  1252.197
 684  1243.154
 685  1181.887
 686  1191.034
 687  1180.534
 688  1134.15
 689  1240.698
 690  1341.745
 691  1430.49
 692  1318.592
 693  1236.986
 694  1248.261
 695  1235.627
 696  1340.777
 697  1271.018
 698  1265.818
 699  1138.133
 700  1179.431
 701  1328.186
 702  1339.727
 703  1366.498
 704  1283.743
 705  1449.744
 706  1376.833
 707  1423.955
 708  1403.766
 709  1420.85
 710  1380.234
 711  1382.58
 712  1416.36
 713  1354.1
 714  1331.243
 715  1296.506
 716  1302.105
 717  1302.281
 718  1344.632
 719  1352.667
 720  1261.27
 721  1326.691
 722  1346.48
 723  1459.46
 724  1453.859
 725  1422.128
 726  1427.239
 727  1467.665
 728  1522.555
 729  1482.112
 730  1439.641
 731  1426.46
 732  1398.036
 733  1518.375
 734  1429.212
 735  1452.769
 736  1385.941
 737  1434.328
 738  1345.061
 739  1388.32
 740  1517.128
 741  1520.105
 742  1452.835
 743  1402.666
 744  1394.82
 745  1404.136
 746  1433.005
 747  1406.962
 748  1414.216
 749  1382.247
 750  1345.431
 751  1267.012
 752  1224.939
 753  1172.167
 754  1187.638
 755  1197.62
 756  1286.504
 757  1333.907
 758  1369.732
 759  1291.605
 760  1225.662
 761  1178.224
 762  1100.93
 763  1093.344
 764  1104.973
 765  1224.486
 766  1175.269
 767  1164.465
 768  1136.029
 769  1254.781
 770  1259.899
 771  1227.08
 772  1318.08
 773  1416.93
 774  1371.822
 775  1289.203
 776  1175.554
 777  1264.664
 778  1289.902
 779  1404.048
 780  1307.649
 781  1276.224
 782  1216.601
 783  1170.624
 784  1196.34
 785  1250.242
 786  1362.206
 787  1307.879
 788  1228.247
 789  1166.531
 790  1253.294
 791  1371.029
 792  1311.609
 793  1187.25
 794  980.655
 795  1021.244
 796  1023.915
 797  1195.577
 798  1157.563
 799  1205.047
 800  1117.15
 801  1076.296
 802  1230.803
 803  1322.457
 804  1310.156
 805  1118.507
 806  1050.715
 807  1294.15
 808  1333.87
 809  1306.473
 810  1132.695
 811  1115.443
 812  1065.617
 813  1017.079
 814  1053.475
 815  1086.994
 816  1190.541
 817  1151.443
 818  1192.146
 819  1207.857
 820  1266.682
 821  1306.851
 822  1298.886
 823  1345.516
 824  1263.619
 825  1260.572
 826  1292.078
 827  1352.162
 828  1354.168
 829  1247.206
 830  1212.858
 831  1229.243
 832  1313.627
 833  1405.909
 834  1356.136
 835  1437.816
 836  1412.732
 837  1448.153
 838  1383.336
 839  1405.005
 840  1309.544
 841  1343.647
 842  1301.523
 843  1340.618
 844  1307.416
 845  1254.322
 846  1323.092
 847  1284.259
 848  1352.65
 849  1241.138
 850  1285.256
 851  1333.66
 852  1382.945
 853  1356.693
 854  1253.418
 855  1290.909
 856  1342.093
 857  1438.008
 858  1360.188
 859  1354.315
 860  1370.538
 861  1306.261
 862  1249.163
 863  1241.354
 864  1365.193
 865  1378.73
 866  1396.149
 867  1474.211
 868  1345.72
 869  1311.524
 870  1138.731
 871  1197.226
 872  1311.473
 873  1362.921
 874  1328.717
 875  1190.665
 876  1232.045
 877  1281.151
 878  1340.627
 879  1468.413
 880  1451.733
 881  1381.603
 882  1238.673
 883  1219.723
 884  1150.403
 885  1137.598
 886  1139.275
 887  1265.585
 888  1285
 889  1217.163
 890  1252.166
 891  1301.904
 892  1349.788
 893  1390.014
 894  1467.559
 895  1378.599
 896  1227.142
 897  1150.296
 898  1075.325
 899  1114.249
 900  1136.903
 901  1220.814
 902  1164.301
 903  1167.769
 904  1227.704
 905  1224.698
 906  1361.25
 907  1458.96
 908  1477.901
 909  1407.413
 910  1392.785
 911  1452.917
 912  1428.849
 913  1381.988
 914  1315.849
 915  1294.32
 916  1268.838
 917  1365.778
 918  1393.588
 919  1455.121
 920  1380.459
 921  1390.745
 922  1416.445
 923  1346.76
 924  1322.813
 925  1393.391
 926  1345.89
 927  1355.881
 928  1319.11
 929  1370.021
 930  1259.595
 931  1234.76
 932  1277.167
 933  1302.609
 934  1387.856
 935  1488.972
 936  1573.407
 937  1572.929
 938  1552.175
 939  1598.994
 940  1505.686
 941  1414.714
 942  1339.49
 943  1477.937
 944  1438.292
 945  1401.978
 946  1431.783
 947  1520.776
 948  1487.539
 949  1471.691
 950  1624.016
 951  1592.673
 952  1529.012
 953  1453.095
 954  1419.786
 955  1466.822
 956  1370.174
 957  1379.937
 958  1317.266
 959  1409.743
 960  1367.624
 961  1426.325
 962  1514.192
 963  1579.972
 964  1549.068
 965  1536.345
 966  1489.405
 967  1509.08
 968  1526.054
 969  1582.385
 970  1550.942
 971  1584.792
 972  1507.912
 973  1500.788
 974  1418.974
 975  1462.079
 976  1436.734
 977  1499.339
 978  1620.716
 979  1618.913
 980  1590.797
 981  1423.139
 982  1485.92
 983  1511.366
 984  1583.548
 985  1516.75
 986  1388.91
 987  1375.941
 988  1343.66
 989  1394.055
 990  1363.648
 991  1322.096
 992  1314.138
 993  1292.136
 994  1360.809
 995  1357.425
 996  1512.173
 997  1525.374
 998  1577.003
 999  1518.631
1000  1587.926
1001  1652.259
1002  1454.035
1003  1336.913
1004  1236.279
1005  1435.328
1006  1425.101
1007  1460.794
1008  1363.985
1009  1331.851
1010  1270.11
1011  1319.902
1012  1375.222
1013  1472.524
1014  1391.007
1015  1416.631
1016  1462.05
1017  1617.831
1018  1544.496
1019  1396.811
1020  1342.494
1021  1463.365
1022  1522.638
1023  1385.406
