# Input file       =  1185075916.114914_cleaned.dat
# Candidate        =  PSR_0332+5434
# Telescope        =  AR
# Epoch_topo       =  57960.156656422616
# Epoch_bary       =  N/A
# T_sample         =  0.002
# Data Folded      =  7340032
# Data Avg         =  0.145194999651201
# Data StdDev      =  3.40219160272649 
# Profile Bins     =  1024
# Profile Avg      =  1040.74087245798 
# Profile StdDev   =  288.043292589009 
# Reduced chi-sqr  =  1.478
# Prob(Noise)      <  1.35e-21   (~9.5 sigma)
# P_topo (ms)      =  714.472269151624  +/- 0.000382
# P'_topo (s/s)    =  -0                +/- 2.02e-10
# P''_topo (s/s^2) =  0                 +/- 8.9e-14
# P_bary (ms)      =  N/A
# P'_bary (s/s)    =  N/A
# P''_bary (s/s^2) =  N/A
# P_orb (s)        =  N/A
# asin(i)/c (s)    =  N/A
# eccentricity     =  N/A
# w (rad)          =  N/A
# T_peri           =  N/A
######################################################
   0  779.0253
   1  840.5565
   2  820.3224
   3  766.2961
   4  736.7368
   5  672.9749
   6  698.817
   7  783.6069
   8  824.8728
   9  756.0378
  10  700.4025
  11  780.9682
  12  854.242
  13  884.947
  14  888.029
  15  871.1766
  16  832.0648
  17  846.4971
  18  862.9478
  19  817.3467
  20  769.2156
  21  787.968
  22  868.459
  23  831.7806
  24  845.8503
  25  824.8737
  26  882.0905
  27  791.4567
  28  701.2024
  29  619.2157
  30  647.1543
  31  635.2773
  32  709.3768
  33  814.976
  34  859.178
  35  825.0016
  36  854.5337
  37  929.3025
  38  1018.221
  39  960.1582
  40  991.2665
  41  985.8655
  42  993.8423
  43  909.3921
  44  923.817
  45  968.1227
  46  984.3793
  47  961.0408
  48  963.7722
  49  966.6248
  50  974.0907
  51  1019.492
  52  1094.362
  53  1075.714
  54  1003.271
  55  939.6844
  56  920.9501
  57  939.1379
  58  1001
  59  1046.067
  60  1065.292
  61  1032.385
  62  917.3627
  63  874.6669
  64  852.0708
  65  875.7485
  66  888.2441
  67  889.6211
  68  929.35
  69  977.3983
  70  1055.68
  71  999.6007
  72  1032.549
  73  1039.498
  74  1120.639
  75  1005.452
  76  947.1296
  77  975.9863
  78  1041.369
  79  1189.826
  80  1187.714
  81  1128.139
  82  1084.544
  83  1164.139
  84  1274.053
  85  1226.17
  86  1141.608
  87  1071.762
  88  1050.874
  89  1049.653
  90  1089.63
  91  1072.846
  92  1081.348
  93  1060.547
  94  1001.238
  95  1033.348
  96  1019.576
  97  1007.66
  98  1011.179
  99  1052.24
 100  1106.889
 101  1104.576
 102  1102.874
 103  1067.807
 104  1027.316
 105  963.5018
 106  854.3811
 107  910.4607
 108  952.1179
 109  1018.85
 110  880.478
 111  873.9667
 112  880.9073
 113  902.6518
 114  876.7516
 115  925.4309
 116  966.812
 117  988.9488
 118  975.6655
 119  995.8312
 120  989.1494
 121  925.4567
 122  929.9058
 123  946.0785
 124  906.4553
 125  819.2572
 126  878.0207
 127  880.1891
 128  847.4527
 129  846.9457
 130  772.0587
 131  782.377
 132  684.9159
 133  780.5024
 134  761.9594
 135  879.8727
 136  896.8047
 137  987.9039
 138  1037.48
 139  1043.336
 140  990.9194
 141  1053.758
 142  1132.488
 143  1090.585
 144  1003.711
 145  1014.501
 146  964.0475
 147  867.4355
 148  921.9163
 149  987.6332
 150  1011.712
 151  990.1235
 152  973.7518
 153  930.5745
 154  882.4843
 155  850.1503
 156  830.0467
 157  728.8788
 158  856.0508
 159  1016.973
 160  1105.153
 161  957.1646
 162  954.6605
 163  1122.427
 164  1232.33
 165  1188.553
 166  1206.906
 167  1220.427
 168  1241.693
 169  1313.701
 170  1343.264
 171  1315.43
 172  1037.969
 173  843.1977
 174  840.7426
 175  981.4776
 176  1114.014
 177  1146.057
 178  1158.649
 179  1197.331
 180  1199.26
 181  1161.419
 182  1065.302
 183  1103.699
 184  1105.543
 185  1164.875
 186  1130.163
 187  1148.067
 188  1111.307
 189  1118.373
 190  1043.871
 191  1051.195
 192  919.7436
 193  955.152
 194  1007.636
 195  1101.374
 196  1167.889
 197  1050.718
 198  1041.564
 199  1080.636
 200  1221.376
 201  1238.251
 202  1157.706
 203  1169.155
 204  1098.16
 205  1085.75
 206  1064.865
 207  1069.644
 208  1084.539
 209  1100.07
 210  1103.748
 211  1088.179
 212  1133.021
 213  1223.923
 214  1300.813
 215  1304.538
 216  1211.394
 217  1121.753
 218  1104.221
 219  1085.652
 220  997.3458
 221  997.6244
 222  1155.194
 223  1171.06
 224  1149.926
 225  1202.124
 226  1297.428
 227  1314.888
 228  1273.463
 229  1168.948
 230  1162.679
 231  1175.62
 232  1220.291
 233  1238.978
 234  1182.31
 235  1139.966
 236  1120.236
 237  1158.366
 238  1125.465
 239  1080.067
 240  1029.037
 241  1038.049
 242  1103.991
 243  1241.74
 244  1384.078
 245  1380.17
 246  1276.452
 247  1148.408
 248  1059.528
 249  1008.542
 250  1024.337
 251  1065.786
 252  1026.947
 253  1027.184
 254  1002.36
 255  968.9933
 256  1025.848
 257  1050.684
 258  1115.342
 259  1038.035
 260  1068.566
 261  966.0502
 262  903.3971
 263  905.4022
 264  1077.468
 265  1156.864
 266  1084.506
 267  993.9792
 268  956.6757
 269  926.9683
 270  916.6801
 271  919.3381
 272  977.4011
 273  958.4423
 274  992.8662
 275  1011.642
 276  980.2637
 277  912.3768
 278  968.0931
 279  1075.776
 280  1127.094
 281  1145.568
 282  1129.197
 283  1080.404
 284  991.8419
 285  1001.318
 286  1071.537
 287  1043.125
 288  1042.284
 289  1124.877
 290  1150.302
 291  1097.435
 292  980.722
 293  895.7172
 294  938.0707
 295  962.1786
 296  1081.533
 297  1098.112
 298  1043.944
 299  924.8255
 300  1003.141
 301  1155.008
 302  1115.89
 303  1042.192
 304  989.7711
 305  1035.23
 306  976.1476
 307  973.7615
 308  954.6481
 309  916.9526
 310  898.7342
 311  951.4254
 312  1060.781
 313  1091.475
 314  1089.894
 315  1181.249
 316  1179.89
 317  1118.398
 318  1062.117
 319  1108.845
 320  1122.658
 321  1061.714
 322  1041.654
 323  1002.204
 324  989.679
 325  1024.733
 326  1023.749
 327  1008.183
 328  984.4216
 329  1156.531
 330  1235.36
 331  1166.67
 332  1032.356
 333  959.7127
 334  1029.14
 335  976.5497
 336  966.936
 337  934.3589
 338  959.1383
 339  900.1621
 340  847.9935
 341  855.1376
 342  831.0703
 343  825.0516
 344  927.5657
 345  966.0156
 346  924.8505
 347  941.4842
 348  1071.694
 349  1069.097
 350  966.8575
 351  909.9054
 352  956.0577
 353  1011.731
 354  1002.551
 355  956.7657
 356  897.8176
 357  855.2065
 358  943.6589
 359  969.9057
 360  1025.082
 361  1003.961
 362  1029.191
 363  1093.029
 364  1090.639
 365  1020.212
 366  881.8802
 367  814.2036
 368  808.7369
 369  942.3464
 370  989.557
 371  985.8669
 372  931.1502
 373  963.1602
 374  1034.44
 375  1026.523
 376  973.2672
 377  1010.062
 378  1093.19
 379  1043.644
 380  964.6102
 381  929.6253
 382  955.7142
 383  883.4457
 384  942.6202
 385  987.5838
 386  982.9309
 387  890.1196
 388  917.252
 389  961.0247
 390  1006.573
 391  1031.57
 392  1086.902
 393  965.5275
 394  1005.579
 395  1039.821
 396  1145.462
 397  1116.571
 398  1063.272
 399  1072.05
 400  1135.828
 401  1206.189
 402  1245.629
 403  1192.482
 404  1173.04
 405  1206.12
 406  1187.992
 407  1110.829
 408  1084.503
 409  1212.046
 410  1237.019
 411  1164.97
 412  1113.816
 413  1086.603
 414  1139.167
 415  1100.331
 416  1081.475
 417  1013.548
 418  1043.938
 419  990.7781
 420  974.3701
 421  849.5632
 422  824.8458
 423  862.1261
 424  1026.896
 425  1130.227
 426  1181.734
 427  1126.651
 428  1166.033
 429  1145.203
 430  1160.98
 431  1128.429
 432  1067.288
 433  1094.299
 434  1209.305
 435  1246.682
 436  1179.733
 437  1007.886
 438  898.9542
 439  921.0989
 440  994.8732
 441  939.7401
 442  947.387
 443  1058.953
 444  1235.111
 445  1321.555
 446  1370.025
 447  1340.98
 448  1246.537
 449  1109.439
 450  1009.354
 451  1060.516
 452  1110.414
 453  1186.065
 454  1062.668
 455  1144.884
 456  1114.194
 457  1169.279
 458  1138.133
 459  1156.438
 460  1079.889
 461  995.4618
 462  928.3112
 463  982.0961
 464  1007.38
 465  1108.137
 466  1077.437
 467  1035.115
 468  1016.502
 469  1042.02
 470  1089.396
 471  1049.534
 472  1042
 473  1047.825
 474  1001.312
 475  859.0514
 476  824.4166
 477  881.5236
 478  991.8511
 479  1019.228
 480  1064.965
 481  1046.405
 482  1044.081
 483  1113.786
 484  1225.838
 485  1158.188
 486  1103.364
 487  1083.099
 488  1145.131
 489  1178.15
 490  1101.74
 491  1090.755
 492  1107.512
 493  1195.191
 494  1153.549
 495  1139.874
 496  1199.486
 497  1202.155
 498  1157.777
 499  1097.026
 500  1071.339
 501  1047.812
 502  1107
 503  1153.136
 504  1136.803
 505  1177.436
 506  1120.662
 507  1229.423
 508  1180.92
 509  1114.415
 510  1007.054
 511  960.2667
 512  957.827
 513  931.9421
 514  962.0724
 515  1114.971
 516  1193.971
 517  1262.743
 518  1270.01
 519  1160.942
 520  1022.947
 521  903.0005
 522  1036.195
 523  1137.872
 524  1209.726
 525  1258.658
 526  1333.191
 527  1426.561
 528  1413.92
 529  1302.633
 530  1203.149
 531  1071.356
 532  1183.689
 533  1301.563
 534  1343.384
 535  1325.478
 536  1323.708
 537  1350.568
 538  1339.714
 539  1274.665
 540  1262.392
 541  1217.032
 542  1246.907
 543  1196.732
 544  1164.749
 545  1157.938
 546  1227.384
 547  1281.888
 548  1338.665
 549  1286.246
 550  1252.608
 551  1166.055
 552  1167.454
 553  1148.609
 554  1221.773
 555  1148.834
 556  965.9964
 557  873.3085
 558  885.9673
 559  1011.073
 560  1037.689
 561  1129.512
 562  1061.161
 563  1177.773
 564  1259.197
 565  1292.57
 566  1137.737
 567  1092.395
 568  1035.67
 569  1007.195
 570  921.6746
 571  941.4879
 572  1038.558
 573  1045.461
 574  1050.786
 575  1011.461
 576  1036.57
 577  981.6001
 578  984.5903
 579  1046.555
 580  1023.544
 581  996.0224
 582  941.0531
 583  1048.886
 584  1142.157
 585  1139.829
 586  1057.817
 587  1018.629
 588  1081.927
 589  1126.487
 590  1198.284
 591  1174.967
 592  1217.185
 593  1197.508
 594  1211.692
 595  1227.869
 596  1170.58
 597  1056.418
 598  1013.814
 599  1026.346
 600  1104.698
 601  1018.694
 602  971.0053
 603  928.0149
 604  1038.454
 605  1065.177
 606  1073.341
 607  1040.534
 608  1010.88
 609  1099.739
 610  1224.666
 611  1197.746
 612  1147.616
 613  1035.082
 614  1108.588
 615  1178.195
 616  1263.5
 617  1203.278
 618  1077.754
 619  1081.335
 620  1193.13
 621  1185.011
 622  1169.538
 623  1196.817
 624  1143.07
 625  1068.891
 626  1059.233
 627  1206.634
 628  1256.56
 629  1295.162
 630  1305.356
 631  1271.913
 632  1248.596
 633  1321.077
 634  1330.992
 635  1330.981
 636  1382.215
 637  1389.126
 638  1486.049
 639  1531.703
 640  1581.537
 641  1602.217
 642  1595.436
 643  1593.353
 644  1542.455
 645  1628.863
 646  1805.123
 647  1992.452
 648  2213.832
 649  2288.264
 650  2267.671
 651  2256.876
 652  2225.94
 653  2178.594
 654  1989.957
 655  1773.264
 656  1624.762
 657  1461.675
 658  1551.194
 659  1509.356
 660  1537.029
 661  1388.426
 662  1468.351
 663  1410.609
 664  1389.967
 665  1304.15
 666  1298.897
 667  1348.365
 668  1307.426
 669  1286.541
 670  1284.135
 671  1320.79
 672  1359.308
 673  1372.206
 674  1340.969
 675  1360.741
 676  1407.12
 677  1539.174
 678  1525.499
 679  1393.327
 680  1232.856
 681  1266.139
 682  1217.667
 683  1233.085
 684  1244.704
 685  1179.198
 686  1184.145
 687  1214.4
 688  1241.705
 689  1177.688
 690  1088.364
 691  1081.831
 692  1036.617
 693  998.1707
 694  1003.334
 695  1038.187
 696  1080.7
 697  1118.506
 698  1205.401
 699  1279.203
 700  1364.977
 701  1318.054
 702  1221.724
 703  1069.591
 704  997.5682
 705  955.336
 706  1010.109
 707  983.0241
 708  1110.034
 709  1165.493
 710  1086.462
 711  989.8925
 712  952.6791
 713  1069.591
 714  1123.804
 715  1063.27
 716  1005.142
 717  927.9073
 718  960.2318
 719  882.2451
 720  879.0408
 721  856.2164
 722  879.9556
 723  878.764
 724  971.4346
 725  954.2625
 726  978.4948
 727  1034.57
 728  1131.243
 729  1106.971
 730  1008.196
 731  939.0022
 732  923.0297
 733  907.9777
 734  997.446
 735  1048.316
 736  991.9816
 737  921.3731
 738  920.6517
 739  1009.055
 740  1120.103
 741  1225.057
 742  1197.511
 743  1158.135
 744  1134.108
 745  1149.372
 746  1120.243
 747  1123.951
 748  1123.564
 749  1123.941
 750  1016.65
 751  1041.273
 752  1021.637
 753  1016.101
 754  994.2579
 755  1012.583
 756  1080.825
 757  1019.599
 758  1093.192
 759  1225.756
 760  1303.074
 761  1166.726
 762  1017.693
 763  969.1324
 764  908.6605
 765  889.6193
 766  906.0099
 767  1004.743
 768  1077.796
 769  1044.694
 770  1060.919
 771  993.6094
 772  985.806
 773  988.577
 774  1124.845
 775  1136.734
 776  1087.473
 777  1038.844
 778  1038.919
 779  1150.714
 780  1148.981
 781  1200.784
 782  1145.187
 783  1054.793
 784  1020.044
 785  989.9575
 786  991.2198
 787  952.4421
 788  959.1155
 789  960.3704
 790  861.2112
 791  887.6534
 792  1031.164
 793  1081.427
 794  1018.01
 795  923.3145
 796  980.657
 797  935.375
 798  834.835
 799  771.2287
 800  870.213
 801  915.4369
 802  847.2996
 803  800.9979
 804  758.676
 805  765.8773
 806  760.4706
 807  771.5327
 808  701.434
 809  740.2211
 810  723.9568
 811  755.6489
 812  657.666
 813  714.2155
 814  703.7603
 815  791.1658
 816  775.7343
 817  754.7538
 818  698.9302
 819  620.9189
 820  579.4923
 821  637.9356
 822  718.1703
 823  686.7764
 824  733.4156
 825  862.6699
 826  955.0113
 827  933.5993
 828  896.3738
 829  851.7465
 830  796.3987
 831  733.3307
 832  759.6755
 833  780.5361
 834  814.707
 835  798.1804
 836  715.9751
 837  629.6768
 838  670.9096
 839  807.9745
 840  903.6039
 841  888.8323
 842  930.2723
 843  1045.268
 844  1056.42
 845  1059.059
 846  857.1732
 847  822.8356
 848  743.6022
 849  930.3687
 850  997.629
 851  1003.795
 852  929.3005
 853  888.008
 854  816.17
 855  783.0544
 856  854.9595
 857  956.2415
 858  966.9533
 859  880.9091
 860  862.4778
 861  830.199
 862  813.1793
 863  871.7125
 864  934.9063
 865  986.447
 866  1005.081
 867  1045.549
 868  1057.342
 869  1021.632
 870  1002.664
 871  956.2958
 872  980.0385
 873  1005.773
 874  986.7531
 875  990.702
 876  962.2092
 877  1037.98
 878  950.2932
 879  1006.34
 880  936.9141
 881  945.3127
 882  906.1767
 883  905.4202
 884  913.8471
 885  947.3391
 886  1001.106
 887  984.1099
 888  946.5544
 889  987.9268
 890  925.2929
 891  841.7854
 892  722.8839
 893  851.1741
 894  984.8264
 895  973.0179
 896  906.1028
 897  879.599
 898  969.2183
 899  908.6626
 900  889.0568
 901  848.6339
 902  855.1686
 903  853.0495
 904  906.1462
 905  882.2716
 906  803.0465
 907  716.5878
 908  828.0624
 909  802.7376
 910  780.0508
 911  770.3023
 912  804.3113
 913  794.3381
 914  787.3992
 915  844.6537
 916  920.1238
 917  894.6739
 918  853.0432
 919  834.0618
 920  865.2407
 921  910.9241
 922  984.7935
 923  1000.809
 924  836.1223
 925  741.1367
 926  765.2335
 927  880.0983
 928  911.1635
 929  973.7769
 930  998.4139
 931  947.6199
 932  961.0235
 933  949.8815
 934  930.1499
 935  1019.776
 936  1099.059
 937  1028.955
 938  841.1641
 939  725.2084
 940  790.8598
 941  874.3148
 942  919.73
 943  945.549
 944  921.4877
 945  866.1342
 946  732.6107
 947  716.4568
 948  701.0566
 949  799.7116
 950  878.2638
 951  1011.011
 952  1029.755
 953  969.4251
 954  865.8421
 955  841.5024
 956  859.3846
 957  935.5779
 958  901.6214
 959  927.2847
 960  865.3696
 961  892.8746
 962  863.4217
 963  875.2222
 964  805.2703
 965  812.0264
 966  882.1306
 967  856.699
 968  933.8618
 969  939.199
 970  978.2903
 971  775.5708
 972  727.9241
 973  783.1929
 974  965.6619
 975  1060.484
 976  1072.585
 977  1067.139
 978  1009.567
 979  900.4993
 980  871.1694
 981  965.996
 982  1070.553
 983  1100.976
 984  1065.17
 985  1043.08
 986  1111.925
 987  1187.322
 988  1307.198
 989  1167.774
 990  1012.017
 991  961.8301
 992  1109.498
 993  1261.512
 994  1207.838
 995  1102.301
 996  1164.37
 997  1214.011
 998  1217.912
 999  1092.979
1000  1058.624
1001  1039.181
1002  1009.462
1003  1006.479
1004  970.5458
1005  954.469
1006  976.8596
1007  1032.555
1008  1030.46
1009  957.2877
1010  1032.144
1011  1043.278
1012  1119.355
1013  1007.834
1014  989.3795
1015  909.4018
1016  940.0164
1017  922.6157
1018  861.1972
1019  867.1949
1020  901.2449
1021  871.0997
1022  719.1445
1023  750.082
