# Input file       =  1185263182.108499_cleaned.dat
# Candidate        =  PSR_0332+5434
# Telescope        =  AR
# Epoch_topo       =  57962.324086903922
# Epoch_bary       =  N/A
# T_sample         =  0.002
# Data Folded      =  7340032
# Data Avg         =  0.048218880301189
# Data StdDev      =  1.00032034451391 
# Profile Bins     =  512
# Profile Avg      =  690.896507902849 
# Profile StdDev   =  119.771392198103 
# Reduced chi-sqr  =  1.060
# Prob(Noise)      <  0.168   (~1.0 sigma)
# P_topo (ms)      =  714.47151537403   +/- 0.000517
# P'_topo (s/s)    =  -0                +/- 2.73e-10
# P''_topo (s/s^2) =  0                 +/- 1.2e-13
# P_bary (ms)      =  N/A
# P'_bary (s/s)    =  N/A
# P''_bary (s/s^2) =  N/A
# P_orb (s)        =  N/A
# asin(i)/c (s)    =  N/A
# eccentricity     =  N/A
# w (rad)          =  N/A
# T_peri           =  N/A
######################################################
   0  678.252
   1  542.3324
   2  513.7221
   3  467.9843
   4  560.4717
   5  501.4976
   6  455.9294
   7  580.1664
   8  672.7021
   9  770.9899
  10  807.2455
  11  726.9167
  12  670.3217
  13  650.1357
  14  648.4468
  15  708.8495
  16  631.0134
  17  672.9639
  18  774.5073
  19  707.07
  20  641.222
  21  641.2748
  22  660.085
  23  633.0578
  24  679.4479
  25  680.3979
  26  545.9504
  27  556.2194
  28  700.0336
  29  806.2782
  30  685.9756
  31  594.4382
  32  627.2882
  33  599.7134
  34  683.5233
  35  738.241
  36  706.4296
  37  643.2835
  38  569.7298
  39  714.6315
  40  715.6979
  41  775.6439
  42  639.8448
  43  719.42
  44  738.6422
  45  660.6608
  46  683.0254
  47  643.2331
  48  733.442
  49  752.3464
  50  712.2232
  51  774.8898
  52  774.8132
  53  722.3433
  54  652.3893
  55  711.6469
  56  655.4899
  57  631.9031
  58  817.8963
  59  742.9148
  60  712.9389
  61  863.6229
  62  743.9127
  63  723.6738
  64  699.6695
  65  600.5381
  66  675.5135
  67  766.3682
  68  800.0504
  69  720.7522
  70  796.8514
  71  819.7977
  72  748.5233
  73  702.7526
  74  611.9343
  75  698.2913
  76  739.5559
  77  777.606
  78  781.691
  79  764.6836
  80  855.0413
  81  838.3354
  82  743.6048
  83  732.6913
  84  642.7836
  85  806.0043
  86  860.6106
  87  783.4301
  88  747.5242
  89  591.2155
  90  614.3217
  91  754.5375
  92  693.9843
  93  699.2944
  94  624.5208
  95  757.8276
  96  783.1199
  97  826.7614
  98  694.8097
  99  754.6849
 100  789.831
 101  858.8366
 102  874.4498
 103  841.7934
 104  775.5583
 105  789.3386
 106  742.1663
 107  747.5543
 108  738.5684
 109  765.3217
 110  818.6838
 111  843.8279
 112  834.1251
 113  780.9977
 114  798.9142
 115  829.5525
 116  711.9074
 117  683.5831
 118  725.2264
 119  685.3517
 120  754.6386
 121  740.5422
 122  722.5447
 123  724.5814
 124  768.7852
 125  711.6055
 126  739.7548
 127  745.9294
 128  702.545
 129  698.9456
 130  638.6866
 131  647.1685
 132  703.5124
 133  779.0623
 134  705.4849
 135  649.9831
 136  792.2608
 137  769.8496
 138  675.6273
 139  660.1801
 140  710.3063
 141  708.0577
 142  659.8757
 143  726.5341
 144  683.0103
 145  684.6283
 146  657.8052
 147  669.5212
 148  552.5204
 149  594.2145
 150  774.3709
 151  646.1217
 152  636.0414
 153  649.4697
 154  788.3879
 155  760.9172
 156  799.8157
 157  700.328
 158  674.4846
 159  765.7379
 160  701.9841
 161  658.3177
 162  626.3651
 163  772.3646
 164  696.3759
 165  467.0098
 166  660.1627
 167  629.5284
 168  523.4505
 169  531.449
 170  563.8986
 171  590.7217
 172  690.5673
 173  762.694
 174  786.4095
 175  694.8734
 176  648.5233
 177  700.4523
 178  717.2405
 179  719.1271
 180  698.6217
 181  732.2734
 182  684.8575
 183  705.1155
 184  649.1172
 185  664.9567
 186  681.2546
 187  606.2972
 188  588.1186
 189  545.1725
 190  628.9075
 191  633.3653
 192  580.8705
 193  551.3954
 194  608.9488
 195  620.9976
 196  558.8794
 197  571.2552
 198  650.007
 199  535.0439
 200  420.6246
 201  566.3323
 202  631.0053
 203  634.7205
 204  579.4539
 205  554.8846
 206  487.7095
 207  528.7397
 208  613.2258
 209  648.353
 210  579.8751
 211  601.9794
 212  590.9584
 213  598.6304
 214  528.2624
 215  592.6038
 216  696.9374
 217  673.2631
 218  648.9434
 219  610.5408
 220  704.0615
 221  675.3437
 222  741.5406
 223  731.6352
 224  689.7703
 225  560.2979
 226  516.4012
 227  535.3816
 228  578.2134
 229  545.5244
 230  612.8923
 231  654.1189
 232  593.2853
 233  697.3683
 234  751.1273
 235  840.1314
 236  937.7892
 237  1012.863
 238  1073.442
 239  1160.599
 240  1173.779
 241  831.6391
 242  752.2233
 243  763.6229
 244  688.123
 245  742.6235
 246  775.2956
 247  725.2794
 248  725.1793
 249  722.1891
 250  696.596
 251  705.7805
 252  717.6136
 253  811.1699
 254  766.1935
 255  678.0906
 256  675.4194
 257  613.1717
 258  560.5201
 259  626.5747
 260  713.9618
 261  659.0593
 262  590.7903
 263  597.8506
 264  525.7988
 265  558.8309
 266  605.4572
 267  589.5305
 268  623.3922
 269  623.3773
 270  565.1924
 271  601.44
 272  598.4573
 273  549.4618
 274  491.9467
 275  578.431
 276  719.7372
 277  657.0893
 278  554.9169
 279  571.3582
 280  471.6467
 281  608.054
 282  605.5148
 283  633.3152
 284  631.7077
 285  630.3179
 286  618.3712
 287  763.3595
 288  771.7705
 289  648.5277
 290  630.6011
 291  572.4974
 292  655.8466
 293  645.3315
 294  678.3191
 295  648.1304
 296  625.2363
 297  719.0623
 298  702.1314
 299  648.2225
 300  683.4584
 301  719.8978
 302  621.7263
 303  603.4843
 304  657.6463
 305  561.5817
 306  669.5862
 307  739.3786
 308  737.9326
 309  776.7531
 310  741.4227
 311  616.0915
 312  563.0685
 313  589.9059
 314  706.176
 315  675.1494
 316  703.9906
 317  688.7131
 318  787.2744
 319  694.6133
 320  693.1728
 321  701.178
 322  785.8932
 323  766.5522
 324  711.2996
 325  622.8352
 326  581.7215
 327  642.9938
 328  657.7342
 329  714.9062
 330  613.544
 331  701.0687
 332  648.2787
 333  761.1546
 334  744.2062
 335  707.4429
 336  781.8319
 337  612.8753
 338  574.1202
 339  608.9622
 340  717.9633
 341  834.3065
 342  701.7366
 343  704.8524
 344  765.7748
 345  834.4628
 346  776.3071
 347  732.0715
 348  720.9203
 349  848.433
 350  792.4019
 351  703.8875
 352  725.9044
 353  722.7514
 354  728.8274
 355  767.7122
 356  786.1329
 357  794.0679
 358  736.6646
 359  775.5529
 360  745.8088
 361  674.1008
 362  629.6351
 363  625.96
 364  602.4671
 365  627.8421
 366  580.1219
 367  607.2649
 368  667.8408
 369  692.6053
 370  766.2495
 371  649.9567
 372  738.7119
 373  648.3649
 374  619.586
 375  585.7766
 376  678.0951
 377  757.0107
 378  700.2769
 379  684.6089
 380  667.0069
 381  632.6681
 382  618.0052
 383  652.1843
 384  618.9275
 385  650.0439
 386  734.4645
 387  775.2399
 388  703.0822
 389  765.6357
 390  728.5043
 391  764.9016
 392  766.7798
 393  738.9678
 394  820.713
 395  709.3995
 396  750.6424
 397  858.9924
 398  810.5164
 399  854.0099
 400  750.5438
 401  799.7222
 402  817.8873
 403  764.0997
 404  843.7607
 405  806.3183
 406  797.4364
 407  818.9395
 408  800.7978
 409  837.0303
 410  811.1772
 411  771.5937
 412  728.6221
 413  688.5687
 414  707.5912
 415  747.0742
 416  797.7333
 417  679.8426
 418  664.0058
 419  595.6367
 420  665.553
 421  710.2254
 422  629.4905
 423  660.6666
 424  736.2647
 425  743.1924
 426  650.1465
 427  639.4866
 428  681.1173
 429  791.4179
 430  740.1198
 431  616.5309
 432  586.2956
 433  645.4641
 434  727.8738
 435  640.2272
 436  654.2405
 437  638.3168
 438  603.0388
 439  676.3087
 440  713.4816
 441  754.0845
 442  719.5967
 443  612.0306
 444  687.6517
 445  670.7853
 446  804.0618
 447  771.0233
 448  733.3145
 449  714.9932
 450  564.415
 451  571.2109
 452  662.7011
 453  760.1196
 454  786.6638
 455  779.9713
 456  744.683
 457  826.7894
 458  779.3948
 459  746.3934
 460  718.5137
 461  739.4304
 462  668.8718
 463  650.8853
 464  636.4043
 465  730.8204
 466  752.3618
 467  655.3204
 468  778.0947
 469  697.9924
 470  653.6492
 471  685.9531
 472  706.7655
 473  726.3575
 474  755.0475
 475  713.5963
 476  731.8647
 477  789.3776
 478  658.0516
 479  644.2273
 480  769.3232
 481  843.1438
 482  685.8942
 483  722.7549
 484  805.9434
 485  619.2531
 486  615.8831
 487  711.5678
 488  616.4681
 489  533.0458
 490  670.4444
 491  672.8236
 492  724.0087
 493  653.6727
 494  656.3752
 495  663.9597
 496  633.0897
 497  673.4703
 498  712.1404
 499  651.5508
 500  640.0432
 501  639.9489
 502  583.6391
 503  729.1644
 504  571.9844
 505  608.8075
 506  661.5888
 507  628.8925
 508  599.6812
 509  649.6447
 510  605.4247
 511  639.3589
