# Input file       =  1185248272.118458_cleaned.dat
# Candidate        =  PSR_0332+5434
# Telescope        =  AR
# Epoch_topo       =  57962.151517574748
# Epoch_bary       =  N/A
# T_sample         =  0.002
# Data Folded      =  7340032
# Data Avg         =  0.196213493525906
# Data StdDev      =  4.00411804715091 
# Profile Bins     =  1024
# Profile Avg      =  1406.17913214619 
# Profile StdDev   =  339.004818333021 
# Reduced chi-sqr  =  1.273
# Prob(Noise)      <  6.15e-09   (~5.7 sigma)
# P_topo (ms)      =  714.471264672761  +/- 0.000323
# P'_topo (s/s)    =  -0                +/- 1.7e-10
# P''_topo (s/s^2) =  0                 +/- 7.51e-14
# P_bary (ms)      =  N/A
# P'_bary (s/s)    =  N/A
# P''_bary (s/s^2) =  N/A
# P_orb (s)        =  N/A
# asin(i)/c (s)    =  N/A
# eccentricity     =  N/A
# w (rad)          =  N/A
# T_peri           =  N/A
######################################################
   0  1229.257
   1  1205.542
   2  1239.939
   3  1332.982
   4  1418.228
   5  1484.123
   6  1450.93
   7  1395.16
   8  1239.412
   9  1204.847
  10  1166.172
  11  1274.758
  12  1269.984
  13  1298.251
  14  1346.206
  15  1430.689
  16  1501
  17  1471.635
  18  1478.96
  19  1406.461
  20  1311.56
  21  1296.006
  22  1462.486
  23  1462.036
  24  1481.993
  25  1398.598
  26  1444.035
  27  1455.738
  28  1490.665
  29  1474.823
  30  1513.249
  31  1488.735
  32  1549.429
  33  1503.061
  34  1546.604
  35  1665.45
  36  1735.745
  37  1717.64
  38  1725.986
  39  1650.331
  40  1610.359
  41  1504.201
  42  1529.221
  43  1480.323
  44  1413.737
  45  1511.143
  46  1487.241
  47  1605.377
  48  1571.838
  49  1532.418
  50  1364.395
  51  1323.824
  52  1315.544
  53  1296.215
  54  1399.028
  55  1405.771
  56  1446.575
  57  1407.642
  58  1333.224
  59  1264.86
  60  1269.767
  61  1263.722
  62  1312.625
  63  1279.336
  64  1345.261
  65  1419.346
  66  1430.695
  67  1338.214
  68  1340.403
  69  1466.905
  70  1539.731
  71  1482.368
  72  1474.165
  73  1409.524
  74  1372.079
  75  1291.062
  76  1199.61
  77  1139.941
  78  1302.997
  79  1379.222
  80  1372.494
  81  1374.35
  82  1399.335
  83  1434.087
  84  1330.81
  85  1331.48
  86  1312.517
  87  1299.345
  88  1221.813
  89  1184.564
  90  1284.049
  91  1201.553
  92  1057.729
  93  1005.268
  94  1032.043
  95  1004.69
  96  946.3403
  97  1111.92
  98  1130.849
  99  1037.354
 100  886.8478
 101  822.9313
 102  912.7886
 103  940.7985
 104  994.251
 105  1146.576
 106  1182.606
 107  1169.723
 108  1235.929
 109  1306.891
 110  1340.032
 111  1333.717
 112  1268.155
 113  1213.607
 114  1161.292
 115  1254.445
 116  1258.426
 117  1264.569
 118  1263.52
 119  1277.879
 120  1250.203
 121  1247.279
 122  1110.138
 123  1104.91
 124  1126.26
 125  1108.839
 126  1143.172
 127  1224.799
 128  1259.157
 129  1174.652
 130  1087.178
 131  1049.003
 132  1066.924
 133  1091.145
 134  1111.487
 135  1086.071
 136  1123.98
 137  1195.994
 138  1223.399
 139  1194.429
 140  1135.997
 141  1070.651
 142  1065.575
 143  1080.854
 144  1161.188
 145  1313.108
 146  1290.23
 147  1259.685
 148  1181.518
 149  1215.641
 150  1272.135
 151  1285.117
 152  1229.108
 153  1198.496
 154  1145.578
 155  1083.624
 156  1050.525
 157  1093.54
 158  1150.364
 159  1145.592
 160  1172.226
 161  1202.953
 162  1162.541
 163  1204.52
 164  1245.391
 165  1324.972
 166  1257.565
 167  1383.901
 168  1410.574
 169  1384.68
 170  1272.797
 171  1252.047
 172  1279.435
 173  1308.938
 174  1364.982
 175  1447.429
 176  1518.358
 177  1524.984
 178  1645.028
 179  1611.995
 180  1554.443
 181  1447.567
 182  1499.855
 183  1538.256
 184  1536.458
 185  1537.072
 186  1569.479
 187  1571.519
 188  1600.864
 189  1575.843
 190  1523.377
 191  1546.858
 192  1545.696
 193  1530.118
 194  1569.721
 195  1691.86
 196  1761.229
 197  1676.713
 198  1649.571
 199  1597.068
 200  1675.996
 201  1640.366
 202  1681.708
 203  1696.264
 204  1682.35
 205  1578.739
 206  1556.925
 207  1480.168
 208  1458.944
 209  1505.921
 210  1621.925
 211  1535.547
 212  1564.288
 213  1559.75
 214  1527.747
 215  1468.829
 216  1530.244
 217  1625.512
 218  1627.509
 219  1481.633
 220  1476.992
 221  1573.183
 222  1607.64
 223  1658.127
 224  1632.529
 225  1619.404
 226  1581.03
 227  1590.581
 228  1631.801
 229  1587.759
 230  1545.812
 231  1506.243
 232  1437.682
 233  1423.361
 234  1458.862
 235  1470.339
 236  1510.821
 237  1553.218
 238  1710.132
 239  1712.004
 240  1717.011
 241  1711.623
 242  1630.47
 243  1594.152
 244  1448.887
 245  1451.849
 246  1348.908
 247  1303.459
 248  1357.249
 249  1426.988
 250  1476.227
 251  1484.445
 252  1457.74
 253  1482.076
 254  1511.635
 255  1521.628
 256  1582.383
 257  1523.772
 258  1442.942
 259  1344.397
 260  1257.192
 261  1278.188
 262  1295.537
 263  1335.512
 264  1311.097
 265  1234.878
 266  1266.535
 267  1254.404
 268  1298.307
 269  1330.259
 270  1374.535
 271  1438.92
 272  1327.773
 273  1289.053
 274  1213.233
 275  1241.806
 276  1277.253
 277  1380.117
 278  1414.875
 279  1408.289
 280  1409.354
 281  1385.347
 282  1368.813
 283  1341.232
 284  1424.547
 285  1480.683
 286  1460.607
 287  1551.337
 288  1598.976
 289  1618.684
 290  1521.886
 291  1532.827
 292  1521.877
 293  1515.4
 294  1456.228
 295  1485.445
 296  1556.078
 297  1515.34
 298  1495.875
 299  1437.551
 300  1488.764
 301  1490.604
 302  1533.484
 303  1541.628
 304  1498.909
 305  1412.19
 306  1386.728
 307  1443.608
 308  1463.726
 309  1546.573
 310  1502.286
 311  1488.897
 312  1548.375
 313  1584.669
 314  1645.641
 315  1649.259
 316  1649.306
 317  1622.484
 318  1641.797
 319  1713.227
 320  1757.389
 321  1671.854
 322  1577.276
 323  1580.737
 324  1724.564
 325  1734.345
 326  1583.094
 327  1438.211
 328  1550.355
 329  1692.807
 330  1811.032
 331  1924.64
 332  1870.927
 333  1781.454
 334  1742.025
 335  1734.689
 336  1797.646
 337  1791.016
 338  1810.521
 339  1800.766
 340  1735.551
 341  1653.221
 342  1665.446
 343  1697.171
 344  1735.241
 345  1721.144
 346  1758.572
 347  1786.627
 348  1805.646
 349  1765.388
 350  1828.129
 351  1851.257
 352  1907.59
 353  1774.818
 354  1610.613
 355  1572.021
 356  1635.69
 357  1632.596
 358  1702.016
 359  1763.447
 360  1897.562
 361  1874.441
 362  1769.895
 363  1761.836
 364  1650.068
 365  1476.4
 366  1525.114
 367  1649.186
 368  1849.059
 369  1770.915
 370  1735.721
 371  1675.312
 372  1639.151
 373  1650.907
 374  1655.288
 375  1623.405
 376  1542.176
 377  1490.72
 378  1507.247
 379  1572.271
 380  1713.474
 381  1769.175
 382  1685.524
 383  1514.124
 384  1435.41
 385  1517.838
 386  1547.195
 387  1630.056
 388  1626.649
 389  1690.391
 390  1671.329
 391  1760.236
 392  1718.2
 393  1666.232
 394  1664.477
 395  1681.604
 396  1689.213
 397  1466.141
 398  1287.489
 399  1278.189
 400  1452.297
 401  1599.874
 402  1507.421
 403  1510.397
 404  1390.305
 405  1483.095
 406  1546.096
 407  1708.683
 408  1773.897
 409  1802.882
 410  1688.551
 411  1489.549
 412  1411.928
 413  1368.615
 414  1418.61
 415  1302.409
 416  1280.435
 417  1280.214
 418  1345.269
 419  1398.198
 420  1386.116
 421  1348.238
 422  1279.994
 423  1210.909
 424  1148.19
 425  1170.182
 426  1238.802
 427  1302.359
 428  1383.648
 429  1282.994
 430  1268.512
 431  1209.281
 432  1297.331
 433  1218.326
 434  1106.467
 435  1036.859
 436  1082.046
 437  1086.191
 438  1166.187
 439  1267.3
 440  1346.057
 441  1267.356
 442  1087.2
 443  1054.764
 444  1153.867
 445  1183.843
 446  1248.593
 447  1243.39
 448  1205.832
 449  1226.832
 450  1229.594
 451  1256.154
 452  1295.279
 453  1309.103
 454  1395.243
 455  1330.383
 456  1319.536
 457  1251.053
 458  1201.351
 459  1169.172
 460  1122.432
 461  1141.86
 462  1088.722
 463  1075.833
 464  1142.846
 465  1361.955
 466  1482.802
 467  1540.036
 468  1572.014
 469  1501.074
 470  1378.422
 471  1319.675
 472  1254.133
 473  1292.207
 474  1276.84
 475  1337.744
 476  1259.466
 477  1288.841
 478  1369.656
 479  1470.456
 480  1509.387
 481  1519.552
 482  1498.505
 483  1524.57
 484  1470.644
 485  1396.202
 486  1452.332
 487  1570.677
 488  1566.52
 489  1610.168
 490  1595.729
 491  1641.487
 492  1554.849
 493  1538.409
 494  1588.434
 495  1588.829
 496  1547.569
 497  1516.378
 498  1507.215
 499  1589.035
 500  1647.647
 501  1618.541
 502  1514.504
 503  1553.244
 504  1573.374
 505  1616.111
 506  1537.818
 507  1409.519
 508  1321.714
 509  1231.457
 510  1283.505
 511  1289.883
 512  1324.643
 513  1275.066
 514  1351.661
 515  1441.707
 516  1478.634
 517  1497.369
 518  1418.206
 519  1346.88
 520  1137.667
 521  1174.176
 522  1225.217
 523  1321.161
 524  1295.289
 525  1295.475
 526  1227.978
 527  1184.04
 528  1051.857
 529  1102.921
 530  1205.658
 531  1288.214
 532  1387.264
 533  1353.156
 534  1377.789
 535  1269.313
 536  1195.629
 537  1222.049
 538  1246.224
 539  1289.601
 540  1306.742
 541  1241.881
 542  1304.068
 543  1238.905
 544  1292.208
 545  1296.764
 546  1277.891
 547  1256.38
 548  1227.634
 549  1291.421
 550  1274.261
 551  1247.469
 552  1245.501
 553  1239.884
 554  1204.185
 555  1063.178
 556  1037.299
 557  1056.009
 558  1124.096
 559  1097.698
 560  1086.469
 561  1075.728
 562  1107.748
 563  1084.303
 564  1148.765
 565  1145.133
 566  1213.537
 567  1182.553
 568  1129.099
 569  1122.481
 570  1171.309
 571  1101.866
 572  982.4978
 573  864.5609
 574  898.2709
 575  903.3558
 576  954.7159
 577  994.3729
 578  1059.621
 579  1017.512
 580  1075.43
 581  1071.719
 582  1057.456
 583  1022.295
 584  1138.561
 585  1184.494
 586  1132.426
 587  1108.009
 588  1132.868
 589  1273.124
 590  1197.488
 591  1196.212
 592  1201.214
 593  1277.79
 594  1293.568
 595  1255.762
 596  1250.24
 597  1186.156
 598  1154.78
 599  1191.802
 600  1199.089
 601  1191.324
 602  1185.451
 603  1142.657
 604  1070.557
 605  1138.75
 606  1157.319
 607  1241.282
 608  1231.161
 609  1370.421
 610  1432.545
 611  1431.54
 612  1423.639
 613  1514.243
 614  1497.41
 615  1481.913
 616  1422.368
 617  1367.22
 618  1278.664
 619  1304.433
 620  1445.749
 621  1475.176
 622  1418.672
 623  1406.173
 624  1507.113
 625  1575.29
 626  1515.708
 627  1451.654
 628  1426.655
 629  1440.987
 630  1397.28
 631  1426.962
 632  1425.822
 633  1397.49
 634  1285.05
 635  1261.371
 636  1251.001
 637  1317.883
 638  1374.702
 639  1477.639
 640  1557.606
 641  1517.541
 642  1578.688
 643  1582.167
 644  1695.778
 645  1724.495
 646  1997.481
 647  2112.687
 648  2166.615
 649  2147.387
 650  2264.328
 651  2236.271
 652  2089.172
 653  2052.717
 654  1904.655
 655  1689.403
 656  1583.833
 657  1618.361
 658  1653.491
 659  1622.068
 660  1546.762
 661  1380.239
 662  1258.357
 663  1185.478
 664  1252.224
 665  1246.382
 666  1305.468
 667  1340.192
 668  1271.225
 669  1172.651
 670  1171.573
 671  1200.272
 672  1297.733
 673  1295.229
 674  1383.125
 675  1296.86
 676  1355.562
 677  1407.244
 678  1525.916
 679  1527.053
 680  1519.364
 681  1504.358
 682  1517.616
 683  1459.725
 684  1366.089
 685  1324.141
 686  1248.658
 687  1116.159
 688  1025.877
 689  1046.962
 690  1084.231
 691  1065.966
 692  1045.12
 693  1090.077
 694  1164.102
 695  1220.089
 696  1291.666
 697  1343.2
 698  1304.867
 699  1250.192
 700  1258.005
 701  1320.674
 702  1373.808
 703  1468.996
 704  1430.131
 705  1334.904
 706  1302.846
 707  1392.916
 708  1446.214
 709  1458.148
 710  1411.513
 711  1296.204
 712  1186.429
 713  1141.645
 714  1128.55
 715  1147.291
 716  1134.722
 717  1218.096
 718  1338.086
 719  1297.707
 720  1247.49
 721  1216.464
 722  1233.761
 723  1274.274
 724  1230.238
 725  1229.928
 726  1181.075
 727  1115.593
 728  1088.445
 729  1124.222
 730  1277.56
 731  1393.637
 732  1435.048
 733  1485.731
 734  1540.79
 735  1589.397
 736  1624.072
 737  1615.93
 738  1551.149
 739  1585.281
 740  1498.625
 741  1473.892
 742  1386.121
 743  1377.871
 744  1406.923
 745  1437.918
 746  1479.319
 747  1525.346
 748  1520.395
 749  1492.467
 750  1481.416
 751  1469.257
 752  1486.849
 753  1541.89
 754  1564.261
 755  1588.016
 756  1530.519
 757  1546.472
 758  1595.852
 759  1647.352
 760  1554.169
 761  1532.22
 762  1542.971
 763  1556.901
 764  1596.467
 765  1680.305
 766  1824.097
 767  1745.309
 768  1481.799
 769  1297.154
 770  1282.851
 771  1471.459
 772  1497.662
 773  1489.187
 774  1467.016
 775  1502.936
 776  1512.194
 777  1509.088
 778  1615.427
 779  1657.279
 780  1550.005
 781  1458.787
 782  1482.763
 783  1487.726
 784  1562.919
 785  1536.146
 786  1484.757
 787  1446.687
 788  1453.886
 789  1570.562
 790  1631.766
 791  1755.998
 792  1823.551
 793  1855.721
 794  1850.52
 795  1839.58
 796  1777.628
 797  1650.083
 798  1608.099
 799  1558.933
 800  1568.38
 801  1507.194
 802  1464.954
 803  1443.915
 804  1471.878
 805  1497.669
 806  1461.82
 807  1410.74
 808  1406.595
 809  1426.417
 810  1384.549
 811  1360.058
 812  1455.426
 813  1628.048
 814  1798.233
 815  1751.202
 816  1650.109
 817  1596.249
 818  1562.669
 819  1548.617
 820  1516.907
 821  1542.327
 822  1538.052
 823  1556.333
 824  1560.135
 825  1497.943
 826  1568.849
 827  1727.455
 828  1854.393
 829  1741.027
 830  1682.089
 831  1651.479
 832  1787.89
 833  1797.546
 834  1774.962
 835  1670.988
 836  1702.9
 837  1734.219
 838  1777.042
 839  1735.437
 840  1609.78
 841  1515.025
 842  1534.659
 843  1580.42
 844  1606.096
 845  1539.857
 846  1521.191
 847  1489.757
 848  1515.575
 849  1475.419
 850  1494.923
 851  1477.004
 852  1508.351
 853  1503.465
 854  1541.632
 855  1482.997
 856  1483.25
 857  1483.398
 858  1555.4
 859  1579.385
 860  1605.483
 861  1498.894
 862  1363.676
 863  1350.419
 864  1446.428
 865  1475.917
 866  1410.088
 867  1433.472
 868  1570.894
 869  1610.332
 870  1512.546
 871  1394.685
 872  1407.751
 873  1454.838
 874  1513.624
 875  1435.146
 876  1352.196
 877  1308.911
 878  1423.987
 879  1522.371
 880  1657.934
 881  1668.305
 882  1671.236
 883  1672.75
 884  1645.892
 885  1625.803
 886  1488.396
 887  1512.25
 888  1421.325
 889  1442.389
 890  1409.133
 891  1479.193
 892  1526.025
 893  1583.783
 894  1492.18
 895  1400.098
 896  1355.097
 897  1316.654
 898  1308.776
 899  1284.521
 900  1338.773
 901  1327.329
 902  1251.714
 903  1206.609
 904  1211.877
 905  1326.024
 906  1384.153
 907  1321.502
 908  1349.003
 909  1362.628
 910  1371.561
 911  1318.984
 912  1309.814
 913  1343.208
 914  1361.212
 915  1305.743
 916  1420.821
 917  1549.195
 918  1614.835
 919  1488.842
 920  1342.91
 921  1327.201
 922  1285.938
 923  1252.775
 924  1272.438
 925  1398.146
 926  1503.005
 927  1422.816
 928  1463.352
 929  1367.02
 930  1455.079
 931  1410.271
 932  1515.85
 933  1485.068
 934  1351.139
 935  1336.023
 936  1332.622
 937  1381.342
 938  1396.302
 939  1456.231
 940  1554.405
 941  1628.258
 942  1564.912
 943  1539.345
 944  1455.174
 945  1507.489
 946  1539.976
 947  1537.361
 948  1432.908
 949  1442.412
 950  1560.75
 951  1681.837
 952  1593.635
 953  1457.314
 954  1350.597
 955  1448.649
 956  1504.953
 957  1517.868
 958  1450.071
 959  1426.932
 960  1416.986
 961  1446.17
 962  1442.287
 963  1421.672
 964  1369.75
 965  1435.846
 966  1347.921
 967  1289.269
 968  1227.224
 969  1218.435
 970  1205.945
 971  1342.255
 972  1337.006
 973  1320.281
 974  1247.941
 975  1276.154
 976  1385.448
 977  1350.183
 978  1304.304
 979  1292.822
 980  1298.407
 981  1304.588
 982  1293.556
 983  1379.165
 984  1325.748
 985  1232.41
 986  1170.266
 987  1144.16
 988  1056.208
 989  992.2886
 990  1002.498
 991  1047.436
 992  1078.603
 993  1142.094
 994  1286.767
 995  1262.572
 996  1159.703
 997  999.5195
 998  980.6617
 999  982.8509
1000  1052.178
1001  1167.335
1002  1152.838
1003  1155.023
1004  1065.102
1005  1036.81
1006  949.0502
1007  937.2579
1008  1058.906
1009  1094.532
1010  1090.642
1011  979.4797
1012  1023.158
1013  1008.454
1014  934.8307
1015  889.1449
1016  996.7417
1017  1063.222
1018  1125.86
1019  1104.954
1020  995.6381
1021  1014.355
1022  1046.012
1023  1145.988
