# Input file       =  1185492073.116015_cleaned.dat
# Candidate        =  PSR_0332+5434
# Telescope        =  AR
# Epoch_topo       =  57964.973288379806
# Epoch_bary       =  N/A
# T_sample         =  0.002
# Data Folded      =  7208960
# Data Avg         =  0.211363594690125
# Data StdDev      =  5.45578281462231 
# Profile Bins     =  1024
# Profile Avg      =  1488.02966803502 
# Profile StdDev   =  457.765863173642 
# Reduced chi-sqr  =  0.350
# Prob(Noise)      <  1   (~0.0 sigma)
# P_topo (ms)      =  714.46993195836   +/- 6.77e-05
# P'_topo (s/s)    =  -0                +/- 3.64e-11
# P''_topo (s/s^2) =  0                 +/- 1.63e-14
# P_bary (ms)      =  N/A
# P'_bary (s/s)    =  N/A
# P''_bary (s/s^2) =  N/A
# P_orb (s)        =  N/A
# asin(i)/c (s)    =  N/A
# eccentricity     =  N/A
# w (rad)          =  N/A
# T_peri           =  N/A
######################################################
   0  1722.328
   1  1611.473
   2  1577.678
   3  1488.665
   4  1382.556
   5  1363.807
   6  1537.055
   7  1561.585
   8  1425.867
   9  1411.039
  10  1377.51
  11  1443.125
  12  1300.222
  13  1402.682
  14  1589.574
  15  1572.756
  16  1587.202
  17  1505.185
  18  1563.525
  19  1415.922
  20  1458.962
  21  1607.678
  22  1622.646
  23  1561.361
  24  1551.946
  25  1602.372
  26  1554.21
  27  1364.492
  28  1236.646
  29  1433.342
  30  1600.329
  31  1649.029
  32  1715.995
  33  1668.263
  34  1592.54
  35  1415.164
  36  1362.902
  37  1324.783
  38  1188.084
  39  1316
  40  1323.213
  41  1375.611
  42  1347.88
  43  1319.952
  44  1317.05
  45  1394.24
  46  1434.691
  47  1491.464
  48  1424.271
  49  1508.239
  50  1449.239
  51  1419.923
  52  1501.066
  53  1561.833
  54  1677.891
  55  1542.237
  56  1512.821
  57  1483.77
  58  1450.527
  59  1320.333
  60  1369.228
  61  1439.872
  62  1452.975
  63  1440.065
  64  1560.944
  65  1601.755
  66  1492.314
  67  1492.732
  68  1574.61
  69  1603.561
  70  1668.048
  71  1745.37
  72  1699.9
  73  1510.02
  74  1405.816
  75  1464.239
  76  1614.431
  77  1677.671
  78  1572.534
  79  1412.03
  80  1284.174
  81  1163.074
  82  1229.601
  83  1318.93
  84  1457.039
  85  1578.883
  86  1501.011
  87  1367.038
  88  1351.687
  89  1506.158
  90  1709.544
  91  1762.174
  92  1762.755
  93  1485.482
  94  1498.553
  95  1443.216
  96  1459.331
  97  1430.227
  98  1347.634
  99  1323.645
 100  1254.188
 101  1275.414
 102  1259.722
 103  1346.947
 104  1460.154
 105  1576.898
 106  1576.093
 107  1598.284
 108  1572.505
 109  1455.951
 110  1489.741
 111  1528.785
 112  1645.817
 113  1598.175
 114  1636.938
 115  1522.745
 116  1329.819
 117  1131.972
 118  1092.686
 119  1228.129
 120  1321.289
 121  1273.618
 122  1337.601
 123  1315.85
 124  1437
 125  1553.992
 126  1629.934
 127  1583.488
 128  1602.117
 129  1666.869
 130  1619.052
 131  1396.03
 132  1336.991
 133  1445.853
 134  1514.12
 135  1645.568
 136  1582.286
 137  1511.388
 138  1472.902
 139  1421.272
 140  1505.153
 141  1499.028
 142  1595.717
 143  1565.01
 144  1546.405
 145  1485.018
 146  1492.123
 147  1619.675
 148  1793.914
 149  1697.656
 150  1556.138
 151  1444.429
 152  1347.115
 153  1252.153
 154  1232.262
 155  1409.294
 156  1533.021
 157  1556.804
 158  1606.811
 159  1676.364
 160  1535.484
 161  1356.734
 162  1482.174
 163  1654.724
 164  1730.588
 165  1511.261
 166  1588.297
 167  1374.225
 168  1216.813
 169  1333.623
 170  1509.587
 171  1504.409
 172  1388.969
 173  1611.746
 174  1593.951
 175  1504.549
 176  1404.517
 177  1682.515
 178  1746.317
 179  1576.223
 180  1396.019
 181  1488.957
 182  1585.427
 183  1480.182
 184  1503.863
 185  1459.089
 186  1498.423
 187  1515.452
 188  1609.64
 189  1608.008
 190  1477.05
 191  1437.247
 192  1399.413
 193  1433.748
 194  1480.178
 195  1617.595
 196  1532.104
 197  1565.766
 198  1607.285
 199  1704.612
 200  1817.068
 201  1708.607
 202  1478.414
 203  1363.331
 204  1368.847
 205  1493.629
 206  1531.961
 207  1445.633
 208  1276.628
 209  1129.402
 210  1214.562
 211  1384.257
 212  1493.36
 213  1625.777
 214  1601.788
 215  1751.298
 216  1748.638
 217  1643.222
 218  1498.557
 219  1357.439
 220  1345.258
 221  1420.02
 222  1476.662
 223  1450.774
 224  1559.763
 225  1508.236
 226  1486.772
 227  1389.505
 228  1618.47
 229  1660.617
 230  1461.142
 231  1448.253
 232  1340.678
 233  1254.634
 234  1225.467
 235  1411.767
 236  1558.174
 237  1635.845
 238  1713.125
 239  1558.408
 240  1454.028
 241  1446.915
 242  1572.366
 243  1646.808
 244  1475.709
 245  1272.626
 246  1151.708
 247  1240.009
 248  1173.469
 249  1203.344
 250  1193.1
 251  1384.687
 252  1386.611
 253  1492.101
 254  1392.104
 255  1221.776
 256  1277.334
 257  1263.821
 258  1437.553
 259  1504.777
 260  1659.243
 261  1573.138
 262  1567.714
 263  1530.098
 264  1514.325
 265  1531.304
 266  1491.561
 267  1385.074
 268  1278.553
 269  1235.614
 270  1193.28
 271  1393.507
 272  1499.629
 273  1558.371
 274  1463.809
 275  1538.943
 276  1565.918
 277  1513.477
 278  1609.219
 279  1518.361
 280  1516.42
 281  1382.369
 282  1270.836
 283  1288.474
 284  1279.953
 285  1334.897
 286  1425.664
 287  1507.853
 288  1467.791
 289  1452.593
 290  1529.786
 291  1549.962
 292  1296.762
 293  1283.292
 294  1371.089
 295  1458.542
 296  1610.558
 297  1587.035
 298  1465.105
 299  1449.776
 300  1392.418
 301  1415.089
 302  1316.92
 303  1345.063
 304  1461.296
 305  1480.302
 306  1525.722
 307  1516.848
 308  1360.707
 309  1268.589
 310  1202.655
 311  1439.18
 312  1489.009
 313  1488.179
 314  1484.242
 315  1516.339
 316  1509.887
 317  1325.942
 318  1371.578
 319  1483.931
 320  1609.637
 321  1620.81
 322  1461.309
 323  1411.724
 324  1410.556
 325  1550.543
 326  1596.426
 327  1671.015
 328  1736.456
 329  1746.51
 330  1788.669
 331  1567.005
 332  1437.75
 333  1424.603
 334  1529.1
 335  1501.983
 336  1420.851
 337  1379.247
 338  1262.826
 339  1254.771
 340  1255.534
 341  1403.763
 342  1374.562
 343  1378.342
 344  1534.477
 345  1556.904
 346  1663.536
 347  1613.237
 348  1771.189
 349  1547.484
 350  1508.667
 351  1521.303
 352  1564.019
 353  1412.304
 354  1545.121
 355  1700.975
 356  1699.349
 357  1434.37
 358  1464.04
 359  1464.852
 360  1231.345
 361  1355.765
 362  1544.216
 363  1656.892
 364  1453.61
 365  1391.79
 366  1477.826
 367  1444.307
 368  1529.096
 369  1638.393
 370  1650.877
 371  1478.118
 372  1394.933
 373  1336.356
 374  1348.537
 375  1189.014
 376  1405.005
 377  1657.974
 378  1763.904
 379  1554.682
 380  1534.399
 381  1561.006
 382  1499.976
 383  1434.191
 384  1497.191
 385  1680.31
 386  1757.682
 387  1650.524
 388  1458.67
 389  1386.526
 390  1333.833
 391  1407.836
 392  1440.173
 393  1481.052
 394  1459.548
 395  1592.947
 396  1566.167
 397  1461.603
 398  1345.24
 399  1415.505
 400  1421.045
 401  1386.367
 402  1339.209
 403  1373.786
 404  1425.949
 405  1675.816
 406  1764.451
 407  1724.946
 408  1648.125
 409  1644.268
 410  1486.896
 411  1360.027
 412  1404.415
 413  1478.725
 414  1478.363
 415  1469.39
 416  1350.843
 417  1357.785
 418  1250.901
 419  1449.685
 420  1743.868
 421  1906.975
 422  1725.037
 423  1507.37
 424  1477.88
 425  1339.084
 426  1271.302
 427  1296.002
 428  1480.83
 429  1574.85
 430  1645.61
 431  1590.544
 432  1407.375
 433  1317.95
 434  1394.497
 435  1338.384
 436  1391.326
 437  1450.154
 438  1496.475
 439  1544.478
 440  1431.24
 441  1394.858
 442  1413.119
 443  1464.289
 444  1500.382
 445  1484.101
 446  1547.023
 447  1454.729
 448  1588.338
 449  1672.376
 450  1570.923
 451  1424.073
 452  1498.452
 453  1597.108
 454  1636.093
 455  1422.598
 456  1326.756
 457  1410.702
 458  1471.296
 459  1576.526
 460  1619.219
 461  1655.155
 462  1553.999
 463  1381.641
 464  1474.885
 465  1415.291
 466  1454.13
 467  1560.937
 468  1606.684
 469  1464.771
 470  1391.236
 471  1466.339
 472  1524.859
 473  1556.435
 474  1700.096
 475  1709.636
 476  1540.886
 477  1493.323
 478  1512.962
 479  1571.357
 480  1398.024
 481  1387.236
 482  1528.219
 483  1549.455
 484  1453.709
 485  1353.134
 486  1440.768
 487  1509.569
 488  1625.114
 489  1686.797
 490  1605.128
 491  1544.283
 492  1674.652
 493  1824.59
 494  1755.114
 495  1766.55
 496  1691.999
 497  1678.205
 498  1585.93
 499  1496.563
 500  1332.357
 501  1338.731
 502  1434.822
 503  1468.794
 504  1572.085
 505  1434.124
 506  1349.215
 507  1374.83
 508  1454.874
 509  1452.336
 510  1411.114
 511  1346.283
 512  1305.66
 513  1360.67
 514  1476.586
 515  1531.754
 516  1452.537
 517  1455.933
 518  1529
 519  1524.933
 520  1411.186
 521  1297.068
 522  1486.268
 523  1423.516
 524  1412.23
 525  1384.281
 526  1507.956
 527  1431.238
 528  1274.789
 529  1432.805
 530  1458.632
 531  1330.798
 532  1368.528
 533  1518.691
 534  1478.125
 535  1463.241
 536  1597.368
 537  1656.47
 538  1510.202
 539  1344.913
 540  1349.521
 541  1333.098
 542  1410.748
 543  1439.256
 544  1486.983
 545  1384.041
 546  1289.699
 547  1412.036
 548  1497.508
 549  1493.352
 550  1451.481
 551  1458.382
 552  1449.339
 553  1388.394
 554  1422.612
 555  1391.981
 556  1277.903
 557  1267.344
 558  1361.024
 559  1404.793
 560  1473.896
 561  1571.473
 562  1602.836
 563  1679.456
 564  1545.592
 565  1433.041
 566  1351.426
 567  1364.95
 568  1295.242
 569  1267.369
 570  1311.356
 571  1352.57
 572  1344.254
 573  1330.387
 574  1199.144
 575  1162.886
 576  1192.906
 577  1253.923
 578  1374.151
 579  1380.26
 580  1404.853
 581  1317.41
 582  1255.933
 583  1226.913
 584  1365.202
 585  1595.6
 586  1609.475
 587  1557.642
 588  1482.944
 589  1414.303
 590  1329.837
 591  1476.347
 592  1588.993
 593  1520.248
 594  1409.393
 595  1308.015
 596  1330.334
 597  1361.753
 598  1516.686
 599  1445.593
 600  1499.285
 601  1533.589
 602  1596.329
 603  1686.67
 604  1631.698
 605  1727.994
 606  1611.523
 607  1650.268
 608  1428.332
 609  1334.884
 610  1288.955
 611  1329.172
 612  1375.333
 613  1377.122
 614  1448.715
 615  1529.896
 616  1682.326
 617  1503.42
 618  1350.573
 619  1281.005
 620  1331.381
 621  1480.37
 622  1524.965
 623  1568.879
 624  1419.193
 625  1532.475
 626  1696.255
 627  1551.35
 628  1416.073
 629  1287.944
 630  1396.845
 631  1398.284
 632  1349.93
 633  1256.309
 634  1302.404
 635  1482.151
 636  1576.708
 637  1592.007
 638  1556.485
 639  1517.327
 640  1496.693
 641  1561.441
 642  1683.774
 643  1846.401
 644  1891.586
 645  1894.158
 646  1896.516
 647  1890.296
 648  1880.249
 649  2004.502
 650  2242.218
 651  2380.951
 652  2189.383
 653  1994.669
 654  1764.272
 655  1767.643
 656  1917.976
 657  2033.385
 658  1779.571
 659  1668.15
 660  1598.935
 661  1600.198
 662  1519.906
 663  1544.827
 664  1598.851
 665  1627.532
 666  1576.343
 667  1564.408
 668  1463.526
 669  1498.875
 670  1501.89
 671  1552.156
 672  1519.317
 673  1552.322
 674  1631.091
 675  1634.229
 676  1522.089
 677  1353.625
 678  1374.492
 679  1508.522
 680  1605.066
 681  1718.567
 682  1611.925
 683  1449.118
 684  1428.302
 685  1537.522
 686  1677
 687  1571.447
 688  1506.258
 689  1447.932
 690  1581.455
 691  1578.612
 692  1624.633
 693  1764.815
 694  1746.934
 695  1593.217
 696  1351.476
 697  1352.465
 698  1299.688
 699  1331.027
 700  1400.004
 701  1379.697
 702  1190.665
 703  1126.691
 704  1173.623
 705  1117.627
 706  1197.719
 707  1326.461
 708  1627.522
 709  1709.485
 710  1612.225
 711  1532.023
 712  1434.067
 713  1432.337
 714  1393.779
 715  1502.924
 716  1472.04
 717  1387.03
 718  1390.255
 719  1355.202
 720  1189.557
 721  1367.269
 722  1547.722
 723  1591.779
 724  1496.069
 725  1400.416
 726  1343.509
 727  1231.869
 728  1263.963
 729  1441.304
 730  1360.474
 731  1473.072
 732  1576.234
 733  1631.912
 734  1554.633
 735  1427.772
 736  1458.336
 737  1535.014
 738  1450.206
 739  1464.71
 740  1384.623
 741  1383.977
 742  1168.947
 743  1222.953
 744  1302.903
 745  1336.868
 746  1308.532
 747  1259.927
 748  1354.743
 749  1304.168
 750  1330.623
 751  1362.148
 752  1487.152
 753  1483.444
 754  1414.651
 755  1457.793
 756  1419.087
 757  1364.485
 758  1415.041
 759  1478.663
 760  1408.698
 761  1369.016
 762  1494.227
 763  1501.382
 764  1409.675
 765  1411.433
 766  1511.75
 767  1413.192
 768  1471.934
 769  1500.56
 770  1500.325
 771  1458.503
 772  1532.084
 773  1529.155
 774  1544.601
 775  1551.702
 776  1663.626
 777  1683.046
 778  1536.495
 779  1440.365
 780  1451.955
 781  1552.697
 782  1609.631
 783  1677.439
 784  1728.189
 785  1609.513
 786  1576.948
 787  1553.323
 788  1449.14
 789  1502.008
 790  1538.283
 791  1576.171
 792  1437.794
 793  1353.857
 794  1332.192
 795  1341.684
 796  1399.042
 797  1571.975
 798  1595.263
 799  1679.158
 800  1608.35
 801  1540.739
 802  1650.718
 803  1477.743
 804  1460.683
 805  1429.179
 806  1507.343
 807  1536.252
 808  1488.202
 809  1697.446
 810  1602.665
 811  1542.712
 812  1459.92
 813  1402.707
 814  1277.499
 815  1093.797
 816  1124.597
 817  1267.018
 818  1400.543
 819  1600.571
 820  1797.01
 821  1715.653
 822  1567.818
 823  1499.582
 824  1595.449
 825  1521.894
 826  1447.722
 827  1695.47
 828  1736.54
 829  1519.552
 830  1425.558
 831  1499.385
 832  1500.993
 833  1410.962
 834  1433.051
 835  1485.801
 836  1363.079
 837  1411.532
 838  1488.075
 839  1595.048
 840  1446.284
 841  1433.924
 842  1570.897
 843  1543.225
 844  1379.049
 845  1354.262
 846  1377.979
 847  1294.181
 848  1303.158
 849  1313.593
 850  1234.419
 851  1253.731
 852  1411.256
 853  1365.032
 854  1246.079
 855  1361.551
 856  1755.294
 857  1883.233
 858  1699.976
 859  1558.725
 860  1433.201
 861  1398.645
 862  1322.621
 863  1411.266
 864  1615.87
 865  1604.631
 866  1484.576
 867  1378.809
 868  1243.66
 869  1239.679
 870  1317.434
 871  1483.483
 872  1557.996
 873  1459.771
 874  1641.856
 875  1607.181
 876  1583.512
 877  1572.082
 878  1681.231
 879  1874.714
 880  1829.192
 881  1813.315
 882  1726.952
 883  1487.523
 884  1265.147
 885  1355.492
 886  1400.245
 887  1426.735
 888  1368.549
 889  1511.261
 890  1521.72
 891  1264.246
 892  1413.405
 893  1574.753
 894  1661.677
 895  1588.802
 896  1549.873
 897  1626.421
 898  1637.759
 899  1741.001
 900  1794.637
 901  1749.273
 902  1682.794
 903  1685.894
 904  1688.298
 905  1707.694
 906  1640.021
 907  1709.66
 908  1652.537
 909  1391.055
 910  1288.109
 911  1264.448
 912  1409.691
 913  1395.315
 914  1526.125
 915  1611.613
 916  1594.622
 917  1504.902
 918  1356.818
 919  1160.553
 920  1257.452
 921  1461.367
 922  1671.603
 923  1549.653
 924  1454.013
 925  1375.252
 926  1485.341
 927  1473.76
 928  1537.763
 929  1625.725
 930  1626.853
 931  1413.179
 932  1355.359
 933  1440.224
 934  1482.204
 935  1520.825
 936  1482.485
 937  1592.255
 938  1540.7
 939  1676.785
 940  1629.493
 941  1493.682
 942  1324.053
 943  1394.363
 944  1519.086
 945  1543.945
 946  1455.798
 947  1490.581
 948  1519.301
 949  1429.9
 950  1519.855
 951  1671.272
 952  1714.235
 953  1595.862
 954  1491.58
 955  1515.771
 956  1389.879
 957  1464.68
 958  1451.293
 959  1380.047
 960  1311.936
 961  1402.101
 962  1466.868
 963  1510.606
 964  1600.627
 965  1705.104
 966  1706.19
 967  1473.933
 968  1424.098
 969  1364.866
 970  1626.478
 971  1655.929
 972  1753.827
 973  1574.531
 974  1479.502
 975  1481.988
 976  1452.805
 977  1329.235
 978  1145.417
 979  1326.985
 980  1421.565
 981  1486.936
 982  1535.197
 983  1597.093
 984  1535.928
 985  1521.223
 986  1572.646
 987  1637.352
 988  1741.677
 989  1857.273
 990  1819.415
 991  1707.911
 992  1350.153
 993  1293.023
 994  1450.966
 995  1571.251
 996  1481.307
 997  1373.081
 998  1577.996
 999  1547.402
1000  1500.113
1001  1425.52
1002  1368.673
1003  1442.735
1004  1555.462
1005  1728.37
1006  1547.023
1007  1480.248
1008  1533.358
1009  1627.333
1010  1493.668
1011  1520.987
1012  1554.506
1013  1586.145
1014  1260.078
1015  1207.42
1016  1258.604
1017  1384.215
1018  1434.143
1019  1595.082
1020  1661.227
1021  1550.879
1022  1618.887
1023  1700.565
