# Input file       =  1185836768.110852_cleaned.dat
# Candidate        =  PSR_0332+5434
# Telescope        =  AR
# Epoch_topo       =  57968.962813783008
# Epoch_bary       =  N/A
# T_sample         =  0.002
# Data Folded      =  7208960
# Data Avg         =  0.0955841368815696
# Data StdDev      =  3.97327902344162 
# Profile Bins     =  512
# Profile Avg      =  1345.86410574226 
# Profile StdDev   =  471.466014119307 
# Reduced chi-sqr  =  0.563
# Prob(Noise)      <  1   (~0.0 sigma)
# P_topo (ms)      =  714.46826514616   +/- 0.000101
# P'_topo (s/s)    =  -0                +/- 5.42e-11
# P''_topo (s/s^2) =  0                 +/- 2.44e-14
# P_bary (ms)      =  N/A
# P'_bary (s/s)    =  N/A
# P''_bary (s/s^2) =  N/A
# P_orb (s)        =  N/A
# asin(i)/c (s)    =  N/A
# eccentricity     =  N/A
# w (rad)          =  N/A
# T_peri           =  N/A
######################################################
   0  1271.599
   1  1541.312
   2  1319.575
   3  1450.149
   4  1341.885
   5  1184.02
   6  839.8255
   7  967.8517
   8  1238.682
   9  1277.02
  10  1039.691
  11  990.534
  12  1094.905
  13  1268.685
  14  1443.536
  15  1457.849
  16  1033.185
  17  1190.308
  18  1165.624
  19  1403.893
  20  1347.232
  21  1211.338
  22  1375.215
  23  1458.129
  24  1384.708
  25  1550.766
  26  1607.512
  27  1532.018
  28  1138.686
  29  1223.016
  30  1180.999
  31  1276.675
  32  1360.812
  33  1361.923
  34  1255.704
  35  1122.911
  36  1258.602
  37  1312.224
  38  1302.067
  39  1542.584
  40  1452.35
  41  1102.299
  42  1409.108
  43  1441.798
  44  1198.751
  45  771.1017
  46  517.886
  47  861.9135
  48  1423.683
  49  1513.81
  50  1394.118
  51  1324.712
  52  1483.199
  53  1374.969
  54  1200.043
  55  1082.716
  56  1201.17
  57  1230.223
  58  1250.826
  59  1704.627
  60  1596.806
  61  1366.713
  62  1189.004
  63  1385.294
  64  1474.382
  65  1377.981
  66  1654.952
  67  1270.287
  68  1080.34
  69  965.5862
  70  1058.102
  71  946.7269
  72  1121.783
  73  1191.988
  74  1050.464
  75  1289.617
  76  1187.686
  77  1174.322
  78  723.8016
  79  960.1925
  80  1262.409
  81  1259.643
  82  1409.262
  83  1584.973
  84  1230.401
  85  1237.232
  86  1155.543
  87  1179.613
  88  1327.637
  89  1558.639
  90  1848.731
  91  1262.463
  92  1148.788
  93  1012.7
  94  1094.247
  95  1357.898
  96  1526.986
  97  1637.666
  98  1250.911
  99  1166.807
 100  1102.841
 101  1398.725
 102  1511.763
 103  1045.387
 104  1554.22
 105  1370.795
 106  1205.407
 107  1128.638
 108  1231.505
 109  1407.92
 110  1359.94
 111  1472.815
 112  1336.632
 113  1564.146
 114  1507.016
 115  1395.493
 116  1513.753
 117  1726.898
 118  1416.616
 119  1167.579
 120  988.8884
 121  1251.337
 122  1429.721
 123  1669.26
 124  1580.767
 125  1684.192
 126  1738.958
 127  1218.997
 128  924.2352
 129  969.2074
 130  1195.523
 131  1312.151
 132  1604.659
 133  1393.653
 134  1579.642
 135  1462.995
 136  1413.929
 137  1134.554
 138  1402.74
 139  1448.277
 140  1454.581
 141  1226.603
 142  1159.652
 143  1274.772
 144  1232.562
 145  1113.524
 146  1244.137
 147  1207.225
 148  1422.565
 149  1345.565
 150  1585.724
 151  1354.824
 152  1142.062
 153  997.5444
 154  1198.653
 155  1021.508
 156  1075.666
 157  1192.182
 158  1221.44
 159  1219.249
 160  1011.288
 161  740.3031
 162  933.1309
 163  1576.979
 164  1818.348
 165  1882.112
 166  1863.8
 167  1571.241
 168  1498.709
 169  1120.069
 170  1203.495
 171  1394.268
 172  1187.333
 173  1227.608
 174  861.0699
 175  1043.736
 176  1444.9
 177  1524.779
 178  1584.042
 179  1189.269
 180  1255.728
 181  1581.587
 182  1389.189
 183  1440.11
 184  1229.227
 185  1214.297
 186  1521.135
 187  1591.823
 188  1861.68
 189  1906.261
 190  1316.448
 191  1355.526
 192  1717.059
 193  1387.904
 194  1172.412
 195  1145.899
 196  1333.596
 197  1520.625
 198  1391.366
 199  1638.478
 200  1812.145
 201  1344.254
 202  1459.625
 203  1220.944
 204  844.9094
 205  1328.269
 206  1578.576
 207  1668.255
 208  1678.973
 209  1296.171
 210  1026.713
 211  1134.805
 212  1500.996
 213  1791.328
 214  1521.665
 215  1691.087
 216  1613.36
 217  1427.432
 218  1408.716
 219  1339.116
 220  1422.15
 221  1675.535
 222  1693.508
 223  1442.846
 224  1451.291
 225  1245.355
 226  1229.301
 227  1113.196
 228  1114.701
 229  1637.103
 230  1850.562
 231  1831.08
 232  1401.086
 233  1678.295
 234  1576.062
 235  1213.602
 236  925.681
 237  1051.4
 238  1168.139
 239  1215.247
 240  1728.029
 241  1791.686
 242  1457.742
 243  841.968
 244  816.8812
 245  1311.462
 246  1147.351
 247  1184.756
 248  1647.709
 249  1675.942
 250  1695.287
 251  1201.487
 252  889.4611
 253  1282.199
 254  1526.266
 255  1612.321
 256  1379.876
 257  1113.839
 258  1214.339
 259  1121.54
 260  1346.843
 261  1689.049
 262  1426.982
 263  1519.706
 264  1273.486
 265  1372.604
 266  1304.176
 267  1458.091
 268  1409.643
 269  1063.803
 270  1520.207
 271  1687.693
 272  1768.913
 273  1594.671
 274  1314.256
 275  1260.927
 276  1206.293
 277  984.3533
 278  1032.704
 279  1067.88
 280  1272.429
 281  1273.305
 282  1453.661
 283  1448.952
 284  1301.196
 285  1127.755
 286  1199.493
 287  1323.146
 288  1127.329
 289  1269.98
 290  1388.806
 291  1378.967
 292  1242.216
 293  1409.371
 294  1289.365
 295  1600.942
 296  1316.409
 297  1158.546
 298  1463.649
 299  1453.612
 300  1040.946
 301  857.7412
 302  1085.33
 303  1259.194
 304  1453.374
 305  1785.927
 306  1555.17
 307  1789.411
 308  1585.126
 309  1316.26
 310  1333.639
 311  1534.018
 312  1454.78
 313  1158.375
 314  1126.836
 315  1674.18
 316  1477.074
 317  1550.843
 318  1577.153
 319  1769.425
 320  1931.65
 321  2155.686
 322  2001.06
 323  2360.69
 324  2608.14
 325  2838.274
 326  2447.712
 327  2016.274
 328  1699.911
 329  1406.699
 330  1547.735
 331  1587.713
 332  1731.504
 333  1643.076
 334  1331.19
 335  1573.836
 336  1604.217
 337  1457.479
 338  1149.08
 339  1236.715
 340  2073.516
 341  1663.911
 342  1136.309
 343  1079.641
 344  1618.536
 345  1238.921
 346  1033.917
 347  1331.348
 348  1639.272
 349  1588.134
 350  1206.744
 351  1258.92
 352  1161.002
 353  1279.693
 354  1408.504
 355  1241.16
 356  1385.109
 357  1505.699
 358  1501.296
 359  1366.262
 360  1102.706
 361  1153.484
 362  1341.676
 363  1353.06
 364  1222.599
 365  1213.219
 366  1542.522
 367  1414.018
 368  1085.703
 369  1419.365
 370  1581.358
 371  1408.237
 372  1256.017
 373  1019.414
 374  1193.051
 375  1063.421
 376  1346.365
 377  1470.84
 378  1225.518
 379  1237.833
 380  1424.541
 381  1240.687
 382  1348.984
 383  1244.44
 384  1255.632
 385  1320.046
 386  1149.374
 387  1459.44
 388  1570.893
 389  1464.062
 390  1320.248
 391  1475.764
 392  1584.106
 393  1127.855
 394  1257.297
 395  1530.193
 396  1530.173
 397  1207.8
 398  1170.236
 399  1315.961
 400  1276.893
 401  1091.676
 402  1170.351
 403  1473.472
 404  1411.281
 405  1087.473
 406  1306.013
 407  1517.645
 408  1135.757
 409  1256.324
 410  1370.773
 411  1607.023
 412  1415.082
 413  1493.305
 414  1447.135
 415  1242.194
 416  1358.964
 417  1332.58
 418  1187.439
 419  1277.532
 420  1031.392
 421  1042.143
 422  995.943
 423  861.6201
 424  1404.32
 425  1109.277
 426  1176.447
 427  1423.947
 428  1394.328
 429  1492.25
 430  1371.738
 431  1296.701
 432  1266.043
 433  902.9724
 434  955.5306
 435  1210.167
 436  1408.306
 437  1522.543
 438  1623.219
 439  1259.994
 440  813.6068
 441  1065.041
 442  889.0297
 443  1395.75
 444  1348.611
 445  1106.055
 446  1347.94
 447  1256.832
 448  1241.311
 449  1200.024
 450  840.2375
 451  1153.279
 452  1029.895
 453  1156.081
 454  1256.235
 455  1281.898
 456  1233.724
 457  1235.296
 458  952.9155
 459  1045.163
 460  1216.226
 461  1202.043
 462  1474.44
 463  1264.672
 464  1590.799
 465  1685.238
 466  1567.269
 467  1137.921
 468  1162.557
 469  1424.249
 470  1678.073
 471  1641.842
 472  1227.229
 473  1363.061
 474  1378.003
 475  1398.799
 476  1377.642
 477  1330.492
 478  1052.326
 479  1297.992
 480  1814.494
 481  1281.96
 482  1017.427
 483  1048.272
 484  1406.919
 485  1370.069
 486  1403.875
 487  1520.994
 488  1551.341
 489  1615.061
 490  1242.345
 491  1586.667
 492  1243.254
 493  1161.855
 494  1191.672
 495  1574.033
 496  1689.051
 497  1329.485
 498  1379.018
 499  1505.982
 500  1589.973
 501  1612.843
 502  1417.459
 503  1051.744
 504  1161.818
 505  1071.647
 506  1282.056
 507  1308.672
 508  1169.667
 509  1280.423
 510  1108.405
 511  1422.07
