# Input file       =  1185349336.100742_cleaned.dat
# Candidate        =  PSR_0332+5434
# Telescope        =  AR
# Epoch_topo       =  57963.321239591925
# Epoch_bary       =  N/A
# T_sample         =  0.002
# Data Folded      =  7340032
# Data Avg         =  0.320539711735494
# Data StdDev      =  5.29042132226916 
# Profile Bins     =  512
# Profile Avg      =  4595.14818394994 
# Profile StdDev   =  633.438208627673 
# Reduced chi-sqr  =  2.013
# Prob(Noise)      <  3.99e-37   (~12.7 sigma)
# P_topo (ms)      =  714.471037698165  +/- 0.000186
# P'_topo (s/s)    =  -0                +/- 9.83e-11
# P''_topo (s/s^2) =  0                 +/- 4.34e-14
# P_bary (ms)      =  N/A
# P'_bary (s/s)    =  N/A
# P''_bary (s/s^2) =  N/A
# P_orb (s)        =  N/A
# asin(i)/c (s)    =  N/A
# eccentricity     =  N/A
# w (rad)          =  N/A
# T_peri           =  N/A
######################################################
   0  4000.219
   1  4484.664
   2  4747.183
   3  4938.297
   4  4950.486
   5  4929.396
   6  4896.961
   7  4878.682
   8  4872.65
   9  4807.996
  10  5032.465
  11  5529.416
  12  5471.053
  13  5067.499
  14  5125.44
  15  5001.875
  16  5227.619
  17  4722.062
  18  4914.16
  19  4790.299
  20  4927.678
  21  5022.04
  22  5463.16
  23  5158.999
  24  4863.875
  25  4540.556
  26  4522.705
  27  4515.964
  28  4806.507
  29  4885.738
  30  4936.463
  31  4597.331
  32  4822.193
  33  4923.354
  34  4354.485
  35  3930.512
  36  4300.025
  37  3860.269
  38  3988.116
  39  4401.764
  40  3969.456
  41  3667.752
  42  3591.768
  43  3566.422
  44  3460.356
  45  3924.459
  46  4123.825
  47  4065.202
  48  3933.623
  49  3562.361
  50  3495.562
  51  3335.207
  52  3326.944
  53  3552.911
  54  3654.299
  55  3315.781
  56  3659.607
  57  3797.773
  58  3863.239
  59  3894.996
  60  4223.816
  61  4314.989
  62  4006.401
  63  4088.478
  64  4255.466
  65  4156.592
  66  4014.161
  67  4123.012
  68  4231.671
  69  4688.115
  70  4596.574
  71  4321.552
  72  4422.145
  73  4430.924
  74  4534.904
  75  5054.34
  76  4680.881
  77  4626.711
  78  4897.082
  79  4946.785
  80  5331.966
  81  5400.598
  82  5761.512
  83  5427.596
  84  5036.566
  85  5433.657
  86  5725.508
  87  5231.459
  88  5174.981
  89  5578.406
  90  5596.999
  91  5573.833
  92  5346.98
  93  5464.499
  94  5979.242
  95  5438.764
  96  5330.825
  97  5583.427
  98  6187.129
  99  6709.425
 100  6616.895
 101  6793.698
 102  6831.976
 103  5976.252
 104  5666.842
 105  5361.698
 106  4724.072
 107  4915.965
 108  5111.389
 109  5090.55
 110  4891.67
 111  5060.173
 112  5042.735
 113  4933.211
 114  4763.919
 115  4925.524
 116  4635.426
 117  4712.272
 118  4837.221
 119  4803.794
 120  4924.804
 121  4979.816
 122  4925.454
 123  4661.918
 124  4951.358
 125  4768.626
 126  4367.952
 127  4550.035
 128  4483.146
 129  4507.463
 130  4524.69
 131  4430.722
 132  4378.371
 133  4456.529
 134  4486.877
 135  4845.142
 136  4736.377
 137  4752.913
 138  4513.245
 139  4433.084
 140  4647.597
 141  4986.833
 142  5008.079
 143  5061.327
 144  4955.992
 145  4934.288
 146  5085.108
 147  5181.087
 148  5420.97
 149  5263.172
 150  5204.993
 151  5317.909
 152  5352.551
 153  5761.341
 154  5472.697
 155  5594.69
 156  6068.996
 157  5812.394
 158  5819.388
 159  5791.861
 160  5510.349
 161  5531.596
 162  5692.448
 163  5296.911
 164  5170.425
 165  5360.09
 166  5312.279
 167  5503.182
 168  5571.54
 169  5263.819
 170  5179.714
 171  5182.696
 172  5101.876
 173  5132.333
 174  5012.583
 175  5079.907
 176  5189.888
 177  5218.818
 178  4925.022
 179  4602.737
 180  4660.604
 181  4898.968
 182  5262.779
 183  5226.884
 184  4690.623
 185  4403.786
 186  4411.157
 187  4665.565
 188  4648.193
 189  4582.412
 190  4384.299
 191  4470.879
 192  4494.496
 193  4393.948
 194  4584.512
 195  4445.22
 196  4056.489
 197  4057.789
 198  4549.145
 199  4537.739
 200  4240.607
 201  4347.849
 202  4235.214
 203  4081.971
 204  4380.089
 205  4447.476
 206  4432.326
 207  4543.396
 208  4482.22
 209  3991.027
 210  4211.521
 211  4791.476
 212  4966.52
 213  4907.516
 214  4892.521
 215  4835.345
 216  4881.224
 217  5062.189
 218  5187.579
 219  5326.656
 220  5189.376
 221  5177.407
 222  5284.157
 223  5107.437
 224  5080.246
 225  5019.752
 226  5404.636
 227  5253.367
 228  5179.472
 229  5298.181
 230  5435.547
 231  5396.089
 232  5300.45
 233  5094.122
 234  4817.963
 235  4681.582
 236  4610.76
 237  4673.52
 238  4918.655
 239  4928.167
 240  5302.32
 241  5043.179
 242  4555.956
 243  4328.78
 244  4812.343
 245  4711.59
 246  4670.056
 247  4841.225
 248  4753.316
 249  4645.327
 250  4546.813
 251  4529.263
 252  4482.671
 253  4465.547
 254  4202.305
 255  4498.696
 256  4642.34
 257  4337.336
 258  4636.558
 259  4393.68
 260  3955.647
 261  4186.002
 262  4224.9
 263  4353.434
 264  4227.543
 265  4204.775
 266  4253.981
 267  4601.631
 268  4766.749
 269  4833.463
 270  4640.543
 271  4352.771
 272  4443.146
 273  3983.097
 274  4145.165
 275  4144.619
 276  4259.204
 277  4455.636
 278  4436.339
 279  4478.248
 280  4180.676
 281  4187.804
 282  4247.78
 283  4443.38
 284  4406.496
 285  4593.184
 286  4434.019
 287  3883.092
 288  4045.939
 289  4495.331
 290  4846.379
 291  4766.298
 292  4703.315
 293  4487.339
 294  4508.187
 295  4640.688
 296  4658.793
 297  4935.541
 298  4831.63
 299  4854.096
 300  5097.903
 301  5381.796
 302  5657.601
 303  5838.317
 304  5907.965
 305  5726.551
 306  5756.581
 307  6024.054
 308  6138.051
 309  6074.936
 310  5935.239
 311  5781.381
 312  5603.544
 313  5658.212
 314  5483.715
 315  5029.189
 316  5261.282
 317  5139.036
 318  4717.257
 319  4614.145
 320  4492.771
 321  4405.261
 322  4369.763
 323  4364.565
 324  4576.632
 325  4582.862
 326  4713.655
 327  4639.203
 328  4567.954
 329  4687.33
 330  4672.407
 331  4425.352
 332  4431.472
 333  4911.624
 334  4553.747
 335  4782.708
 336  4787.199
 337  4361.3
 338  4092.345
 339  3964.039
 340  4183.424
 341  3892.178
 342  3740.64
 343  3547.215
 344  3765.371
 345  3649.663
 346  3512.594
 347  3610.189
 348  4130.708
 349  4219.4
 350  4249.808
 351  4231.479
 352  4174.889
 353  4501.293
 354  4460.772
 355  4234.985
 356  3903.303
 357  4579.39
 358  4527.63
 359  4328.221
 360  4154.787
 361  4167.087
 362  4251.988
 363  4498.834
 364  4759.423
 365  4843.262
 366  4729.745
 367  4952.177
 368  4852.982
 369  4998.719
 370  4906.373
 371  5051.944
 372  5411.653
 373  5576.437
 374  5811.289
 375  5650.054
 376  5358.216
 377  5552.874
 378  5457.275
 379  5262.025
 380  5622.443
 381  6123.468
 382  5449.947
 383  5003.54
 384  5100.313
 385  4910.401
 386  4791.569
 387  4854.776
 388  4935.716
 389  4751.726
 390  4930.622
 391  4832.557
 392  4703.64
 393  4302.471
 394  4329.386
 395  4365.5
 396  4356.865
 397  4420.191
 398  4249.69
 399  4399.484
 400  4266.082
 401  3943.299
 402  3962.602
 403  4061.74
 404  4106.602
 405  4306.628
 406  4421.501
 407  4408.208
 408  4287.631
 409  4162.981
 410  3883.05
 411  3594.379
 412  3663.531
 413  4091.5
 414  4431.801
 415  4490.441
 416  4183.292
 417  3939.098
 418  3807.484
 419  3766.121
 420  4026.899
 421  3879.731
 422  4206.186
 423  4010.566
 424  3849.347
 425  3714.57
 426  3880.935
 427  4231.438
 428  3987.657
 429  3650.944
 430  3927.214
 431  4066.96
 432  3919.494
 433  4246.933
 434  4341.298
 435  4038.666
 436  4124.439
 437  4531.292
 438  4489.83
 439  4456.8
 440  4622.8
 441  4443.517
 442  4533.621
 443  4406.466
 444  4554.327
 445  4586.401
 446  4358.52
 447  4265.278
 448  4524.803
 449  4656.042
 450  4732.281
 451  4427.163
 452  4351.852
 453  4296.286
 454  4149.831
 455  4120.606
 456  4518.172
 457  4329.3
 458  4460.753
 459  4265.438
 460  4504.816
 461  4767.566
 462  4724.461
 463  4524.912
 464  4300.606
 465  4109.949
 466  4078.498
 467  4286.604
 468  4369.831
 469  4413.948
 470  4192.553
 471  3919.249
 472  3693.788
 473  3765.374
 474  3732.442
 475  3470.132
 476  3470.476
 477  3435.694
 478  3566.501
 479  3279.674
 480  3395.074
 481  3444.813
 482  3450.089
 483  3178.033
 484  3198.362
 485  3132.592
 486  3081.345
 487  3244.472
 488  3449.039
 489  3333.335
 490  3212.41
 491  3433.595
 492  3417.391
 493  3301.051
 494  3514.995
 495  3630.173
 496  3525.216
 497  3231.869
 498  3492.25
 499  3565.216
 500  3500.468
 501  3302.42
 502  3264.899
 503  3437.257
 504  3595.476
 505  3836.944
 506  3992.564
 507  3801.321
 508  3690.543
 509  3522.57
 510  3834.295
 511  3932.337
