# Input file       =  1185420549.118118_cleaned.dat
# Candidate        =  PSR_0332+5434
# Telescope        =  AR
# Epoch_topo       =  57964.145464330068
# Epoch_bary       =  N/A
# T_sample         =  0.002
# Data Folded      =  7340032
# Data Avg         =  0.0392512534986335
# Data StdDev      =  1.00006425701933 
# Profile Bins     =  512
# Profile Avg      =  562.480187619555 
# Profile StdDev   =  119.740730064799 
# Reduced chi-sqr  =  1.289
# Prob(Noise)      <  1.01e-05   (~4.3 sigma)
# P_topo (ms)      =  714.470318093334  +/- 0.000395
# P'_topo (s/s)    =  -0                +/- 2.08e-10
# P''_topo (s/s^2) =  0                 +/- 9.19e-14
# P_bary (ms)      =  N/A
# P'_bary (s/s)    =  N/A
# P''_bary (s/s^2) =  N/A
# P_orb (s)        =  N/A
# asin(i)/c (s)    =  N/A
# eccentricity     =  N/A
# w (rad)          =  N/A
# T_peri           =  N/A
######################################################
   0  1113.194
   1  1072.278
   2  849.1191
   3  622.2734
   4  596.1313
   5  512.0374
   6  578.0361
   7  608.5076
   8  579.305
   9  573.9247
  10  535.7346
  11  464.1759
  12  541.403
  13  714.5665
  14  630.3585
  15  610.6561
  16  572.8426
  17  554.8453
  18  598.3401
  19  674.1605
  20  679.1294
  21  679.2919
  22  608.0791
  23  580.439
  24  617.2921
  25  547.2707
  26  530.3796
  27  534.3047
  28  469.3115
  29  442.1933
  30  508.2624
  31  527.2865
  32  494.2348
  33  543.5297
  34  591.7152
  35  494.8454
  36  571.1727
  37  546.5446
  38  573.0417
  39  532.538
  40  554.9562
  41  673.7388
  42  682.9164
  43  650.2496
  44  566.0641
  45  550.885
  46  657.2206
  47  645.5806
  48  739.3914
  49  647.1971
  50  658.8884
  51  713.669
  52  738.4354
  53  598.167
  54  597.1181
  55  576.8192
  56  586.371
  57  637.5612
  58  688.9281
  59  576.4231
  60  582.2421
  61  601.6147
  62  553.5533
  63  565.1949
  64  488.2023
  65  598.3228
  66  574.6632
  67  544.8456
  68  549.4116
  69  479.6144
  70  448.5721
  71  464.4117
  72  515.7198
  73  520.8277
  74  497.3307
  75  585.6003
  76  553.6019
  77  565.1607
  78  644.7579
  79  620.8882
  80  448.5262
  81  420.9417
  82  492.0055
  83  506.8511
  84  571.3334
  85  601.3543
  86  611.3272
  87  608.5255
  88  695.8835
  89  664.0115
  90  560.5967
  91  598.1822
  92  650.3865
  93  613.4656
  94  586.0875
  95  601.7377
  96  686.8595
  97  669.3954
  98  667.6566
  99  543.9099
 100  629.8327
 101  543.0346
 102  625.1919
 103  604.8478
 104  643.6584
 105  706.6302
 106  672.2076
 107  624.8268
 108  678.96
 109  682.6531
 110  646.2747
 111  648.5294
 112  712.6095
 113  735.4557
 114  600.1043
 115  619.3654
 116  656.0829
 117  655.0813
 118  610.235
 119  595.655
 120  557.1323
 121  571.8217
 122  574.5053
 123  592.7723
 124  670.6929
 125  674.131
 126  604.4422
 127  624.1675
 128  607.6246
 129  649.662
 130  622.3483
 131  565.2155
 132  645.1613
 133  660.2638
 134  649.012
 135  691.5753
 136  710.1149
 137  691.3293
 138  723.754
 139  634.7556
 140  598.1284
 141  564.8297
 142  506.6935
 143  575.5898
 144  559.6758
 145  600.3932
 146  737.4313
 147  649.2862
 148  559.9971
 149  499.0765
 150  619.6288
 151  614.9056
 152  625.2005
 153  606.9125
 154  622.8768
 155  583.3939
 156  552.5177
 157  576.1396
 158  540.4943
 159  607.7812
 160  540.082
 161  536.224
 162  510.2101
 163  396.4759
 164  472.0971
 165  571.1628
 166  677.4139
 167  631.7272
 168  642.4167
 169  678.2955
 170  584.3195
 171  634.0352
 172  571.0446
 173  513.8076
 174  534.6461
 175  626.4039
 176  666.3984
 177  709.2457
 178  629.9099
 179  596.9429
 180  577.3312
 181  531.9825
 182  493.2258
 183  650.21
 184  728.1264
 185  673.107
 186  709.4084
 187  687.5936
 188  550.5999
 189  524.3762
 190  702.7009
 191  711.4608
 192  708.2885
 193  722.3839
 194  684.0044
 195  645.6383
 196  526.7954
 197  436.0159
 198  544.7636
 199  677.9058
 200  686.1882
 201  569.9268
 202  576.8029
 203  634.6704
 204  542.0493
 205  561.4868
 206  624.3231
 207  623.3382
 208  564.507
 209  612.0974
 210  688.767
 211  754.1425
 212  627.0783
 213  596.1042
 214  701.9396
 215  749.6121
 216  700.7775
 217  731.3054
 218  694.0615
 219  689.1838
 220  813.3173
 221  771.34
 222  691.496
 223  598.2547
 224  673.3704
 225  645.351
 226  673.0469
 227  562.8617
 228  632.5369
 229  652.2004
 230  680.5209
 231  628.3501
 232  603.7019
 233  463.2509
 234  382.7733
 235  499.3047
 236  646.3617
 237  739.4544
 238  618.3364
 239  509.8946
 240  446.9183
 241  547.9932
 242  655.8143
 243  583.7257
 244  594.0855
 245  594.6351
 246  596.8877
 247  624.9399
 248  541.8263
 249  559.9274
 250  650.5784
 251  638.9003
 252  569.8304
 253  532.494
 254  608.2725
 255  559.2958
 256  505.0607
 257  587.7311
 258  601.8624
 259  681.0064
 260  558.7896
 261  518.8118
 262  447.0756
 263  461.244
 264  453.7786
 265  579.1674
 266  563.8712
 267  571.9276
 268  588.0579
 269  624.1802
 270  522.0908
 271  443.303
 272  473.1698
 273  505.0113
 274  463.9923
 275  466.0798
 276  495.0008
 277  501.936
 278  474.862
 279  495.7271
 280  482.4678
 281  468.1062
 282  496.3898
 283  441.3418
 284  443.8578
 285  417.3842
 286  520.0437
 287  585.5386
 288  533.4322
 289  621.723
 290  552.2197
 291  464.4864
 292  494.0653
 293  475.4794
 294  479.8608
 295  492.413
 296  494.8676
 297  557.6374
 298  535.955
 299  378.9742
 300  373.9333
 301  450.3422
 302  561.0795
 303  570.5165
 304  509.3994
 305  470.7308
 306  511.7954
 307  540.0186
 308  482.8423
 309  578.8299
 310  617.0005
 311  593.4706
 312  530.5962
 313  504.0186
 314  476.5329
 315  434.9677
 316  486.1635
 317  457.5829
 318  476.3635
 319  556.5532
 320  518.7072
 321  605.8766
 322  544.7574
 323  501.4092
 324  515.4021
 325  485.1719
 326  545.6408
 327  664.2447
 328  576.2877
 329  386.0458
 330  485.8799
 331  568.4083
 332  584.2793
 333  595.4603
 334  624.0725
 335  499.2223
 336  567.9147
 337  546.6315
 338  580.7877
 339  574.5838
 340  516.1391
 341  574.7012
 342  481.9839
 343  466.7112
 344  446.6188
 345  312.9705
 346  422.4002
 347  399.2343
 348  446.5089
 349  391.4577
 350  392.4294
 351  568.7905
 352  571.3636
 353  512.0115
 354  436.1302
 355  400.8454
 356  435.4204
 357  451.4038
 358  504.2846
 359  501.2767
 360  492.2712
 361  390.9328
 362  453.5533
 363  604.3842
 364  590.4421
 365  555.1697
 366  510.4863
 367  381.5535
 368  448.8043
 369  477.5732
 370  392.7232
 371  374.3664
 372  430.1229
 373  489.3802
 374  501.4176
 375  476.7605
 376  503.0101
 377  460.4564
 378  343.8147
 379  403.808
 380  503.8975
 381  566.5961
 382  505.3612
 383  490.6057
 384  490.8999
 385  489.362
 386  563.6051
 387  614.2407
 388  580.204
 389  521.2977
 390  528.2428
 391  636.9304
 392  638.701
 393  599.8956
 394  548.2725
 395  575.5825
 396  445.4821
 397  438.3555
 398  509.1436
 399  629.7875
 400  554.6537
 401  542.6383
 402  493.3525
 403  506.86
 404  441.411
 405  533.903
 406  581.9559
 407  631.6813
 408  616.9962
 409  553.6141
 410  566.7131
 411  518.3221
 412  638.9129
 413  593.2321
 414  567.3011
 415  444.4342
 416  528.394
 417  625.4418
 418  520.7804
 419  523.1612
 420  528.1343
 421  491.2336
 422  446.522
 423  491.0812
 424  514.3664
 425  548.7967
 426  512.7045
 427  403.6729
 428  444.0385
 429  485.1548
 430  457.8837
 431  464.251
 432  531.1757
 433  578.6269
 434  580.0574
 435  581.3569
 436  524.9024
 437  481.5058
 438  524.9888
 439  490.103
 440  526.5957
 441  559.545
 442  544.1814
 443  470.5677
 444  399.1601
 445  423.9287
 446  356.2792
 447  323.3059
 448  428.3184
 449  469.6328
 450  478.0858
 451  514.2537
 452  488.8239
 453  500.0774
 454  459.7286
 455  483.8007
 456  460.7783
 457  588.668
 458  494.2214
 459  445.4149
 460  454.7183
 461  453.8319
 462  539.3818
 463  635.0717
 464  599.2669
 465  602.3801
 466  521.048
 467  521.0107
 468  472.0448
 469  435.9325
 470  351.0647
 471  395.5307
 472  432.8177
 473  545.4913
 474  450.0182
 475  541.2715
 476  560.4121
 477  451.317
 478  470.3661
 479  473.1818
 480  496.5576
 481  480.9988
 482  558.4912
 483  448.1494
 484  518.623
 485  581.3967
 486  608.5588
 487  555.8322
 488  554.7606
 489  500.6021
 490  661.4215
 491  636.0002
 492  449.5323
 493  553.6846
 494  447.1725
 495  472.3197
 496  586.9453
 497  469.2206
 498  397.1059
 499  467.297
 500  531.485
 501  473.1756
 502  389.9485
 503  538.11
 504  571.6478
 505  608.5038
 506  683.5857
 507  732.6332
 508  698.7115
 509  832.2795
 510  1015.375
 511  1111.647
