# Input file       =  1185420549.118118_cleaned.dat
# Candidate        =  PSR_0332+5434
# Telescope        =  AR
# Epoch_topo       =  57964.145464330068
# Epoch_bary       =  N/A
# T_sample         =  0.002
# Data Folded      =  7340032
# Data Avg         =  0.207219863200277
# Data StdDev      =  4.10206703590409 
# Profile Bins     =  1024
# Profile Avg      =  1484.55551699293 
# Profile StdDev   =  347.297575626179 
# Reduced chi-sqr  =  1.482
# Prob(Noise)      <  7.11e-22   (~9.5 sigma)
# P_topo (ms)      =  714.470318944016  +/- 0.000867
# P'_topo (s/s)    =  -0                +/- 4.57e-10
# P''_topo (s/s^2) =  0                 +/- 2.02e-13
# P_bary (ms)      =  N/A
# P'_bary (s/s)    =  N/A
# P''_bary (s/s^2) =  N/A
# P_orb (s)        =  N/A
# asin(i)/c (s)    =  N/A
# eccentricity     =  N/A
# w (rad)          =  N/A
# T_peri           =  N/A
######################################################
   0  1854.532
   1  1733.698
   2  1606.761
   3  1644.597
   4  1639.493
   5  1700.309
   6  1793.577
   7  1883.45
   8  1919.572
   9  1821.755
  10  1791.544
  11  1793.827
  12  1797.283
  13  1798.307
  14  1775.799
  15  1744.746
  16  1736.729
  17  1709.671
  18  1648.35
  19  1553.891
  20  1481.204
  21  1480.573
  22  1556.08
  23  1632.6
  24  1683.338
  25  1758.275
  26  1843.526
  27  1822.427
  28  1682.389
  29  1622.793
  30  1672.546
  31  1731.05
  32  1782.919
  33  1768.257
  34  1637.035
  35  1542.682
  36  1588.749
  37  1698.139
  38  1811.665
  39  1790.428
  40  1785.439
  41  1786.125
  42  1723.612
  43  1667.019
  44  1659.144
  45  1717.809
  46  1806.378
  47  1858.344
  48  1998.926
  49  1972.927
  50  1865.063
  51  1764.724
  52  1771.211
  53  1821.013
  54  1892.921
  55  1865.352
  56  1931.713
  57  1939.758
  58  1902.886
  59  1779.713
  60  1882.98
  61  1926.286
  62  1990.959
  63  1908.622
  64  1950.141
  65  2017.122
  66  2071.753
  67  2082.469
  68  2018.558
  69  2026.038
  70  1975.063
  71  1873.855
  72  1789.768
  73  1838.982
  74  1884.676
  75  1870.181
  76  1787.794
  77  1788.952
  78  1760.864
  79  1717.043
  80  1609.441
  81  1630.327
  82  1741.896
  83  1854.432
  84  1854.312
  85  1815.562
  86  1806.787
  87  1815.014
  88  1722.854
  89  1650.351
  90  1591.54
  91  1572.141
  92  1488.008
  93  1370.465
  94  1323.981
  95  1326.283
  96  1414.174
  97  1631.252
  98  1703.033
  99  1773.706
 100  1798.093
 101  1850.989
 102  1821.147
 103  1751.013
 104  1584.479
 105  1561.735
 106  1456.859
 107  1526.056
 108  1524.108
 109  1645.226
 110  1723.031
 111  1748.713
 112  1714.891
 113  1652.349
 114  1672.808
 115  1688.474
 116  1673.615
 117  1666.461
 118  1596.029
 119  1643.938
 120  1634.944
 121  1615.514
 122  1575.244
 123  1417.768
 124  1496.654
 125  1559.991
 126  1710.266
 127  1688.575
 128  1679.971
 129  1757.321
 130  1700.717
 131  1612.097
 132  1572.363
 133  1598.233
 134  1604.346
 135  1626.722
 136  1643.139
 137  1555.902
 138  1462.094
 139  1536.113
 140  1571.364
 141  1568.667
 142  1602.859
 143  1667.233
 144  1733.963
 145  1642.704
 146  1551.187
 147  1456.931
 148  1495.81
 149  1387.802
 150  1334.133
 151  1271.028
 152  1294.383
 153  1240.343
 154  1223.201
 155  1313.572
 156  1455.55
 157  1468.398
 158  1420.896
 159  1399.908
 160  1432.937
 161  1409.816
 162  1385.997
 163  1531.996
 164  1571.605
 165  1542.525
 166  1432.295
 167  1383.269
 168  1267.754
 169  1179.07
 170  1233.773
 171  1301.642
 172  1307.043
 173  1263.014
 174  1227.865
 175  1248.292
 176  1271.525
 177  1365.243
 178  1397.423
 179  1306.036
 180  1354.65
 181  1344.585
 182  1333.144
 183  1275.161
 184  1217.487
 185  1272.91
 186  1279.633
 187  1290.138
 188  1269.088
 189  1252.056
 190  1336.773
 191  1317.169
 192  1281.408
 193  1253.491
 194  1274.245
 195  1155.467
 196  1126.571
 197  1142.336
 198  1271.592
 199  1394.723
 200  1441.64
 201  1459.875
 202  1440.607
 203  1351.643
 204  1489.751
 205  1486.152
 206  1493.838
 207  1319.477
 208  1253.348
 209  1302.794
 210  1310.145
 211  1269.597
 212  1238.072
 213  1278.059
 214  1274.997
 215  1308.603
 216  1303.866
 217  1343.163
 218  1372.011
 219  1324.731
 220  1368.078
 221  1344.293
 222  1301.557
 223  1249.175
 224  1127.743
 225  985.4534
 226  1008.324
 227  1070.286
 228  1136.247
 229  1205.953
 230  1311.535
 231  1420.763
 232  1431.302
 233  1432.588
 234  1405.42
 235  1390.155
 236  1382.945
 237  1399.309
 238  1340.615
 239  1303.651
 240  1331.025
 241  1290.107
 242  1361.667
 243  1274.092
 244  1408.182
 245  1513.375
 246  1588.932
 247  1530.679
 248  1429.144
 249  1423.642
 250  1455.913
 251  1415.555
 252  1402.924
 253  1427.815
 254  1419.777
 255  1270.166
 256  1264.901
 257  1257.243
 258  1356.05
 259  1399.878
 260  1386.854
 261  1373.063
 262  1324.473
 263  1451.39
 264  1509.708
 265  1522.759
 266  1495.354
 267  1496.078
 268  1548.096
 269  1625.231
 270  1545.769
 271  1437.583
 272  1395.302
 273  1417.026
 274  1441.493
 275  1451.566
 276  1454.425
 277  1475.267
 278  1477.469
 279  1552.231
 280  1682.088
 281  1728.389
 282  1674.933
 283  1522.432
 284  1339.818
 285  1292.287
 286  1315.102
 287  1361.655
 288  1360.593
 289  1421.024
 290  1360.71
 291  1317.815
 292  1330.638
 293  1482.412
 294  1548.189
 295  1521.35
 296  1459.262
 297  1331.431
 298  1426.623
 299  1438.44
 300  1431.261
 301  1346.244
 302  1318.369
 303  1355.218
 304  1346.682
 305  1303.307
 306  1241.153
 307  1247.707
 308  1252.261
 309  1340.005
 310  1289.692
 311  1132.413
 312  1089.376
 313  1165.501
 314  1236.607
 315  1062.898
 316  939.631
 317  950.274
 318  1022.926
 319  1017.887
 320  962.3565
 321  1003.724
 322  1096.901
 323  1138.509
 324  1107.958
 325  1045.499
 326  993.1688
 327  1043.963
 328  1168.028
 329  1330.485
 330  1338.077
 331  1247.651
 332  1158.497
 333  1100.522
 334  1116.88
 335  992.5602
 336  1025.985
 337  1022.606
 338  1105.461
 339  1126.704
 340  1133.423
 341  1177.912
 342  1175.729
 343  1192.746
 344  1140.617
 345  1126.299
 346  1134.163
 347  1047.483
 348  1010.37
 349  1017.366
 350  1095.511
 351  1147.101
 352  1253.738
 353  1338.199
 354  1316.581
 355  1261.986
 356  1232.501
 357  1307.568
 358  1270.519
 359  1114.535
 360  1029.27
 361  1002.725
 362  1023.405
 363  1103.391
 364  1158.227
 365  1171.231
 366  1111.903
 367  1047.651
 368  1104.235
 369  1060.753
 370  1121.141
 371  1149.248
 372  1215.191
 373  1221.362
 374  1245.657
 375  1183.248
 376  1128.86
 377  1110.422
 378  1175.059
 379  1264.707
 380  1241.368
 381  1133.027
 382  987.3259
 383  979.2269
 384  1054.116
 385  1164.097
 386  1215.461
 387  1298.705
 388  1365.299
 389  1337.781
 390  1248.445
 391  1151.432
 392  1183.969
 393  1175.727
 394  1220.832
 395  1230.774
 396  1274.86
 397  1208.964
 398  1282.403
 399  1421.63
 400  1423.272
 401  1433.434
 402  1344.85
 403  1475.942
 404  1393.465
 405  1309.11
 406  1263.375
 407  1339.902
 408  1437.309
 409  1449.156
 410  1470.464
 411  1524.005
 412  1425.561
 413  1342.185
 414  1227.876
 415  1321.941
 416  1354.606
 417  1346.536
 418  1217.672
 419  1191.481
 420  1191.743
 421  1262.615
 422  1276.277
 423  1353.088
 424  1477.477
 425  1469.984
 426  1444.016
 427  1338.751
 428  1370.414
 429  1406.847
 430  1367.112
 431  1382.162
 432  1375.061
 433  1420.426
 434  1288.437
 435  1236.232
 436  1317.648
 437  1401.376
 438  1483.9
 439  1491.494
 440  1557.11
 441  1615.925
 442  1595.196
 443  1509.963
 444  1435.675
 445  1405.621
 446  1493.098
 447  1475.461
 448  1450.287
 449  1420.34
 450  1556.937
 451  1609.465
 452  1611.925
 453  1546.849
 454  1526.163
 455  1416.315
 456  1213.558
 457  1149.946
 458  1250.67
 459  1338.913
 460  1505.13
 461  1400.069
 462  1361.981
 463  1297.467
 464  1298.223
 465  1289.492
 466  1264.363
 467  1353.834
 468  1304.944
 469  1209.825
 470  1149.154
 471  1160.443
 472  1172.144
 473  1249.945
 474  1330.768
 475  1294.509
 476  1351.742
 477  1305.596
 478  1300.693
 479  1192.464
 480  1206.355
 481  1184.635
 482  1217.901
 483  1267.297
 484  1275.417
 485  1242.314
 486  1235.201
 487  1235.417
 488  1246.856
 489  1211.238
 490  1272.056
 491  1397.509
 492  1440.86
 493  1389.771
 494  1357.967
 495  1387.562
 496  1376.336
 497  1249.956
 498  1228.294
 499  1145.848
 500  1106.71
 501  1130.137
 502  1199.542
 503  1333.459
 504  1235.869
 505  1285.774
 506  1291.657
 507  1331.936
 508  1328.156
 509  1297.903
 510  1294.201
 511  1355.076
 512  1301.394
 513  1201.362
 514  1124.619
 515  1203.825
 516  1244.884
 517  1232.439
 518  1206.987
 519  1122.241
 520  1110.558
 521  1147.773
 522  1185.598
 523  1268.151
 524  1346.285
 525  1305.231
 526  1274.182
 527  1267.351
 528  1306.939
 529  1183.047
 530  1184.219
 531  1137.96
 532  1178.609
 533  1189.756
 534  1211.68
 535  1173.807
 536  1280.278
 537  1297.178
 538  1317.04
 539  1327.056
 540  1397.936
 541  1444.632
 542  1329.277
 543  1310.803
 544  1183.327
 545  1254.777
 546  1259.834
 547  1256.61
 548  1300.12
 549  1252.388
 550  1362.13
 551  1403.84
 552  1575.598
 553  1552.395
 554  1602.107
 555  1537.983
 556  1630.587
 557  1463.176
 558  1454.359
 559  1360.755
 560  1380.79
 561  1306.104
 562  1240.7
 563  1260.93
 564  1225.802
 565  1262.594
 566  1138.174
 567  1131.779
 568  1135.528
 569  1204.826
 570  1155.393
 571  1229.627
 572  1295.654
 573  1329.764
 574  1182.915
 575  1098.535
 576  1138.077
 577  1160.082
 578  1213.653
 579  1167.566
 580  1103.465
 581  1050.565
 582  1115.848
 583  1207.376
 584  1218.247
 585  1131.356
 586  1143.384
 587  1147.517
 588  1174.314
 589  1178.736
 590  1224.262
 591  1308.508
 592  1229.925
 593  1201.95
 594  1274.99
 595  1282.183
 596  1313.095
 597  1388.632
 598  1377.677
 599  1379.244
 600  1359.048
 601  1406.368
 602  1458.741
 603  1365.613
 604  1363.054
 605  1325.48
 606  1460.492
 607  1543.631
 608  1585.377
 609  1423.862
 610  1282.051
 611  1222.868
 612  1319.976
 613  1334.845
 614  1218.33
 615  1059.125
 616  1127.785
 617  1278.717
 618  1403.903
 619  1424.379
 620  1365.962
 621  1307.069
 622  1189.622
 623  1210.524
 624  1254.813
 625  1319.795
 626  1327.354
 627  1338.937
 628  1213.609
 629  1124.133
 630  1015.745
 631  1079.068
 632  1189.646
 633  1349.477
 634  1404.678
 635  1381.024
 636  1416.626
 637  1496.292
 638  1551.2
 639  1632.333
 640  1656.672
 641  1572.313
 642  1480.283
 643  1468.424
 644  1526.7
 645  1712.571
 646  1894.995
 647  2031.632
 648  2082.182
 649  2054.459
 650  2045.194
 651  2027.124
 652  1995.752
 653  1970.25
 654  1819.908
 655  1649.199
 656  1506.773
 657  1407.327
 658  1378.143
 659  1366.076
 660  1273.485
 661  1235.345
 662  1259.847
 663  1354.633
 664  1430.544
 665  1321.322
 666  1343.878
 667  1400.756
 668  1363.965
 669  1359.455
 670  1371.255
 671  1322.432
 672  1354.025
 673  1229.163
 674  1310.177
 675  1409.741
 676  1558.037
 677  1636.37
 678  1510.661
 679  1405.389
 680  1440.646
 681  1458.379
 682  1445.24
 683  1404.139
 684  1416.45
 685  1502.811
 686  1594.052
 687  1641.849
 688  1774.562
 689  1707.639
 690  1699.637
 691  1676.837
 692  1674.161
 693  1599.78
 694  1594.134
 695  1554.716
 696  1556.121
 697  1523.096
 698  1573.624
 699  1593.651
 700  1454.764
 701  1443.136
 702  1429.865
 703  1459.973
 704  1427.537
 705  1505.497
 706  1430.532
 707  1365.549
 708  1355.7
 709  1358.965
 710  1414.948
 711  1424.898
 712  1532.853
 713  1552.144
 714  1463.542
 715  1405.393
 716  1405.227
 717  1457.034
 718  1539.306
 719  1528.066
 720  1422.654
 721  1461.1
 722  1591.941
 723  1600.418
 724  1616.257
 725  1540.426
 726  1595.016
 727  1536.057
 728  1488.437
 729  1414.513
 730  1390.567
 731  1515.259
 732  1649.972
 733  1752.193
 734  1775.286
 735  1788.22
 736  1786.548
 737  1745.347
 738  1637.763
 739  1618.961
 740  1577.316
 741  1601.881
 742  1677.006
 743  1738.715
 744  1716.742
 745  1678.916
 746  1771.143
 747  1845.473
 748  1780.356
 749  1685.362
 750  1733.295
 751  1767.423
 752  1797.926
 753  1807.464
 754  1862.716
 755  1858.987
 756  1750.251
 757  1673.26
 758  1660.988
 759  1692.871
 760  1578.888
 761  1569.953
 762  1586.934
 763  1644.55
 764  1685.138
 765  1692.114
 766  1726.711
 767  1827.773
 768  1732.168
 769  1709.792
 770  1634.211
 771  1730.222
 772  1708.801
 773  1602.075
 774  1537.208
 775  1507.89
 776  1524.451
 777  1520.399
 778  1413.734
 779  1459.172
 780  1487.412
 781  1585.753
 782  1617.17
 783  1593.699
 784  1549.625
 785  1528.038
 786  1570.056
 787  1565.68
 788  1520.489
 789  1480.545
 790  1409.558
 791  1398.111
 792  1410.559
 793  1439.457
 794  1428.456
 795  1486.84
 796  1524.367
 797  1542.996
 798  1460.766
 799  1413.869
 800  1520.876
 801  1562.896
 802  1514.756
 803  1440.899
 804  1439.835
 805  1440.726
 806  1507.539
 807  1646.366
 808  1644.799
 809  1534.853
 810  1348.305
 811  1220.955
 812  1188.562
 813  1315.521
 814  1406.881
 815  1454.76
 816  1464.088
 817  1518.744
 818  1552.367
 819  1579.264
 820  1605.615
 821  1570.31
 822  1556.648
 823  1516.085
 824  1518.658
 825  1518.136
 826  1602.625
 827  1709.525
 828  1700.136
 829  1612.407
 830  1545.197
 831  1561.928
 832  1617.095
 833  1655.864
 834  1664.658
 835  1634.252
 836  1635.339
 837  1533.391
 838  1509.545
 839  1554.277
 840  1578.197
 841  1670.704
 842  1784.84
 843  1836.764
 844  1694.546
 845  1761.557
 846  1776.037
 847  1759.713
 848  1522.097
 849  1608.914
 850  1721.916
 851  1781.269
 852  1735.802
 853  1662.097
 854  1770.604
 855  1805.411
 856  1796.547
 857  1717.381
 858  1711.939
 859  1749.107
 860  1811.344
 861  1842.667
 862  1825.561
 863  1766.212
 864  1763.073
 865  1753.627
 866  1860.051
 867  1827.622
 868  1842.594
 869  1844.413
 870  1775.426
 871  1868.145
 872  1756.038
 873  1789.512
 874  1767.313
 875  1833.447
 876  1926.044
 877  1858.589
 878  1757.63
 879  1677.427
 880  1687.406
 881  1703.273
 882  1735.117
 883  1812.383
 884  1846.839
 885  1780.897
 886  1747.752
 887  1813.054
 888  1782.548
 889  1679.273
 890  1634.169
 891  1666.374
 892  1670.236
 893  1663.749
 894  1676.729
 895  1711.178
 896  1691.941
 897  1643.162
 898  1698.254
 899  1689.218
 900  1734.455
 901  1696.738
 902  1647.254
 903  1672.008
 904  1650.518
 905  1671.534
 906  1615.085
 907  1639.87
 908  1627.453
 909  1714.16
 910  1704.177
 911  1685.562
 912  1581.228
 913  1633.518
 914  1761.076
 915  1779.558
 916  1743.235
 917  1709.623
 918  1683.04
 919  1713.619
 920  1719.352
 921  1828.108
 922  1803.083
 923  1808.459
 924  1765.065
 925  1789.716
 926  1827.377
 927  1886.177
 928  1836.3
 929  1747.592
 930  1695.84
 931  1679.87
 932  1700.583
 933  1623.169
 934  1540.6
 935  1500.46
 936  1571.18
 937  1574.191
 938  1605.637
 939  1655.416
 940  1662.17
 941  1670.903
 942  1730.362
 943  1771.596
 944  1688.545
 945  1626.455
 946  1621.417
 947  1486.471
 948  1378.713
 949  1409.273
 950  1512.876
 951  1576.584
 952  1527.932
 953  1647.238
 954  1652.669
 955  1683.601
 956  1636.728
 957  1677.48
 958  1714.455
 959  1649.674
 960  1619.078
 961  1535.339
 962  1506.723
 963  1513.65
 964  1631.44
 965  1647.943
 966  1553.911
 967  1606.336
 968  1769.007
 969  1751.12
 970  1643.392
 971  1606.667
 972  1604.701
 973  1603.544
 974  1680.548
 975  1604.329
 976  1494.643
 977  1418.466
 978  1500.453
 979  1552.418
 980  1554.951
 981  1734.698
 982  1834.702
 983  1829.518
 984  1805.464
 985  1845.712
 986  1869.384
 987  1931.407
 988  1901.941
 989  1896.045
 990  1791.986
 991  1730.595
 992  1782.388
 993  1716.449
 994  1730.07
 995  1633.454
 996  1601.854
 997  1568.496
 998  1594.616
 999  1691.812
1000  1763.024
1001  1822.886
1002  1822.452
1003  1831.268
1004  1840.992
1005  1932.148
1006  1875.548
1007  1754.238
1008  1733.533
1009  1682.439
1010  1714.597
1011  1630.847
1012  1679.768
1013  1605.98
1014  1623.321
1015  1600.346
1016  1722.558
1017  1885.848
1018  1978.79
1019  1989.077
1020  1890.607
1021  1821.721
1022  1852.839
1023  1907.192
