# Input file       =  1185004668.102813_cleaned.dat
# Candidate        =  PSR_0332+5434
# Telescope        =  AR
# Epoch_topo       =  57959.332026652926
# Epoch_bary       =  N/A
# T_sample         =  0.002
# Data Folded      =  7340032
# Data Avg         =  0.195991736495801
# Data StdDev      =  4.38772757645758 
# Profile Bins     =  1024
# Profile Avg      =  1404.89876249163 
# Profile StdDev   =  371.482751616221 
# Reduced chi-sqr  =  0.686
# Prob(Noise)      <  1   (~0.0 sigma)
# P_topo (ms)      =  714.473036725059  +/- 0.000502
# P'_topo (s/s)    =  -0                +/- 2.65e-10
# P''_topo (s/s^2) =  0                 +/- 1.17e-13
# P_bary (ms)      =  N/A
# P'_bary (s/s)    =  N/A
# P''_bary (s/s^2) =  N/A
# P_orb (s)        =  N/A
# asin(i)/c (s)    =  N/A
# eccentricity     =  N/A
# w (rad)          =  N/A
# T_peri           =  N/A
######################################################
   0  1420.542
   1  1487.174
   2  1603.462
   3  1571.324
   4  1544.998
   5  1572.57
   6  1652.61
   7  1580.478
   8  1407.512
   9  1429.048
  10  1461.811
  11  1464.087
  12  1457.838
  13  1490.78
  14  1494.758
  15  1473.321
  16  1380.869
  17  1428.065
  18  1489.822
  19  1532.887
  20  1456.41
  21  1413.469
  22  1484.133
  23  1563.182
  24  1509.37
  25  1526.316
  26  1563.092
  27  1472.992
  28  1367.44
  29  1336.299
  30  1426.198
  31  1475.346
  32  1490.776
  33  1481.148
  34  1291.525
  35  1167.115
  36  1175.21
  37  1315.521
  38  1357.179
  39  1326.01
  40  1275.402
  41  1224.115
  42  1224.074
  43  1161.663
  44  1272.585
  45  1177.279
  46  1258.21
  47  1399.179
  48  1492.771
  49  1464.243
  50  1466.552
  51  1513.556
  52  1538.242
  53  1529.378
  54  1518.207
  55  1455.45
  56  1300.833
  57  1306.709
  58  1382.243
  59  1329.023
  60  1178.878
  61  1020.706
  62  1017.475
  63  1144.614
  64  1299.565
  65  1525.792
  66  1620.617
  67  1530.59
  68  1493.658
  69  1413.948
  70  1501.949
  71  1566.219
  72  1584.136
  73  1485.203
  74  1325.166
  75  1262.747
  76  1254.983
  77  1265.272
  78  1335.192
  79  1376.304
  80  1566.471
  81  1717.196
  82  1792.306
  83  1725.666
  84  1598.198
  85  1557.881
  86  1443.428
  87  1555.538
  88  1696.063
  89  1633.197
  90  1483.956
  91  1330.66
  92  1417.516
  93  1424.615
  94  1515.82
  95  1570.306
  96  1617.213
  97  1614.152
  98  1688.625
  99  1547.796
 100  1594.945
 101  1544.969
 102  1646.195
 103  1497.686
 104  1362.233
 105  1281.399
 106  1332.481
 107  1393.223
 108  1443.522
 109  1471.77
 110  1547.64
 111  1625.58
 112  1686.625
 113  1772.285
 114  1769.316
 115  1694.43
 116  1566.101
 117  1655.281
 118  1661.016
 119  1639.295
 120  1538.45
 121  1633.956
 122  1720.728
 123  1758.173
 124  1579.872
 125  1571.46
 126  1519.466
 127  1482.629
 128  1445.885
 129  1509.902
 130  1562.238
 131  1473.341
 132  1445.348
 133  1482.455
 134  1587.821
 135  1629.541
 136  1630.407
 137  1553.968
 138  1423.825
 139  1386.118
 140  1420.671
 141  1517.781
 142  1555.263
 143  1700.122
 144  1702.261
 145  1577.512
 146  1461.121
 147  1523.536
 148  1665.354
 149  1669.595
 150  1634.149
 151  1526.282
 152  1480.284
 153  1454.514
 154  1458.922
 155  1540
 156  1655.249
 157  1766.68
 158  1737.642
 159  1519.767
 160  1418.727
 161  1448.079
 162  1456.146
 163  1517.731
 164  1502.194
 165  1574.38
 166  1471.347
 167  1414.807
 168  1437.537
 169  1415.328
 170  1387.989
 171  1391.22
 172  1503.228
 173  1625.189
 174  1558.275
 175  1524.161
 176  1486.249
 177  1421.225
 178  1368.673
 179  1245.198
 180  1160.286
 181  1290.298
 182  1457.463
 183  1672.626
 184  1603.205
 185  1619.202
 186  1465.578
 187  1366.484
 188  1290.235
 189  1324.17
 190  1426.57
 191  1415.028
 192  1383.972
 193  1295.548
 194  1326.793
 195  1413.105
 196  1512.295
 197  1583.506
 198  1568.659
 199  1672.319
 200  1686.203
 201  1598.643
 202  1582.188
 203  1489.902
 204  1512.443
 205  1516.244
 206  1548.747
 207  1510.814
 208  1641.26
 209  1644.863
 210  1584.723
 211  1336.322
 212  1384.572
 213  1464.319
 214  1561.865
 215  1558.653
 216  1572.855
 217  1505.099
 218  1514.058
 219  1482.964
 220  1522.904
 221  1443.676
 222  1364.656
 223  1380.255
 224  1453.784
 225  1363.102
 226  1331.119
 227  1393.187
 228  1526.778
 229  1509.787
 230  1449.511
 231  1435.641
 232  1486.668
 233  1542.488
 234  1499.046
 235  1448.114
 236  1354.987
 237  1390.411
 238  1493.777
 239  1525.9
 240  1581.326
 241  1489.98
 242  1407.203
 243  1405.78
 244  1326.196
 245  1372.098
 246  1289.899
 247  1212.486
 248  1102.978
 249  1048.829
 250  1139.177
 251  1279.506
 252  1322.395
 253  1430.651
 254  1554.163
 255  1627.162
 256  1587.058
 257  1442.239
 258  1273.396
 259  1348.081
 260  1351.194
 261  1478.51
 262  1420.406
 263  1454.349
 264  1451.093
 265  1471.053
 266  1470.661
 267  1440.058
 268  1497.036
 269  1482.103
 270  1464.16
 271  1352.486
 272  1486.185
 273  1548.376
 274  1648.644
 275  1555.474
 276  1654.499
 277  1696.389
 278  1613.893
 279  1454.708
 280  1438.767
 281  1551.864
 282  1439.147
 283  1400.984
 284  1463.552
 285  1402.932
 286  1247.722
 287  1119.017
 288  1388.683
 289  1451.483
 290  1522.476
 291  1573.226
 292  1631.797
 293  1518.458
 294  1422.753
 295  1505.318
 296  1554.755
 297  1540.656
 298  1381.807
 299  1320.056
 300  1248.235
 301  1248.517
 302  1395.59
 303  1505.167
 304  1542.748
 305  1542.503
 306  1567.27
 307  1539.286
 308  1505.243
 309  1457.171
 310  1482.145
 311  1451.382
 312  1408.422
 313  1377.177
 314  1342.6
 315  1439.171
 316  1520.783
 317  1566.846
 318  1531.072
 319  1468.537
 320  1353.753
 321  1355.684
 322  1360.113
 323  1445.368
 324  1470.224
 325  1598.85
 326  1538.41
 327  1545.383
 328  1440.368
 329  1415.548
 330  1332.542
 331  1429.669
 332  1459.833
 333  1544.611
 334  1570.971
 335  1595.893
 336  1593.286
 337  1530.63
 338  1514.696
 339  1457.064
 340  1486.156
 341  1553.586
 342  1650.067
 343  1653.999
 344  1600.404
 345  1499.529
 346  1532.45
 347  1619.208
 348  1721.682
 349  1645.72
 350  1497.408
 351  1463.896
 352  1603.112
 353  1697.103
 354  1619.404
 355  1532.456
 356  1561.824
 357  1462.687
 358  1299.001
 359  1267.986
 360  1450.139
 361  1543.907
 362  1616.622
 363  1664.432
 364  1627.432
 365  1460.096
 366  1242.724
 367  1356.905
 368  1434.769
 369  1556.302
 370  1479.746
 371  1345.106
 372  1264.314
 373  1171.222
 374  1211.9
 375  1217.196
 376  1353.69
 377  1438.512
 378  1452.472
 379  1452.435
 380  1435.378
 381  1358.531
 382  1381.555
 383  1504.35
 384  1530.734
 385  1465.459
 386  1436.057
 387  1352.036
 388  1427.535
 389  1359.625
 390  1323.448
 391  1118.571
 392  1010.227
 393  1047.275
 394  1092.768
 395  1165.187
 396  1221.549
 397  1341.987
 398  1456.862
 399  1390.475
 400  1379.487
 401  1457.793
 402  1535.723
 403  1623.755
 404  1575.667
 405  1441.377
 406  1364.223
 407  1263.873
 408  1294.27
 409  1317.159
 410  1378.715
 411  1490.089
 412  1444.549
 413  1551.965
 414  1530.72
 415  1616.322
 416  1505.084
 417  1386.603
 418  1378.013
 419  1452.085
 420  1424.467
 421  1334.086
 422  1234.829
 423  1156.79
 424  1115.451
 425  1101.443
 426  1175.539
 427  1145.809
 428  1160.845
 429  1098.412
 430  1148.817
 431  1259.985
 432  1410.533
 433  1473.753
 434  1433.111
 435  1298.972
 436  1119.227
 437  1136.334
 438  1206.325
 439  1392.164
 440  1389.883
 441  1322.368
 442  1267.135
 443  1281.84
 444  1384.789
 445  1521.148
 446  1510.381
 447  1538.073
 448  1524.872
 449  1491.621
 450  1446.729
 451  1583.519
 452  1570.822
 453  1514.136
 454  1357.091
 455  1341.406
 456  1229.861
 457  1220.57
 458  1270.423
 459  1312.712
 460  1331.087
 461  1325.145
 462  1143.173
 463  1004.652
 464  992.344
 465  1107.231
 466  1302.134
 467  1413.194
 468  1492.134
 469  1523.441
 470  1504.194
 471  1418.102
 472  1335.585
 473  1323.737
 474  1383.652
 475  1461.421
 476  1499.199
 477  1379.842
 478  1373.968
 479  1432.806
 480  1540.588
 481  1559.353
 482  1632.813
 483  1776.617
 484  1820.997
 485  1732.937
 486  1596.474
 487  1429.849
 488  1358.244
 489  1237.218
 490  1144.957
 491  1093.477
 492  1028.791
 493  1092.152
 494  1082.172
 495  1199.513
 496  1252.24
 497  1320.373
 498  1374.681
 499  1286.179
 500  1214.88
 501  1075.185
 502  1046.872
 503  1154.508
 504  1171.681
 505  1208.781
 506  1206.666
 507  1335.279
 508  1341.256
 509  1508.511
 510  1521.84
 511  1492.322
 512  1165.811
 513  1173.384
 514  1268.787
 515  1466.443
 516  1421.84
 517  1298.891
 518  1135.615
 519  1130.451
 520  1226.022
 521  1266.411
 522  1256.519
 523  1283.069
 524  1225.521
 525  1274.109
 526  1366.979
 527  1493.183
 528  1475.401
 529  1493.051
 530  1411.981
 531  1300.962
 532  1185.387
 533  1195.02
 534  1272.658
 535  1257.894
 536  1265.725
 537  1235.086
 538  1235.764
 539  1150.568
 540  1153.588
 541  1219.549
 542  1377.488
 543  1335.141
 544  1265.638
 545  1260.38
 546  1323.842
 547  1379.47
 548  1477.204
 549  1402.455
 550  1488.665
 551  1430.658
 552  1562.772
 553  1483.05
 554  1385.8
 555  1385.727
 556  1409.372
 557  1477.062
 558  1426.001
 559  1451.583
 560  1485.275
 561  1382.685
 562  1458.801
 563  1456.666
 564  1512.528
 565  1449.991
 566  1546.976
 567  1552.154
 568  1669.195
 569  1677.923
 570  1539.198
 571  1407.494
 572  1298.27
 573  1327.237
 574  1293.546
 575  1328.039
 576  1349.314
 577  1465.843
 578  1513.381
 579  1605.262
 580  1638.902
 581  1702.776
 582  1642.294
 583  1637.323
 584  1710.63
 585  1582.437
 586  1396.247
 587  1203.927
 588  1152.399
 589  1201.867
 590  1319.404
 591  1389.106
 592  1202.674
 593  1145.84
 594  1253.386
 595  1351.921
 596  1432.701
 597  1364.337
 598  1312.604
 599  1244.334
 600  1262.456
 601  1288.43
 602  1197.911
 603  1170.984
 604  1262.938
 605  1280.713
 606  1300.228
 607  1318.76
 608  1315.873
 609  1245.722
 610  1306.22
 611  1393.472
 612  1531.649
 613  1488.925
 614  1537.431
 615  1616.527
 616  1721.318
 617  1684.158
 618  1667.41
 619  1721.255
 620  1717.477
 621  1518.846
 622  1489.053
 623  1422.412
 624  1515.516
 625  1510.472
 626  1570.309
 627  1528.86
 628  1530.789
 629  1565.262
 630  1563.455
 631  1441.695
 632  1353.456
 633  1376.031
 634  1634.148
 635  1770.161
 636  1763.565
 637  1611.142
 638  1634.19
 639  1708.906
 640  1692.786
 641  1684.954
 642  1589.052
 643  1603.769
 644  1549.493
 645  1646.929
 646  1694.764
 647  1963.7
 648  2014.8
 649  2014.262
 650  1828.941
 651  1752.928
 652  1861.915
 653  1872.958
 654  1895.939
 655  1890.826
 656  1760.253
 657  1650.395
 658  1387.529
 659  1329.405
 660  1123.971
 661  1023.175
 662  1033.98
 663  1145.596
 664  1351.791
 665  1402.123
 666  1386.834
 667  1321.438
 668  1319.88
 669  1318.502
 670  1265.3
 671  1170.377
 672  1332.689
 673  1344.929
 674  1475.861
 675  1376.314
 676  1457.655
 677  1316.688
 678  1243.76
 679  1236.911
 680  1327.726
 681  1404.311
 682  1369.353
 683  1438.725
 684  1578.125
 685  1522.359
 686  1373.934
 687  1201.691
 688  1200.942
 689  1224.631
 690  1264.761
 691  1328.775
 692  1297.348
 693  1231.039
 694  1127.973
 695  1100.585
 696  1127.613
 697  1268.936
 698  1252.435
 699  1224.451
 700  1294.415
 701  1357.864
 702  1358.339
 703  1288.183
 704  1265.421
 705  1258.826
 706  1142.417
 707  1070.069
 708  1045.258
 709  972.9553
 710  1023.304
 711  963.1346
 712  1018.33
 713  951.6635
 714  979.759
 715  1149.899
 716  1230.208
 717  1272.764
 718  1189.798
 719  1157.594
 720  1177.743
 721  1288.426
 722  1355.625
 723  1256.737
 724  1200.421
 725  1211.626
 726  1275.712
 727  1296.135
 728  1260.898
 729  1219.839
 730  1081.127
 731  1047.136
 732  972.9424
 733  993.1078
 734  986.4885
 735  1114.968
 736  1250.356
 737  1337.994
 738  1260.708
 739  1169.667
 740  1139.511
 741  1260.88
 742  1266.535
 743  1232.395
 744  1122.493
 745  1173.702
 746  1360.89
 747  1418.494
 748  1430.641
 749  1351.136
 750  1297.372
 751  1167.343
 752  1227.006
 753  1236.846
 754  1321.524
 755  1284.388
 756  1333.85
 757  1382.991
 758  1424.475
 759  1384.655
 760  1421.544
 761  1492.117
 762  1459.417
 763  1418.218
 764  1324.576
 765  1237.148
 766  1074.282
 767  1125.016
 768  1147.888
 769  1111.189
 770  1107.515
 771  1140.091
 772  1203.359
 773  1239.362
 774  1296.88
 775  1315.259
 776  1352.764
 777  1422.938
 778  1594.585
 779  1534.073
 780  1483.253
 781  1308.46
 782  1312.455
 783  1341.398
 784  1403.93
 785  1325.694
 786  1422.426
 787  1421.476
 788  1539.652
 789  1440.052
 790  1537.623
 791  1574.972
 792  1591.957
 793  1611.484
 794  1468.794
 795  1399.976
 796  1384.513
 797  1421.145
 798  1417.554
 799  1450.568
 800  1399.698
 801  1433.459
 802  1438.006
 803  1501.956
 804  1401.498
 805  1505.913
 806  1558.642
 807  1491.051
 808  1377.057
 809  1279.78
 810  1284.868
 811  1268.689
 812  1273.188
 813  1280.733
 814  1366.752
 815  1489.462
 816  1466.02
 817  1359.475
 818  1166.818
 819  1203.715
 820  1175.828
 821  1145.11
 822  1101.833
 823  1135.643
 824  1134.836
 825  1130.464
 826  1134.132
 827  1045.335
 828  1034.632
 829  1050.98
 830  1062.01
 831  1079.043
 832  1032.382
 833  1003.61
 834  981.2244
 835  1127.897
 836  1176.072
 837  1159.447
 838  918.4948
 839  954.6833
 840  1035.757
 841  1265.805
 842  1258.649
 843  1257.587
 844  1178.906
 845  1279.699
 846  1303.22
 847  1365.299
 848  1385.023
 849  1248.552
 850  1212.097
 851  1299.459
 852  1481.306
 853  1471.017
 854  1342.033
 855  1416.898
 856  1599.714
 857  1653.244
 858  1593.049
 859  1406.722
 860  1387.705
 861  1402.686
 862  1358.884
 863  1369.844
 864  1375.583
 865  1352.984
 866  1347.272
 867  1449.676
 868  1566.705
 869  1484.448
 870  1492.45
 871  1558.288
 872  1713.008
 873  1696.279
 874  1714.698
 875  1573.942
 876  1509.318
 877  1492.6
 878  1511.886
 879  1480.912
 880  1383.371
 881  1340.187
 882  1362.573
 883  1405.958
 884  1429.498
 885  1473.389
 886  1499.672
 887  1435.479
 888  1407.936
 889  1378.016
 890  1354.602
 891  1278.146
 892  1307.691
 893  1388.019
 894  1436.012
 895  1420.709
 896  1322.382
 897  1317.195
 898  1361.884
 899  1457.447
 900  1455.969
 901  1464.085
 902  1430.838
 903  1382.967
 904  1309.505
 905  1284.603
 906  1289.278
 907  1386.852
 908  1456.47
 909  1440.286
 910  1337.789
 911  1410.821
 912  1464.945
 913  1406.223
 914  1337.016
 915  1405.645
 916  1498.187
 917  1551.881
 918  1509.702
 919  1502.786
 920  1361.964
 921  1517.636
 922  1546.843
 923  1556.17
 924  1418.528
 925  1378.936
 926  1413.223
 927  1419.354
 928  1449.781
 929  1369.615
 930  1247.688
 931  1259.578
 932  1333.681
 933  1354.354
 934  1291.451
 935  1243.353
 936  1365.337
 937  1443.62
 938  1503.814
 939  1479.099
 940  1427.467
 941  1414.833
 942  1350.045
 943  1219.453
 944  1073.232
 945  1247.498
 946  1298.975
 947  1380.373
 948  1374.909
 949  1512.391
 950  1510.522
 951  1396.539
 952  1277.089
 953  1347.241
 954  1378.435
 955  1423.917
 956  1410.787
 957  1285.956
 958  1227.215
 959  1236.786
 960  1402.506
 961  1469.601
 962  1389.459
 963  1363.519
 964  1417.545
 965  1476.953
 966  1419.028
 967  1209.247
 968  1027.497
 969  1127.276
 970  1201.933
 971  1320.087
 972  1257.706
 973  1268.646
 974  1273.352
 975  1306.717
 976  1402.363
 977  1404.708
 978  1447.851
 979  1528.154
 980  1593.036
 981  1592.724
 982  1542.776
 983  1542.059
 984  1456.42
 985  1454.345
 986  1281.08
 987  1144.818
 988  1003.517
 989  1122.579
 990  1282.091
 991  1397.525
 992  1527.279
 993  1580.255
 994  1547.995
 995  1578.645
 996  1562.676
 997  1536.19
 998  1546.332
 999  1627.187
1000  1575.76
1001  1452.982
1002  1312.454
1003  1238.695
1004  1309.483
1005  1386.689
1006  1514.87
1007  1581.915
1008  1573.958
1009  1681.598
1010  1667.531
1011  1687.605
1012  1599.803
1013  1605.889
1014  1568.598
1015  1433.223
1016  1355.739
1017  1270.716
1018  1283.936
1019  1239.371
1020  1247.874
1021  1275.83
1022  1364.72
1023  1432.084
