# Input file       =  1185177007.112782_cleaned.dat
# Candidate        =  PSR_0332+5434
# Telescope        =  AR
# Epoch_topo       =  57961.326691120164
# Epoch_bary       =  N/A
# T_sample         =  0.002
# Data Folded      =  7340032
# Data Avg         =  0.0477751408642317
# Data StdDev      =  1.00019595479653 
# Profile Bins     =  512
# Profile Avg      =  684.716846630604 
# Profile StdDev   =  119.756498639547 
# Reduced chi-sqr  =  1.243
# Prob(Noise)      <  0.000142   (~3.6 sigma)
# P_topo (ms)      =  714.472007311528  +/- 0.000377
# P'_topo (s/s)    =  -0                +/- 1.99e-10
# P''_topo (s/s^2) =  0                 +/- 8.78e-14
# P_bary (ms)      =  N/A
# P'_bary (s/s)    =  N/A
# P''_bary (s/s^2) =  N/A
# P_orb (s)        =  N/A
# asin(i)/c (s)    =  N/A
# eccentricity     =  N/A
# w (rad)          =  N/A
# T_peri           =  N/A
######################################################
   0  659.7544
   1  692.0504
   2  748.3432
   3  805.7656
   4  787.0906
   5  672.2401
   6  627.5287
   7  739.6088
   8  731.8358
   9  791.0829
  10  792.1009
  11  829.3521
  12  667.886
  13  754.8342
  14  708.4108
  15  659.5036
  16  613.6551
  17  664.6459
  18  688.7259
  19  782.9795
  20  787.3605
  21  885.2388
  22  980.6587
  23  1096.034
  24  1095.416
  25  1128.342
  26  1152.725
  27  1072.734
  28  1001.826
  29  820.0595
  30  808.6188
  31  651.0879
  32  623.5377
  33  826.7938
  34  885.0646
  35  712.3812
  36  713.5385
  37  765.6512
  38  808.3458
  39  819.8909
  40  809.1493
  41  866.0181
  42  723.2298
  43  672.905
  44  648.7728
  45  678.4114
  46  751.9637
  47  857.5633
  48  934.8107
  49  885.3686
  50  659.2028
  51  688.3114
  52  584.5228
  53  578.7996
  54  663.0343
  55  787.1218
  56  734.4601
  57  564.381
  58  614.3372
  59  607.9791
  60  522.4016
  61  643.9804
  62  684.5405
  63  717.9952
  64  651.5732
  65  543.3694
  66  613.6386
  67  741.2918
  68  783.83
  69  748.0198
  70  691.3411
  71  668.0261
  72  667.8359
  73  688.0944
  74  713.4422
  75  755.7332
  76  790.4027
  77  702.515
  78  758.4959
  79  726.7326
  80  661.3483
  81  659.329
  82  795.538
  83  708.2028
  84  667.4002
  85  617.4123
  86  561.5527
  87  588.1207
  88  600.3735
  89  755.1772
  90  654.1218
  91  712.7044
  92  669.3281
  93  682.1223
  94  607.3806
  95  614.1456
  96  614.0607
  97  569.5642
  98  667.6547
  99  649.7936
 100  590.9197
 101  570.3534
 102  652.9171
 103  537.5227
 104  553.7119
 105  550.5331
 106  561.8
 107  545.4432
 108  507.1669
 109  517.374
 110  701.5005
 111  709.1712
 112  586.7647
 113  468.0272
 114  656.6768
 115  618.0627
 116  469.4513
 117  561.3358
 118  564.5637
 119  597.8271
 120  627.5701
 121  615.8755
 122  592.4116
 123  635.5327
 124  749.2293
 125  693.5415
 126  718.8568
 127  683.0408
 128  562.8066
 129  593.9794
 130  736.3444
 131  680.1072
 132  567.5739
 133  622.6321
 134  622.1323
 135  682.3599
 136  577.0164
 137  560.1348
 138  501.7374
 139  412.0676
 140  511.634
 141  639.7069
 142  699.5082
 143  651.6021
 144  521.829
 145  611.4276
 146  590.1153
 147  592.7216
 148  608.0612
 149  583.3438
 150  597.3597
 151  580.0423
 152  714.1067
 153  676.8135
 154  549.5083
 155  478.6946
 156  517.2108
 157  574.7691
 158  556.9141
 159  552.8752
 160  590.1193
 161  602.176
 162  648.043
 163  629.6578
 164  644.0679
 165  728.0096
 166  705.6676
 167  604.1247
 168  600.7469
 169  649.9641
 170  635.9976
 171  560.1425
 172  569.4061
 173  569.6139
 174  672.615
 175  575.0281
 176  593.4388
 177  719.0261
 178  788.2647
 179  627.8486
 180  582.6169
 181  522.3861
 182  525.1923
 183  550.4249
 184  636.0888
 185  706.6349
 186  627.8509
 187  608.2466
 188  621.7802
 189  644.7226
 190  712.9534
 191  706.1889
 192  713.7222
 193  711.7423
 194  655.5148
 195  712.1204
 196  731.4567
 197  820.7497
 198  870.5905
 199  687.7281
 200  507.4624
 201  608.297
 202  691.241
 203  658.882
 204  596.1993
 205  601.189
 206  687.341
 207  633.9542
 208  685.7548
 209  697.0181
 210  664.7183
 211  677.5004
 212  614.2656
 213  581.5623
 214  560.1807
 215  626.3966
 216  671.3059
 217  683.053
 218  640.4789
 219  696.7346
 220  683.1522
 221  575.3831
 222  598.6609
 223  658.0491
 224  565.8764
 225  549.0612
 226  627.147
 227  583.0457
 228  636.7844
 229  569.5706
 230  541.4277
 231  551.7797
 232  592.0311
 233  578.2417
 234  512.6045
 235  505.0155
 236  624.9853
 237  698.7224
 238  607.5854
 239  695.5862
 240  637.0504
 241  657.2377
 242  642.9113
 243  732.8582
 244  703.488
 245  671.1754
 246  653.8005
 247  742.7654
 248  739.3798
 249  636.0307
 250  692.9086
 251  766.9965
 252  712.5929
 253  588.7805
 254  573.4553
 255  665.8608
 256  555.8972
 257  461.4247
 258  664.928
 259  699.0645
 260  714.9288
 261  574.0108
 262  667.059
 263  640.4195
 264  679.3652
 265  623.6756
 266  579.3139
 267  599.9553
 268  693.1168
 269  649.6473
 270  707.6504
 271  701.2252
 272  741.8784
 273  821.9449
 274  754.0472
 275  730.1572
 276  743.814
 277  747.9297
 278  810.1403
 279  793.9568
 280  784.3481
 281  775.8292
 282  726.697
 283  719.3242
 284  709.5427
 285  524.3331
 286  631.131
 287  709.4681
 288  559.1033
 289  522.7135
 290  569.8301
 291  713.902
 292  665.7559
 293  575.6465
 294  575.3008
 295  577.2404
 296  606.0049
 297  643.0565
 298  734.1523
 299  688.6785
 300  662.7175
 301  672.9321
 302  715.447
 303  741.5779
 304  710.0219
 305  751.5768
 306  759.6335
 307  785.605
 308  784.8964
 309  739.9058
 310  695.5258
 311  796.8973
 312  772.8216
 313  695.7763
 314  628.5373
 315  574.7155
 316  812.6238
 317  777.9337
 318  813.3723
 319  801.9439
 320  718.1857
 321  754.4645
 322  741.3578
 323  708.1754
 324  704.7371
 325  724.6814
 326  895.5413
 327  858.5074
 328  735.173
 329  766.6884
 330  713.2526
 331  736.8573
 332  636.6351
 333  583.6715
 334  725.912
 335  775.4893
 336  772.6301
 337  735.9675
 338  792.4509
 339  655.875
 340  677.2333
 341  740.2235
 342  816.2471
 343  798.8149
 344  714.8925
 345  794.9052
 346  886.9918
 347  692.406
 348  746.7935
 349  882.2132
 350  739.5562
 351  731.9401
 352  773.663
 353  799.6022
 354  784.3742
 355  808.1101
 356  661.8729
 357  691.8185
 358  716.472
 359  713.0181
 360  671.6617
 361  633.5825
 362  696.022
 363  598.1114
 364  646.6948
 365  594.4205
 366  585.6817
 367  701.9595
 368  657.3814
 369  601.3032
 370  583.8145
 371  557.5144
 372  677.7432
 373  717.5417
 374  747.5092
 375  686.1128
 376  758.58
 377  770.1744
 378  779.9833
 379  787.8842
 380  727.21
 381  752.837
 382  850.274
 383  709.5645
 384  754.6561
 385  689.7142
 386  597.575
 387  794.072
 388  723.7762
 389  651.509
 390  647.1276
 391  662.4352
 392  795.5128
 393  805.7068
 394  676.1754
 395  696.3867
 396  667.8935
 397  648.7557
 398  730.9478
 399  659.662
 400  614.0633
 401  590.2536
 402  633.2216
 403  672.7659
 404  622.7402
 405  722.7415
 406  812.1338
 407  752.0485
 408  721.0365
 409  678.5179
 410  668.4626
 411  747.7235
 412  720.976
 413  714.8502
 414  690.5067
 415  630.8793
 416  713.6121
 417  694.9943
 418  622.5497
 419  718.1375
 420  709.5943
 421  777.3888
 422  772.5748
 423  709.6454
 424  647.1055
 425  624.6559
 426  688.4586
 427  754.3022
 428  598.2832
 429  609.1589
 430  635.8851
 431  691.247
 432  699.5417
 433  773.9805
 434  659.1308
 435  514.1894
 436  520.1858
 437  666.1875
 438  660.5947
 439  543.3612
 440  566.0731
 441  666.0711
 442  630.9571
 443  645.3591
 444  728.2113
 445  739.2726
 446  657.152
 447  785.5871
 448  746.9645
 449  678.2167
 450  718.4207
 451  665.3982
 452  674.8107
 453  647.6131
 454  615.3496
 455  565.7596
 456  579.0787
 457  652.6656
 458  626.5724
 459  697.6884
 460  623.7594
 461  559.9406
 462  604.5412
 463  657.0132
 464  680.9594
 465  653.8979
 466  664.4129
 467  621.4179
 468  721.6424
 469  762.3228
 470  684.2172
 471  686.2057
 472  678.6123
 473  710.6591
 474  762.9215
 475  679.9758
 476  841.4808
 477  825.567
 478  752.2084
 479  702.8793
 480  737.0608
 481  753.7814
 482  790.3138
 483  880.1859
 484  812.5635
 485  795.4999
 486  844.1766
 487  846.215
 488  759.2484
 489  704.7328
 490  813.5161
 491  749.0764
 492  737.9175
 493  697.4423
 494  661.8771
 495  680.2717
 496  713.9018
 497  773.6495
 498  708.8928
 499  617.9586
 500  715.5156
 501  703.3503
 502  737.3398
 503  777.0635
 504  727.472
 505  748.5478
 506  779.5223
 507  802.4604
 508  711.494
 509  781.0143
 510  869.7506
 511  704.5745
