# Input file       =  1185090823.101021_cleaned.dat
# Candidate        =  PSR_0332+5434
# Telescope        =  AR
# Epoch_topo       =  57960.329190984041
# Epoch_bary       =  N/A
# T_sample         =  0.002
# Data Folded      =  7340032
# Data Avg         =  0.327187012760467
# Data StdDev      =  5.61108604188992 
# Profile Bins     =  512
# Profile Avg      =  4689.73409604578 
# Profile StdDev   =  671.832369166771 
# Reduced chi-sqr  =  0.925
# Prob(Noise)      <  0.888   (~0.0 sigma)
# P_topo (ms)      =  714.472514357392  +/- 0.000416
# P'_topo (s/s)    =  -0                +/- 2.19e-10
# P''_topo (s/s^2) =  0                 +/- 9.69e-14
# P_bary (ms)      =  N/A
# P'_bary (s/s)    =  N/A
# P''_bary (s/s^2) =  N/A
# P_orb (s)        =  N/A
# asin(i)/c (s)    =  N/A
# eccentricity     =  N/A
# w (rad)          =  N/A
# T_peri           =  N/A
######################################################
   0  5033.104
   1  5116.303
   2  5231.042
   3  5484.534
   4  5316.876
   5  5268.95
   6  5479.364
   7  5615.415
   8  5803.439
   9  5875.719
  10  5801.975
  11  5917.76
  12  5460.686
  13  5148.827
  14  5186.785
  15  5427.171
  16  5357.619
  17  4849.812
  18  5062.992
  19  4977.021
  20  4972.965
  21  5122.861
  22  4910.358
  23  4775.531
  24  4614.676
  25  4715.418
  26  4778.209
  27  4304.303
  28  4160.635
  29  4341.641
  30  4353.898
  31  4399.757
  32  4310.818
  33  4736.902
  34  4988.396
  35  5120.927
  36  4803.571
  37  4711.961
  38  4683.988
  39  4652.072
  40  4480.586
  41  4716.201
  42  4673.285
  43  4669.099
  44  4731.883
  45  4880.363
  46  4471.18
  47  4348.964
  48  4607.888
  49  5260.508
  50  5804.978
  51  6092.569
  52  5662.212
  53  5238.239
  54  5326.893
  55  5199.34
  56  5368.435
  57  5279.039
  58  5219.485
  59  5561.178
  60  5430.079
  61  5196.092
  62  5122.925
  63  4973.101
  64  4974.445
  65  4610.108
  66  4783.026
  67  4865.222
  68  5185.406
  69  5301.896
  70  5404.441
  71  5367.141
  72  5090.514
  73  4693.748
  74  4530.301
  75  4719.751
  76  4581.148
  77  4710.683
  78  4793.57
  79  5054.452
  80  5292.159
  81  5241.932
  82  4982.192
  83  4883.347
  84  4643.852
  85  4376.165
  86  4382.459
  87  4377.955
  88  4579.033
  89  4940.613
  90  4829.481
  91  4911.812
  92  5127.662
  93  4927.681
  94  4651.618
  95  4574.941
  96  4762.271
  97  4881.65
  98  5362.008
  99  5344.088
 100  4749.118
 101  4447.993
 102  4674.818
 103  4577.76
 104  4649.801
 105  4963.546
 106  4995.624
 107  5048.946
 108  5104.006
 109  4782.073
 110  5077.349
 111  4916.322
 112  4884.158
 113  4808.873
 114  4720.866
 115  4432.861
 116  4588.603
 117  4695.38
 118  4829.937
 119  4813.169
 120  5107.288
 121  5148.283
 122  4717.35
 123  5076.204
 124  5498.929
 125  5279.549
 126  5243.156
 127  5129.795
 128  5160.066
 129  4953.55
 130  4999.609
 131  5096.333
 132  5233.087
 133  5190.977
 134  5188.634
 135  4960.99
 136  4543.862
 137  4581.373
 138  4785.087
 139  4406.413
 140  4660.439
 141  5074.116
 142  4781.906
 143  4317.455
 144  3800.55
 145  4008.659
 146  4058.913
 147  3799.323
 148  4161.219
 149  4353.728
 150  4616.556
 151  4754.177
 152  4202.111
 153  4006.479
 154  4251.593
 155  4048.562
 156  4247.247
 157  4792.846
 158  4659.639
 159  4299.505
 160  4183.819
 161  4630.794
 162  4756.04
 163  5102.851
 164  5210.153
 165  5289.408
 166  5286.738
 167  5516.315
 168  5586.724
 169  5392.418
 170  5523.624
 171  5173.897
 172  5377.199
 173  5198.301
 174  5207.287
 175  5092.731
 176  5018.188
 177  4962.945
 178  5324.385
 179  5415.861
 180  5399.338
 181  5418.974
 182  5276.554
 183  5244.718
 184  5002.07
 185  5134.087
 186  5153.539
 187  5189.912
 188  5381.23
 189  5433.453
 190  5208.879
 191  5062.712
 192  4688.95
 193  4902.097
 194  4955.54
 195  5052.847
 196  4874.385
 197  4497.131
 198  4345.875
 199  4696.553
 200  4661.235
 201  4972.677
 202  4903.651
 203  4869.668
 204  4628.987
 205  4985.821
 206  4719.109
 207  4691.052
 208  4904.611
 209  4862.201
 210  4249.994
 211  4120.679
 212  4553.189
 213  4361.345
 214  4350.414
 215  4413.427
 216  3953.283
 217  4370.625
 218  4206.579
 219  4069.892
 220  4523.403
 221  4126.53
 222  4073.593
 223  4208.27
 224  4367.29
 225  4288.644
 226  4462.721
 227  4753.607
 228  4963.275
 229  5224.258
 230  5194.867
 231  5229.654
 232  4850.71
 233  5062.479
 234  4808.456
 235  4680.57
 236  4568.988
 237  4367.864
 238  4551.327
 239  4562.009
 240  4688.91
 241  4708.022
 242  4676.65
 243  4492.674
 244  4558.549
 245  4504.126
 246  4287.66
 247  4107.148
 248  4324.155
 249  4458.002
 250  4504.56
 251  4816.436
 252  4791.174
 253  4786.872
 254  4741.273
 255  4337.333
 256  4601.842
 257  4760.511
 258  4392.247
 259  4637.635
 260  5091.301
 261  4830.221
 262  4598.446
 263  4211.784
 264  4488.478
 265  4254.04
 266  4094.856
 267  4759.234
 268  4745.453
 269  4643.53
 270  4324.494
 271  4064.142
 272  3804.076
 273  4041.74
 274  4069.821
 275  3959.556
 276  4099.044
 277  4150.721
 278  4453.485
 279  4340.23
 280  4363.732
 281  4392.162
 282  4565.497
 283  4188.084
 284  3992.5
 285  4575.997
 286  4748.503
 287  4326.215
 288  3975.507
 289  4178.883
 290  4380.474
 291  4531.721
 292  4555.545
 293  4553.417
 294  4043.435
 295  4506.791
 296  4845.206
 297  4692.483
 298  4476.929
 299  4702.365
 300  4772.041
 301  4777.26
 302  4992.157
 303  5287.982
 304  4926.222
 305  4823.148
 306  4769.421
 307  4518.464
 308  4364.757
 309  4296.914
 310  4554.417
 311  4418.184
 312  4070.63
 313  4107.17
 314  4495.87
 315  4475.767
 316  4870.158
 317  4603.646
 318  4436.873
 319  4462.072
 320  4777.318
 321  4811.921
 322  5413.929
 323  6160.89
 324  6398.446
 325  6293.929
 326  6350.913
 327  6289.886
 328  5500.946
 329  5356.169
 330  4930.255
 331  5337.9
 332  5240.216
 333  4670.214
 334  4469.334
 335  4241.28
 336  4250.225
 337  4422.442
 338  4234.033
 339  4362.373
 340  4480.197
 341  4526.825
 342  4369.782
 343  4257.068
 344  4629.688
 345  4490.816
 346  4580.892
 347  4115.396
 348  4146.825
 349  4063.568
 350  4322.755
 351  4605.934
 352  4776.733
 353  4700.934
 354  4517.939
 355  4291.079
 356  4405.619
 357  4564.771
 358  4563.342
 359  5141.181
 360  5057.41
 361  4812.704
 362  4688.266
 363  5131.812
 364  5273.768
 365  5241.795
 366  4783.604
 367  4414.549
 368  4364.287
 369  4262.038
 370  4083.599
 371  4367.463
 372  4678.562
 373  4709.019
 374  4537.09
 375  4137.769
 376  3772.693
 377  4331.279
 378  4376.558
 379  4367.827
 380  4276.525
 381  4052.05
 382  3960.059
 383  4213.467
 384  4300.965
 385  4121.44
 386  3962.184
 387  3512.965
 388  3417.608
 389  3555.723
 390  3788.851
 391  3799.122
 392  3778
 393  3892.321
 394  3640.295
 395  3441.485
 396  3846.823
 397  4329.469
 398  4454.23
 399  4327.25
 400  4231.5
 401  4487.887
 402  4210.106
 403  4507.228
 404  4983.172
 405  4817.888
 406  4473.814
 407  4463.835
 408  4906.569
 409  4746.085
 410  4787.547
 411  4584.3
 412  4732.776
 413  4631.454
 414  4759.843
 415  4795.935
 416  4638.684
 417  4422.033
 418  4591.902
 419  4535.273
 420  4207.138
 421  4078.526
 422  3942.158
 423  3991.72
 424  3796.623
 425  3986.771
 426  4118.561
 427  3894.686
 428  3934.975
 429  3936.885
 430  3801.656
 431  4000.083
 432  3784.895
 433  4182.678
 434  4588.094
 435  4077.342
 436  4242.48
 437  4686.757
 438  4283.794
 439  4187.896
 440  4207.192
 441  4259.636
 442  4047.894
 443  4414.544
 444  4422.02
 445  4192.812
 446  4211.934
 447  4497.914
 448  4562.737
 449  4451.529
 450  4275.352
 451  4567.252
 452  4609.768
 453  4772.097
 454  4685.05
 455  4811.628
 456  5091.524
 457  4714.583
 458  4936.636
 459  4832.903
 460  4559.279
 461  4013.547
 462  4153.719
 463  4249.619
 464  4313.468
 465  4522.786
 466  4378.877
 467  4079.256
 468  4103.027
 469  3892.742
 470  4638.01
 471  4882.336
 472  4665.67
 473  4645.634
 474  4748.177
 475  4628.691
 476  4769.622
 477  4808.506
 478  4929.448
 479  4701.678
 480  4903.214
 481  5202.922
 482  5302.312
 483  5360.341
 484  5073.126
 485  4816.531
 486  4629.102
 487  4719.203
 488  4530.491
 489  4810.058
 490  4734.758
 491  4541.096
 492  4492.694
 493  4787.171
 494  5056.443
 495  4824.396
 496  4961.577
 497  5126.054
 498  4161.857
 499  4283.527
 500  4760.188
 501  4677.158
 502  4717.875
 503  5080.963
 504  4672.636
 505  4722.483
 506  4843.798
 507  4909.633
 508  5245.21
 509  5077.148
 510  5072.116
 511  5051.395
