# Input file       =  1185435458.11371_cleaned.dat
# Candidate        =  PSR_0332+5434
# Telescope        =  AR
# Epoch_topo       =  57964.318022149419
# Epoch_bary       =  N/A
# T_sample         =  0.002
# Data Folded      =  7340032
# Data Avg         =  0.0489292713686267
# Data StdDev      =  1.00010895077058 
# Profile Bins     =  512
# Profile Avg      =  701.378666973889 
# Profile StdDev   =  119.746081383343 
# Reduced chi-sqr  =  2.030
# Prob(Noise)      <  4.45e-38   (~12.8 sigma)
# P_topo (ms)      =  714.470573182314  +/- 0.000314
# P'_topo (s/s)    =  -0                +/- 1.66e-10
# P''_topo (s/s^2) =  0                 +/- 7.31e-14
# P_bary (ms)      =  N/A
# P'_bary (s/s)    =  N/A
# P''_bary (s/s^2) =  N/A
# P_orb (s)        =  N/A
# asin(i)/c (s)    =  N/A
# eccentricity     =  N/A
# w (rad)          =  N/A
# T_peri           =  N/A
######################################################
   0  1329.13
   1  1233.059
   2  1173.631
   3  989.3982
   4  878.0347
   5  924.1668
   6  910.4221
   7  923.5435
   8  902.4622
   9  801.2048
  10  793.2545
  11  849.6002
  12  832.887
  13  785.9676
  14  897.6746
  15  881.58
  16  808.5861
  17  814.7492
  18  864.0908
  19  850.3477
  20  834.9594
  21  692.2126
  22  705.846
  23  729.2047
  24  751.2737
  25  699.0983
  26  668.0808
  27  764.6497
  28  698.4623
  29  553.6742
  30  628.0554
  31  699.4532
  32  682.0199
  33  668.4245
  34  689.1038
  35  795.3594
  36  776.0468
  37  740.6268
  38  686.1371
  39  676.1825
  40  724.0809
  41  737.4427
  42  804.9467
  43  726.2613
  44  671.7535
  45  732.1223
  46  737.6758
  47  713.8096
  48  692.5934
  49  723.7982
  50  809.2704
  51  801.1409
  52  780.7817
  53  770.6772
  54  826.6796
  55  823.2949
  56  793.475
  57  825.9181
  58  738.571
  59  726.4876
  60  664.7825
  61  681.1514
  62  693.8422
  63  739.9431
  64  695.5529
  65  699.1851
  66  750.1562
  67  805.5218
  68  800.4667
  69  748.3366
  70  761.8844
  71  703.7327
  72  756.7618
  73  792.5125
  74  835.7809
  75  801.8804
  76  705.2536
  77  808.6279
  78  862.1727
  79  870.768
  80  876.7509
  81  930.4064
  82  859.7872
  83  802.3914
  84  716.2761
  85  625.4373
  86  662.7852
  87  757.6149
  88  770.2849
  89  738.2654
  90  841.3819
  91  744.7327
  92  709.6408
  93  668.9748
  94  692.282
  95  695.8799
  96  530.4253
  97  532.428
  98  681.9165
  99  703.1874
 100  710.3828
 101  636.1679
 102  612.2844
 103  583.3305
 104  611.5826
 105  675.531
 106  625.9428
 107  526.5524
 108  581.2239
 109  613.6124
 110  513.4056
 111  650.2847
 112  666.1934
 113  682.8689
 114  681.0056
 115  583.2883
 116  681.0995
 117  708.1628
 118  758.7014
 119  726.8201
 120  704.4548
 121  604.403
 122  595.7397
 123  717.4472
 124  693.4736
 125  682.2402
 126  684.8396
 127  708.9188
 128  627.6367
 129  579.8442
 130  642.905
 131  707.2017
 132  704.1758
 133  685.846
 134  812.748
 135  875.4888
 136  786.7658
 137  643.4293
 138  660.9747
 139  607.6779
 140  676.5001
 141  834.0922
 142  843.0554
 143  783.5624
 144  731.2957
 145  771.2369
 146  825.5555
 147  808.8909
 148  776.7883
 149  706.9456
 150  848.7116
 151  797.3309
 152  705.4868
 153  693.3148
 154  733.9918
 155  798.1744
 156  722.5869
 157  683.7342
 158  669.3287
 159  755.7757
 160  766.7773
 161  647.075
 162  594.6309
 163  534.3934
 164  693.3751
 165  720.7649
 166  625.8101
 167  587.7426
 168  624.4957
 169  654.4862
 170  697.6059
 171  742.7903
 172  677.54
 173  615.0144
 174  684.8464
 175  719.1188
 176  624.4749
 177  580.6539
 178  569.7371
 179  561.4449
 180  650.1606
 181  652.2712
 182  625.2089
 183  547.1296
 184  627.397
 185  675.1447
 186  629.4613
 187  485.6461
 188  400.2573
 189  525.9047
 190  529.0508
 191  582.0213
 192  657.2598
 193  771.5156
 194  684.1232
 195  675.184
 196  685.2189
 197  599.377
 198  499.9127
 199  576.5671
 200  665.6769
 201  795.5649
 202  759.2195
 203  805.752
 204  711.5789
 205  635.3476
 206  687.213
 207  653.6608
 208  707.8447
 209  694.6733
 210  707.4759
 211  759.4286
 212  661.0085
 213  752.276
 214  878.618
 215  672.0499
 216  802.1815
 217  876.7371
 218  846.8721
 219  821.1608
 220  828.6229
 221  757.7322
 222  879.1427
 223  855.2204
 224  742.7836
 225  831.8982
 226  929.1661
 227  855.9998
 228  758.9812
 229  735.6969
 230  740.6174
 231  787.0927
 232  713.7626
 233  687.5707
 234  740.2051
 235  793.4539
 236  713.472
 237  665.2946
 238  655.1176
 239  601.3179
 240  620.8696
 241  679.1365
 242  611.3987
 243  522.9755
 244  576.3492
 245  659.2723
 246  610.0093
 247  598.1135
 248  632.9868
 249  663.6869
 250  577.435
 251  670.8909
 252  650.2939
 253  600.863
 254  541.5229
 255  635.7328
 256  666.7396
 257  591.9584
 258  632.4785
 259  656.3954
 260  644.0607
 261  564.8692
 262  504.2881
 263  515.3099
 264  522.2035
 265  664.1912
 266  620.5247
 267  611.9717
 268  595.4388
 269  718.7496
 270  675.1187
 271  494.78
 272  528.879
 273  537.8409
 274  597.3027
 275  591.7162
 276  621.2136
 277  601.1548
 278  592.9088
 279  559.9404
 280  658.4047
 281  599.851
 282  626.2585
 283  626.4445
 284  606.2087
 285  645.158
 286  697.3959
 287  783.6711
 288  691.4982
 289  602.4144
 290  686.9095
 291  724.6293
 292  691.0366
 293  717.795
 294  813.9836
 295  790.0312
 296  697.382
 297  724.9994
 298  647.6321
 299  714.6022
 300  676.7748
 301  632.8764
 302  653.3618
 303  587.8834
 304  623.992
 305  622.3813
 306  549.8782
 307  566.1235
 308  574.7885
 309  611.3717
 310  571.2736
 311  582.1254
 312  638.781
 313  709.2898
 314  698.9204
 315  632.9297
 316  588.9656
 317  653.6331
 318  758.4587
 319  730.0594
 320  688.4391
 321  709.784
 322  622.485
 323  560.6496
 324  562.2532
 325  581.8516
 326  521.123
 327  467.0974
 328  545.7108
 329  599.1447
 330  578.7625
 331  564.3361
 332  533.9052
 333  527.6676
 334  556.6854
 335  522.1516
 336  507.3354
 337  459.596
 338  646.3839
 339  663.4534
 340  551.3124
 341  541.9346
 342  579.7391
 343  574.3754
 344  673.005
 345  588.1236
 346  642.2736
 347  661.9391
 348  610.973
 349  651.325
 350  708.4209
 351  705.1335
 352  579.1738
 353  691.321
 354  747.394
 355  705.2141
 356  741.0751
 357  737.8925
 358  707.3263
 359  550.3425
 360  660.2004
 361  664.5663
 362  599.8641
 363  619.1383
 364  736.1378
 365  699.843
 366  685.6789
 367  662.2252
 368  664.5216
 369  683.1026
 370  603.2411
 371  564.0731
 372  599.1966
 373  682.7722
 374  613.3399
 375  596.5807
 376  585.0637
 377  594.4116
 378  598.9818
 379  611.7632
 380  564.9221
 381  506.9308
 382  640.7181
 383  653.7924
 384  578.0484
 385  556.4258
 386  666.511
 387  572.2026
 388  466.3462
 389  547.7484
 390  552.9505
 391  524.4853
 392  526.4009
 393  522.071
 394  389.2693
 395  471.0556
 396  567.5134
 397  575.5961
 398  597.2747
 399  599.9355
 400  624.3343
 401  566.3916
 402  563.0811
 403  613.215
 404  523.3497
 405  590.7418
 406  603.9072
 407  560.2606
 408  594.2366
 409  679.1882
 410  661.1419
 411  666.4146
 412  513.9326
 413  550.5779
 414  633.0268
 415  634.0485
 416  536.8077
 417  429.1045
 418  610.4601
 419  509.1826
 420  527.9714
 421  715.2054
 422  768.6891
 423  678.269
 424  661.6376
 425  679.6563
 426  621.8968
 427  623.269
 428  723.7785
 429  775.0464
 430  727.7336
 431  707.892
 432  772.5023
 433  778.045
 434  741.0227
 435  757.282
 436  773.0759
 437  790.3079
 438  751.6233
 439  723.9429
 440  791.1095
 441  697.4103
 442  791.0751
 443  929.9358
 444  896.2792
 445  873.4504
 446  867.9343
 447  854.6315
 448  847.4974
 449  857.5548
 450  911.6075
 451  919.2446
 452  847.1594
 453  817.9283
 454  767.4429
 455  781.6572
 456  851.2054
 457  781.4172
 458  787.9886
 459  814.5367
 460  763.1484
 461  882.7283
 462  839.8228
 463  746.2781
 464  701.9844
 465  791.0291
 466  875.4757
 467  809.1286
 468  837.4401
 469  777.3503
 470  864.8897
 471  836.7363
 472  810.5191
 473  791.2466
 474  826.4456
 475  758.887
 476  669.4333
 477  729.3804
 478  691.332
 479  626.4705
 480  677.4412
 481  778.1696
 482  755.1082
 483  740.7877
 484  681.095
 485  615.0606
 486  776.5953
 487  857.9881
 488  824.616
 489  789.1111
 490  775.3064
 491  819.8474
 492  908.1067
 493  868.6456
 494  821.6888
 495  907.9583
 496  884.8793
 497  702.6962
 498  632.2437
 499  769.1708
 500  915.8804
 501  943.3604
 502  939.418
 503  957.041
 504  945.2576
 505  873.1782
 506  849.7227
 507  923.3151
 508  1005.871
 509  1199.671
 510  1230.966
 511  1360.189
