# Input file       =  1185233632.110816_cleaned.dat
# Candidate        =  PSR_0332+5434
# Telescope        =  AR
# Epoch_topo       =  57961.982073041851
# Epoch_bary       =  N/A
# T_sample         =  0.002
# Data Folded      =  7208960
# Data Avg         =  0.158944546922364
# Data StdDev      =  4.7529350102579  
# Profile Bins     =  1024
# Profile Avg      =  1118.94436833364 
# Profile StdDev   =  398.793623482894 
# Reduced chi-sqr  =  0.552
# Prob(Noise)      <  1   (~0.0 sigma)
# P_topo (ms)      =  714.471334331174  +/- 8.64e-05
# P'_topo (s/s)    =  -0                +/- 4.64e-11
# P''_topo (s/s^2) =  0                 +/- 2.09e-14
# P_bary (ms)      =  N/A
# P'_bary (s/s)    =  N/A
# P''_bary (s/s^2) =  N/A
# P_orb (s)        =  N/A
# asin(i)/c (s)    =  N/A
# eccentricity     =  N/A
# w (rad)          =  N/A
# T_peri           =  N/A
######################################################
   0  1282.378
   1  1372.365
   2  1357.801
   3  1207
   4  1181.036
   5  1070.72
   6  1001.453
   7  919.8781
   8  842.32
   9  969.6777
  10  1092.188
  11  1124.908
  12  1062.745
  13  1016.523
  14  950.6993
  15  961.304
  16  915.829
  17  938.3672
  18  1005.472
  19  1151.679
  20  1133.051
  21  1061.337
  22  1133.216
  23  1230.75
  24  1230.625
  25  1219.107
  26  1179.867
  27  1110.662
  28  1082.845
  29  1108.754
  30  1103.076
  31  1011.532
  32  1010.753
  33  1029.251
  34  1103.585
  35  1190.725
  36  1252.938
  37  1329.903
  38  1389.334
  39  1221.476
  40  1224.716
  41  1124.483
  42  1072.73
  43  1013.118
  44  1001.879
  45  1027.309
  46  1088.737
  47  1221.893
  48  1179.968
  49  1113.079
  50  1065.404
  51  1019.398
  52  953.3439
  53  1074.972
  54  1166.049
  55  1190.619
  56  1121.724
  57  1103.311
  58  1160.909
  59  1216.283
  60  1256.231
  61  1140.143
  62  1127.269
  63  1038.109
  64  1077.332
  65  1131.719
  66  1146.173
  67  1055.617
  68  1092.943
  69  1202.116
  70  1067.123
  71  1054.27
  72  1110.287
  73  1196.083
  74  1132.901
  75  1173.569
  76  1219.659
  77  1306.981
  78  1244.202
  79  1247.955
  80  1067.137
  81  1052.085
  82  1090.417
  83  1259.939
  84  1291.374
  85  1163.795
  86  1175.216
  87  1355.727
  88  1505.555
  89  1408.416
  90  1274.793
  91  1138.689
  92  1112.865
  93  1132.826
  94  1171.374
  95  1133.049
  96  1124.685
  97  1151.404
  98  1074.181
  99  917.2006
 100  877.3943
 101  923.2547
 102  1052.921
 103  1189.958
 104  1196.143
 105  1162.501
 106  1154.865
 107  1101.319
 108  1089.706
 109  917.6754
 110  892.8052
 111  896.1173
 112  1085.303
 113  1019.275
 114  1024.689
 115  1036.285
 116  1099.432
 117  992.5588
 118  926.2878
 119  1091.872
 120  1119.636
 121  1134.92
 122  980.2294
 123  977.442
 124  973.1044
 125  1072.777
 126  1030.551
 127  1040.5
 128  916.8453
 129  829.3613
 130  919.3625
 131  1066.168
 132  1040.064
 133  1031.476
 134  1201.222
 135  1163.739
 136  1041.854
 137  973.1697
 138  1063.041
 139  1163.643
 140  1070.215
 141  1134.221
 142  1150.888
 143  1126.739
 144  1062.518
 145  1003.547
 146  995.3137
 147  982.5423
 148  930.0902
 149  1178.33
 150  1112.071
 151  1115.867
 152  1020.538
 153  1122.944
 154  1157.981
 155  1114.557
 156  1116.283
 157  1059.365
 158  1009.969
 159  971.098
 160  882.4198
 161  997.449
 162  1053.656
 163  1076.424
 164  1017.615
 165  956.1122
 166  892.602
 167  996.638
 168  1211.21
 169  1272.776
 170  1169.077
 171  1155.05
 172  1083.059
 173  1030.67
 174  903.1299
 175  816.5023
 176  697.5883
 177  741.5151
 178  892.5296
 179  920.7036
 180  928.5601
 181  1062.191
 182  1090.643
 183  1133.024
 184  1006.882
 185  1109.857
 186  1245.708
 187  1263.357
 188  1180.596
 189  1120.642
 190  1031.115
 191  922.4127
 192  959.9542
 193  1143.443
 194  1148.646
 195  1028.42
 196  1036.654
 197  929.5823
 198  918.1119
 199  999.7197
 200  1001.445
 201  1025.033
 202  1051.911
 203  1189.125
 204  1165.733
 205  1142.624
 206  1319.109
 207  1426.963
 208  1358.623
 209  1162.342
 210  1039.715
 211  992.417
 212  1063.62
 213  1021.126
 214  1164.761
 215  1110.242
 216  1201.754
 217  1122.085
 218  1121.235
 219  1204.781
 220  1397.892
 221  1478.026
 222  1303.566
 223  1155.757
 224  1043.039
 225  938.9965
 226  964.0153
 227  1138.816
 228  1120.802
 229  1067.946
 230  946.7685
 231  890.5126
 232  867.3095
 233  965.7672
 234  1053.71
 235  1084.402
 236  1067.816
 237  1042.987
 238  967.8962
 239  1081.905
 240  1250.971
 241  1196.643
 242  1060.617
 243  951.4005
 244  977.727
 245  1058.638
 246  1131.256
 247  1131.626
 248  1116.587
 249  1121.872
 250  1108.132
 251  1142.897
 252  1050.601
 253  976.6342
 254  956.6556
 255  991.3201
 256  885.6036
 257  885.819
 258  965.1984
 259  1068.246
 260  1057.632
 261  1141.482
 262  1165.595
 263  1112.567
 264  1058.398
 265  1024.136
 266  974.219
 267  964.5597
 268  1069.125
 269  1045.793
 270  1026.289
 271  1085.263
 272  1230.535
 273  1164.735
 274  1082.605
 275  1002.447
 276  1053.822
 277  1058.414
 278  955.0956
 279  920.4442
 280  910.7714
 281  1000.796
 282  1127.763
 283  1152.726
 284  1193.887
 285  1212.764
 286  1258.478
 287  1203.87
 288  1119.435
 289  1088.436
 290  1070.009
 291  1038.597
 292  1020.332
 293  914.9305
 294  934.978
 295  1013.064
 296  996.7718
 297  1073.32
 298  1050.025
 299  1091.669
 300  1004.597
 301  1157.21
 302  1299.07
 303  1083.812
 304  1064.413
 305  1124.214
 306  1162.531
 307  1007.972
 308  900.3463
 309  876.8937
 310  842.5419
 311  880.0073
 312  989.9542
 313  1033.064
 314  1084.132
 315  1053.776
 316  1016.672
 317  947.4554
 318  874.7595
 319  952.538
 320  994.1501
 321  961.4348
 322  854.0392
 323  936.4398
 324  1028.633
 325  981.0198
 326  1032.006
 327  999.4055
 328  907.9855
 329  859.6877
 330  891.4563
 331  970.7668
 332  971.6493
 333  1082.779
 334  1166.85
 335  1207.66
 336  1213.593
 337  1191.123
 338  1024.909
 339  937.9022
 340  772.3525
 341  850.8165
 342  933.6799
 343  846.149
 344  829.8317
 345  691.8618
 346  691.0442
 347  782.087
 348  954.6793
 349  1079.513
 350  1016.205
 351  1093.602
 352  1169.314
 353  1172.021
 354  1173.392
 355  1119.495
 356  1122.376
 357  1058.38
 358  1046.774
 359  1101.201
 360  1288.931
 361  1200.922
 362  1021.668
 363  926.3992
 364  1143.104
 365  1178.17
 366  1177.974
 367  1158.328
 368  1150.423
 369  1080.387
 370  1059.315
 371  1058.462
 372  1129.984
 373  1101.46
 374  1190.884
 375  1143.193
 376  999.2762
 377  867.2968
 378  881.4775
 379  1086.83
 380  1138.467
 381  1107.124
 382  1030.648
 383  1037.19
 384  1166.016
 385  1334.108
 386  1236.551
 387  1109.659
 388  1016.271
 389  1066.551
 390  1118.291
 391  1142.187
 392  1157.805
 393  1068.387
 394  1148.35
 395  1202.306
 396  1164.606
 397  1102.042
 398  1167.107
 399  1139.085
 400  1089.285
 401  995.5073
 402  1002.554
 403  1098.63
 404  996.2635
 405  983.6876
 406  928.6918
 407  1005.014
 408  972.2227
 409  930.1223
 410  893.4709
 411  847.68
 412  814.7115
 413  997.8663
 414  1012.124
 415  942.3313
 416  797.4532
 417  915.3707
 418  1034.68
 419  1178.357
 420  1224.74
 421  1223.641
 422  1076.546
 423  1040.468
 424  904.4273
 425  973.8867
 426  1029.562
 427  1013.56
 428  900.8098
 429  900.5974
 430  1045.586
 431  1222.599
 432  1228.419
 433  1083.515
 434  1003.919
 435  1069.687
 436  1095.757
 437  1054.603
 438  1050.026
 439  1096.671
 440  1060.655
 441  1004.216
 442  956.056
 443  1019.527
 444  952.031
 445  1018.845
 446  1041.944
 447  1188.417
 448  1125.542
 449  1132.354
 450  1209.488
 451  1199.06
 452  1321.26
 453  1307.528
 454  1358.224
 455  1104.406
 456  1059.175
 457  991.8804
 458  977.8541
 459  922.972
 460  918.5742
 461  880.0049
 462  1040.938
 463  1180.114
 464  1170.47
 465  1172.932
 466  1258.861
 467  1291.957
 468  1216.024
 469  1011.384
 470  908.5421
 471  846.4116
 472  930.3676
 473  818.9825
 474  738.4126
 475  834.6655
 476  942.9656
 477  997.5067
 478  1018.219
 479  1163.52
 480  1167.543
 481  1169.314
 482  1142.353
 483  1153.609
 484  1102.788
 485  1153.474
 486  1145.41
 487  1235.067
 488  1115.698
 489  1097.496
 490  1089.624
 491  1100.496
 492  1003.039
 493  993.5691
 494  1064.663
 495  1059.108
 496  938.3086
 497  1056.628
 498  1076.637
 499  1160.352
 500  1130.033
 501  1204.708
 502  1366.284
 503  1425.852
 504  1331.932
 505  1139.065
 506  991.4688
 507  947.996
 508  882.8345
 509  987.7018
 510  978.0259
 511  948.6324
 512  871.0062
 513  857.543
 514  976.9043
 515  1122.762
 516  1206.892
 517  1245.014
 518  1182.01
 519  1069.742
 520  943.5084
 521  1082.114
 522  1199.592
 523  1085.352
 524  899.4417
 525  923.7946
 526  1080.936
 527  1178.067
 528  1213.648
 529  1036.988
 530  1108.208
 531  1178.13
 532  1291.118
 533  1253.911
 534  1243.808
 535  1154.91
 536  972.6122
 537  969.39
 538  1017.75
 539  1007.459
 540  1069.183
 541  1075.972
 542  1073.059
 543  1006.416
 544  1024.683
 545  1102.791
 546  1202.318
 547  1167.462
 548  987.9478
 549  1022.419
 550  1052.371
 551  1013.928
 552  1084.751
 553  1226.127
 554  1288.716
 555  1152.057
 556  1102.488
 557  985.7774
 558  961.4125
 559  1033.513
 560  994.2825
 561  960.1124
 562  1082.123
 563  1162.598
 564  1146.94
 565  1049.056
 566  1085.608
 567  1124.399
 568  1184.898
 569  1278.769
 570  1254.515
 571  1232.355
 572  1165.875
 573  1064.153
 574  951.6757
 575  835.699
 576  869.4253
 577  1051.891
 578  1165.493
 579  1129.269
 580  1125.82
 581  1163.658
 582  1169.065
 583  1250.935
 584  1328.42
 585  1208.808
 586  1071.262
 587  1105.086
 588  1121.147
 589  1065.97
 590  1070.519
 591  1066.746
 592  957.2319
 593  915.6628
 594  943.4944
 595  990.992
 596  963.1524
 597  918.9498
 598  1068.624
 599  1238.616
 600  1208.667
 601  1082.047
 602  923.2776
 603  834.7175
 604  666.1436
 605  704.0029
 606  860.275
 607  939.9675
 608  1059.313
 609  1102.104
 610  1211.875
 611  1093.867
 612  954.2232
 613  939.6948
 614  1110.43
 615  1228.08
 616  1180.508
 617  1156.379
 618  1131.052
 619  1128.815
 620  1062.115
 621  1160.764
 622  1139.838
 623  1159.367
 624  1079.681
 625  1004.53
 626  1020.673
 627  1090.867
 628  1270.906
 629  1302.931
 630  1334.421
 631  1369.224
 632  1443.554
 633  1369.543
 634  1433.39
 635  1390.986
 636  1409.109
 637  1315.737
 638  1217.874
 639  1137.043
 640  1034.375
 641  1053.444
 642  1339.901
 643  1590.974
 644  1633.41
 645  1674.937
 646  1832.188
 647  2060.008
 648  2074.821
 649  2169.002
 650  2246.601
 651  2165.776
 652  1984.86
 653  1770.4
 654  1765.684
 655  1689.999
 656  1579.776
 657  1478.566
 658  1338.585
 659  1200.517
 660  1080.185
 661  1185.488
 662  1131.772
 663  940.774
 664  929.9659
 665  1105.101
 666  1017.788
 667  1004.975
 668  1068.785
 669  1247.818
 670  1266.643
 671  1152.689
 672  1140.541
 673  1261.204
 674  1421.63
 675  1391.533
 676  1282.973
 677  1041.591
 678  979.7723
 679  1005.895
 680  1183.014
 681  1205.62
 682  1204.704
 683  1292.92
 684  1254.434
 685  1323.088
 686  1302.206
 687  1277.126
 688  1168.246
 689  1165.62
 690  1261.84
 691  1235.488
 692  1174.45
 693  1061.136
 694  1085.827
 695  1034.599
 696  1132.743
 697  1266.7
 698  1306.889
 699  1252.698
 700  1145.257
 701  1161.192
 702  1172.082
 703  963.3209
 704  956.6387
 705  977.4097
 706  987.5709
 707  1009.151
 708  1075.816
 709  1193.088
 710  1280.853
 711  1360.954
 712  1405.764
 713  1351.15
 714  1330.971
 715  1294.333
 716  1093.07
 717  1117.115
 718  1089.064
 719  1182.604
 720  1189.484
 721  1251.409
 722  1244.698
 723  1240.639
 724  1180.155
 725  1033.73
 726  1055.507
 727  1114.139
 728  1235.1
 729  1262.616
 730  1269.234
 731  1168.883
 732  1230.933
 733  1298.765
 734  1265.303
 735  1150.886
 736  1049.729
 737  1031.173
 738  1010.563
 739  1043.745
 740  1064.532
 741  988.4297
 742  1074.843
 743  1110.943
 744  1227.911
 745  1226.604
 746  1208.682
 747  1228.437
 748  1264.159
 749  1173.885
 750  1172.641
 751  1119.062
 752  1231.427
 753  1244.134
 754  1241.475
 755  1154.137
 756  996.1536
 757  1080.503
 758  1208.709
 759  1247.202
 760  1279.312
 761  1237.584
 762  1110.375
 763  1057.168
 764  1158.425
 765  1222.615
 766  1261.318
 767  1338.83
 768  1236.191
 769  1131.265
 770  1036.072
 771  1058.37
 772  1039.716
 773  959.5035
 774  994.3076
 775  1011.059
 776  1049.304
 777  1009.206
 778  1053.299
 779  1244.378
 780  1389.859
 781  1307.994
 782  1256.417
 783  1185.43
 784  1146.4
 785  1095.848
 786  1122.103
 787  1106.479
 788  1141.167
 789  1204.521
 790  1194.068
 791  1132.03
 792  1078.01
 793  1048.848
 794  1078.834
 795  1212.895
 796  1215.455
 797  1133.808
 798  1105.321
 799  1137.98
 800  1153.651
 801  971.4931
 802  1079.588
 803  1224.557
 804  1224.444
 805  1186.176
 806  1184.603
 807  1264.139
 808  1138.164
 809  1146.634
 810  1187.324
 811  1202.299
 812  1085.863
 813  1234.076
 814  1175.463
 815  1060.703
 816  1032.029
 817  1221.535
 818  1367.175
 819  1337.448
 820  1293.561
 821  1321.218
 822  1317.677
 823  1345.545
 824  1398.698
 825  1395.754
 826  1340.998
 827  1303.479
 828  1437.483
 829  1569.579
 830  1299.31
 831  1139.031
 832  1077.856
 833  1106.629
 834  975.6088
 835  1072.103
 836  1077.564
 837  1167.15
 838  1145.374
 839  1202.261
 840  1064.175
 841  999.5439
 842  1116.633
 843  1312.322
 844  1318.871
 845  1188.14
 846  1178.456
 847  1197.503
 848  1205.412
 849  1080.599
 850  1100.676
 851  906.3557
 852  811.0068
 853  1048.731
 854  1195.881
 855  1229.306
 856  1117.84
 857  1285.617
 858  1229.182
 859  1156.668
 860  1292.042
 861  1370.192
 862  1304.406
 863  1224.452
 864  1218.982
 865  1247.172
 866  1198.548
 867  1334.656
 868  1305.519
 869  1034.094
 870  939.3327
 871  1004.444
 872  1141.742
 873  1059.129
 874  1007.552
 875  1082.103
 876  1175.007
 877  1361.243
 878  1538.134
 879  1576.99
 880  1389.24
 881  1228.964
 882  1211.962
 883  1185.537
 884  1119.843
 885  1177.424
 886  1135.36
 887  1214.445
 888  1224.561
 889  1241.947
 890  1265.699
 891  1377.065
 892  1404.687
 893  1315.713
 894  1266.858
 895  1202.019
 896  1182.524
 897  1176.508
 898  1209.903
 899  1076.692
 900  1174.683
 901  1253.569
 902  1257.508
 903  1101.497
 904  1037.639
 905  985.2581
 906  984.4326
 907  1054.256
 908  1218.488
 909  1226.813
 910  1193.37
 911  1167.62
 912  1274.461
 913  1343.143
 914  1310.689
 915  1323.056
 916  1286.039
 917  1160.466
 918  1206.142
 919  1186.999
 920  1230.995
 921  1360.504
 922  1373.103
 923  1307.202
 924  1187.459
 925  1361.649
 926  1370.903
 927  1238.884
 928  1224.773
 929  1385.08
 930  1328.307
 931  1278.433
 932  1264.188
 933  1418.694
 934  1385.457
 935  1188.251
 936  1156.076
 937  1214.176
 938  1175.026
 939  1047.933
 940  1076.576
 941  996.1949
 942  850.0687
 943  761.1535
 944  1047.638
 945  1126.688
 946  1281.914
 947  1345.005
 948  1304.851
 949  1104.132
 950  1050.483
 951  1190.28
 952  1256.618
 953  1236.205
 954  1151.57
 955  1030.539
 956  955.2384
 957  894.7051
 958  1005.13
 959  1017.952
 960  1102.86
 961  1112.993
 962  1345.655
 963  1267.828
 964  1101.89
 965  880.9307
 966  975.3303
 967  992.6323
 968  1095.343
 969  1132.302
 970  1142.296
 971  1148.283
 972  1182.772
 973  1242.797
 974  1234.058
 975  1114.089
 976  1145.423
 977  1108.113
 978  1131.01
 979  1122.884
 980  1236.028
 981  1300.827
 982  1146.724
 983  1143.265
 984  1200.3
 985  1175.528
 986  1211.938
 987  1200.609
 988  1190.126
 989  975.778
 990  850.7081
 991  939.8724
 992  972.5862
 993  974.8467
 994  1045.429
 995  1110.558
 996  1131.62
 997  1143.272
 998  1156.926
 999  1221.594
1000  1154.213
1001  1064.082
1002  1014.44
1003  869.7204
1004  796.1869
1005  874.9486
1006  1064.779
1007  993.9482
1008  934.183
1009  1096.445
1010  1322.74
1011  1251.819
1012  1214.493
1013  1157.526
1014  1110.081
1015  957.5888
1016  1075.442
1017  1098.919
1018  1089.16
1019  845.7258
1020  767.6127
1021  825.7846
1022  958.4297
1023  1074.853
