# Input file       =  1186526186.116844_cleaned.dat
# Candidate        =  PSR_0332+5434
# Telescope        =  AR
# Epoch_topo       =  57976.942188852358
# Epoch_bary       =  N/A
# T_sample         =  0.002
# Data Folded      =  7143424
# Data Avg         =  0.100437191797745
# Data StdDev      =  4.23670079326361 
# Profile Bins     =  512
# Profile Avg      =  1401.24981981729 
# Profile StdDev   =  500.433100573502 
# Reduced chi-sqr  =  0.491
# Prob(Noise)      <  1   (~0.0 sigma)
# P_topo (ms)      =  714.465622019733  +/- 5.88e-05
# P'_topo (s/s)    =  -0                +/- 3.19e-11
# P''_topo (s/s^2) =  0                 +/- 1.45e-14
# P_bary (ms)      =  N/A
# P'_bary (s/s)    =  N/A
# P''_bary (s/s^2) =  N/A
# P_orb (s)        =  N/A
# asin(i)/c (s)    =  N/A
# eccentricity     =  N/A
# w (rad)          =  N/A
# T_peri           =  N/A
######################################################
   0  1115.992
   1  1122.847
   2  1239.141
   3  1737.55
   4  1268.491
   5  1202.274
   6  1340.823
   7  1171.366
   8  1362.04
   9  1418.091
  10  1523.403
  11  1164.288
  12  1202.444
  13  845.8766
  14  1291.265
  15  1202.591
  16  1169.24
  17  1195.209
  18  1360.896
  19  1587.882
  20  1579.485
  21  1253.068
  22  1133.712
  23  1350.267
  24  1404.9
  25  1586.902
  26  1353.502
  27  1485.242
  28  1516.084
  29  1391.984
  30  1213.979
  31  1114.07
  32  1666.436
  33  1735.461
  34  1396.589
  35  1392.542
  36  1366.616
  37  1680.367
  38  1699.258
  39  1507.629
  40  1720.215
  41  1755.422
  42  1271.743
  43  1400.576
  44  1640.729
  45  1703.856
  46  1404.326
  47  1531.099
  48  1496.813
  49  1486.362
  50  1397.536
  51  1340.768
  52  1378.687
  53  1433.431
  54  1490.43
  55  1381.935
  56  1687.192
  57  1379.833
  58  1655.244
  59  1631.436
  60  1328.611
  61  1411.522
  62  1527.447
  63  1783.997
  64  1435.928
  65  1397.064
  66  1232.651
  67  1213.418
  68  1344.912
  69  1475.876
  70  1667.292
  71  1264.633
  72  915.8455
  73  1198.592
  74  1306.661
  75  1523.268
  76  1439.598
  77  1235.144
  78  1287.311
  79  1180.946
  80  1249.323
  81  1195.103
  82  1356.254
  83  1392.844
  84  1384.129
  85  1504.54
  86  1159.281
  87  1027.19
  88  962.0056
  89  1064.592
  90  1311.505
  91  1746.177
  92  1803.786
  93  1153.9
  94  1391.939
  95  1383.443
  96  1165.237
  97  1291.388
  98  1273.434
  99  1542.459
 100  1302.646
 101  1384.596
 102  1508.006
 103  1445.238
 104  1485.424
 105  950.8156
 106  1259.173
 107  1817.483
 108  1422.632
 109  1042.231
 110  1488.664
 111  1685.275
 112  1370.25
 113  1225.193
 114  1459.684
 115  1528.965
 116  1562.25
 117  1553.798
 118  1444.228
 119  1377.904
 120  1489.975
 121  1743.752
 122  1660.664
 123  1859.176
 124  1091.158
 125  1306.641
 126  1223.924
 127  1221.375
 128  1385.496
 129  1503.428
 130  1421.334
 131  1253.709
 132  1601.687
 133  1278.333
 134  1409.902
 135  1554.808
 136  1402.714
 137  1682.036
 138  1318.1
 139  1237.732
 140  1435.363
 141  1517.608
 142  1025.172
 143  1229.423
 144  1133.872
 145  1065.851
 146  1297.286
 147  1476.167
 148  1491.714
 149  1303.171
 150  1360.544
 151  1546.306
 152  1613.598
 153  1139.186
 154  1235.497
 155  1188.957
 156  1449.535
 157  1406.334
 158  1285.083
 159  1268.225
 160  876.8402
 161  1046.389
 162  1215.266
 163  1367.164
 164  1540.898
 165  1642.263
 166  1711.445
 167  1530.189
 168  1210.163
 169  1305.026
 170  1335.867
 171  1247.093
 172  1339.493
 173  1310.33
 174  1463.676
 175  1665.786
 176  1540.489
 177  1379.484
 178  1143.715
 179  1051.839
 180  1391.108
 181  1420.554
 182  1013.717
 183  1366.076
 184  1251.757
 185  1488.459
 186  1335.985
 187  1162.831
 188  1562.562
 189  1589.015
 190  1434.27
 191  1284.74
 192  1386.339
 193  1394.467
 194  1430.206
 195  1477.501
 196  1758.766
 197  1803.006
 198  1481.213
 199  1369.937
 200  1098.644
 201  1186.357
 202  1487.154
 203  1544.253
 204  1702.13
 205  1540.32
 206  1706.64
 207  1709.801
 208  1301.942
 209  1385.531
 210  1313.14
 211  1302.823
 212  1654.475
 213  1643.667
 214  1756.636
 215  1793.454
 216  1659.479
 217  1741.914
 218  1510.998
 219  1315.91
 220  1286.065
 221  1380.795
 222  1102.769
 223  1096.841
 224  754.6281
 225  943.6746
 226  1056.678
 227  1081.758
 228  1389.443
 229  1465.677
 230  1327.688
 231  1298.038
 232  1555.744
 233  1287.831
 234  970.108
 235  1305.668
 236  1417.381
 237  1584.321
 238  1506.317
 239  1621.611
 240  1222.803
 241  1159.628
 242  1528.906
 243  1749.128
 244  1159.44
 245  1135.903
 246  1404.633
 247  1825.195
 248  1658.466
 249  1301.78
 250  1233.897
 251  1087.492
 252  1126.133
 253  1322.227
 254  1345.228
 255  1143.18
 256  1232.508
 257  1595.57
 258  1837.853
 259  1588.902
 260  985.9601
 261  1370.833
 262  1732.157
 263  1391.209
 264  1487.423
 265  1274.771
 266  1172.657
 267  1257.136
 268  1468.204
 269  1544.443
 270  1486.105
 271  1388.695
 272  1635.729
 273  1426.928
 274  1173.912
 275  1151.823
 276  1379.94
 277  1472.998
 278  1473.032
 279  1578.393
 280  1450.275
 281  1502.289
 282  877.6022
 283  1399.648
 284  1694.54
 285  1594.8
 286  1686.898
 287  1287.93
 288  1294.989
 289  1001.098
 290  1403.898
 291  1810.992
 292  1682.442
 293  1363.44
 294  1373.12
 295  1424.261
 296  1048.811
 297  1495.61
 298  1511.907
 299  1175.915
 300  1371.086
 301  1813.992
 302  1882.506
 303  1522.524
 304  1675.63
 305  1597.676
 306  1110.74
 307  1010.404
 308  1071.185
 309  1394.173
 310  1610.184
 311  1661.187
 312  1522.276
 313  1378.915
 314  1294.723
 315  1208.408
 316  1489.708
 317  1422.829
 318  1482.583
 319  1454.873
 320  1617.526
 321  1999.119
 322  2543.886
 323  2899.763
 324  2993.188
 325  2860.214
 326  2743.325
 327  2301.432
 328  1999.515
 329  1517.064
 330  1388.489
 331  1594.139
 332  1541.126
 333  1112.184
 334  1303.346
 335  1337.847
 336  1671.558
 337  1495.439
 338  1281.088
 339  1492.019
 340  1274.283
 341  1386.039
 342  1441.132
 343  1376.905
 344  1268.126
 345  1193.414
 346  1681.27
 347  1448.597
 348  1378.496
 349  1410.825
 350  1410.71
 351  1542.944
 352  963.9777
 353  1230.916
 354  1278.219
 355  1368.579
 356  1142.71
 357  1363.477
 358  1217.041
 359  1148.766
 360  1631.9
 361  1441.379
 362  1180.2
 363  980.9775
 364  1070.161
 365  1273.107
 366  1297.441
 367  1454.201
 368  1774.082
 369  1414.136
 370  1369.561
 371  1182.683
 372  1384.791
 373  1485.204
 374  1059.323
 375  1232.125
 376  1550.562
 377  1443.651
 378  1280.565
 379  1547.694
 380  1283.021
 381  1228.786
 382  1090.341
 383  1195.14
 384  1489.669
 385  1234.699
 386  1624.676
 387  1649.157
 388  1510.608
 389  1346.229
 390  1342.735
 391  1350.062
 392  1014.789
 393  1050.55
 394  1471.639
 395  1373.876
 396  1195.609
 397  1147.305
 398  1170.416
 399  1186.558
 400  1361.067
 401  1493.893
 402  1522.935
 403  1353.858
 404  1215.353
 405  1308.802
 406  1499.17
 407  1404.004
 408  1013.573
 409  1150.628
 410  1004.804
 411  1470.963
 412  1560.587
 413  1298.739
 414  1056.078
 415  1397.838
 416  1412.03
 417  1300.887
 418  1644.345
 419  1662.11
 420  1459.312
 421  1465.323
 422  1416.969
 423  1152.708
 424  1185.126
 425  1291.69
 426  1133.193
 427  1507.379
 428  1522.855
 429  1281.376
 430  1160.735
 431  1263.33
 432  1522.5
 433  1399.188
 434  1744.722
 435  1707.896
 436  1495.4
 437  1537.786
 438  1313.087
 439  1163.852
 440  1035.058
 441  1470.978
 442  1717.603
 443  1495.937
 444  1074.569
 445  1267.223
 446  1308.855
 447  1047.421
 448  1601.595
 449  1766.508
 450  1606.891
 451  1210.658
 452  1570.168
 453  1549.535
 454  1104.814
 455  1429.226
 456  1183.318
 457  1458.035
 458  1225.396
 459  981.8412
 460  1155.218
 461  1616.353
 462  1357.955
 463  1180.594
 464  1363.596
 465  1153.798
 466  1281.968
 467  1211.408
 468  1198.299
 469  1283.815
 470  1412.811
 471  1722.951
 472  1762.155
 473  1410.546
 474  1112.572
 475  1367.637
 476  1352.259
 477  1430.897
 478  1653.045
 479  1680.914
 480  1246.582
 481  1103.475
 482  1407.487
 483  1464.608
 484  1253.953
 485  1385.131
 486  1644.326
 487  1824.844
 488  1721.151
 489  1236.656
 490  1645.108
 491  1199.324
 492  1108.214
 493  1650.737
 494  1686.63
 495  1640.641
 496  1681.526
 497  1572.687
 498  1394.767
 499  1413.039
 500  1343.255
 501  1278.737
 502  1411.878
 503  1386.683
 504  1377.097
 505  1462.548
 506  1589.834
 507  1327.052
 508  1708.33
 509  1130.344
 510  846.3151
 511  1220.645
