# Input file       =  1186439960.113446_cleaned.dat
# Candidate        =  PSR_0332+5434
# Telescope        =  AR
# Epoch_topo       =  57975.944202701918
# Epoch_bary       =  N/A
# T_sample         =  0.002
# Data Folded      =  7208960
# Data Avg         =  0.103376940372188
# Data StdDev      =  4.42902010849342 
# Profile Bins     =  1024
# Profile Avg      =  727.803940648111 
# Profile StdDev   =  371.615638280914 
# Reduced chi-sqr  =  0.592
# Prob(Noise)      <  1   (~0.0 sigma)
# P_topo (ms)      =  714.46590324149   +/- 6.63e-05
# P'_topo (s/s)    =  -0                +/- 3.56e-11
# P''_topo (s/s^2) =  0                 +/- 1.6e-14
# P_bary (ms)      =  N/A
# P'_bary (s/s)    =  N/A
# P''_bary (s/s^2) =  N/A
# P_orb (s)        =  N/A
# asin(i)/c (s)    =  N/A
# eccentricity     =  N/A
# w (rad)          =  N/A
# T_peri           =  N/A
######################################################
   0  763.4411
   1  769.4476
   2  725.5313
   3  675.9718
   4  722.372
   5  787.1765
   6  1000.61
   7  901.4893
   8  829.8112
   9  790.5472
  10  704.4565
  11  694.6452
  12  691.9402
  13  680.3913
  14  554.175
  15  516.829
  16  620.5977
  17  707.1514
  18  726.0044
  19  758.4279
  20  767.9637
  21  733.6459
  22  645.8943
  23  623.9625
  24  654.7647
  25  692.2282
  26  704.9686
  27  719.7064
  28  608.1713
  29  603.4606
  30  521.3742
  31  387.2396
  32  193.0401
  33  266.2297
  34  397.1065
  35  591.0082
  36  717.1195
  37  801.3829
  38  767.1232
  39  756.1008
  40  746.4221
  41  691.3619
  42  780.3842
  43  845.3417
  44  834.8843
  45  590.0878
  46  553.3954
  47  519.0952
  48  478.0258
  49  440.674
  50  614.1057
  51  692.1696
  52  629.0659
  53  773.2963
  54  869.5918
  55  727.6634
  56  593.3708
  57  702.7581
  58  778.588
  59  725.8572
  60  822.8395
  61  801.6848
  62  755.8892
  63  569.8743
  64  584.5449
  65  519.883
  66  500.4657
  67  473.7386
  68  479.742
  69  549.4034
  70  666.5762
  71  789.1357
  72  803.747
  73  849.5137
  74  897.4749
  75  900.6123
  76  743.1715
  77  838.1451
  78  805.249
  79  797.697
  80  630.8436
  81  881.5032
  82  931.158
  83  788.0065
  84  633.8521
  85  632.0126
  86  695.8357
  87  802.0524
  88  714.089
  89  702.4348
  90  597.0443
  91  719.4589
  92  577.3903
  93  401.9298
  94  349.6864
  95  495.9044
  96  699.5933
  97  711.3349
  98  646.9461
  99  545.4928
 100  687.697
 101  843.2185
 102  829.5034
 103  703.6901
 104  824.43
 105  922.2791
 106  783.7266
 107  712.0496
 108  860.326
 109  961.0225
 110  942.5726
 111  875.7518
 112  816.3195
 113  517.8711
 114  470.172
 115  642.7822
 116  804.7004
 117  781.0619
 118  1007.672
 119  1124
 120  994.7375
 121  846.7254
 122  1012.34
 123  945.1921
 124  744.7587
 125  766.0909
 126  847.7106
 127  653.512
 128  474.0086
 129  543.5165
 130  659.7712
 131  590.4312
 132  688.6853
 133  763.1796
 134  669.6688
 135  588.5767
 136  718.7688
 137  959.8379
 138  992.0268
 139  922.4005
 140  881.546
 141  828.2494
 142  791.1973
 143  667.5595
 144  598.4089
 145  556.2916
 146  586.0703
 147  644.6146
 148  609.4899
 149  668.1516
 150  612.8474
 151  645.2233
 152  772.1337
 153  902.6518
 154  856.6465
 155  837.405
 156  770.5966
 157  607.3577
 158  457.3698
 159  444.7004
 160  561.9149
 161  541.9558
 162  562.3245
 163  651.1205
 164  705.8085
 165  611.7747
 166  648.7311
 167  758.8704
 168  856.9678
 169  780.5039
 170  863.3234
 171  690.915
 172  602.2236
 173  624.2247
 174  788.3665
 175  667.4904
 176  395.6411
 177  442.6274
 178  527.7829
 179  649.8979
 180  648.6823
 181  736.3924
 182  682.5168
 183  779.6513
 184  846.6113
 185  771.3562
 186  605.1328
 187  588.2028
 188  637.7269
 189  524.311
 190  495.4463
 191  547.5869
 192  683.6442
 193  721.3401
 194  743.8203
 195  773.563
 196  710.2456
 197  690.8267
 198  529.879
 199  435.0925
 200  324.3685
 201  388.1206
 202  482.9975
 203  698.4772
 204  833.2657
 205  812.8321
 206  791.9236
 207  768.7193
 208  626.9706
 209  566.1699
 210  688.7113
 211  845.8141
 212  832.1441
 213  623.0728
 214  696.2213
 215  673.8405
 216  797.6966
 217  764.9788
 218  852.3406
 219  724.2421
 220  723.8195
 221  784.4853
 222  769.3946
 223  594.652
 224  660.2044
 225  703.2872
 226  740.0071
 227  794.4017
 228  1014.939
 229  990.5544
 230  796.6798
 231  540.7319
 232  510.1003
 233  668.9621
 234  825.79
 235  1004.111
 236  895.9716
 237  844.5252
 238  787.4426
 239  876.7713
 240  898.1745
 241  967.2443
 242  1009.794
 243  1054.091
 244  827.246
 245  822.7625
 246  750.0899
 247  717.8284
 248  619.8578
 249  753.6417
 250  709.486
 251  604.5474
 252  573.4844
 253  684.9012
 254  739.9705
 255  804.4793
 256  796.4122
 257  873.0146
 258  843.2899
 259  872.6813
 260  705.3931
 261  516.3619
 262  449.0951
 263  584.3398
 264  765.8518
 265  747.6785
 266  668.418
 267  522.8287
 268  637.0157
 269  858.9982
 270  941.6255
 271  812.897
 272  562.268
 273  465.1107
 274  460.9074
 275  592.8246
 276  635.5707
 277  521.0133
 278  588.7364
 279  699.2919
 280  624.7263
 281  493.7997
 282  512.3619
 283  629.2089
 284  557.095
 285  551.4561
 286  749.4063
 287  875.717
 288  787.7131
 289  734.6034
 290  600.0045
 291  613.7576
 292  694.1987
 293  840.365
 294  792.5441
 295  677.1795
 296  714.9313
 297  843.821
 298  819.4434
 299  780.9582
 300  764.7983
 301  781.2629
 302  803.7598
 303  776.6778
 304  740.9095
 305  661.6437
 306  727.548
 307  938.2939
 308  901.9406
 309  816.9932
 310  707.1061
 311  740.8687
 312  781.0833
 313  784.8098
 314  837.636
 315  751.9907
 316  721.8458
 317  705.5781
 318  800.6924
 319  704.693
 320  692.1747
 321  624.2311
 322  656.7875
 323  712.001
 324  772.9832
 325  801.7148
 326  774.3694
 327  789.9066
 328  759.6857
 329  734.1866
 330  749.3111
 331  772.4664
 332  748.9206
 333  623.7908
 334  563.2468
 335  511.5468
 336  662.3659
 337  751.8416
 338  635.7032
 339  465.9593
 340  445.469
 341  751.5477
 342  831.0826
 343  909.1916
 344  924.2317
 345  926.5824
 346  725.1836
 347  645.2418
 348  730.7446
 349  642.3449
 350  522.637
 351  601.3986
 352  710.3607
 353  803.8747
 354  856.5181
 355  964.6414
 356  758.8236
 357  655.2809
 358  676.7772
 359  874.3228
 360  827.1551
 361  827.2786
 362  777.4551
 363  674.0324
 364  461.7145
 365  339.297
 366  480.8201
 367  683.0192
 368  804.6884
 369  846.1412
 370  739.4758
 371  653.8896
 372  852.483
 373  971.7917
 374  1013.589
 375  868.3295
 376  909.4341
 377  790.2179
 378  788.2102
 379  717.9948
 380  781.9745
 381  702.254
 382  823.8629
 383  771.9998
 384  796.6694
 385  770.1613
 386  811.6941
 387  777.8498
 388  786.7654
 389  889.9753
 390  862.0699
 391  712.1739
 392  587.1005
 393  510.2456
 394  482.1996
 395  586.9943
 396  801.9722
 397  812.0007
 398  757.6422
 399  679.8449
 400  566.9261
 401  509.5291
 402  582.1406
 403  796.6038
 404  762.5213
 405  700.5806
 406  708.3346
 407  611.7496
 408  628.3644
 409  759.0909
 410  921.5917
 411  829.7595
 412  691.8001
 413  822.6301
 414  666.1473
 415  504.3367
 416  407.6458
 417  634.8616
 418  671.0344
 419  876.4627
 420  1004.338
 421  1017.893
 422  761.9286
 423  711.8005
 424  793.4778
 425  703.6575
 426  739.8962
 427  773.567
 428  743.3777
 429  509.0201
 430  539.6746
 431  574.4642
 432  597.1732
 433  552.0029
 434  710.3571
 435  696.0844
 436  730.3387
 437  796.5443
 438  779.12
 439  749.4773
 440  753.2084
 441  766.9145
 442  780.9147
 443  654.7111
 444  782.6274
 445  879.7489
 446  843.6438
 447  781.6458
 448  700.7102
 449  788.5747
 450  825.5861
 451  764.9601
 452  686.2108
 453  683.1033
 454  821.2912
 455  920.7532
 456  867.6311
 457  768.3108
 458  625.319
 459  626.4976
 460  760.5754
 461  770.5916
 462  710.9064
 463  605.5098
 464  677.3269
 465  645.9816
 466  532.7971
 467  652.342
 468  765.7009
 469  814.4874
 470  789.3821
 471  845.1172
 472  864.982
 473  666.9486
 474  777.0281
 475  905.1983
 476  982.8969
 477  709.5179
 478  869.2363
 479  857.1059
 480  832.0106
 481  704.4152
 482  754.0981
 483  583.6298
 484  455.9513
 485  539.998
 486  742.0465
 487  642.9114
 488  608.3867
 489  634.1149
 490  685.4575
 491  600.0826
 492  691.8411
 493  854.8749
 494  771.087
 495  633.1311
 496  645.8213
 497  670.681
 498  698.892
 499  688.3281
 500  754.271
 501  775.9254
 502  776.6674
 503  733.5469
 504  717.2324
 505  808.7969
 506  852.6557
 507  898.4646
 508  757.8744
 509  827.5777
 510  818.323
 511  942.4954
 512  963.6954
 513  800.8341
 514  516.9188
 515  649.0428
 516  861.1616
 517  899.5187
 518  740.2028
 519  792.9105
 520  714.4728
 521  651.5529
 522  666.4216
 523  797.769
 524  736.1392
 525  673.2031
 526  708.3033
 527  695.4518
 528  591.2362
 529  600.6031
 530  768.8452
 531  774.155
 532  751.1611
 533  692.3071
 534  646.1028
 535  561.9303
 536  605.8594
 537  641.3276
 538  660.9041
 539  716.4843
 540  808.0216
 541  742.8816
 542  575.7261
 543  684.4818
 544  761.166
 545  683.9448
 546  629.0966
 547  688.105
 548  660.507
 549  576.2094
 550  728.6588
 551  939.1054
 552  860.2182
 553  793.3105
 554  613.5123
 555  666.6869
 556  610.4769
 557  608.191
 558  535.5102
 559  479.556
 560  531.3947
 561  619.4115
 562  615.5577
 563  637.0355
 564  617.8591
 565  838.0564
 566  899.2922
 567  950.3216
 568  787.2242
 569  799.8534
 570  799.0897
 571  718.899
 572  587.4315
 573  588.3282
 574  641.7798
 575  658.8066
 576  629.2826
 577  716.0911
 578  651.7726
 579  612.8165
 580  668.8469
 581  751.9158
 582  615.3378
 583  626.9858
 584  798.5668
 585  840.2012
 586  652.4231
 587  692.6562
 588  802.7505
 589  688.761
 590  550.7641
 591  548.8703
 592  579.622
 593  550.4129
 594  602.4677
 595  640.9723
 596  567.5667
 597  528.3506
 598  552.389
 599  435.1067
 600  435.2981
 601  484.9554
 602  713.7853
 603  738.0306
 604  680.3752
 605  654.6666
 606  612.7347
 607  617.3948
 608  688.4223
 609  709.9191
 610  666.9352
 611  763.9394
 612  1061.439
 613  1080.518
 614  852.1259
 615  733.8777
 616  761.7331
 617  855.3148
 618  827.5427
 619  850.4263
 620  638.4745
 621  557.5765
 622  547.8271
 623  589.999
 624  582.5549
 625  679.1238
 626  706.9731
 627  729.9164
 628  615.1522
 629  596.9034
 630  546.8738
 631  707.1707
 632  916.4601
 633  986.6144
 634  929.0709
 635  867.6722
 636  924.3107
 637  800.9856
 638  923.5944
 639  1018.922
 640  1083.184
 641  1033.738
 642  1163.712
 643  1114.836
 644  1060.196
 645  995.0344
 646  1336.172
 647  1313.223
 648  1496.416
 649  1667.495
 650  1822.275
 651  1628.831
 652  1511.056
 653  1311.984
 654  1310.413
 655  1118.548
 656  991.5997
 657  677.9561
 658  571.9521
 659  686.1577
 660  785.9988
 661  834.9292
 662  768.2505
 663  849.8799
 664  842.6218
 665  673.8268
 666  620.831
 667  629.1553
 668  657.9966
 669  643.5535
 670  655.5188
 671  667.9609
 672  543.5718
 673  637.1284
 674  620.0867
 675  676.0565
 676  659.7186
 677  813.0562
 678  792.993
 679  792.9071
 680  708.202
 681  725.4763
 682  572.4792
 683  749.5158
 684  779.8727
 685  744.8209
 686  506.8159
 687  534.7172
 688  494.835
 689  597.8145
 690  753.4355
 691  886.3721
 692  835.6821
 693  777.582
 694  819.002
 695  699.6653
 696  741.045
 697  798.3188
 698  865.1173
 699  704.3625
 700  674.4388
 701  644.246
 702  658.2238
 703  705.3481
 704  942.1868
 705  859.9013
 706  721.7631
 707  752.4401
 708  894.2462
 709  895.326
 710  794.7121
 711  831.0132
 712  795.1554
 713  730.7394
 714  881.8486
 715  893.5368
 716  720.9761
 717  549.9796
 718  626.4086
 719  680.2909
 720  655.8814
 721  730.8967
 722  746.3448
 723  725.8752
 724  659.0097
 725  767.82
 726  739.9376
 727  801.2696
 728  886.446
 729  849.687
 730  651.0813
 731  653.3787
 732  789.1821
 733  939.49
 734  830.7818
 735  889.2988
 736  857.8796
 737  747.8628
 738  624.3768
 739  499.6981
 740  348.6811
 741  414.6864
 742  560.3209
 743  652.8266
 744  631.4733
 745  703.1699
 746  896.7056
 747  853.0479
 748  846.6445
 749  817.922
 750  901.6078
 751  913.6115
 752  755.5875
 753  628.2767
 754  594.34
 755  591.9691
 756  686.7953
 757  723.0663
 758  818.5888
 759  819.6566
 760  800.9518
 761  815.2717
 762  802.252
 763  808.0771
 764  837.7969
 765  972.476
 766  899.4966
 767  669.6014
 768  526.1125
 769  712.1306
 770  752.267
 771  804.1475
 772  872.8306
 773  921.0769
 774  840.3219
 775  730.6708
 776  718.6648
 777  707.4266
 778  639.6575
 779  890.0476
 780  974.0769
 781  1023.69
 782  775.7855
 783  792.4693
 784  804.1437
 785  812.3593
 786  884.1188
 787  987.7805
 788  943.9495
 789  823.1524
 790  647.8715
 791  580.6356
 792  633.8542
 793  765.4371
 794  716.6165
 795  592.3571
 796  525.8782
 797  720.7753
 798  641.2067
 799  655.417
 800  622.4365
 801  753.6583
 802  929.2232
 803  829.5229
 804  742.795
 805  672.4702
 806  708.1287
 807  703.9647
 808  665.7174
 809  577.3347
 810  660.131
 811  486.2462
 812  623.1615
 813  680.9982
 814  928.3901
 815  743.1477
 816  743.3864
 817  787.4318
 818  757.7497
 819  677.8854
 820  720.691
 821  692.7761
 822  660.7527
 823  655.9726
 824  721.9355
 825  658.8525
 826  615.0616
 827  772.0306
 828  866.5092
 829  801.2911
 830  763.7798
 831  887.3675
 832  760.5837
 833  700.2546
 834  678.6276
 835  741.7939
 836  513.7018
 837  503.0962
 838  710.8836
 839  828.2076
 840  719.202
 841  795.0732
 842  861.9423
 843  838.6439
 844  823.9911
 845  935.2333
 846  900.1807
 847  843.3321
 848  889.1557
 849  851.3699
 850  734.1605
 851  681.0896
 852  869.7481
 853  827.4466
 854  736.2745
 855  817.091
 856  912.2435
 857  780.2227
 858  657.6354
 859  679.8303
 860  874.2148
 861  800.691
 862  766.8864
 863  657.0392
 864  738.722
 865  855.8803
 866  730.389
 867  659.5226
 868  575.8624
 869  645.647
 870  664.7158
 871  635.1537
 872  431.955
 873  438.2773
 874  422.9557
 875  729.8991
 876  804.8392
 877  858.9043
 878  864.4323
 879  887.0585
 880  819.197
 881  817.0963
 882  876.8301
 883  916.0076
 884  802.9591
 885  869.1125
 886  797.436
 887  555.307
 888  399.5828
 889  596.8541
 890  684.2924
 891  709.6547
 892  654.2124
 893  747.0776
 894  567.8564
 895  548.9387
 896  726.0633
 897  894.0784
 898  857.4584
 899  912.4097
 900  868.391
 901  729.1274
 902  593.4838
 903  686.9406
 904  608.3387
 905  482.4078
 906  578.5466
 907  655.6371
 908  570.7961
 909  542.0185
 910  805.2252
 911  918.832
 912  966.6467
 913  923.4655
 914  949.3647
 915  769.9149
 916  807.452
 917  733.9718
 918  664.0821
 919  537.0695
 920  532.1478
 921  460.7979
 922  346.8723
 923  256.5694
 924  275.3974
 925  494.7951
 926  638.7454
 927  918.6035
 928  857.9971
 929  811.4232
 930  692.8045
 931  536.4013
 932  742.8644
 933  849.4186
 934  973.0828
 935  787.2296
 936  760.4564
 937  812.1752
 938  764.368
 939  754.0756
 940  764.9767
 941  730.6271
 942  546.5186
 943  558.1407
 944  619.9849
 945  690.7925
 946  650.4957
 947  807.864
 948  759.522
 949  608.564
 950  619.2956
 951  736.574
 952  741.738
 953  662.0949
 954  852.0997
 955  871.7355
 956  663.0339
 957  522.7795
 958  515.5803
 959  427.0271
 960  472.8782
 961  719.2032
 962  1060.15
 963  1124.923
 964  1063.243
 965  946.9811
 966  804.7633
 967  763.0374
 968  890.1804
 969  912.6052
 970  687.6607
 971  531.3251
 972  570.866
 973  524.5057
 974  475.916
 975  543.8157
 976  836.3721
 977  973.166
 978  1146.536
 979  1178.352
 980  1172.123
 981  992.4883
 982  808.2035
 983  613.593
 984  510.4929
 985  472.5598
 986  577.6657
 987  729.6034
 988  786.9184
 989  642.1229
 990  553.207
 991  631.7374
 992  735.3333
 993  863.8893
 994  862.9201
 995  842.3921
 996  680.2027
 997  535.2457
 998  600.8779
 999  637.0567
1000  748.6973
1001  805.2568
1002  763.1385
1003  630.442
1004  480.2057
1005  604.1591
1006  629.5796
1007  619.2021
1008  689.8015
1009  754.0059
1010  788.1595
1011  721.0118
1012  869.871
1013  854.3409
1014  702.8721
1015  755.6937
1016  773.5043
1017  756.1373
1018  584.5704
1019  629.8314
1020  600.2791
1021  385.4944
1022  397.1021
1023  576.9963
