# Input file       =  1186956974.095455_cleaned.dat
# Candidate        =  PSR_0332+5434
# Telescope        =  AR
# Epoch_topo       =  57981.928160827025
# Epoch_bary       =  N/A
# T_sample         =  0.002
# Data Folded      =  7143424
# Data Avg         =  0.120762946792245
# Data StdDev      =  3.50940296981584 
# Profile Bins     =  512
# Profile Avg      =  1684.99167370353 
# Profile StdDev   =  414.525711171109 
# Reduced chi-sqr  =  0.806
# Prob(Noise)      <  1   (~0.0 sigma)
# P_topo (ms)      =  714.464446327553  +/- 8.01e-05
# P'_topo (s/s)    =  -0                +/- 4.34e-11
# P''_topo (s/s^2) =  0                 +/- 1.97e-14
# P_bary (ms)      =  N/A
# P'_bary (s/s)    =  N/A
# P''_bary (s/s^2) =  N/A
# P_orb (s)        =  N/A
# asin(i)/c (s)    =  N/A
# eccentricity     =  N/A
# w (rad)          =  N/A
# T_peri           =  N/A
######################################################
   0  1337.922
   1  1592.745
   2  1913.796
   3  1959.58
   4  2057.095
   5  2125.7
   6  1754.123
   7  1606.456
   8  1446.04
   9  1075.138
  10  1462.318
  11  1780.609
  12  1817.408
  13  1750.624
  14  1596.398
  15  1236.092
  16  1252.384
  17  1476.754
  18  1644.656
  19  1576.788
  20  1833.597
  21  1850.561
  22  1317.777
  23  1310.103
  24  1502.232
  25  1554.358
  26  1931.289
  27  2211.682
  28  1663.197
  29  1690.708
  30  1966.033
  31  1992.44
  32  1719.906
  33  1488.757
  34  1660.247
  35  1880.755
  36  1792.65
  37  1607.065
  38  1899.844
  39  1979.599
  40  1727.761
  41  1620.426
  42  1717
  43  1898.647
  44  1512.435
  45  1628.951
  46  1741.126
  47  1714.461
  48  1629.213
  49  1800.056
  50  1845.584
  51  1676.62
  52  1451.238
  53  1470.883
  54  1697.312
  55  1647.266
  56  1635.459
  57  1293.652
  58  1472.082
  59  1698.508
  60  1540.391
  61  1512.548
  62  1493.128
  63  1221.607
  64  1382.609
  65  1774.017
  66  1758.521
  67  1678.294
  68  2101.007
  69  1700.422
  70  1657.657
  71  1881.804
  72  1896.675
  73  1900.068
  74  1521.85
  75  1566.026
  76  1451.524
  77  1710.94
  78  1458.178
  79  1886.688
  80  1963.637
  81  1796.313
  82  1345.166
  83  976.8226
  84  1506.069
  85  1585.443
  86  1760.498
  87  1862.091
  88  1509.062
  89  1373.689
  90  1160.722
  91  1531.215
  92  1822.224
  93  1887.553
  94  2154.893
  95  2108.587
  96  2035.299
  97  2120.156
  98  1876.201
  99  1839.836
 100  1825.164
 101  1599.406
 102  1800.874
 103  2098.38
 104  2056.203
 105  1887.212
 106  1920.677
 107  1661.937
 108  1535.091
 109  1681.08
 110  2052.423
 111  2041.868
 112  1779.574
 113  1711.214
 114  1740.556
 115  1599.075
 116  1668.823
 117  1631.138
 118  1716.808
 119  1678.044
 120  1530.725
 121  1684.715
 122  1721.681
 123  1594.94
 124  1164.546
 125  1675.71
 126  1830.976
 127  1900.895
 128  1915.733
 129  1590.223
 130  1494.427
 131  1517.271
 132  1641.091
 133  1838.177
 134  1985.898
 135  1927.687
 136  1660.74
 137  1952.273
 138  2131.188
 139  1838.705
 140  1848.972
 141  1584.071
 142  1788.204
 143  2001.065
 144  1723.399
 145  1502.1
 146  1564.207
 147  1530.759
 148  1608.531
 149  1630.715
 150  1623.903
 151  1740.547
 152  1846.997
 153  1759.364
 154  1628.466
 155  1628.901
 156  1573.081
 157  1716.596
 158  1734.248
 159  1726.131
 160  1388.392
 161  1645.485
 162  1645.926
 163  1516.403
 164  1672.392
 165  1539.911
 166  1707.342
 167  2100.75
 168  2530.716
 169  1950.708
 170  2120.044
 171  2080.656
 172  1743.977
 173  1495.786
 174  1704.254
 175  1857.579
 176  2003.612
 177  2118.409
 178  2074.957
 179  1748.967
 180  1524.88
 181  1608.517
 182  1684.032
 183  1700.149
 184  1640.096
 185  1700.257
 186  1948.634
 187  1982.267
 188  1880.072
 189  1495.032
 190  1595.374
 191  1539.487
 192  1750.41
 193  1846.948
 194  1891.391
 195  1716.489
 196  1873.958
 197  1845.595
 198  1790.38
 199  1580.437
 200  1801.049
 201  1814.809
 202  1731.243
 203  1725.65
 204  1631.718
 205  1652.022
 206  1511.226
 207  1800.711
 208  1797.906
 209  1783.576
 210  1518.439
 211  1696.604
 212  1586.216
 213  1589.481
 214  1466.843
 215  1131.953
 216  1117.73
 217  1326.873
 218  1703.098
 219  1908.121
 220  1862.617
 221  1602.149
 222  1490.196
 223  1520.045
 224  1562.576
 225  1608.446
 226  1729.552
 227  1473.276
 228  1627.682
 229  1443.382
 230  1622.306
 231  1839.592
 232  1722.979
 233  1871.006
 234  2251.132
 235  1982.181
 236  1763.963
 237  1858.478
 238  2291.547
 239  1906.288
 240  1583.477
 241  2039.778
 242  1850.198
 243  1553.193
 244  1692.146
 245  1756.999
 246  1655.502
 247  1599.627
 248  1657.795
 249  1811.349
 250  2028.906
 251  1799.116
 252  1787.312
 253  1998.417
 254  1777.435
 255  2066.204
 256  1903.888
 257  1802.55
 258  1713.439
 259  1662.499
 260  1558.966
 261  1440.984
 262  1548.765
 263  1679.377
 264  1700.883
 265  1574.618
 266  1864.381
 267  2259.048
 268  1871.292
 269  2048.231
 270  2087.52
 271  1532.757
 272  1446.101
 273  1318.177
 274  1715.129
 275  1814.359
 276  1652.835
 277  1464.454
 278  1655.315
 279  1600.007
 280  1711.643
 281  1558.686
 282  1761.612
 283  2584.694
 284  2814.956
 285  3080.323
 286  3199.493
 287  3329.329
 288  2971.029
 289  2130.214
 290  1707.648
 291  1650.366
 292  1232.005
 293  1724.973
 294  1832.696
 295  1699.355
 296  1890.377
 297  1559.99
 298  1300.934
 299  1254.425
 300  1573.498
 301  1382.339
 302  1588.167
 303  2189.159
 304  1936.891
 305  1294.975
 306  1317.711
 307  1623.836
 308  1754.944
 309  1468.136
 310  1508.515
 311  1659.164
 312  1877.418
 313  1678.438
 314  1424.807
 315  1603.599
 316  1393.024
 317  1581.805
 318  1644.129
 319  1753.955
 320  1982.427
 321  1518.757
 322  1644.373
 323  1858.422
 324  1834.06
 325  1534.131
 326  1807.671
 327  1564.424
 328  1420.265
 329  1766.392
 330  1429.754
 331  1554.527
 332  1678.274
 333  1932.514
 334  1730.231
 335  1521.244
 336  1767.459
 337  1890.341
 338  1601.368
 339  1558.189
 340  1578.337
 341  1825.127
 342  1646.799
 343  1485.816
 344  1485.286
 345  1546.385
 346  1239.273
 347  1274.608
 348  1684.383
 349  2070.531
 350  2121.823
 351  2040.771
 352  2106.583
 353  1905.184
 354  1689.465
 355  1451.743
 356  1684.34
 357  1711.233
 358  1742.467
 359  1832.17
 360  1614.533
 361  1302.097
 362  1156.219
 363  1311.255
 364  1082.948
 365  1040.134
 366  1538.019
 367  2015.024
 368  1722.3
 369  1712.938
 370  1854.498
 371  1674.365
 372  1243.222
 373  1401.872
 374  1643.39
 375  1641.908
 376  1439.776
 377  1597.595
 378  1613.87
 379  1411.544
 380  1544.64
 381  1547.706
 382  1808.738
 383  1666.661
 384  1565.987
 385  1602.374
 386  1531.562
 387  1491.496
 388  1284.642
 389  1321.052
 390  1590.406
 391  1773.819
 392  1729.702
 393  1464.235
 394  1157.765
 395  1198.681
 396  1259.988
 397  1444.501
 398  1763.974
 399  1566.999
 400  1713.729
 401  1747.928
 402  1670.228
 403  1428.336
 404  1296.792
 405  1248.888
 406  1223.58
 407  1499.847
 408  1727.216
 409  1605.359
 410  1669.645
 411  1586.943
 412  1841.377
 413  1448.107
 414  1532.558
 415  1784.349
 416  1779.106
 417  1776.668
 418  1688.391
 419  1727.447
 420  1713.185
 421  1575.622
 422  1471.332
 423  1395.477
 424  1597.57
 425  1667.257
 426  1858.305
 427  1536.451
 428  1270.655
 429  1433.99
 430  1205.752
 431  1665.838
 432  1755.846
 433  2000.478
 434  1716.85
 435  1348.741
 436  1450.837
 437  1352.032
 438  1500.414
 439  1845.002
 440  1739.619
 441  1506.281
 442  1861.415
 443  1763.391
 444  1503.108
 445  1441.884
 446  1225.2
 447  1430.316
 448  1522.216
 449  1775.098
 450  1843.44
 451  1895.656
 452  1826.028
 453  1525.618
 454  1607.668
 455  1382.314
 456  1647.571
 457  1787.374
 458  1442.735
 459  1551.112
 460  1465.375
 461  1159.983
 462  1145.645
 463  1375.931
 464  1603.893
 465  1743.791
 466  2054.923
 467  2014.633
 468  1762.225
 469  1594.287
 470  1723.908
 471  1680.902
 472  1871.712
 473  1875.039
 474  1585.466
 475  1539.685
 476  1786.624
 477  1867.783
 478  1819.439
 479  1496.433
 480  1659.904
 481  1875.416
 482  2091.232
 483  1720.729
 484  1760.013
 485  1439.11
 486  1790.665
 487  1306.46
 488  1354.797
 489  1796.3
 490  1708.232
 491  1608.667
 492  1559.764
 493  1537.899
 494  1391
 495  1288.685
 496  1285.003
 497  1248.466
 498  1648.123
 499  1933.46
 500  1760.532
 501  2006.242
 502  2010.699
 503  1863.943
 504  1813.83
 505  1727.713
 506  1648.252
 507  1675.797
 508  1560.149
 509  1913.507
 510  1648.131
 511  1295.027
