# Input file       =  1186971524.099253_cleaned.dat
# Candidate        =  PSR_0332+5434
# Telescope        =  AR
# Epoch_topo       =  57982.096563648760
# Epoch_bary       =  N/A
# T_sample         =  0.002
# Data Folded      =  7340032
# Data Avg         =  0.00330641743995772
# Data StdDev      =  1.00007109534035 
# Profile Bins     =  512
# Profile Avg      =  47.5874191609422 
# Profile StdDev   =  119.741548837738 
# Reduced chi-sqr  =  1.051
# Prob(Noise)      <  0.207   (~0.8 sigma)
# P_topo (ms)      =  714.464426187483  +/- 0.00016
# P'_topo (s/s)    =  -0                +/- 8.43e-11
# P''_topo (s/s^2) =  0                 +/- 3.72e-14
# P_bary (ms)      =  N/A
# P'_bary (s/s)    =  N/A
# P''_bary (s/s^2) =  N/A
# P_orb (s)        =  N/A
# asin(i)/c (s)    =  N/A
# eccentricity     =  N/A
# w (rad)          =  N/A
# T_peri           =  N/A
######################################################
   0  587.218
   1  459.3003
   2  225.4373
   3  118.2803
   4  13.0751
   5  -14.21355
   6  33.77106
   7  28.67274
   8  40.12026
   9  65.42175
  10  118.4044
  11  75.16908
  12  103.422
  13  106.2369
  14  92.3665
  15  17.33376
  16  0.3044147
  17  -56.6886
  18  -83.0119
  19  -42.80781
  20  17.42552
  21  81.10904
  22  143.3326
  23  16.27981
  24  -140.9031
  25  -25.59781
  26  -20.8384
  27  -17.93578
  28  -9.592886
  29  -29.48075
  30  27.76563
  31  -20.8983
  32  -12.74796
  33  -24.83345
  34  165.0634
  35  126.3372
  36  -33.06128
  37  60.88253
  38  -19.08673
  39  -9.857326
  40  31.42617
  41  69.62245
  42  106.1773
  43  128.0379
  44  153.5835
  45  10.33793
  46  -51.04628
  47  -120.1831
  48  -50.59357
  49  121.4137
  50  22.65778
  51  7.327409
  52  -27.33862
  53  48.15722
  54  161.6364
  55  62.99984
  56  -100.1526
  57  -40.75129
  58  -209.3663
  59  -87.13317
  60  -8.388518
  61  -39.81651
  62  -32.97778
  63  -54.31681
  64  131.4961
  65  172.7368
  66  -19.78795
  67  -102.7437
  68  -5.126542
  69  -8.69677
  70  101.9224
  71  77.70596
  72  168.2451
  73  48.755
  74  -68.64843
  75  106.2042
  76  37.78992
  77  -64.85342
  78  -65.09309
  79  -60.62742
  80  9.465392
  81  -176.8776
  82  -33.81495
  83  -4.273068
  84  -113.7593
  85  -51.88368
  86  94.77232
  87  127.1754
  88  70.91293
  89  75.5605
  90  26.17982
  91  -34.22717
  92  -1.522253
  93  -3.516401
  94  24.64815
  95  60.46635
  96  23.45094
  97  -40.67128
  98  116.4991
  99  109.2325
 100  44.05177
 101  -3.1845
 102  34.76138
 103  95.90809
 104  50.24156
 105  6.294785
 106  -4.392988
 107  117.5919
 108  79.93413
 109  97.28657
 110  79.73026
 111  114.4203
 112  16.96517
 113  -7.489856
 114  49.13564
 115  41.86519
 116  52.02993
 117  93.81056
 118  85.42178
 119  -2.552292
 120  -60.26973
 121  16.59513
 122  -126.5431
 123  -75.57967
 124  -95.60531
 125  11.88194
 126  79.75636
 127  74.14058
 128  182.5554
 129  128.2547
 130  -2.017851
 131  -8.205541
 132  -95.79527
 133  -81.73085
 134  -36.48837
 135  -0.8542932
 136  77.10963
 137  67.05167
 138  27.86454
 139  29.80377
 140  136.0742
 141  47.63849
 142  -28.10473
 143  -46.38288
 144  113.1821
 145  4.390458
 146  -90.41931
 147  43.08002
 148  100.8068
 149  91.2517
 150  163.631
 151  127.4632
 152  -40.75558
 153  -12.71606
 154  39.90183
 155  102.5048
 156  -96.64217
 157  -17.5591
 158  88.05975
 159  150.5671
 160  115.0122
 161  149.8905
 162  7.487107
 163  16.06471
 164  106.7073
 165  178.9031
 166  152.8031
 167  166.3081
 168  71.43803
 169  8.731879
 170  -2.340101
 171  26.45805
 172  -95.12768
 173  -88.85233
 174  105.9441
 175  65.40224
 176  185.107
 177  139.1165
 178  41.32619
 179  22.80989
 180  30.23239
 181  58.47198
 182  58.19623
 183  -37.44078
 184  -9.154284
 185  -7.314331
 186  -5.796813
 187  15.18862
 188  -8.357318
 189  28.75603
 190  22.3152
 191  63.63102
 192  34.47889
 193  61.44761
 194  157.1105
 195  118.7995
 196  92.65891
 197  0.9257864
 198  78.97939
 199  -1.396996
 200  78.06364
 201  71.1599
 202  57.85434
 203  19.03972
 204  -53.22405
 205  170.5059
 206  124.0792
 207  64.3787
 208  193.6026
 209  94.28642
 210  77.02975
 211  33.50648
 212  -19.78971
 213  50.22773
 214  47.91004
 215  98.30271
 216  126.5114
 217  -13.40556
 218  116.0991
 219  76.40777
 220  64.26857
 221  23.23659
 222  124.4117
 223  152.6302
 224  93.43282
 225  76.57747
 226  48.08065
 227  62.89957
 228  81.36258
 229  61.35517
 230  111.4971
 231  -0.9151527
 232  -28.7618
 233  72.88029
 234  142.8106
 235  -40.99666
 236  -70.53842
 237  -2.873746
 238  111.6455
 239  82.55076
 240  127.3935
 241  122.2473
 242  46.8976
 243  70.09642
 244  186.6194
 245  98.45348
 246  5.924056
 247  -130.1058
 248  -81.61275
 249  30.86681
 250  -30.95632
 251  -89.43658
 252  -132.7765
 253  -37.5208
 254  11.17815
 255  111.4049
 256  -1.385257
 257  7.922054
 258  45.63536
 259  -24.89454
 260  39.10493
 261  133.6414
 262  102.8721
 263  139.1181
 264  159.6215
 265  -10.05402
 266  -63.59867
 267  117.6495
 268  75.73812
 269  118.588
 270  73.56992
 271  78.50198
 272  64.21686
 273  26.79098
 274  81.60546
 275  148.0687
 276  261.6558
 277  204.7761
 278  46.7626
 279  47.89872
 280  140.2441
 281  98.37193
 282  71.5442
 283  -2.51647
 284  3.931447
 285  -44.79834
 286  13.31017
 287  48.47869
 288  66.14252
 289  6.761436
 290  117.4365
 291  122.0326
 292  19.33526
 293  4.87601
 294  -7.5846
 295  41.31311
 296  94.63387
 297  143.2112
 298  78.31966
 299  -13.94619
 300  80.42356
 301  45.77362
 302  -38.73008
 303  96.06331
 304  -33.24648
 305  -8.785112
 306  6.644235
 307  -61.98993
 308  68.15041
 309  58.09208
 310  41.71608
 311  148.8838
 312  155.3542
 313  87.55884
 314  6.725304
 315  23.78519
 316  59.8685
 317  -56.63845
 318  -85.10567
 319  -42.53793
 320  -114.5031
 321  -44.80787
 322  -14.97435
 323  -24.92927
 324  152.1371
 325  309.1861
 326  349.9326
 327  98.25781
 328  7.74751
 329  -106.2266
 330  -106.6624
 331  63.45031
 332  -25.74968
 333  -94.10973
 334  39.62197
 335  -21.60881
 336  0.1723616
 337  59.86868
 338  -49.22273
 339  23.06469
 340  122.5222
 341  130.5673
 342  40.10339
 343  -6.464123
 344  17.56838
 345  55.57143
 346  45.2066
 347  66.06316
 348  32.13808
 349  162.481
 350  219.182
 351  112.8101
 352  25.12947
 353  -15.39589
 354  80.68865
 355  179.8396
 356  52.28019
 357  53.61005
 358  79.28412
 359  131.8649
 360  9.653951
 361  70.1863
 362  200.0338
 363  65.62357
 364  -0.1663465
 365  114.7706
 366  160.5991
 367  116.3137
 368  -12.06688
 369  34.26915
 370  98.90997
 371  147.8498
 372  24.3137
 373  -55.72383
 374  -5.50122
 375  10.80923
 376  74.32329
 377  35.24182
 378  81.55379
 379  84.485
 380  26.60815
 381  -30.17491
 382  59.67879
 383  -72.66348
 384  -41.87491
 385  -19.14443
 386  26.51233
 387  80.43491
 388  -14.7409
 389  -42.78661
 390  143.2508
 391  133.051
 392  35.20865
 393  33.45409
 394  51.15527
 395  -44.11679
 396  70.64595
 397  155.7696
 398  108.6406
 399  -58.43179
 400  6.419593
 401  76.77974
 402  -33.90134
 403  45.72528
 404  48.28256
 405  122.2971
 406  110.0405
 407  9.131363
 408  -15.53529
 409  84.37111
 410  87.27247
 411  88.4191
 412  146.2673
 413  53.43752
 414  -78.72559
 415  -93.72585
 416  48.90565
 417  -16.24804
 418  -97.74233
 419  97.96101
 420  152.2128
 421  47.6695
 422  -16.47085
 423  77.27747
 424  -49.33958
 425  -58.30227
 426  2.085232
 427  -80.18698
 428  -41.35846
 429  -16.43894
 430  -1.455606
 431  189.7297
 432  192.4812
 433  80.19176
 434  61.23265
 435  104.2857
 436  -15.87437
 437  -60.43451
 438  -20.56641
 439  126.1277
 440  -90.96508
 441  -25.27701
 442  43.78585
 443  62.07773
 444  110.3576
 445  138.53
 446  68.9755
 447  14.8027
 448  21.53498
 449  -90.60584
 450  -44.9029
 451  12.7884
 452  112.1141
 453  -65.2885
 454  -2.092457
 455  -16.82956
 456  3.652894
 457  131.2453
 458  260.1001
 459  97.47845
 460  62.07059
 461  -12.9971
 462  14.45615
 463  101.9777
 464  97.76704
 465  103.0891
 466  116.7444
 467  78.6976
 468  -121.1308
 469  71.94317
 470  96.66038
 471  6.507813
 472  107.1974
 473  153.3066
 474  -35.10079
 475  -9.255054
 476  -2.475944
 477  61.44041
 478  50.5058
 479  -56.07375
 480  -67.85866
 481  31.42888
 482  49.91881
 483  80.82758
 484  142.4542
 485  128.0519
 486  14.80093
 487  5.768286
 488  177.8408
 489  81.09847
 490  70.99314
 491  188.8794
 492  163.4356
 493  35.84331
 494  49.37502
 495  86.21223
 496  50.97226
 497  68.47064
 498  65.69659
 499  0.8692893
 500  13.11376
 501  -11.67942
 502  71.71302
 503  155.4701
 504  278.5343
 505  250.1686
 506  239.4922
 507  92.12786
 508  167.7153
 509  335.35
 510  454.1418
 511  504.8618
