# Input file       =  1186353793.111462_cleaned.dat
# Candidate        =  PSR_0332+5434
# Telescope        =  AR
# Epoch_topo       =  57974.946899438219
# Epoch_bary       =  N/A
# T_sample         =  0.002
# Data Folded      =  7208960
# Data Avg         =  0.0915762701061215
# Data StdDev      =  4.27400072246876 
# Profile Bins     =  1024
# Profile Avg      =  644.750460986938 
# Profile StdDev   =  358.608781984868 
# Reduced chi-sqr  =  0.638
# Prob(Noise)      <  1   (~0.0 sigma)
# P_topo (ms)      =  714.466197886514  +/- 2.82e-05
# P'_topo (s/s)    =  -0                +/- 1.52e-11
# P''_topo (s/s^2) =  0                 +/- 6.82e-15
# P_bary (ms)      =  N/A
# P'_bary (s/s)    =  N/A
# P''_bary (s/s^2) =  N/A
# P_orb (s)        =  N/A
# asin(i)/c (s)    =  N/A
# eccentricity     =  N/A
# w (rad)          =  N/A
# T_peri           =  N/A
######################################################
   0  780.2896
   1  764.5107
   2  788.7672
   3  581.0714
   4  408.0359
   5  457.2598
   6  514.5916
   7  418.1967
   8  476.7964
   9  589.2756
  10  583.4504
  11  470.1523
  12  487.4867
  13  541.4258
  14  477.4691
  15  623.3057
  16  775.6018
  17  701.8058
  18  528.1822
  19  494.8947
  20  502.3297
  21  451.3842
  22  558.6528
  23  708.9619
  24  553.4901
  25  399.2807
  26  429.8134
  27  412.7951
  28  423.1874
  29  548.0252
  30  727.2031
  31  637.0809
  32  568.6167
  33  685.9498
  34  603.114
  35  639.3046
  36  822.8182
  37  1047.702
  38  830.8945
  39  596.241
  40  571.2681
  41  489.6237
  42  462.7745
  43  547.1211
  44  626.671
  45  407.955
  46  377.0184
  47  436.8036
  48  521.9264
  49  623.4459
  50  689.2765
  51  684.8291
  52  604.6301
  53  663.9656
  54  779.6683
  55  558.8254
  56  543.6573
  57  550.9762
  58  604.0272
  59  618.931
  60  582.6854
  61  697.2312
  62  697.3575
  63  788.913
  64  697.6886
  65  483.8121
  66  544.2333
  67  763.2656
  68  791.3573
  69  754.2498
  70  684.6878
  71  683.8706
  72  700.0543
  73  770.5989
  74  911.9305
  75  753.6691
  76  624.8764
  77  518.3447
  78  497.307
  79  382.404
  80  541.5615
  81  765.6599
  82  861.1184
  83  810.2992
  84  775.8472
  85  675.6788
  86  481.6298
  87  399.1401
  88  494.0009
  89  478.5893
  90  479.5825
  91  461.9482
  92  414.9246
  93  307.8568
  94  386.3771
  95  545.3628
  96  713.5181
  97  800.6363
  98  849.2171
  99  761.1013
 100  706.3623
 101  746.9303
 102  700.5725
 103  573.8329
 104  455.8383
 105  494.7538
 106  483.5124
 107  503.1453
 108  610.0494
 109  545.4061
 110  513.992
 111  514.2571
 112  589.2069
 113  612.0849
 114  716.2314
 115  858.7297
 116  779.9471
 117  768.843
 118  772.2864
 119  771.634
 120  675.6437
 121  715.8492
 122  747.8489
 123  551.8829
 124  472.4007
 125  620.5533
 126  654.6209
 127  587.3738
 128  654.8323
 129  703.985
 130  564.557
 131  475.3336
 132  598.8384
 133  658.9468
 134  613.0377
 135  813.7181
 136  796.6483
 137  722.7217
 138  566.5321
 139  628.7768
 140  586.1785
 141  575.6039
 142  637.3644
 143  534.6099
 144  287.5888
 145  357.6257
 146  617.848
 147  637.0143
 148  642.28
 149  742.3623
 150  732.79
 151  487.5876
 152  385.3743
 153  555.7928
 154  607.736
 155  723.4482
 156  835.5504
 157  815.9958
 158  518.1656
 159  479.9108
 160  585.3315
 161  633.8228
 162  585.4828
 163  682.9463
 164  792.9933
 165  739.0363
 166  774.407
 167  698.1431
 168  714.5956
 169  562.7846
 170  570.0637
 171  456.1208
 172  430.5144
 173  505.1422
 174  479.4622
 175  488.0877
 176  463.4717
 177  580.7243
 178  559.3947
 179  773.4786
 180  912.6133
 181  824.4452
 182  567.3089
 183  489.7103
 184  610.8558
 185  574.2875
 186  692.9771
 187  707.4354
 188  631.2686
 189  425.8484
 190  433.6687
 191  634.6677
 192  652.7306
 193  765.0027
 194  799.0503
 195  603.8792
 196  407.3425
 197  483.6606
 198  553.6517
 199  627.7792
 200  718.8049
 201  767.1259
 202  624.7037
 203  490.8606
 204  622.5349
 205  583.5249
 206  459.9622
 207  603.9316
 208  728.5045
 209  687.5707
 210  538.8499
 211  608.2892
 212  695.4747
 213  706.2928
 214  800.9222
 215  726.8314
 216  615.3233
 217  607.1523
 218  700.1661
 219  631.24
 220  618.5058
 221  772.0096
 222  952.485
 223  748.8538
 224  548.8364
 225  399.5045
 226  388.6829
 227  460.5508
 228  695.6454
 229  738.994
 230  686.1138
 231  680.5691
 232  813.2433
 233  736.2067
 234  714.3762
 235  656.0007
 236  592.1281
 237  470.7616
 238  606.71
 239  571.183
 240  530.2301
 241  492.5737
 242  465.6345
 243  415.3207
 244  415.6801
 245  588.2311
 246  538.6046
 247  467.2697
 248  392.7981
 249  481.4824
 250  424.0137
 251  557.464
 252  543.9982
 253  504.3902
 254  355.2451
 255  403.2872
 256  453.1694
 257  312.726
 258  343.5433
 259  400.7834
 260  411.3408
 261  365.6082
 262  571.2256
 263  744.5126
 264  649.3082
 265  676.111
 266  661.1288
 267  646.2574
 268  678.3808
 269  881.0842
 270  695.9118
 271  453.9474
 272  528.8298
 273  656.4089
 274  632.489
 275  453.5132
 276  549.4108
 277  539.3585
 278  490.4541
 279  641.5364
 280  847.2004
 281  831.7698
 282  769.597
 283  737.0924
 284  598.1156
 285  490.1288
 286  646.2784
 287  768.6608
 288  718.7864
 289  573.6044
 290  538.9042
 291  382.6759
 292  395.6265
 293  480.1215
 294  588.1419
 295  661.2316
 296  714.264
 297  824.3599
 298  705.4203
 299  673.5262
 300  670.4973
 301  628.9514
 302  571.7271
 303  609.6605
 304  566.2224
 305  334.7885
 306  397.4406
 307  507.2531
 308  645.6648
 309  558.5993
 310  747.8663
 311  749.8053
 312  728.2761
 313  722.2576
 314  787.2012
 315  702.6501
 316  585.7189
 317  639.2092
 318  580.3181
 319  509.5854
 320  506.6797
 321  496.9008
 322  413.9763
 323  418.4231
 324  519.8462
 325  524.4695
 326  409.9804
 327  597.1819
 328  669.8862
 329  733.0782
 330  725.7893
 331  849.5474
 332  783.4325
 333  696.5416
 334  693.5958
 335  626.3159
 336  534.631
 337  654.0999
 338  725.9852
 339  722.5684
 340  540.1475
 341  649.95
 342  577.7374
 343  546.9229
 344  450.3107
 345  536.4155
 346  581.426
 347  681.5431
 348  755.6861
 349  632.799
 350  508.3497
 351  524.7618
 352  696.4503
 353  757.0238
 354  761.7733
 355  819.0373
 356  693.1493
 357  589.3819
 358  436.4686
 359  392.5533
 360  420.1611
 361  539.8719
 362  666.7025
 363  561.9506
 364  506.6635
 365  591.0294
 366  479.2385
 367  435.3376
 368  521.6145
 369  727.3157
 370  710.1868
 371  558.7614
 372  508.5724
 373  422.6244
 374  419.1416
 375  594.04
 376  620.5331
 377  468.5865
 378  486.9537
 379  691.9849
 380  688.7382
 381  696.1985
 382  731.9209
 383  720.5062
 384  601.7428
 385  755.894
 386  792.7261
 387  582.4319
 388  438.6336
 389  580.91
 390  626.0168
 391  544.1494
 392  551.0857
 393  689.3146
 394  572.4704
 395  572.0025
 396  584.9175
 397  671.1802
 398  549.8713
 399  574.4615
 400  588.1564
 401  521.6614
 402  613.7971
 403  633.2922
 404  683.71
 405  574.5132
 406  569.9678
 407  584.2036
 408  527.4704
 409  573.4669
 410  647.7065
 411  700.8874
 412  672.9245
 413  773.9969
 414  535.1725
 415  525.5281
 416  548.9103
 417  764.0938
 418  611.0532
 419  634.3549
 420  678.7039
 421  602.0859
 422  464.1492
 423  441.4581
 424  374.3495
 425  196.7269
 426  358.7836
 427  615.2123
 428  705.2761
 429  694.5875
 430  795.5056
 431  744.1073
 432  692.3958
 433  715.3962
 434  731.2617
 435  568.2393
 436  519.5913
 437  564.1589
 438  499.34
 439  515.3184
 440  658.6046
 441  726.0457
 442  639.7447
 443  755.6265
 444  825.5143
 445  783.6027
 446  661.7322
 447  766.2465
 448  798.236
 449  757.0256
 450  899.4944
 451  907.6752
 452  652.7779
 453  427.2695
 454  475.3022
 455  627.5599
 456  716.9343
 457  839.3032
 458  811.3413
 459  587.7953
 460  517.1956
 461  588.947
 462  648.4353
 463  681.0268
 464  885.892
 465  907.342
 466  702.2181
 467  642.1002
 468  818.7653
 469  963.869
 470  885.5347
 471  960.847
 472  943.0684
 473  860.2296
 474  737.0237
 475  641.7383
 476  643.6523
 477  650.6971
 478  681.1852
 479  644.4734
 480  572.0318
 481  663.2905
 482  701.0479
 483  573.382
 484  581.9436
 485  691.0001
 486  789.2127
 487  689.3705
 488  666.6452
 489  626.6498
 490  472.433
 491  411.3994
 492  357.5273
 493  429.5117
 494  439.5161
 495  603.5298
 496  572.1547
 497  446.0187
 498  508.1851
 499  456.3144
 500  447.7783
 501  457.1563
 502  600.5914
 503  718.0617
 504  592.6495
 505  674.2321
 506  644.914
 507  620.678
 508  675.4995
 509  858.6771
 510  860.9304
 511  775.2062
 512  687.5198
 513  683.4811
 514  490.4825
 515  576.8017
 516  764.9958
 517  746.3046
 518  571.738
 519  495.2718
 520  494.8875
 521  492.9666
 522  572.1211
 523  694.2863
 524  704.938
 525  731.258
 526  715.6702
 527  579.9578
 528  449.2713
 529  667.7739
 530  871.6909
 531  845.5327
 532  837.1531
 533  826.7032
 534  780.9048
 535  564.0905
 536  611.4435
 537  519.2327
 538  497.003
 539  468.4508
 540  549.6811
 541  480.8303
 542  420.0186
 543  601.9025
 544  702.114
 545  856.5706
 546  895.3203
 547  952.0721
 548  786.2145
 549  723.5834
 550  732.0788
 551  750.7549
 552  829.9991
 553  890.4357
 554  808.1625
 555  622.3704
 556  595.6742
 557  721.0897
 558  668.2679
 559  685.0959
 560  856.6826
 561  856.5818
 562  633.8544
 563  505.3755
 564  526.6132
 565  555.8144
 566  504.7875
 567  677.9211
 568  731.5848
 569  661.3942
 570  651.6038
 571  685.504
 572  564.4131
 573  562.9759
 574  681.5831
 575  763.8223
 576  643.2981
 577  643.4872
 578  753.358
 579  812.6904
 580  835.1955
 581  801.6222
 582  715.9328
 583  662.0779
 584  747.2939
 585  771.8689
 586  552.8285
 587  424.5593
 588  405.658
 589  545.5813
 590  694.2841
 591  871.7141
 592  937.7269
 593  825.7947
 594  816.3786
 595  856.6796
 596  802.4272
 597  947.2236
 598  933.8318
 599  781.7499
 600  524.4973
 601  538.1913
 602  566.7986
 603  494.8999
 604  532.841
 605  631.998
 606  539.9103
 607  598.5705
 608  712.7284
 609  766.1017
 610  713.473
 611  793.515
 612  956.3408
 613  823.6318
 614  674.8969
 615  687.8358
 616  740.674
 617  648.3115
 618  665.3198
 619  734.2976
 620  651.0565
 621  562.3214
 622  550.6619
 623  519.9142
 624  440.7427
 625  569.9037
 626  703.2187
 627  716.9406
 628  853.9277
 629  768.5961
 630  677.7072
 631  492.2148
 632  737.6277
 633  854.535
 634  986.954
 635  993.7466
 636  951.6355
 637  791.1633
 638  743.4154
 639  862.5131
 640  974.53
 641  979.3855
 642  1059.367
 643  1226.341
 644  1288.303
 645  1455.82
 646  1524.619
 647  1432.693
 648  1443.998
 649  1549.948
 650  1568.639
 651  1297.575
 652  1044.932
 653  972.6605
 654  831.4056
 655  798.4158
 656  851.4236
 657  742.5075
 658  727.1594
 659  805.6051
 660  772.6719
 661  615.91
 662  588.3871
 663  806.1588
 664  905.6125
 665  752.7897
 666  831.7424
 667  726.3245
 668  635.4769
 669  567.734
 670  618.0116
 671  651.8735
 672  737.3734
 673  826.0129
 674  785.4167
 675  638.1741
 676  742.3328
 677  822.8314
 678  756.3422
 679  786.1586
 680  948.3111
 681  927.324
 682  755.6434
 683  766.7929
 684  927.1113
 685  819.6323
 686  708.6219
 687  743.136
 688  679.3362
 689  462.9285
 690  507.1102
 691  619.6644
 692  647.1246
 693  557.2494
 694  692.2553
 695  632.0732
 696  659.796
 697  678.4591
 698  834.679
 699  889.3631
 700  845.0865
 701  762.9335
 702  603.2775
 703  516.9268
 704  738.5853
 705  802.6656
 706  833.6187
 707  735.7534
 708  696.3468
 709  555.2802
 710  566.4307
 711  674.5978
 712  722.7777
 713  646.7387
 714  679.4026
 715  687.2922
 716  621.4328
 717  724.9841
 718  758.3793
 719  690.6248
 720  571.3374
 721  612.8101
 722  731.2976
 723  811.7008
 724  735.0262
 725  589.3709
 726  413.9148
 727  593.2204
 728  794.3891
 729  748.1812
 730  564.8635
 731  526.006
 732  408.6372
 733  265.6758
 734  384.1569
 735  667.4149
 736  666.778
 737  662.2519
 738  873.7319
 739  955.472
 740  719.8572
 741  596.7525
 742  691.5624
 743  650.3472
 744  670.6085
 745  735.9106
 746  699.2979
 747  460.0285
 748  638.4429
 749  781.9508
 750  760.7821
 751  751.3536
 752  885.504
 753  854.7831
 754  533.4445
 755  465.3241
 756  451.3328
 757  425.7847
 758  524.1015
 759  675.1075
 760  712.1658
 761  592.6583
 762  702.973
 763  786.5195
 764  755.4493
 765  796.7639
 766  839.8134
 767  661.3621
 768  431.5543
 769  468.9037
 770  508.5068
 771  523.6548
 772  478.0188
 773  676.4921
 774  617.1
 775  638.6769
 776  770.4433
 777  616.7123
 778  431.3142
 779  293.7964
 780  472.6814
 781  639.5569
 782  850.6005
 783  974.5706
 784  805.6409
 785  519.9734
 786  363.5095
 787  304.8183
 788  253.4407
 789  377.2634
 790  512.6908
 791  549.2192
 792  465.6146
 793  596.7593
 794  471.4439
 795  466.76
 796  611.0612
 797  827.4191
 798  632.4307
 799  522.9734
 800  593.0477
 801  551.751
 802  469.0612
 803  579.7
 804  811.2394
 805  754.7351
 806  722.6121
 807  690.3932
 808  607.9108
 809  563.389
 810  813.0096
 811  918.3207
 812  832.0278
 813  698.3522
 814  587.9292
 815  431.947
 816  325.9876
 817  507.5163
 818  648.0706
 819  603.9093
 820  592.1509
 821  673.5612
 822  713.5812
 823  749.7169
 824  809.8538
 825  718.2354
 826  574.2396
 827  622.8442
 828  584.7068
 829  476.7106
 830  408.0591
 831  498.6673
 832  549.6096
 833  517.3704
 834  661.2847
 835  575.3765
 836  494.8292
 837  461.815
 838  478.2657
 839  526.6192
 840  563.5048
 841  600.1285
 842  518.3158
 843  428.4383
 844  500.2434
 845  592.6227
 846  621.3446
 847  726.0097
 848  942.5887
 849  853.3129
 850  813.0338
 851  724.8519
 852  708.0806
 853  445.1643
 854  427.8938
 855  550.0273
 856  546.3155
 857  339.5395
 858  371.4586
 859  469.6177
 860  580.0871
 861  630.8629
 862  758.5153
 863  655.6323
 864  581.8174
 865  609.1536
 866  503.0195
 867  395.3125
 868  438.3622
 869  593.0728
 870  651.968
 871  724.9281
 872  879.6791
 873  885.2383
 874  805.1948
 875  824.7038
 876  831.0391
 877  803.2842
 878  779.9962
 879  758.7266
 880  594.4763
 881  426.7989
 882  578.5504
 883  717.137
 884  728.3602
 885  650.4866
 886  742.5023
 887  758.008
 888  689.9836
 889  751.7898
 890  782.6448
 891  834.956
 892  899.3546
 893  866.4644
 894  712.8284
 895  632.3804
 896  598.4338
 897  483.8721
 898  347.8658
 899  486.2566
 900  515.0042
 901  503.4948
 902  608.9516
 903  659.9763
 904  678.2573
 905  715.0689
 906  903.4949
 907  869.4282
 908  700.1428
 909  686.6405
 910  697.6334
 911  613.0175
 912  724.754
 913  853.8762
 914  699.5662
 915  489.6821
 916  499.1743
 917  634.4927
 918  553.2039
 919  612.9517
 920  716.8878
 921  697.0338
 922  703.8859
 923  845.017
 924  947.6818
 925  720.3364
 926  740.3093
 927  808.8018
 928  714.7465
 929  608.6412
 930  695.9505
 931  771.4615
 932  575.2001
 933  642.5416
 934  606.806
 935  563.5849
 936  497.8144
 937  736.7188
 938  784.1541
 939  721.289
 940  561.979
 941  509.8824
 942  481.8919
 943  686.3151
 944  796.0664
 945  758.3208
 946  577.7174
 947  576.972
 948  607.825
 949  607.9509
 950  599.5711
 951  631.0027
 952  585.3458
 953  516.5728
 954  478.5344
 955  455.8519
 956  594.7279
 957  869.0779
 958  859.195
 959  668.9048
 960  581.444
 961  793.1076
 962  736.9548
 963  756.6844
 964  829.9753
 965  832.9952
 966  670.9153
 967  548.1738
 968  611.1052
 969  547.5974
 970  700.8687
 971  839.5953
 972  838.8702
 973  774.7613
 974  872.5646
 975  1018.705
 976  793.2125
 977  651.1255
 978  700.9839
 979  620.1363
 980  421.1311
 981  453.7975
 982  557.7738
 983  463.4678
 984  309.2259
 985  418.706
 986  425.7715
 987  415.4995
 988  516.733
 989  645.0237
 990  642.365
 991  688.5173
 992  796.4004
 993  747.7546
 994  599.8122
 995  574.554
 996  583.7682
 997  563.546
 998  484.9241
 999  436.8375
1000  449.3718
1001  543.4564
1002  798.4911
1003  787.2563
1004  681.4222
1005  498.8559
1006  432.6753
1007  570.5352
1008  641.7385
1009  717.9182
1010  559.8737
1011  605.2249
1012  680.1326
1013  646.434
1014  638.6239
1015  626.1542
1016  653.4452
1017  511.0623
1018  551.559
1019  667.9009
1020  663.6529
1021  577.316
1022  696.1941
1023  773.5704
