# Input file       =  1186814826.088579_cleaned.dat
# Candidate        =  PSR_0332+5434
# Telescope        =  AR
# Epoch_topo       =  57980.282929265959
# Epoch_bary       =  N/A
# T_sample         =  0.002
# Data Folded      =  7340032
# Data Avg         =  0.0253642977508466
# Data StdDev      =  2.71927033162057 
# Profile Bins     =  1024
# Profile Avg      =  181.680102427723 
# Profile StdDev   =  230.224417440774 
# Reduced chi-sqr  =  0.950
# Prob(Noise)      <  0.874   (~0.0 sigma)
# P_topo (ms)      =  714.465158672914  +/- 0.000234
# P'_topo (s/s)    =  -0                +/- 1.23e-10
# P''_topo (s/s^2) =  0                 +/- 5.44e-14
# P_bary (ms)      =  N/A
# P'_bary (s/s)    =  N/A
# P''_bary (s/s^2) =  N/A
# P_orb (s)        =  N/A
# asin(i)/c (s)    =  N/A
# eccentricity     =  N/A
# w (rad)          =  N/A
# T_peri           =  N/A
######################################################
   0  280.3223
   1  361.4224
   2  274.8065
   3  178.8371
   4  185.5692
   5  104.4635
   6  82.57547
   7  86.48742
   8  136.8763
   9  114.617
  10  152.3722
  11  160.1697
  12  123.5943
  13  109.6228
  14  165.6308
  15  146.6019
  16  192.1665
  17  234.8102
  18  270.7883
  19  94.6687
  20  45.04467
  21  81.89127
  22  232.6148
  23  256.4818
  24  192.3062
  25  147.7816
  26  146.6074
  27  209.5234
  28  265.1107
  29  315.2673
  30  356.2564
  31  356.9379
  32  344.9191
  33  364.1506
  34  282.2474
  35  181.052
  36  60.57479
  37  114.6439
  38  181.803
  39  220.0966
  40  231.8054
  41  350.9443
  42  337.466
  43  238.2932
  44  10.03876
  45  -16.46227
  46  54.68491
  47  197.9229
  48  203.659
  49  190.2496
  50  144.0311
  51  98.69196
  52  66.99503
  53  142.9012
  54  182.5577
  55  170.5648
  56  81.60155
  57  112.1993
  58  232.4531
  59  192.8185
  60  158.8241
  61  -36.86292
  62  -24.87193
  63  -13.73077
  64  65.33709
  65  150.181
  66  223.0843
  67  208.7374
  68  173.504
  69  198.9561
  70  270.8845
  71  364.1181
  72  274.1111
  73  235.4768
  74  241.9782
  75  212.1983
  76  177.169
  77  57.07327
  78  30.82637
  79  118.5111
  80  200.32
  81  274.126
  82  242.9327
  83  293.9505
  84  283.6468
  85  277.0117
  86  232.0969
  87  236.1163
  88  178.6787
  89  144.9259
  90  52.61276
  91  55.17867
  92  59.94562
  93  126.0939
  94  86.18602
  95  172.7254
  96  205.8029
  97  180.5786
  98  254.9399
  99  215.8997
 100  172.2116
 101  114.3615
 102  198.1089
 103  313.5511
 104  239.597
 105  185.8226
 106  94.96242
 107  70.98865
 108  64.51638
 109  126.0117
 110  184.3353
 111  265.6026
 112  185.1126
 113  74.08334
 114  145.9106
 115  284.0673
 116  321.6966
 117  205.6604
 118  118.1489
 119  73.65879
 120  82.26151
 121  154.0898
 122  204.8915
 123  199.7835
 124  157.7746
 125  142.8421
 126  127.8481
 127  152.7344
 128  176.2378
 129  154.0377
 130  106.1465
 131  120.8135
 132  99.70278
 133  199.0847
 134  167.0601
 135  242.1502
 136  153.8435
 137  238.4506
 138  174.8625
 139  148.2732
 140  89.03596
 141  159.3782
 142  122.6597
 143  134.3739
 144  39.74986
 145  -38.70808
 146  -123.0322
 147  -83.11778
 148  -6.971374
 149  31.16951
 150  122.1589
 151  148.9143
 152  172.8386
 153  182.3308
 154  228.8226
 155  303.7853
 156  215.7451
 157  197.3159
 158  222.2168
 159  317.7393
 160  261.6191
 161  58.95843
 162  -105.1371
 163  15.45342
 164  121.064
 165  229.1756
 166  33.13606
 167  -19.89522
 168  -25.0828
 169  150.939
 170  168.6263
 171  171.2705
 172  183.5939
 173  196.3303
 174  185.0715
 175  196.686
 176  167.3706
 177  162.0283
 178  93.08425
 179  45.37493
 180  -10.74875
 181  67.40855
 182  67.83297
 183  130.5148
 184  83.14101
 185  78.1985
 186  97.42258
 187  183.6197
 188  137.0891
 189  96.80874
 190  51.77942
 191  84.90318
 192  148.9851
 193  168.8582
 194  269.127
 195  185.6808
 196  202.0516
 197  149.3784
 198  143.3526
 199  178.5854
 200  95.24484
 201  1.058585
 202  -54.93575
 203  16.30715
 204  160.3882
 205  219.3777
 206  311.8748
 207  201.023
 208  244.4496
 209  193.8746
 210  224.0797
 211  58.28391
 212  75.29976
 213  167.5654
 214  308.4674
 215  268.3224
 216  245.5528
 217  199.0266
 218  222.0244
 219  173.7011
 220  150.5197
 221  69.29446
 222  74.75017
 223  105.502
 224  225.7173
 225  205.4234
 226  191.0051
 227  202.7588
 228  195.8661
 229  89.13193
 230  56.31094
 231  101.3376
 232  147.8207
 233  132.2764
 234  208.6367
 235  326.4514
 236  387.2679
 237  435.9419
 238  367.5716
 239  247.8242
 240  198.8263
 241  323.4624
 242  411.1765
 243  354.6939
 244  198.889
 245  165.2925
 246  252.0647
 247  176.8841
 248  96.63738
 249  47.34336
 250  234.7368
 251  305.8572
 252  305.3671
 253  108.5421
 254  83.61104
 255  159.1286
 256  181.2534
 257  273.8825
 258  165.1284
 259  183.4821
 260  62.57567
 261  65.9278
 262  109.6769
 263  89.09715
 264  120.5176
 265  94.10677
 266  215.1321
 267  314.1478
 268  411.0363
 269  375.21
 270  378.2134
 271  348.5693
 272  335.5329
 273  251.9991
 274  285.662
 275  296.7867
 276  213.8125
 277  125.0181
 278  121.8878
 279  227.4569
 280  214.7924
 281  125.106
 282  220.1223
 283  211.4013
 284  279.306
 285  172.4645
 286  133.284
 287  77.58817
 288  35.18632
 289  175.6205
 290  194.7162
 291  235.362
 292  200.9607
 293  266.7872
 294  282.1055
 295  235.5781
 296  227.3667
 297  234.2868
 298  283.9015
 299  393.038
 300  396.691
 301  243.9163
 302  127.9269
 303  139.1874
 304  201.6521
 305  140.8018
 306  72.06493
 307  93.78963
 308  69.61052
 309  110.6951
 310  106.2237
 311  99.48611
 312  106.5399
 313  175.2166
 314  215.0208
 315  204.6275
 316  174.9243
 317  133.3666
 318  165.6698
 319  77.30373
 320  67.8214
 321  80.33174
 322  122.9833
 323  219.2565
 324  280.6761
 325  399.0489
 326  377.2483
 327  356.0956
 328  213.189
 329  142.6673
 330  110.94
 331  188.3404
 332  189.949
 333  120.0118
 334  113.648
 335  82.4459
 336  147.0076
 337  124.0664
 338  164.3213
 339  34.37976
 340  15.40405
 341  24.09602
 342  150.5851
 343  63.44293
 344  60.64386
 345  93.53571
 346  171.7501
 347  88.96728
 348  110.3171
 349  62.46344
 350  84.90675
 351  141.38
 352  277.7455
 353  270.048
 354  206.7408
 355  232.4076
 356  283.7971
 357  281.9897
 358  404.0994
 359  308.2938
 360  169.2244
 361  -25.62353
 362  1.04627
 363  105.2867
 364  232.3289
 365  268.7674
 366  182.2488
 367  167.45
 368  178.4981
 369  91.75513
 370  13.63438
 371  37.98277
 372  136.4387
 373  139.9659
 374  204.2022
 375  239.4664
 376  192.4899
 377  52.52519
 378  27.59102
 379  79.62786
 380  59.86918
 381  94.47189
 382  157.4513
 383  223.7343
 384  213.4135
 385  187.9814
 386  187.6992
 387  121.9352
 388  68.01836
 389  187.8997
 390  195.4185
 391  175.7317
 392  87.79673
 393  166.3041
 394  240.5703
 395  312.0672
 396  370.6488
 397  385.5888
 398  191.2781
 399  197.7982
 400  151.4476
 401  214.2447
 402  151.2303
 403  272.7212
 404  223.6953
 405  165.5067
 406  117.6381
 407  208.8627
 408  238.3589
 409  204.8987
 410  209.5551
 411  197.5489
 412  195.9404
 413  174.2825
 414  227.0371
 415  290.7183
 416  249.9766
 417  139.1456
 418  181.1781
 419  205.6205
 420  324.565
 421  276.1953
 422  284.0488
 423  178.1019
 424  170.5469
 425  65.43845
 426  70.09051
 427  69.10736
 428  61.2331
 429  58.74399
 430  176.8525
 431  188.6956
 432  56.52822
 433  -6.425278
 434  119.7386
 435  190.1139
 436  137.6109
 437  133.0359
 438  172.6752
 439  136.0779
 440  87.81923
 441  64.77291
 442  25.36686
 443  0.1392353
 444  -51.11138
 445  -32.86922
 446  137.0229
 447  214.8649
 448  217.9451
 449  172.9552
 450  265.1732
 451  245.6325
 452  209.2002
 453  145.0372
 454  156.7018
 455  133.3588
 456  220.5406
 457  233.7867
 458  152.9707
 459  125.3636
 460  309.0222
 461  417.2307
 462  335.3582
 463  218.0952
 464  167.8972
 465  153.9929
 466  148.5363
 467  114.3014
 468  156.2985
 469  139.5373
 470  144.9896
 471  33.03121
 472  48.27188
 473  44.5569
 474  -18.96915
 475  -9.946188
 476  52.95181
 477  155.972
 478  80.96578
 479  -9.537162
 480  50.41786
 481  133.3648
 482  148.9825
 483  170.5949
 484  157.0116
 485  179.6206
 486  125.9019
 487  108.1011
 488  145.4572
 489  273.0553
 490  292.7288
 491  347.4572
 492  220.8964
 493  226.7814
 494  165.8256
 495  189.8579
 496  196.2359
 497  158.4991
 498  196.7041
 499  177.9909
 500  250.7513
 501  276.4886
 502  242.5328
 503  189.1279
 504  169.1094
 505  138.9738
 506  194.1184
 507  275.8416
 508  428.8129
 509  463.4342
 510  440.0334
 511  296.0246
 512  298.1364
 513  225.7271
 514  160.8279
 515  43.20321
 516  114.043
 517  180.8484
 518  203.7309
 519  26.65502
 520  -80.75861
 521  -55.17934
 522  223.4815
 523  367.5659
 524  423.9624
 525  344.5131
 526  288.657
 527  177.9079
 528  152.3048
 529  215.2638
 530  255.1631
 531  327.064
 532  272.0298
 533  194.1459
 534  131.7584
 535  56.0851
 536  -26.62805
 537  -46.63042
 538  78.9937
 539  208.7618
 540  183.0714
 541  155.7523
 542  303.8187
 543  377.7014
 544  295.6687
 545  173.1507
 546  151.463
 547  229.2018
 548  194.9808
 549  245.8674
 550  150.0668
 551  22.10469
 552  54.77182
 553  144.3235
 554  174.7406
 555  32.3896
 556  -33.77436
 557  61.30582
 558  202.1565
 559  229.8935
 560  292.5656
 561  310.1977
 562  319.3069
 563  165.5849
 564  76.68675
 565  100.1652
 566  200.4128
 567  245.0374
 568  157.5197
 569  75.45062
 570  -30.07225
 571  159.8587
 572  269.4568
 573  358.6448
 574  181.4058
 575  99.35104
 576  70.8518
 577  134.3829
 578  236.0617
 579  201.4054
 580  136.8766
 581  81.38463
 582  185.3225
 583  196.9688
 584  143.2021
 585  148.207
 586  149.0705
 587  160.9359
 588  130.9187
 589  290.924
 590  317.5732
 591  270.8896
 592  202.8779
 593  166.5116
 594  217.3505
 595  161.223
 596  189.4716
 597  221.9145
 598  310.5203
 599  370.3356
 600  309.8625
 601  314.8627
 602  249.9657
 603  240.2611
 604  132.9749
 605  186.8013
 606  186.287
 607  218.5252
 608  325.4152
 609  479.5702
 610  515.8004
 611  456.3214
 612  433.112
 613  419.339
 614  409.3611
 615  319.9892
 616  258.1509
 617  270.929
 618  389.2843
 619  444.3083
 620  417.0691
 621  402.1805
 622  249.3269
 623  227.4809
 624  183.2476
 625  255.8837
 626  147.4485
 627  204.0939
 628  222.0271
 629  211.0671
 630  150.3089
 631  178.6934
 632  176.0351
 633  180.811
 634  216.984
 635  236.92
 636  107.5884
 637  50.57973
 638  109.7958
 639  142.4154
 640  205.9462
 641  371.7108
 642  650.5953
 643  739.4619
 644  755.7439
 645  685.4379
 646  613.2624
 647  637.5543
 648  814.7516
 649  972.508
 650  943.7335
 651  810.2529
 652  730.5917
 653  645.0174
 654  539.3726
 655  338.0402
 656  292.5945
 657  274.0763
 658  236.4369
 659  108.6196
 660  119.6668
 661  127.8804
 662  180.79
 663  38.20953
 664  -12.56292
 665  63.30783
 666  264.0786
 667  329.5513
 668  256.3039
 669  190.0372
 670  127.0005
 671  93.41294
 672  190.7924
 673  391.6841
 674  467.3518
 675  389.1228
 676  339.1525
 677  261.428
 678  191.0147
 679  248.8873
 680  340.779
 681  480.581
 682  431.8727
 683  323.2192
 684  199.0193
 685  132.7513
 686  156.6015
 687  162.3747
 688  214.6435
 689  239.9911
 690  228.3225
 691  311.1826
 692  252.6351
 693  331.228
 694  352.9174
 695  412.1807
 696  345.1713
 697  150.0233
 698  25.72205
 699  113.119
 700  313.1569
 701  319.8366
 702  218.5399
 703  136.3283
 704  137.6921
 705  177.1452
 706  178.0611
 707  60.81675
 708  34.62811
 709  164.0249
 710  226.4735
 711  181.6283
 712  -24.9132
 713  54.81227
 714  64.04945
 715  153.3078
 716  226.7496
 717  246.6763
 718  302.6461
 719  146.7839
 720  153.7074
 721  -72.32952
 722  -151.8394
 723  -133.5807
 724  83.36805
 725  192.5191
 726  262.5305
 727  366.2644
 728  348.0061
 729  228.8989
 730  139.6296
 731  133.4944
 732  146.4054
 733  131.4991
 734  206.0809
 735  312.7475
 736  305.5651
 737  172.3366
 738  81.16173
 739  51.22728
 740  -23.82782
 741  -138.9718
 742  -64.26716
 743  -24.59247
 744  69.77081
 745  65.29621
 746  332.5017
 747  350.4238
 748  429.004
 749  182.5998
 750  137.488
 751  28.29268
 752  65.6507
 753  91.1665
 754  97.79009
 755  119.3303
 756  125.778
 757  153.2424
 758  167.6588
 759  159.4166
 760  118.972
 761  49.91876
 762  -18.00763
 763  -15.41956
 764  -89.04534
 765  -9.36298
 766  20.09342
 767  89.4203
 768  70.77534
 769  149.3257
 770  193.2729
 771  207.4261
 772  316.5213
 773  260.6254
 774  200.1675
 775  50.40289
 776  76.04086
 777  100.0448
 778  147.0655
 779  66.62066
 780  47.86201
 781  134.3701
 782  233.1825
 783  288.4947
 784  264.1211
 785  223.9038
 786  104.2329
 787  -9.962033
 788  26.33421
 789  213.2973
 790  282.6297
 791  250.9254
 792  100.594
 793  -44.79864
 794  -192.0903
 795  -42.6353
 796  173.4946
 797  311.2522
 798  334.2312
 799  247.7036
 800  140.3154
 801  32.60347
 802  27.98886
 803  78.63397
 804  96.72607
 805  106.1504
 806  74.98244
 807  159.567
 808  282.2953
 809  375.1742
 810  268.6962
 811  273.0077
 812  215.9171
 813  184.0038
 814  101.8597
 815  107.2384
 816  180.0368
 817  199.7005
 818  160.9272
 819  163.5426
 820  115.1146
 821  228.235
 822  339.2773
 823  311.8174
 824  248.9471
 825  238.8363
 826  257.3691
 827  199.5667
 828  210.6552
 829  241.9056
 830  211.7202
 831  141.9987
 832  116.6464
 833  142.5438
 834  103.1796
 835  161.6584
 836  175.3745
 837  238.2854
 838  285.2169
 839  226.1974
 840  152.6794
 841  121.9347
 842  177.081
 843  156.4539
 844  84.41628
 845  75.18114
 846  126.0287
 847  173.8775
 848  261.8958
 849  265.6661
 850  270.317
 851  228.2482
 852  279.9715
 853  313.9482
 854  203.0372
 855  256.5054
 856  197.7702
 857  276.3954
 858  191.2474
 859  250.8996
 860  215.9576
 861  153.3325
 862  163.8977
 863  96.28069
 864  161.2616
 865  167.3902
 866  194.5121
 867  150.7875
 868  183.0721
 869  317.5931
 870  315.411
 871  333.7481
 872  245.2991
 873  158.6039
 874  -39.96873
 875  -124.7553
 876  -80.01611
 877  64.9109
 878  105.9212
 879  121.4867
 880  189.9104
 881  149.0898
 882  189.1628
 883  264.689
 884  324.8072
 885  253.5316
 886  93.99399
 887  121.6733
 888  59.19753
 889  73.8651
 890  76.51337
 891  206.5393
 892  252.4002
 893  194.4882
 894  116.6461
 895  84.94124
 896  171.2834
 897  184.2482
 898  153.3009
 899  20.38675
 900  -60.78199
 901  -57.1831
 902  12.54358
 903  85.56758
 904  118.5505
 905  142.4522
 906  177.7422
 907  242.2254
 908  292.425
 909  283.2899
 910  189.3375
 911  135.7734
 912  109.3971
 913  234.703
 914  204.3716
 915  273.7538
 916  217.5725
 917  138.5018
 918  20.30465
 919  76.39156
 920  244.7754
 921  194.6907
 922  189.5347
 923  248.1388
 924  347.5587
 925  294.0485
 926  204.6551
 927  173.6271
 928  151.6638
 929  216.6707
 930  293.9085
 931  355.5587
 932  313.869
 933  450.2236
 934  473.9228
 935  393.4569
 936  212.7097
 937  166.1579
 938  118.3736
 939  188.3036
 940  260.6021
 941  397.4576
 942  307.6077
 943  152.6611
 944  63.69048
 945  118.8958
 946  223.2462
 947  132.6082
 948  131.025
 949  68.15155
 950  199.1568
 951  330.4906
 952  340.3867
 953  301.1286
 954  133.5302
 955  141.1442
 956  -3.461087
 957  -13.02032
 958  -3.558299
 959  150.0704
 960  234.7137
 961  184.0255
 962  127.7854
 963  121.2242
 964  206.5351
 965  248.8316
 966  207.3938
 967  139.9763
 968  -9.353868
 969  -81.31985
 970  -111.7932
 971  21.76413
 972  91.96785
 973  47.41614
 974  14.95044
 975  137.8544
 976  224.102
 977  277.4185
 978  217.6168
 979  231.4469
 980  140.9742
 981  187.9158
 982  178.6677
 983  211.6214
 984  19.82853
 985  -6.153568
 986  -44.29682
 987  -6.914138
 988  94.50887
 989  196.3244
 990  243.7543
 991  294.4085
 992  269.2957
 993  121.2013
 994  86.21217
 995  48.70276
 996  172.7684
 997  65.32127
 998  69.77623
 999  -15.93582
1000  0.7400863
1001  89.78764
1002  74.19167
1003  119.3178
1004  154.4781
1005  194.6741
1006  287.7341
1007  220.4301
1008  77.16945
1009  -16.27826
1010  30.84387
1011  166.0391
1012  190.5302
1013  75.8129
1014  65.98264
1015  38.86182
1016  159.38
1017  192.7592
1018  210.4922
1019  350.5868
1020  400.3258
1021  393.7944
1022  216.4063
1023  176.5651
