# Input file       =  1186282239.11017_cleaned.dat
# Candidate        =  PSR_0332+5434
# Telescope        =  AR
# Epoch_topo       =  57974.118728126967
# Epoch_bary       =  N/A
# T_sample         =  0.002
# Data Folded      =  7340032
# Data Avg         =  0.0155848041343104
# Data StdDev      =  2.33782003470562 
# Profile Bins     =  1024
# Profile Avg      =  111.795205004981 
# Profile StdDev   =  197.929293499375 
# Reduced chi-sqr  =  1.434
# Prob(Noise)      <  1.99e-18   (~8.7 sigma)
# P_topo (ms)      =  714.466466933348  +/- 0.00021
# P'_topo (s/s)    =  -0                +/- 1.11e-10
# P''_topo (s/s^2) =  0                 +/- 4.9e-14
# P_bary (ms)      =  N/A
# P'_bary (s/s)    =  N/A
# P''_bary (s/s^2) =  N/A
# P_orb (s)        =  N/A
# asin(i)/c (s)    =  N/A
# eccentricity     =  N/A
# w (rad)          =  N/A
# T_peri           =  N/A
######################################################
   0  58.08451
   1  114.766
   2  29.50691
   3  85.23956
   4  47.63467
   5  23.90388
   6  71.75478
   7  88.22035
   8  13.9209
   9  -115.0166
  10  -197.7272
  11  -50.48289
  12  8.027453
  13  123.4715
  14  89.66994
  15  66.63507
  16  85.16845
  17  125.059
  18  176.6997
  19  168.6446
  20  139.1941
  21  177.7037
  22  204.6951
  23  182.0203
  24  224.9805
  25  189.1035
  26  198.9616
  27  195.8921
  28  232.4937
  29  111.4168
  30  78.00556
  31  93.41808
  32  174.3868
  33  150.6264
  34  146.6753
  35  161.8297
  36  168.502
  37  173.854
  38  144.2332
  39  158.6443
  40  231.371
  41  173.2539
  42  175.9081
  43  70.49564
  44  105.9608
  45  53.7388
  46  76.0451
  47  64.56958
  48  5.691257
  49  56.67363
  50  96.33221
  51  165.8701
  52  135.2953
  53  100.4076
  54  46.02669
  55  127.6734
  56  173.6213
  57  172.342
  58  120.5284
  59  98.27245
  60  132.1267
  61  118.3721
  62  79.11671
  63  51.29576
  64  97.25405
  65  202.2044
  66  224.1862
  67  190.8823
  68  171.2907
  69  238.3472
  70  232.038
  71  233.9168
  72  150.5332
  73  123.8173
  74  77.3886
  75  53.65651
  76  -4.427902
  77  100.239
  78  171.046
  79  283.2227
  80  245.5548
  81  210.2475
  82  157.9245
  83  13.97415
  84  40.17707
  85  99.66618
  86  201.5101
  87  143.7883
  88  44.33744
  89  56.8155
  90  33.72169
  91  122.8737
  92  206.7227
  93  260.4467
  94  152.649
  95  33.84796
  96  77.41316
  97  88.99171
  98  13.27405
  99  4.903136
 100  123.509
 101  233.4651
 102  237.4266
 103  278.8976
 104  327.9642
 105  350.7009
 106  174.2446
 107  151.1545
 108  142.407
 109  185.4739
 110  195.3552
 111  207.9853
 112  215.8042
 113  79.25371
 114  167.9649
 115  236.854
 116  313.9254
 117  208.3703
 118  85.68439
 119  32.98129
 120  73.53441
 121  93.1237
 122  176.5985
 123  270.662
 124  237.5912
 125  92.03292
 126  28.05169
 127  139.6274
 128  133.338
 129  101.2309
 130  6.097943
 131  46.79832
 132  12.238
 133  31.18327
 134  -2.020133
 135  53.58426
 136  41.81128
 137  25.7197
 138  40.13092
 139  69.80716
 140  144.4902
 141  155.0876
 142  174.0797
 143  210.6272
 144  148.5296
 145  67.90116
 146  -40.55167
 147  -47.65194
 148  -44.12048
 149  -111.3276
 150  -23.17606
 151  40.17795
 152  34.10312
 153  -52.43403
 154  -34.97114
 155  -35.99416
 156  -9.819685
 157  -103.1249
 158  -136.4318
 159  -68.78419
 160  29.92345
 161  2.044154
 162  -101.245
 163  -134.4476
 164  -58.07128
 165  60.35102
 166  163.3084
 167  168.6732
 168  158.2611
 169  132.4994
 170  137.7481
 171  106.4994
 172  63.60217
 173  -23.54982
 174  -59.36372
 175  -63.4783
 176  -57.87124
 177  0.9780105
 178  60.07409
 179  146.4834
 180  138.6466
 181  136.6004
 182  43.52318
 183  65.68372
 184  107.7057
 185  108.8379
 186  33.98456
 187  58.70081
 188  55.61303
 189  130.5146
 190  167.7865
 191  152.4355
 192  119.1488
 193  123.9082
 194  212.5027
 195  145.2807
 196  24.66093
 197  15.74689
 198  129.269
 199  211.3443
 200  97.01705
 201  140.744
 202  140.3238
 203  234.3361
 204  169.3455
 205  113.7826
 206  109.1208
 207  118.7654
 208  204.6579
 209  82.12481
 210  4.652933
 211  -81.04794
 212  -87.8117
 213  -25.84764
 214  111.4871
 215  201.9185
 216  127.4916
 217  52.42452
 218  95.86817
 219  58.11511
 220  -42.82318
 221  -82.54635
 222  -25.24427
 223  17.92698
 224  5.70961
 225  -4.811831
 226  -30.81476
 227  30.18494
 228  9.177205
 229  -11.21792
 230  2.318344
 231  65.85694
 232  148.3079
 233  35.55644
 234  48.1106
 235  97.01935
 236  167.1274
 237  171.9481
 238  29.27907
 239  43.02969
 240  11.66972
 241  58.54984
 242  52.34626
 243  126.2786
 244  178.5585
 245  201.1924
 246  220.9019
 247  309.64
 248  331.2874
 249  181.4431
 250  39.04125
 251  -22.78019
 252  -27.16502
 253  53.77136
 254  140.1841
 255  217.0701
 256  280.1171
 257  230.4683
 258  156.0264
 259  50.23225
 260  123.6226
 261  159.1289
 262  110.1717
 263  21.07393
 264  38.55867
 265  87.06544
 266  210.7718
 267  198.0094
 268  216.0764
 269  197.1457
 270  191.5439
 271  165.1383
 272  92.92545
 273  47.49231
 274  -82.94312
 275  -70.744
 276  -101.8907
 277  -16.11166
 278  17.27431
 279  125.7681
 280  214.7755
 281  228.7783
 282  134.8655
 283  36.05711
 284  53.78505
 285  118.5587
 286  157.2937
 287  155.177
 288  58.12119
 289  21.884
 290  -53.57839
 291  -47.92897
 292  -58.08805
 293  24.50866
 294  121.0198
 295  247.928
 296  344.3592
 297  359.974
 298  293.0133
 299  229.2563
 300  148.3958
 301  18.9572
 302  18.18798
 303  102.5339
 304  220.9422
 305  177.9816
 306  154.0994
 307  155.6355
 308  225.3847
 309  211.6202
 310  156.4528
 311  29.7236
 312  -1.40207
 313  -30.43247
 314  -54.07961
 315  -47.21537
 316  -0.3367457
 317  93.82688
 318  172.4654
 319  159.661
 320  213.6108
 321  77.37431
 322  89.28883
 323  -43.16323
 324  -139.0995
 325  -117.862
 326  -32.19261
 327  145.4165
 328  140.8515
 329  180.2518
 330  193.478
 331  228.9324
 332  288.0145
 333  329.2519
 334  213.4282
 335  61.49274
 336  -39.78204
 337  25.21683
 338  79.18785
 339  54.8139
 340  128.0179
 341  204.7729
 342  315.0913
 343  198.8942
 344  -8.580886
 345  -128.9414
 346  -31.49089
 347  58.49346
 348  128.1176
 349  98.03641
 350  145.2567
 351  202.5848
 352  251.5416
 353  333.6132
 354  288.1861
 355  255.1095
 356  129.4576
 357  124.2804
 358  132.3219
 359  213.5817
 360  207.6427
 361  179.4363
 362  63.11439
 363  2.433401
 364  11.27899
 365  153.1965
 366  267.7298
 367  282.6714
 368  254.5098
 369  194.8318
 370  231.2858
 371  130.0441
 372  176.2408
 373  217.8071
 374  217.1607
 375  109.6171
 376  99.08973
 377  187.7187
 378  258.0867
 379  172.6329
 380  145.9728
 381  121.6315
 382  133.7036
 383  33.1865
 384  11.36038
 385  33.68909
 386  159.5935
 387  169.4146
 388  174.9801
 389  143.6436
 390  131.3647
 391  194.0521
 392  286.1436
 393  241.4181
 394  88.20671
 395  -13.75025
 396  9.144483
 397  59.0318
 398  36.09238
 399  56.53793
 400  127.308
 401  148.6902
 402  168.311
 403  147.9327
 404  194.27
 405  184.438
 406  141.5522
 407  194.6087
 408  241.1533
 409  345.223
 410  289.6361
 411  264.7327
 412  114.8114
 413  83.38376
 414  39.16029
 415  102.0803
 416  58.71842
 417  -19.8901
 418  60.96917
 419  191.1795
 420  141.717
 421  163.5126
 422  146.4596
 423  252.1443
 424  148.6073
 425  79.32674
 426  27.69039
 427  45.6809
 428  57.35069
 429  67.27796
 430  96.1818
 431  122.3375
 432  156.0845
 433  210.8601
 434  146.9805
 435  71.3935
 436  19.7373
 437  105.6201
 438  115.2333
 439  107.6215
 440  164.6614
 441  183.3128
 442  199.1886
 443  243.9517
 444  192.0876
 445  156.8138
 446  104.7762
 447  109.3777
 448  86.9202
 449  2.682534
 450  100.6015
 451  163.2896
 452  212.2625
 453  167.4463
 454  137.4843
 455  152.356
 456  156.023
 457  123.87
 458  166.2129
 459  145.8348
 460  251.6349
 461  210.1841
 462  222.726
 463  192.9243
 464  175.9361
 465  239.941
 466  177.0262
 467  187.0607
 468  41.86258
 469  45.62833
 470  113.8495
 471  136.4483
 472  56.6202
 473  27.35939
 474  178.0407
 475  337.8322
 476  324.3671
 477  227.903
 478  170.5581
 479  97.2104
 480  112.3074
 481  37.21458
 482  78.64853
 483  146.7267
 484  244.1961
 485  217.8519
 486  190.0388
 487  183.7164
 488  145.7181
 489  54.76815
 490  61.14383
 491  124.5011
 492  83.5664
 493  -25.10684
 494  -52.28339
 495  -32.93726
 496  45.11545
 497  78.88289
 498  117.7634
 499  33.59289
 500  64.44467
 501  5.761393
 502  53.76769
 503  29.94564
 504  35.68962
 505  -62.58755
 506  30.71564
 507  127.8609
 508  208.0221
 509  57.10691
 510  25.61876
 511  -24.88472
 512  -5.79552
 513  -22.19909
 514  -25.33615
 515  -77.84378
 516  -22.18796
 517  -23.69476
 518  70.1304
 519  23.07681
 520  108.1037
 521  141.9679
 522  163.3072
 523  27.70098
 524  -51.71799
 525  -40.66389
 526  56.00316
 527  145.1834
 528  204.1059
 529  111.5276
 530  -22.30811
 531  -104.1857
 532  -13.13035
 533  49.47213
 534  111.6878
 535  76.3006
 536  29.43289
 537  -80.40932
 538  -58.46374
 539  -12.14155
 540  -81.5058
 541  -98.96212
 542  -75.57638
 543  61.82678
 544  120.6403
 545  68.5713
 546  -9.303464
 547  28.80701
 548  184.3158
 549  176.9352
 550  154.0514
 551  210.0438
 552  256.4768
 553  183.5551
 554  104.9209
 555  59.55857
 556  91.31757
 557  101.7506
 558  227.1361
 559  240.2623
 560  243.6053
 561  179.394
 562  122.6192
 563  84.84745
 564  103.9519
 565  94.29786
 566  68.2299
 567  32.96247
 568  7.349061
 569  107.4989
 570  101.7329
 571  71.07745
 572  46.76291
 573  153.478
 574  185.6214
 575  80.11444
 576  -13.43295
 577  -39.8414
 578  -25.31471
 579  -23.94965
 580  -79.75527
 581  -77.19084
 582  -45.49482
 583  90.79015
 584  178.1894
 585  165.6447
 586  43.46718
 587  60.69641
 588  176.2772
 589  215.2555
 590  60.28056
 591  52.37337
 592  78.02171
 593  174.1916
 594  57.71112
 595  -46.50673
 596  -16.33972
 597  21.56516
 598  64.5675
 599  -67.80114
 600  -16.6397
 601  -3.546208
 602  114.5039
 603  84.21613
 604  141.9854
 605  97.55935
 606  65.28485
 607  21.25276
 608  -23.17757
 609  7.737575
 610  -39.777
 611  37.30354
 612  80.24352
 613  141.7607
 614  -5.218795
 615  -12.39849
 616  50.35907
 617  206.6068
 618  129.4973
 619  17.62919
 620  -5.362569
 621  -32.06817
 622  21.87212
 623  13.80802
 624  147.9674
 625  126.339
 626  91.45513
 627  -55.44242
 628  -0.685899
 629  101.8531
 630  136.5462
 631  114.3338
 632  110.4834
 633  191.028
 634  96.71627
 635  76.88651
 636  187.0007
 637  282.2112
 638  359.0055
 639  233.4167
 640  297.884
 641  360.0854
 642  556.8159
 643  669.0712
 644  761.9208
 645  626.6029
 646  665.5671
 647  791.6248
 648  923.1497
 649  977.9642
 650  984.1225
 651  1012.004
 652  885.2188
 653  847.1273
 654  734.1378
 655  559.6537
 656  322.3823
 657  240.0074
 658  259.6618
 659  292.6878
 660  242.409
 661  187.7435
 662  135.7707
 663  108.5053
 664  96.60688
 665  130.91
 666  115.2227
 667  145.3367
 668  148.4701
 669  148.6373
 670  152.5998
 671  196.1745
 672  189.7158
 673  207.8174
 674  296.223
 675  370.2339
 676  333.7351
 677  133.1518
 678  63.41487
 679  -69.74799
 680  -138.4733
 681  -269.9474
 682  -259.1546
 683  -230.7947
 684  -187.5071
 685  -48.02318
 686  118.777
 687  159.7115
 688  59.79498
 689  -80.71031
 690  -33.69023
 691  -77.96169
 692  -58.10804
 693  -118.2653
 694  -27.72897
 695  -14.12683
 696  -17.97438
 697  -70.93317
 698  -149.6302
 699  -125.4866
 700  -134.2508
 701  -64.1471
 702  -58.38805
 703  -79.93301
 704  -116.8033
 705  -5.060584
 706  15.89184
 707  28.60943
 708  -26.05921
 709  -19.79244
 710  74.72492
 711  137.9911
 712  199.011
 713  64.35804
 714  8.233397
 715  -99.08578
 716  -70.21554
 717  -30.5342
 718  90.24244
 719  133.6581
 720  139.3987
 721  61.68423
 722  56.69627
 723  68.6641
 724  66.4902
 725  68.91632
 726  -4.146851
 727  121.0348
 728  122.7364
 729  193.9108
 730  109.1284
 731  227.3182
 732  181.8759
 733  81.59017
 734  11.38231
 735  108.3016
 736  202.6463
 737  233.2773
 738  208.4938
 739  219.6528
 740  236.5914
 741  253.8552
 742  202.5614
 743  103.1624
 744  161.1655
 745  229.7906
 746  135.7787
 747  -25.67328
 748  -149.2985
 749  -84.70239
 750  13.00807
 751  69.55229
 752  115.5833
 753  192.0926
 754  294.0308
 755  241.2937
 756  117.3688
 757  -15.10216
 758  -58.2118
 759  -24.14421
 760  17.87316
 761  35.38482
 762  68.7119
 763  125.2084
 764  41.86982
 765  -6.89395
 766  8.060033
 767  127.632
 768  126.6375
 769  77.66062
 770  78.45296
 771  134.6013
 772  185.8702
 773  190.5506
 774  161.4281
 775  14.26802
 776  -123.1807
 777  -177.0304
 778  -47.82098
 779  22.08106
 780  24.84477
 781  37.58826
 782  74.4351
 783  97.24814
 784  6.803633
 785  -29.91587
 786  -14.96853
 787  123.5418
 788  150.7396
 789  130.5746
 790  123.88
 791  77.15287
 792  10.5371
 793  17.33794
 794  -4.716183
 795  -21.17934
 796  -23.74187
 797  161.0776
 798  147.6905
 799  70.98402
 800  23.35392
 801  190.7738
 802  200.6743
 803  217.0026
 804  191.469
 805  150.0769
 806  39.96298
 807  -25.15528
 808  39.77238
 809  99.75165
 810  79.38913
 811  -27.61164
 812  -31.24875
 813  39.58249
 814  154.1081
 815  91.34399
 816  35.87166
 817  42.31669
 818  85.22068
 819  74.73119
 820  8.146074
 821  81.27322
 822  156.0466
 823  158.9142
 824  49.55854
 825  19.92455
 826  49.91192
 827  66.3889
 828  145.9663
 829  244.2423
 830  278.2056
 831  210.9437
 832  189.5576
 833  248.7677
 834  279.449
 835  211.8968
 836  189.4896
 837  100.5159
 838  12.83096
 839  -53.35515
 840  72.34835
 841  183.6325
 842  244.686
 843  140.9904
 844  88.70386
 845  -38.29979
 846  -5.988208
 847  52.58413
 848  222.2697
 849  187.308
 850  134.0168
 851  50.39946
 852  102.9907
 853  157.5256
 854  292.3093
 855  261.7267
 856  250.4304
 857  68.12944
 858  24.50275
 859  37.69278
 860  114.7615
 861  111.2585
 862  21.75987
 863  11.11349
 864  73.45947
 865  118.1039
 866  161.2811
 867  2.514792
 868  -7.636735
 869  19.74392
 870  152.0849
 871  167.8588
 872  140.2249
 873  151.6197
 874  218.6456
 875  270.7769
 876  342.443
 877  214.9665
 878  176.5339
 879  186.5302
 880  237.3993
 881  169.6001
 882  51.25668
 883  32.95985
 884  202.8777
 885  299.4735
 886  252.3063
 887  132.9056
 888  137.1177
 889  137.9328
 890  103.1581
 891  -57.50202
 892  -104.5525
 893  -143.1194
 894  44.93536
 895  178.7921
 896  290.5878
 897  319.8608
 898  284.5053
 899  254.1317
 900  177.7092
 901  97.3735
 902  68.97846
 903  21.85517
 904  156.8062
 905  71.95331
 906  94.01404
 907  119.4955
 908  233.1945
 909  232.9533
 910  230.9171
 911  231.3449
 912  153.7391
 913  -11.49005
 914  67.19292
 915  85.67164
 916  105.4751
 917  40.12669
 918  86.13591
 919  103.5663
 920  116.3391
 921  192.7632
 922  290.2247
 923  265.3958
 924  233.8781
 925  176.2016
 926  260.98
 927  304.1796
 928  208.7761
 929  175.0146
 930  260.5888
 931  317.8016
 932  240.9466
 933  22.24871
 934  37.14591
 935  11.53482
 936  127.5391
 937  194.5794
 938  192.3492
 939  199.392
 940  149.4248
 941  189.5468
 942  159.7538
 943  111.2393
 944  69.40058
 945  61.93598
 946  121.2855
 947  127.7295
 948  96.88228
 949  67.40826
 950  149.0154
 951  268.2401
 952  249.3421
 953  252.1672
 954  304.8604
 955  380.9123
 956  286.3005
 957  158.6333
 958  150.3367
 959  140.754
 960  99.14037
 961  100.4507
 962  121.5459
 963  140.5589
 964  86.65415
 965  65.34437
 966  77.82745
 967  123.0009
 968  76.32814
 969  155.9469
 970  124.3866
 971  89.74113
 972  -26.01223
 973  6.080721
 974  128.7842
 975  173.9037
 976  160.4462
 977  205.3909
 978  300.4715
 979  332.8984
 980  270.657
 981  149.4023
 982  49.31339
 983  10.75704
 984  -59.28439
 985  -76.51891
 986  -41.38745
 987  22.97468
 988  195.4675
 989  242.084
 990  271.0103
 991  200.3029
 992  207.7732
 993  224.0298
 994  230.2174
 995  214.5176
 996  109.3102
 997  -16.66552
 998  -72.79491
 999  -63.36393
1000  65.80516
1001  139.4354
1002  186.1745
1003  123.1044
1004  40.28516
1005  73.08036
1006  130.2413
1007  141.0312
1008  4.334058
1009  -80.1459
1010  -48.03824
1011  -46.42342
1012  -54.31448
1013  -19.60923
1014  36.8147
1015  83.99931
1016  -8.681016
1017  -17.0662
1018  2.637913
1019  -8.411789
1020  0.3780729
1021  30.95614
1022  81.63556
1023  90.11662
