# Input file       =  1186124839.104553_cleaned.dat
# Candidate        =  PSR_0332+5434
# Telescope        =  AR
# Epoch_topo       =  57972.296968802693
# Epoch_bary       =  N/A
# T_sample         =  0.002
# Data Folded      =  7340032
# Data Avg         =  0.0209306330964734
# Data StdDev      =  2.64510082284987 
# Profile Bins     =  1024
# Profile Avg      =  149.975065326074 
# Profile StdDev   =  223.944927038498 
# Reduced chi-sqr  =  1.355
# Prob(Noise)      <  1.97e-13   (~7.3 sigma)
# P_topo (ms)      =  714.467398236235  +/- 0.000232
# P'_topo (s/s)    =  -0                +/- 1.22e-10
# P''_topo (s/s^2) =  0                 +/- 5.4e-14
# P_bary (ms)      =  N/A
# P'_bary (s/s)    =  N/A
# P''_bary (s/s^2) =  N/A
# P_orb (s)        =  N/A
# asin(i)/c (s)    =  N/A
# eccentricity     =  N/A
# w (rad)          =  N/A
# T_peri           =  N/A
######################################################
   0  106.2342
   1  5.744221
   2  -109.7998
   3  -16.6812
   4  98.27324
   5  97.54614
   6  61.29308
   7  119.73
   8  178.0833
   9  209.5891
  10  105.9834
  11  27.01969
  12  7.619239
  13  52.46424
  14  168.3237
  15  155.936
  16  85.91972
  17  -67.37281
  18  -109.6487
  19  -116.3752
  20  72.32021
  21  204.3969
  22  130.9805
  23  123.393
  24  67.71432
  25  11.04555
  26  -78.25379
  27  -68.50906
  28  174.7767
  29  213.5181
  30  209.4441
  31  117.4485
  32  119.5966
  33  170.6413
  34  215.5276
  35  232.8464
  36  187.8945
  37  154.1128
  38  168.6551
  39  214.3021
  40  229.8969
  41  309.9932
  42  218.4225
  43  48.38111
  44  -82.85439
  45  -170.4113
  46  -72.21089
  47  50.93167
  48  171.638
  49  99.78104
  50  13.20908
  51  -98.53732
  52  -105.4697
  53  -64.6242
  54  -15.74349
  55  -46.86496
  56  -76.64925
  57  -16.99918
  58  102.7718
  59  13.02369
  60  -92.76013
  61  -218.0079
  62  -108.575
  63  28.76658
  64  101.2434
  65  115.3975
  66  160.7373
  67  207.596
  68  161.2567
  69  81.82387
  70  62.17056
  71  71.76269
  72  77.25773
  73  202.6335
  74  261.1696
  75  83.11501
  76  53.0789
  77  108.2065
  78  239.7264
  79  180.4151
  80  131.9169
  81  176.235
  82  203.8892
  83  233.7682
  84  147.8913
  85  110.1749
  86  -79.86684
  87  -60.38836
  88  125.0577
  89  205.0778
  90  197.8206
  91  57.251
  92  86.45988
  93  100.4684
  94  20.78457
  95  -95.46008
  96  -164.7111
  97  -142.1501
  98  -101.144
  99  -53.62658
 100  87.04472
 101  207.1533
 102  138.2378
 103  95.89096
 104  199.6408
 105  342.9063
 106  360.8021
 107  233.9596
 108  156.2985
 109  84.17387
 110  -29.92595
 111  -155.9119
 112  -78.42139
 113  45.57416
 114  164.2172
 115  198.1805
 116  234.6672
 117  275.7675
 118  174.3947
 119  173.9017
 120  131.1686
 121  73.06854
 122  -36.97483
 123  -59.91077
 124  -19.07313
 125  22.61358
 126  101.8397
 127  233.7328
 128  365.7765
 129  347.5837
 130  302.9935
 131  178.6894
 132  4.686774
 133  38.54229
 134  83.84207
 135  169.5306
 136  112.1391
 137  93.36176
 138  102.3475
 139  160.7497
 140  194.2821
 141  115.4801
 142  2.0016
 143  -14.03697
 144  -19.52238
 145  -19.77112
 146  -1.842422
 147  71.24268
 148  81.33663
 149  112.8278
 150  212.0732
 151  305.8858
 152  304.6392
 153  234.2302
 154  220.4396
 155  271.7168
 156  225.4462
 157  189.0571
 158  121.7986
 159  188.4002
 160  212.5466
 161  197.0754
 162  145.7315
 163  280.6046
 164  292.5271
 165  273.5639
 166  190.3541
 167  184.8952
 168  115.7489
 169  85.72857
 170  140.8346
 171  242.543
 172  267.9714
 173  222.7279
 174  272.6584
 175  120.8313
 176  123.7481
 177  -49.97138
 178  75.21943
 179  143.8202
 180  191.8463
 181  122.7724
 182  21.38584
 183  122.9995
 184  154.3418
 185  275.5276
 186  82.47292
 187  196.0874
 188  106.9447
 189  197.7468
 190  133.5125
 191  139.0515
 192  77.81334
 193  41.89837
 194  54.38786
 195  178.5327
 196  153.4899
 197  196.5384
 198  205.2621
 199  249.342
 200  254.2787
 201  184.9115
 202  179.5684
 203  224.0868
 204  161.9283
 205  178.1342
 206  135.6594
 207  228.4144
 208  221.723
 209  185.5591
 210  183.7844
 211  214.2808
 212  297.4069
 213  373.1633
 214  380.4551
 215  260.4092
 216  299.3979
 217  448.6711
 218  473.2315
 219  272.6546
 220  108.7642
 221  108.8644
 222  159.6402
 223  67.50861
 224  41.31273
 225  156.8391
 226  330.8963
 227  370.96
 228  430.8001
 229  354.6513
 230  416.0134
 231  266.1576
 232  315.9484
 233  195.5682
 234  189.649
 235  154.79
 236  188.3192
 237  200.7798
 238  146.9331
 239  249.955
 240  228.1226
 241  228.3739
 242  131.1967
 243  185.7356
 244  172.2411
 245  182.6623
 246  142.4241
 247  117.7262
 248  111.8422
 249  147.5336
 250  160.7652
 251  123.7364
 252  31.59755
 253  84.54269
 254  69.99382
 255  116.5468
 256  -18.12594
 257  3.34687
 258  28.45752
 259  110.3518
 260  238.7329
 261  248.835
 262  236.9727
 263  234.6395
 264  128.8982
 265  174.2687
 266  146.8945
 267  229.6568
 268  159.8558
 269  180.0852
 270  257.6785
 271  190.8528
 272  27.87261
 273  -93.53987
 274  -43.00528
 275  -41.43649
 276  25.55287
 277  0.07800888
 278  152.3236
 279  120.1886
 280  146.4475
 281  128.8375
 282  146.5078
 283  206.7683
 284  250.2219
 285  190.507
 286  -5.090154
 287  -142.4632
 288  -40.61389
 289  158.0316
 290  272.1123
 291  346.4931
 292  414.6783
 293  332.3499
 294  357.4759
 295  294.631
 296  357.1839
 297  140.8509
 298  81.03796
 299  97.99181
 300  138.9745
 301  56.08178
 302  60.90173
 303  175.997
 304  252.344
 305  213.6105
 306  -8.200471
 307  -69.79936
 308  58.98573
 309  147.1553
 310  94.63964
 311  -51.60569
 312  61.93182
 313  138.9844
 314  130.4497
 315  130.0273
 316  62.80223
 317  130.666
 318  74.87061
 319  89.81702
 320  116.8319
 321  265.8884
 322  261.1249
 323  80.98322
 324  92.43044
 325  165.1449
 326  283.6052
 327  205.5709
 328  134.3816
 329  58.90032
 330  -40.2897
 331  3.16568
 332  32.10442
 333  158.5472
 334  220.6218
 335  244.7722
 336  257.5294
 337  236.1081
 338  163.1207
 339  155.7826
 340  232.3638
 341  249.2416
 342  245.0955
 343  121.318
 344  25.43111
 345  -6.617165
 346  33.0075
 347  115.3291
 348  233.8798
 349  360.6779
 350  339.3936
 351  230.1453
 352  143.556
 353  244.9998
 354  284.8295
 355  291.8047
 356  178.0958
 357  69.37325
 358  43.99932
 359  148.5137
 360  236.0208
 361  226.9511
 362  167.2258
 363  116.0804
 364  135.0624
 365  121.9527
 366  72.19867
 367  -31.11522
 368  34.02483
 369  98.6032
 370  307.9631
 371  269.2268
 372  214.7814
 373  173.4518
 374  233.9244
 375  179.551
 376  147.6719
 377  267.6278
 378  448.6641
 379  317.6115
 380  194.1409
 381  195.1333
 382  215.5427
 383  145.4713
 384  66.36081
 385  213.0847
 386  403.7387
 387  371.2986
 388  282.9806
 389  29.10056
 390  -60.15779
 391  -28.24785
 392  106.8077
 393  90.83638
 394  93.21645
 395  183.4624
 396  264.3547
 397  130.5278
 398  100.1618
 399  203.5954
 400  304.3518
 401  275.7138
 402  242.122
 403  227.8829
 404  324.8157
 405  257.4718
 406  214.4259
 407  156.8959
 408  146.1125
 409  134.6571
 410  150.8503
 411  159.5518
 412  125.1702
 413  66.30506
 414  41.13306
 415  138.7981
 416  166.0349
 417  76.3025
 418  19.57921
 419  51.65191
 420  178.3324
 421  119.906
 422  50.71157
 423  132.92
 424  230.7007
 425  328.8417
 426  270.2386
 427  130.191
 428  -2.771475
 429  -60.26693
 430  -128.5551
 431  -20.8764
 432  -23.82537
 433  -54.15471
 434  -68.572
 435  9.137239
 436  186.543
 437  232.1401
 438  196.352
 439  182.7709
 440  181.1447
 441  167.2688
 442  180.0058
 443  218.1555
 444  182.2221
 445  176.7908
 446  120.2178
 447  224.3543
 448  171.4135
 449  82.08427
 450  75.16497
 451  94.36149
 452  83.7599
 453  68.67337
 454  196.6898
 455  207.3858
 456  162.2133
 457  84.60975
 458  201.4149
 459  214.6059
 460  87.37764
 461  68.26611
 462  102.1929
 463  30.36004
 464  -138.4809
 465  -198.5463
 466  -34.83302
 467  -5.95812
 468  59.85946
 469  30.53931
 470  -2.034197
 471  18.59106
 472  5.909278
 473  93.24245
 474  115.7653
 475  213.2218
 476  127.1235
 477  112.9802
 478  158.2287
 479  366.9824
 480  314.2443
 481  225.6356
 482  152.8103
 483  205.2727
 484  168.1635
 485  144.7385
 486  75.61249
 487  63.3614
 488  8.963411
 489  92.03086
 490  236.6129
 491  203.9272
 492  120.0301
 493  106.732
 494  167.8814
 495  215.4307
 496  109.1652
 497  104.9142
 498  36.19401
 499  106.6542
 500  95.20076
 501  -10.88112
 502  -98.18636
 503  -109.0714
 504  44.50801
 505  205.8793
 506  252.2379
 507  236.2264
 508  166.0595
 509  220.347
 510  259.88
 511  190.4349
 512  219.1585
 513  222.2865
 514  297.3658
 515  298.7958
 516  194.2285
 517  103.796
 518  87.19655
 519  61.18927
 520  159.1058
 521  206.2017
 522  285.8397
 523  125.9971
 524  36.92973
 525  141.4913
 526  275.5607
 527  196.9972
 528  109.9351
 529  74.60035
 530  138.2391
 531  108.8939
 532  169.7398
 533  246.6917
 534  502.5306
 535  457.4771
 536  397.069
 537  271.2274
 538  217.1134
 539  224.6537
 540  211.0896
 541  296.0558
 542  323.4925
 543  423.1545
 544  371.2749
 545  290.8096
 546  31.37634
 547  -74.79829
 548  -136.0149
 549  106.4226
 550  220.7056
 551  176.4399
 552  84.80778
 553  -74.4331
 554  -118.0248
 555  -169.1342
 556  0.4792865
 557  96.3762
 558  179.586
 559  230.4251
 560  206.3058
 561  255.5556
 562  238.4856
 563  246.2873
 564  270.9574
 565  263.2706
 566  231.561
 567  101.8636
 568  46.24686
 569  -43.88226
 570  -107.6687
 571  -14.4756
 572  63.83024
 573  127.9464
 574  112.6468
 575  47.82794
 576  47.76014
 577  61.48681
 578  257.1527
 579  284.1335
 580  213.244
 581  -3.739708
 582  -58.82197
 583  -60.81587
 584  169.6246
 585  255.35
 586  215.6844
 587  115.9391
 588  92.28979
 589  165.9226
 590  348.5891
 591  365.8173
 592  267.9645
 593  127.4894
 594  114.1991
 595  148.2965
 596  73.54596
 597  3.950314
 598  -27.17021
 599  53.45557
 600  160.1452
 601  299.1195
 602  289.9142
 603  253.5629
 604  244.0708
 605  189.4578
 606  223.165
 607  197.2702
 608  203.4651
 609  244.6067
 610  285.5054
 611  268.8878
 612  200.3333
 613  111.7349
 614  70.43438
 615  206.9581
 616  265.1575
 617  383.169
 618  257.8183
 619  197.5463
 620  141.0651
 621  92.35248
 622  56.11483
 623  -20.82234
 624  12.24255
 625  40.97928
 626  83.63527
 627  199.6437
 628  334.5712
 629  354.2624
 630  220.9866
 631  79.71783
 632  37.09605
 633  156.6172
 634  374.4261
 635  490.3892
 636  458.3897
 637  335.6456
 638  250.2493
 639  317.9995
 640  297.5537
 641  214.9556
 642  286.7062
 643  498.6857
 644  717.5379
 645  681.6309
 646  776.729
 647  924.1413
 648  1133.837
 649  1044.755
 650  1024.628
 651  961.658
 652  927.4815
 653  765.6212
 654  552.0917
 655  530.3508
 656  364.7744
 657  274.784
 658  -17.36648
 659  56.1614
 660  198.894
 661  326.0946
 662  348.9784
 663  249.5436
 664  272.0179
 665  197.2504
 666  98.39169
 667  40.38022
 668  15.97518
 669  18.36646
 670  4.10548
 671  39.92372
 672  190.5205
 673  308.6511
 674  400.5039
 675  367.7725
 676  246.1046
 677  189.181
 678  278.7104
 679  399.4012
 680  230.9852
 681  207.6914
 682  56.17389
 683  128.3299
 684  176.9816
 685  271.9637
 686  317.8674
 687  266.9392
 688  251.696
 689  151.1932
 690  83.30307
 691  164.8329
 692  231.394
 693  299.44
 694  191.2977
 695  156.8584
 696  53.67628
 697  95.73442
 698  202.7195
 699  323.7322
 700  332.9973
 701  232.4918
 702  36.15934
 703  34.91774
 704  12.07039
 705  124.4869
 706  214.4265
 707  321.5936
 708  278.4264
 709  231.7743
 710  125.0853
 711  197.0794
 712  259.3967
 713  328.8581
 714  346.1753
 715  246.3573
 716  218.2415
 717  316.6326
 718  392.5113
 719  293.526
 720  85.57597
 721  5.325768
 722  49.32757
 723  60.59052
 724  22.0269
 725  21.92773
 726  141.7972
 727  290.6176
 728  212.7762
 729  92.7932
 730  38.88594
 731  173.9632
 732  232.4017
 733  291.8918
 734  199.5931
 735  140.9077
 736  46.45746
 737  1.48909
 738  -55.82125
 739  -26.68961
 740  56.93195
 741  34.06614
 742  -44.68091
 743  -4.917075
 744  -31.20832
 745  -33.32633
 746  -20.90147
 747  10.83605
 748  -8.580482
 749  -80.02768
 750  5.88079
 751  39.10397
 752  29.1977
 753  124.2288
 754  308.3878
 755  422.0221
 756  344.6671
 757  373.7996
 758  432.4909
 759  511.0211
 760  321.8715
 761  161.6596
 762  76.94881
 763  89.27229
 764  142.64
 765  235.9486
 766  317.972
 767  350.3386
 768  350.806
 769  352.1231
 770  294.0338
 771  219.274
 772  238.7605
 773  260.4291
 774  232.223
 775  273.485
 776  291.2258
 777  311.202
 778  324.4091
 779  326.2801
 780  314.6927
 781  325.4173
 782  163.1282
 783  147.4022
 784  158.8688
 785  164.8131
 786  57.1001
 787  136.9332
 788  160.3788
 789  188.1144
 790  2.450712
 791  96.6977
 792  82.29995
 793  153.3092
 794  107.9329
 795  138.4861
 796  76.35284
 797  169.5474
 798  233.2091
 799  216.3419
 800  122.3169
 801  90.00961
 802  169.3924
 803  119.2967
 804  80.42085
 805  107.7063
 806  181.943
 807  168.9968
 808  180.9093
 809  173.0309
 810  193.1853
 811  144.7475
 812  57.03132
 813  194.045
 814  287.9672
 815  318.2667
 816  142.1883
 817  71.99434
 818  57.32612
 819  150.5749
 820  282.825
 821  370.3593
 822  184.5789
 823  13.82607
 824  -98.17679
 825  35.09368
 826  170.6215
 827  283.5673
 828  192.6879
 829  168.3863
 830  227.7267
 831  328.3814
 832  296.7487
 833  188.2457
 834  228.7256
 835  228.61
 836  194.1519
 837  75.4858
 838  77.59883
 839  97.32727
 840  123.8508
 841  193.3426
 842  238.5486
 843  214.2822
 844  32.13912
 845  43.80731
 846  54.51265
 847  83.79617
 848  35.57396
 849  10.60876
 850  25.77543
 851  63.29107
 852  58.71288
 853  148.103
 854  196.4163
 855  186.5733
 856  97.31322
 857  27.79985
 858  -26.20793
 859  -50.47393
 860  57.43822
 861  197.2292
 862  234.8667
 863  202.9908
 864  240.9889
 865  188.5707
 866  265.7777
 867  246.0661
 868  190.5984
 869  152.7174
 870  216.1376
 871  213.0941
 872  124.2061
 873  89.1972
 874  85.33661
 875  162.2542
 876  204.3457
 877  282.8039
 878  307.0822
 879  218.5925
 880  102.8544
 881  11.69104
 882  -22.82247
 883  123.1618
 884  218.5293
 885  231.8591
 886  250.197
 887  165.075
 888  153.4412
 889  80.84506
 890  94.50887
 891  282.4778
 892  231.2077
 893  221.7749
 894  194.6681
 895  251.103
 896  244.2133
 897  122.511
 898  33.96894
 899  44.55741
 900  160.2463
 901  207.3834
 902  147.4604
 903  24.13801
 904  -15.36871
 905  32.99314
 906  -12.73841
 907  24.63187
 908  -4.009225
 909  -35.62354
 910  -56.74925
 911  -30.31834
 912  91.77455
 913  159.1915
 914  190.0282
 915  196.2866
 916  211.3215
 917  168.2906
 918  254.9194
 919  109.353
 920  135.8078
 921  62.70912
 922  151.3968
 923  62.92018
 924  -37.31446
 925  0.09463816
 926  92.18021
 927  166.4317
 928  109.2627
 929  120.4617
 930  27.24661
 931  73.60408
 932  119.0166
 933  93.30518
 934  -11.90215
 935  -96.83465
 936  -35.29718
 937  94.05516
 938  238.3355
 939  227.6697
 940  331.724
 941  362.3684
 942  290.2432
 943  97.66361
 944  12.13381
 945  8.501674
 946  53.4726
 947  143.618
 948  242.799
 949  199.6993
 950  125.9043
 951  21.03772
 952  9.318331
 953  37.43867
 954  86.15597
 955  110.5051
 956  77.78365
 957  -48.50877
 958  -110.8598
 959  -60.66817
 960  -17.80871
 961  87.56956
 962  244.1488
 963  210.98
 964  263.4613
 965  206.6606
 966  278.1232
 967  283.1071
 968  172.3941
 969  213.9426
 970  156.8725
 971  186.2141
 972  117.069
 973  137.2462
 974  82.67449
 975  -59.07085
 976  -220.8875
 977  -116.0473
 978  82.48003
 979  101.4998
 980  -11.1276
 981  21.10255
 982  85.78741
 983  66.31422
 984  -21.73915
 985  -143.7293
 986  -168.2912
 987  -156.6593
 988  94.92376
 989  221.583
 990  166.8086
 991  48.91021
 992  45.36732
 993  126.6264
 994  136.1318
 995  113.1469
 996  122.805
 997  111.9133
 998  97.84634
 999  127.115
1000  115.2273
1001  140.6263
1002  27.63402
1003  27.58869
1004  36.87553
1005  74.03772
1006  151.7005
1007  122.1165
1008  123.0832
1009  144.571
1010  202.1596
1011  193.4501
1012  177.1963
1013  113.8021
1014  100.8272
1015  80.7174
1016  -16.31736
1017  -11.73637
1018  -113.8065
1019  -142.6623
1020  -309.0815
1021  -320.8922
1022  -224.533
1023  17.97497
