# Input file       =  1186439960.113446_cleaned.dat
# Candidate        =  PSR_0332+5434
# Telescope        =  AR
# Epoch_topo       =  57975.944202701918
# Epoch_bary       =  N/A
# T_sample         =  0.002
# Data Folded      =  7208960
# Data Avg         =  0.103376940372188
# Data StdDev      =  4.42902010849342 
# Profile Bins     =  512
# Profile Avg      =  1455.60788129622 
# Profile StdDev   =  525.543875646803 
# Reduced chi-sqr  =  0.613
# Prob(Noise)      <  1   (~0.0 sigma)
# P_topo (ms)      =  714.46590324149   +/- 7.46e-05
# P'_topo (s/s)    =  -0                +/- 4.01e-11
# P''_topo (s/s^2) =  0                 +/- 1.8e-14
# P_bary (ms)      =  N/A
# P'_bary (s/s)    =  N/A
# P''_bary (s/s^2) =  N/A
# P_orb (s)        =  N/A
# asin(i)/c (s)    =  N/A
# eccentricity     =  N/A
# w (rad)          =  N/A
# T_peri           =  N/A
######################################################
   0  1083.442
   1  863.472
   2  1211.745
   3  1416.673
   4  1262.689
   5  1309.819
   6  1372.431
   7  1843.37
   8  1920.165
   9  1499.806
  10  1683.466
  11  1479.005
  12  1106.841
  13  1171.987
  14  1388.659
  15  1344.107
  16  1144.99
  17  1634.623
  18  1911.595
  19  1790.5
  20  1730.333
  21  2105.104
  22  2200.162
  23  2169.556
  24  2343.882
  25  2817.167
  26  3494.317
  27  3125.733
  28  2617.369
  29  2098.614
  30  1242.897
  31  1477.632
  32  1601.323
  33  1690.68
  34  1291.685
  35  1289.128
  36  1300.004
  37  1208.185
  38  1261.485
  39  1339.298
  40  1606.932
  41  1498.521
  42  1292.597
  43  1534.098
  44  1246.878
  45  1027.057
  46  1362.434
  47  1718.677
  48  1597.652
  49  1440.264
  50  1666.409
  51  1371.811
  52  1301.933
  53  1655.497
  54  1574.916
  55  1652.439
  56  1690.487
  57  1623.579
  58  1616.927
  59  1602.692
  60  1182.747
  61  1333.582
  62  1475.864
  63  1385.383
  64  1513.878
  65  1689.583
  66  1490.902
  67  1452.24
  68  1771.323
  69  1744.844
  70  1362.435
  71  842.7533
  72  985.4501
  73  1284.465
  74  1604.552
  75  1699.524
  76  1724.069
  77  1662.014
  78  1217.898
  79  1279.617
  80  1547.725
  81  1619.701
  82  1618.613
  83  1649.07
  84  1868.821
  85  1186.066
  86  1471.766
  87  1679.772
  88  1758.358
  89  1446.633
  90  1347.653
  91  1873.601
  92  1793.53
  93  1597.238
  94  1702.459
  95  1927.53
  96  1464.544
  97  1216.494
  98  1480.66
  99  1115.805
 100  1362.775
 101  1279.035
 102  1688.957
 103  1565.757
 104  1382.861
 105  1365.018
 106  1237.601
 107  1109.235
 108  1614.008
 109  1487.572
 110  1543.479
 111  1396.648
 112  1353.559
 113  1378.819
 114  1275.693
 115  1640.985
 116  1564.724
 117  1644.263
 118  1380.866
 119  1245.288
 120  1226.17
 121  1546.76
 122  1661.161
 123  1663.552
 124  1831.488
 125  1736.91
 126  1577.91
 127  1556.717
 128  1560.783
 129  1734.517
 130  1428.852
 131  1560.479
 132  1561.687
 133  1398.531
 134  1581.902
 135  1233.471
 136  1313.591
 137  1056.659
 138  867.1899
 139  1541.222
 140  1725.706
 141  1703.669
 142  1698.506
 143  1718.72
 144  1661.069
 145  947.8463
 146  1289.233
 147  1362.351
 148  1313.121
 149  1281.359
 150  1751.444
 151  1782.355
 152  1317.083
 153  1291.506
 154  1066.54
 155  1219.701
 156  1360.188
 157  1887.076
 158  1869.264
 159  1572.898
 160  1391.608
 161  1066.023
 162  802.8936
 163  531.6286
 164  1148.814
 165  1780.249
 166  1495.604
 167  1283.311
 168  1827.614
 169  1543.001
 170  1576.467
 171  1518.305
 172  1268.263
 173  1185.423
 174  1343.441
 175  1564.622
 176  1228.483
 177  1477.376
 178  1523.643
 179  1524.023
 180  1034.391
 181  901.045
 182  1801.487
 183  2181.654
 184  1743.424
 185  1660.697
 186  1584.693
 187  1105.137
 188  996.192
 189  1396.364
 190  2127.25
 191  2346.967
 192  1786.519
 193  1116.315
 194  1055.991
 195  1521.384
 196  1190.857
 197  1373.478
 198  1730.13
 199  1513.026
 200  1135.583
 201  1392.171
 202  1566.752
 203  1102.812
 204  1237.333
 205  1314.364
 206  1542.865
 207  1595.16
 208  1551.097
 209  1531.85
 210  1333.74
 211  1224.141
 212  784.4308
 213  1350.25
 214  1493.381
 215  1397.623
 216  1793.825
 217  1726.252
 218  1492.874
 219  1388.145
 220  1225.196
 221  1143.917
 222  1435.147
 223  1529.403
 224  1374.487
 225  1279.073
 226  1401.803
 227  1322.718
 228  1121.764
 229  570.643
 230  673.8539
 231  1314.801
 232  1568.148
 233  1501.849
 234  1477.158
 235  1674.562
 236  1139.401
 237  990.3853
 238  1065.103
 239  1320.435
 240  1646.966
 241  1315.356
 242  1486.118
 243  1548.87
 244  1553.469
 245  1150.287
 246  1015.347
 247  954.5833
 248  1224.24
 249  1596.88
 250  1752.509
 251  1634.83
 252  1645.479
 253  1429.361
 254  1818.735
 255  1410.321
 256  1330.265
 257  1516.856
 258  1299.406
 259  1290.212
 260  752.0612
 261  1202.863
 262  1351.364
 263  1242.872
 264  1670.878
 265  1534.879
 266  1697.746
 267  1578.086
 268  1904.537
 269  1683.571
 270  983.4382
 271  1455.065
 272  1798.927
 273  2111.858
 274  1865.579
 275  1679.105
 276  1613.895
 277  1116.126
 278  1208.997
 279  1284.129
 280  1430.744
 281  1315.394
 282  1954.998
 283  1800.227
 284  1615.066
 285  1261.965
 286  1142.405
 287  1256.396
 288  1279.378
 289  1426.271
 290  1756.688
 291  1603.764
 292  1058.732
 293  1006.87
 294  1106.232
 295  1357.189
 296  1263.95
 297  1619.754
 298  1645.514
 299  1280.049
 300  1421.41
 301  1051.01
 302  976.4483
 303  1303.694
 304  1418.201
 305  1632.029
 306  1366.513
 307  1227.304
 308  1016.818
 309  1237.458
 310  1466.963
 311  1483.932
 312  1211.049
 313  755.9531
 314  882.756
 315  1535.235
 316  1602.653
 317  1391.389
 318  1260.968
 319  1675.145
 320  1317.542
 321  1475.332
 322  1618.981
 323  1447.571
 324  1548.461
 325  1254.993
 326  1445.481
 327  1817.502
 328  1775.529
 329  1049.154
 330  1506.677
 331  1897.274
 332  1630.24
 333  1778.838
 334  1982.905
 335  1874.258
 336  1567.061
 337  1339.672
 338  1460.572
 339  1177.562
 340  1428.883
 341  1603.268
 342  1717.357
 343  1568.649
 344  964.3558
 345  1357.934
 346  1411.455
 347  1162.279
 348  1806.79
 349  1361.674
 350  926.6201
 351  1227.709
 352  1112.934
 353  1321.526
 354  1007.799
 355  1183.74
 356  1310.551
 357  1660.412
 358  1331.005
 359  1313.55
 360  1630.004
 361  1396.922
 362  1665.651
 363  1541.68
 364  1585.698
 365  1516.697
 366  1393.975
 367  1840.564
 368  1517.218
 369  1524.899
 370  1623.242
 371  1474.065
 372  1502.204
 373  1393.729
 374  1281.135
 375  1491.187
 376  1574.239
 377  1546.911
 378  1486.968
 379  1518.705
 380  1182.717
 381  1179.545
 382  1381.34
 383  913.2961
 384  1590.11
 385  1836.204
 386  1642.553
 387  1378.029
 388  1162.376
 389  1316.618
 390  1666.213
 391  1712.145
 392  1339.352
 393  1702.907
 394  1603.826
 395  1120.586
 396  827.6385
 397  1495.991
 398  1582.732
 399  1509.354
 400  1988.424
 401  1775.966
 402  1574.5
 403  1498.955
 404  1528.046
 405  1566.346
 406  1585.298
 407  1563.77
 408  1750.328
 409  1293.109
 410  992.075
 411  1395.913
 412  1568.722
 413  1236.85
 414  1102.632
 415  1560.446
 416  1405.952
 417  1236.823
 418  1688.702
 419  1519.795
 420  1483.299
 421  910.7514
 422  1312.59
 423  1887.384
 424  1771.975
 425  1504.452
 426  1445.389
 427  1509.962
 428  1046.401
 429  1171.347
 430  1267.825
 431  1427.745
 432  1575.306
 433  1502.936
 434  1545.412
 435  1442.942
 436  1721.961
 437  1480.843
 438  1614.28
 439  1447.96
 440  1512.67
 441  1787.453
 442  1385.396
 443  1391.68
 444  1477.315
 445  1283.097
 446  1177.528
 447  1425.669
 448  1603.619
 449  1705.574
 450  1447.399
 451  1891.641
 452  1579.726
 453  1681.838
 454  1458.944
 455  1033.841
 456  1289.525
 457  1247.904
 458  1318.525
 459  1295.587
 460  1624.157
 461  1278.137
 462  1369.277
 463  1445.717
 464  1554.332
 465  1447.969
 466  1665.572
 467  1655.665
 468  1648.595
 469  1908.329
 470  1304.577
 471  1520.726
 472  1636.72
 473  1504.99
 474  1320.081
 475  1531.585
 476  1382.821
 477  1279.779
 478  1379.326
 479  1519.986
 480  1336.946
 481  1166.567
 482  1304.91
 483  1530.012
 484  1311.271
 485  1450.308
 486  1307.555
 487  1350.68
 488  1310.746
 489  1799.539
 490  1396.454
 491  1279.488
 492  1138.904
 493  1016.53
 494  1237.103
 495  1256.748
 496  1743.513
 497  1729.191
 498  1602.783
 499  1301.084
 500  1234.947
 501  1286.965
 502  1365.809
 503  1286.803
 504  1360.074
 505  1435.463
 506  1486.652
 507  1495.543
 508  1232.204
 509  1129.135
 510  1156.382
 511  1202.819
