# Input file       =  1186526186.116844_cleaned.dat
# Candidate        =  PSR_0332+5434
# Telescope        =  AR
# Epoch_topo       =  57976.942188852358
# Epoch_bary       =  N/A
# T_sample         =  0.002
# Data Folded      =  7143424
# Data Avg         =  0.100437191797745
# Data StdDev      =  4.23670079326361 
# Profile Bins     =  1024
# Profile Avg      =  700.624909960496 
# Profile StdDev   =  353.859638945733 
# Reduced chi-sqr  =  0.470
# Prob(Noise)      <  1   (~0.0 sigma)
# P_topo (ms)      =  714.465622374705  +/- 5.59e-05
# P'_topo (s/s)    =  -0                +/- 3.03e-11
# P''_topo (s/s^2) =  0                 +/- 1.38e-14
# P_bary (ms)      =  N/A
# P'_bary (s/s)    =  N/A
# P''_bary (s/s^2) =  N/A
# P_orb (s)        =  N/A
# asin(i)/c (s)    =  N/A
# eccentricity     =  N/A
# w (rad)          =  N/A
# T_peri           =  N/A
######################################################
   0  544.8011
   1  523.3671
   2  592.6075
   3  519.3129
   4  617.7137
   5  751.3757
   6  944.8608
   7  752.3648
   8  662.134
   9  521.515
  10  634.4397
  11  589.6268
  12  721.4351
  13  633.3303
  14  612.7802
  15  530.5975
  16  713.4113
  17  717.5985
  18  737.3703
  19  709.2908
  20  772.3522
  21  685.7541
  22  556.1462
  23  607.8367
  24  632.2375
  25  503.6415
  26  404.4492
  27  493.0224
  28  662.8635
  29  628.5065
  30  609.8912
  31  608.9025
  32  620.3953
  33  497.1135
  34  614.5503
  35  691.4069
  36  675.095
  37  663.0573
  38  819.3972
  39  883.7369
  40  778.5935
  41  701.4027
  42  599.5132
  43  574.6456
  44  523.269
  45  626.2584
  46  683.323
  47  728.1313
  48  673.5476
  49  774.0395
  50  807.2537
  51  741.7811
  52  645.8945
  53  691.7623
  54  749.9204
  55  760.2095
  56  757.6856
  57  781.0121
  58  675.4001
  59  658.0963
  60  587.0824
  61  553.8552
  62  543.0391
  63  664.1118
  64  871.1516
  65  910.0035
  66  893.6549
  67  722.9319
  68  701.5721
  69  682.7603
  70  717.2083
  71  665.72
  72  700.6661
  73  732.8782
  74  855.0367
  75  884.8428
  76  841.6646
  77  772.4255
  78  753.242
  79  796.4767
  80  851.1733
  81  923.8818
  82  905.1069
  83  699.7692
  84  631.2786
  85  635.3886
  86  727.8888
  87  749.3955
  88  807.1332
  89  905.5983
  90  848.9136
  91  768.7083
  92  656.0817
  93  754.6315
  94  759.4193
  95  779.5289
  96  730.0211
  97  778.4745
  98  749.6818
  99  692.18
 100  697.1406
 101  687.4117
 102  679.4998
 103  658.8472
 104  659.1205
 105  713.3837
 106  687.7531
 107  827.8771
 108  741.1791
 109  658.874
 110  653.3854
 111  842.6578
 112  855.958
 113  739.3529
 114  649.3223
 115  775.858
 116  825.1249
 117  874.6422
 118  804.253
 119  741.1418
 120  665.2712
 121  618.8434
 122  740.3582
 123  707.9609
 124  777.9587
 125  815.3607
 126  937.4496
 127  812.595
 128  731.6025
 129  692.3978
 130  710.514
 131  662.5677
 132  610.5659
 133  603.4138
 134  603.8022
 135  643.6031
 136  637.7243
 137  760.7924
 138  678.4121
 139  796.16
 140  826.7629
 141  800.3132
 142  652.2543
 143  476.3153
 144  471.6288
 145  522.0498
 146  602.0809
 147  618.3666
 148  627.6564
 149  743.595
 150  748.9976
 151  749.0889
 152  711.642
 153  648.9349
 154  615.0513
 155  668.5673
 156  644.4426
 157  562.9445
 158  608.4336
 159  614.7172
 160  644.7512
 161  599.4034
 162  611.9945
 163  599.3278
 164  658.6016
 165  764.5909
 166  693.3022
 167  641.8708
 168  668.4191
 169  781.5821
 170  761.4752
 171  667.2856
 172  541.9156
 173  555.129
 174  528.4843
 175  464.0863
 176  507.996
 177  484.8734
 178  543.892
 179  552.7938
 180  666.1522
 181  718.0065
 182  896.36
 183  987.129
 184  933.8227
 185  677.7126
 186  561.522
 187  618.4047
 188  691.014
 189  730.858
 190  700.6282
 191  671.2938
 192  564.6342
 193  557.9672
 194  674.7532
 195  640.0022
 196  627.3162
 197  677.0764
 198  806.754
 199  765.8582
 200  617.9698
 201  620.2234
 202  714.0323
 203  736.3987
 204  761.0001
 205  733.4713
 206  712.7017
 207  741.0241
 208  733.5121
 209  685.5542
 210  416.2897
 211  449.6004
 212  614.177
 213  869.7445
 214  919.3695
 215  843.74
 216  709.0576
 217  591.3755
 218  512.4245
 219  568.4163
 220  711.787
 221  894.839
 222  857.8243
 223  762.6364
 224  696.551
 225  630.5206
 226  607.5704
 227  634.4855
 228  713.3798
 229  792.1213
 230  763.5873
 231  765.1207
 232  797.0264
 233  785.2983
 234  788.2421
 235  722.0703
 236  745.4321
 237  680.7983
 238  709.941
 239  679.8492
 240  758.4277
 241  794.8302
 242  903.6122
 243  814.9114
 244  820.104
 245  945.668
 246  953.841
 247  745.4725
 248  489.9033
 249  572.785
 250  676.33
 251  622.1955
 252  619.3625
 253  637.8851
 254  627.8934
 255  587.0817
 256  682.6572
 257  778.6287
 258  739.8323
 259  704.9686
 260  723.5321
 261  659.11
 262  604.9027
 263  762.5356
 264  786.4901
 265  753.8307
 266  593.9573
 267  649.2542
 268  700.5219
 269  746.9673
 270  808.4444
 271  754.9691
 272  681.4139
 273  734.6495
 274  868.4704
 275  822.8394
 276  658.2845
 277  536.0797
 278  625.7556
 279  690.3643
 280  714.0801
 281  739.6977
 282  779.4368
 283  668.8422
 284  462.9466
 285  535.6489
 286  634.1735
 287  615.1658
 288  571.983
 289  524.7108
 290  569.702
 291  505.8554
 292  683.7123
 293  721.7614
 294  780.7304
 295  694.3011
 296  760.6221
 297  716.2307
 298  648.7759
 299  556.1453
 300  713.345
 301  771.4957
 302  777.5587
 303  797.9586
 304  824.3845
 305  698.9343
 306  516.3831
 307  641.7595
 308  614.9311
 309  574.5324
 310  557.1725
 311  726.4628
 312  751.3309
 313  650.5718
 314  722.3453
 315  675.3632
 316  623.2572
 317  667.0663
 318  618.4619
 319  581.9857
 320  378.3819
 321  478.9807
 322  519.9873
 323  541.0885
 324  615.1511
 325  665.9631
 326  719.1879
 327  676.1148
 328  760.3319
 329  874.1474
 330  815.8167
 331  768.1155
 332  852.3829
 333  868.2441
 334  810.0319
 335  598.9493
 336  614.1179
 337  627.289
 338  642.9662
 339  665.0839
 340  649.0215
 341  693.1471
 342  606.1524
 343  634.2827
 344  701.406
 345  670.9999
 346  664.8937
 347  604.975
 348  750.2032
 349  807.9302
 350  851.8279
 351  824.6602
 352  783.8098
 353  707.5277
 354  692.675
 355  665.7473
 356  539.1079
 357  509.4958
 358  471.104
 359  667.3591
 360  647.745
 361  799.2146
 362  718.2659
 363  591.7467
 364  460.2737
 365  579.5653
 366  677.7949
 367  704.9173
 368  594.8027
 369  696.9757
 370  734.3678
 371  764.8663
 372  664.1097
 373  599.9312
 374  558.8411
 375  672.5576
 376  790.5301
 377  833.5583
 378  759.2528
 379  792.2244
 380  700.7646
 381  638.1828
 382  626.7014
 383  704.8022
 384  722.1737
 385  631.0713
 386  705.9268
 387  740.4365
 388  720.8172
 389  677.6199
 390  725.5135
 391  881.3061
 392  848.7533
 393  919.7352
 394  918.5335
 395  849.4351
 396  714.6143
 397  673.2477
 398  723.3177
 399  586.7455
 400  551.9943
 401  513.0962
 402  631.5242
 403  637.2213
 404  781.3308
 405  782.5999
 406  782.4274
 407  747.6793
 408  852.6526
 409  915.8171
 410  744.5978
 411  684.4446
 412  825.8079
 413  1054.171
 414  839.3122
 415  655.4428
 416  629.3221
 417  733.9814
 418  663.8038
 419  691.7205
 420  658.6573
 421  615.5439
 422  638.8052
 423  790.3654
 424  838.5879
 425  765.957
 426  807.4299
 427  928.8641
 428  859.3442
 429  840.408
 430  886.9083
 431  967.5904
 432  813.2107
 433  785.1453
 434  869.2397
 435  870.2434
 436  715.3427
 437  721.8021
 438  657.9122
 439  609.3572
 440  627.5876
 441  761.7492
 442  713.4935
 443  501.1328
 444  559.1434
 445  622.6269
 446  605.0772
 447  381.0854
 448  350.5936
 449  441.5795
 450  432.7545
 451  534.1375
 452  518.0615
 453  541.8465
 454  521.9844
 455  635.8418
 456  712.9141
 457  694.2082
 458  762.8372
 459  706.2332
 460  682.5112
 461  571.0815
 462  677.0645
 463  710.2222
 464  793.6238
 465  762.8181
 466  653.1334
 467  518.6027
 468  446.5456
 469  582.8673
 470  631.7579
 471  729.2601
 472  684.272
 473  770.0424
 474  784.8772
 475  783.3878
 476  730.095
 477  788.0292
 478  842.5929
 479  714.3651
 480  606.4316
 481  526.2117
 482  624.8471
 483  576.5266
 484  779.7944
 485  922.9938
 486  906.5333
 487  719.1481
 488  542.4868
 489  560.0816
 490  548.6528
 491  595.0601
 492  686.144
 493  858.5967
 494  948.3003
 495  911.791
 496  817.2905
 497  732.4689
 498  652.579
 499  588.4827
 500  653.9427
 501  549.7781
 502  569.8646
 503  518.2363
 504  565.1669
 505  586.0791
 506  664.7839
 507  748.2244
 508  646.1826
 509  618.9843
 510  589.1196
 511  552.1032
 512  634.3725
 513  663.886
 514  822.2251
 515  822.4225
 516  953.498
 517  914.897
 518  828.4861
 519  587.5838
 520  462.7927
 521  543.7191
 522  668.0756
 523  844.3265
 524  851.6776
 525  839.7518
 526  660.7026
 527  703.1367
 528  738.7071
 529  744.6951
 530  632.2736
 531  600.3455
 532  558.4209
 533  553.5706
 534  642.3436
 535  701.4303
 536  752.8037
 537  760.3021
 538  733.6949
 539  800.0052
 540  707.7366
 541  753.7491
 542  650.9896
 543  797.5343
 544  828.8231
 545  774.0956
 546  698.6613
 547  652.832
 548  597.824
 549  515.5509
 550  607.126
 551  628.8674
 552  716.8434
 553  646.5466
 554  789.5779
 555  697.7908
 556  746.6406
 557  791.7801
 558  814.7921
 559  744.8618
 560  662.5395
 561  851.7213
 562  770.9
 563  522.9429
 564  386.685
 565  550.223
 566  726.8468
 567  801.0619
 568  870.1035
 569  782.6962
 570  804.1606
 571  825.0668
 572  913.5377
 573  677.5957
 574  644.7397
 575  689.7864
 576  679.2918
 577  478.8613
 578  494.5989
 579  577.2637
 580  730.253
 581  772.0162
 582  933.8861
 583  968.6088
 584  821.4193
 585  731.0438
 586  678.8406
 587  656.8002
 588  659.3206
 589  745.4906
 590  768.2852
 591  568.1051
 592  513.2501
 593  598.1163
 594  744.1995
 595  813.9443
 596  753.7501
 597  667.8004
 598  590.3173
 599  586.1441
 600  680.4571
 601  799.3083
 602  898.4821
 603  954.6
 604  959.4788
 605  866.5773
 606  761.064
 607  719.4265
 608  886.5193
 609  873.4074
 610  800.8494
 611  616.1711
 612  573.7481
 613  512.2078
 614  502.6879
 615  584.4664
 616  492.0941
 617  587.4249
 618  691.0047
 619  803.4424
 620  781.6829
 621  774.8307
 622  858.1329
 623  852.6271
 624  757.8656
 625  671.8721
 626  698.9666
 627  731.9328
 628  651.653
 629  533.8123
 630  585.0823
 631  733.5016
 632  742.9182
 633  729.3932
 634  666.317
 635  776.4493
 636  723.7524
 637  754.6671
 638  698.6609
 639  804.4655
 640  767.3881
 641  902.0204
 642  982.1875
 643  1121.584
 644  1278.935
 645  1381.855
 646  1506.348
 647  1450.266
 648  1507.368
 649  1428.297
 650  1447.271
 651  1427.296
 652  1390.404
 653  1251.856
 654  1145.02
 655  1101.281
 656  999.0751
 657  852.3065
 658  752.5138
 659  698.7175
 660  705.4117
 661  725.7538
 662  804.7481
 663  843.5119
 664  797.5971
 665  583.6447
 666  528.236
 667  625.8795
 668  680.0549
 669  589.6492
 670  669.5928
 671  811.6402
 672  870.822
 673  766.9197
 674  755.5238
 675  667.1836
 676  666.5681
 677  627.5588
 678  786.1781
 679  708.9556
 680  636.455
 681  627.1511
 682  727.6364
 683  710.1988
 684  719.2142
 685  678.4555
 686  699.2479
 687  699.7001
 688  612.5049
 689  627.2546
 690  519.7477
 691  724.8122
 692  822.9293
 693  904.4914
 694  692.6804
 695  651.9237
 696  676.0354
 697  741.1813
 698  682.5403
 699  680.0369
 700  699.2985
 701  781.5065
 702  775.9388
 703  690.0361
 704  443.946
 705  449.6848
 706  610.0731
 707  731.5997
 708  596.5552
 709  645.8138
 710  676.5015
 711  736.2267
 712  519.0244
 713  566.9664
 714  692.0711
 715  711.9049
 716  617.5541
 717  491.0655
 718  600.4106
 719  676.758
 720  872.0162
 721  806.9468
 722  720.0316
 723  626.5158
 724  568.0302
 725  580.5108
 726  472.6695
 727  472.1517
 728  545.9028
 729  601.9305
 730  639.4139
 731  618.2576
 732  637.3544
 733  693.2797
 734  706.5355
 735  860.0422
 736  900.8756
 737  760.2275
 738  711.1559
 739  721.8988
 740  710.2981
 741  597.5313
 742  565.9142
 743  689.3485
 744  643.9417
 745  767.5245
 746  733.2045
 747  652.5239
 748  467.5479
 749  545.6957
 750  627.8127
 751  726.7836
 752  768.8964
 753  804.8312
 754  721.2253
 755  626.439
 756  602.1376
 757  774.8406
 758  778.9949
 759  745.9865
 760  605.8566
 761  641.8629
 762  602.0063
 763  567.827
 764  544.8619
 765  508.2513
 766  628.7739
 767  692.2856
 768  775.9975
 769  642.7681
 770  601.4764
 771  691.9916
 772  833.0942
 773  848.0877
 774  844.3813
 775  772.5791
 776  773.7519
 777  701.2483
 778  655.5749
 779  677.3026
 780  656.8793
 781  697.7245
 782  677.2049
 783  671.718
 784  480.5714
 785  418.195
 786  475.1959
 787  734.7277
 788  728.5742
 789  676.5482
 790  697.7469
 791  707.4617
 792  611.5661
 793  489.298
 794  554.2656
 795  662.0654
 796  584.281
 797  517.6889
 798  623.3344
 799  658.2407
 800  710.345
 801  669.5904
 802  746.6881
 803  737.3984
 804  763.8577
 805  752.0391
 806  656.0635
 807  632.5597
 808  604.5479
 809  665.3928
 810  616.2068
 811  714.4489
 812  729.9814
 813  765.9549
 814  753.373
 815  552.726
 816  491.8088
 817  533.9758
 818  588.8738
 819  538.2192
 820  468.8073
 821  591.1039
 822  770.724
 823  814.784
 824  773.3538
 825  694.2179
 826  675.442
 827  566.0705
 828  512.6636
 829  585.3698
 830  690.0491
 831  813.8441
 832  703.0895
 833  623.1721
 834  621.0997
 835  756.7966
 836  826.6266
 837  829.6533
 838  861.4887
 839  751.5532
 840  742.8385
 841  724.575
 842  750.8373
 843  697.3159
 844  697.4082
 845  712.9016
 846  534.4868
 847  565.9377
 848  540.1342
 849  698.4511
 850  632.8958
 851  590.7028
 852  543.2646
 853  619.8992
 854  778.4654
 855  841.1705
 856  750.0031
 857  672.7791
 858  616.6534
 859  650.3533
 860  579.216
 861  529.9288
 862  607.1937
 863  810.0978
 864  752.5381
 865  675.6697
 866  663.2619
 867  803.639
 868  860.2947
 869  943.7152
 870  878.6299
 871  743.1146
 872  734.5341
 873  829.7682
 874  752.0901
 875  705.519
 876  608.438
 877  669.0607
 878  559.3483
 879  557.6434
 880  507.973
 881  560.1952
 882  786.3821
 883  782.4259
 884  876.1407
 885  771.9828
 886  836.1741
 887  600.7435
 888  571.6984
 889  494.1471
 890  683.1053
 891  674.7878
 892  681.4791
 893  512.6329
 894  525.7131
 895  631.4175
 896  817.2344
 897  872.9688
 898  875.413
 899  911.0791
 900  811.8645
 901  657.7806
 902  557.1777
 903  691.3852
 904  818.7015
 905  838.1335
 906  790.6404
 907  565.5027
 908  540.2659
 909  633.1357
 910  766.4199
 911  643.9315
 912  550.1402
 913  705.9883
 914  703.531
 915  712.8315
 916  576.2862
 917  590.7236
 918  471.5316
 919  461.5523
 920  556.5281
 921  759.3249
 922  834.8113
 923  744.4783
 924  659.937
 925  626.854
 926  580.913
 927  653.5416
 928  707.146
 929  596.553
 930  590.8444
 931  592.3259
 932  676.8812
 933  594.7183
 934  610.6764
 935  662.8442
 936  561.8119
 937  574.085
 938  636.6823
 939  704.2318
 940  711.7196
 941  708.1568
 942  900.009
 943  927.9849
 944  892.7939
 945  803.0952
 946  696.2018
 947  586.297
 948  553.054
 949  599.6887
 950  748.9891
 951  670.386
 952  673.536
 953  668.3333
 954  723.1144
 955  740.3043
 956  810.553
 957  908.1166
 958  855.374
 959  725.4189
 960  627.2573
 961  565.0333
 962  545.5884
 963  530.3899
 964  731.3268
 965  793.1138
 966  745.6674
 967  636.2847
 968  623.8829
 969  661.6697
 970  681.9439
 971  765.9489
 972  813.4179
 973  840.1321
 974  896.8386
 975  1033.75
 976  859.8059
 977  633.5853
 978  605.5246
 979  735.4068
 980  856.7628
 981  703.0061
 982  619.197
 983  535.9251
 984  545.1159
 985  677.34
 986  825.0607
 987  938.7713
 988  831.7158
 989  764.3445
 990  852.4466
 991  805.0377
 992  854.1416
 993  860.3666
 994  778.5504
 995  703.0261
 996  653.7106
 997  778.5326
 998  691.4039
 999  683.3471
1000  693.7049
1001  646.1908
1002  641.2366
1003  648.3078
1004  706.7592
1005  700.1723
1006  676.1325
1007  724.5139
1008  704.2219
1009  646.1379
1010  705.2867
1011  849.5654
1012  767.1884
1013  703.944
1014  590.8719
1015  891.1842
1016  835.7349
1017  768.9418
1018  525.644
1019  484.8446
1020  386.5051
1021  487.6098
1022  608.8499
1023  655.8277
