# Input file       =  1186196071.12301_cleaned.dat
# Candidate        =  PSR_0332+5434
# Telescope        =  AR
# Epoch_topo       =  57973.121413460765
# Epoch_bary       =  N/A
# T_sample         =  0.002
# Data Folded      =  7340032
# Data Avg         =  0.0244526916326971
# Data StdDev      =  2.30747750783951 
# Profile Bins     =  1024
# Profile Avg      =  175.103208725899 
# Profile StdDev   =  195.36037253179  
# Reduced chi-sqr  =  1.315
# Prob(Noise)      <  4.1e-11   (~6.5 sigma)
# P_topo (ms)      =  714.466787389146  +/- 0.000137
# P'_topo (s/s)    =  -0                +/- 7.24e-11
# P''_topo (s/s^2) =  0                 +/- 3.2e-14
# P_bary (ms)      =  N/A
# P'_bary (s/s)    =  N/A
# P''_bary (s/s^2) =  N/A
# P_orb (s)        =  N/A
# asin(i)/c (s)    =  N/A
# eccentricity     =  N/A
# w (rad)          =  N/A
# T_peri           =  N/A
######################################################
   0  158.455
   1  193.1598
   2  221.3317
   3  260.1811
   4  182.7367
   5  88.80386
   6  88.0899
   7  111.0912
   8  140.1211
   9  88.64217
  10  34.24326
  11  31.05684
  12  99.97238
  13  173.2723
  14  141.3075
  15  10.67686
  16  -104.3768
  17  -111.5283
  18  -14.71235
  19  139.7479
  20  188.136
  21  272.8062
  22  262.5236
  23  222.5525
  24  208.174
  25  232.1319
  26  311.6519
  27  233.325
  28  179.9028
  29  171.3024
  30  229.8172
  31  145.7372
  32  113.6269
  33  120.2207
  34  197.5255
  35  305.9652
  36  311.5063
  37  257.6101
  38  68.81602
  39  10.53071
  40  39.06533
  41  171.4357
  42  326.1644
  43  409.3012
  44  334.8467
  45  210.6137
  46  68.21683
  47  89.79814
  48  119.6039
  49  123.954
  50  224.1871
  51  252.5644
  52  304.6151
  53  211.1689
  54  109.9136
  55  105.6387
  56  142.9857
  57  269.0305
  58  321.1492
  59  299.3354
  60  242.3295
  61  169.1863
  62  149.2837
  63  253.1975
  64  304.8971
  65  305.6724
  66  254.6676
  67  255.0029
  68  236.714
  69  221.6738
  70  165.2493
  71  193.6518
  72  228.6965
  73  402.4207
  74  386.3863
  75  332.4734
  76  204.4173
  77  239.674
  78  163.6686
  79  144.2972
  80  187.7496
  81  200.4746
  82  141.8708
  83  80.3897
  84  138.6974
  85  165.5278
  86  188.1508
  87  167.7158
  88  160.3092
  89  146.1986
  90  175.599
  91  135.2956
  92  162.7247
  93  275.3625
  94  339.5707
  95  262.0902
  96  121.6919
  97  116.3839
  98  91.91988
  99  80.58031
 100  154.6942
 101  309.4779
 102  317.8019
 103  159.8402
 104  63.60867
 105  69.29279
 106  225.3732
 107  294.2167
 108  446.7121
 109  419.2362
 110  446.275
 111  332.8361
 112  219.4914
 113  195.3474
 114  216.0061
 115  357.7751
 116  336.1255
 117  351.4998
 118  279.0436
 119  268.1667
 120  156.5864
 121  131.3218
 122  96.98779
 123  117.4497
 124  90.71497
 125  139.0171
 126  222.957
 127  265.1758
 128  226.9655
 129  227.694
 130  217.4945
 131  210.2732
 132  125.7669
 133  64.13451
 134  101.1449
 135  133.9306
 136  153.4776
 137  144.1805
 138  120.7157
 139  155.6273
 140  204.4526
 141  267.4301
 142  221.1172
 143  170.099
 144  115.4014
 145  141.0785
 146  181.6866
 147  213.5196
 148  225.2726
 149  210.7013
 150  107.5911
 151  67.52958
 152  214.9361
 153  335.414
 154  330.2006
 155  220.7283
 156  180.3563
 157  238.7582
 158  279.6865
 159  264.5644
 160  190.9361
 161  142.6909
 162  124.3298
 163  116.2569
 164  173.3773
 165  232.384
 166  212.277
 167  145.1655
 168  46.2741
 169  58.99956
 170  209.8584
 171  307.1361
 172  224.944
 173  149.6879
 174  100.7683
 175  273.5739
 176  295.585
 177  385.4406
 178  275.5631
 179  161.2007
 180  128.4488
 181  135.1489
 182  147.1935
 183  180.3395
 184  257.7014
 185  357.0681
 186  296.936
 187  258.5627
 188  225.0228
 189  209.6924
 190  179.2339
 191  228.3743
 192  155.7565
 193  70.03114
 194  100.2263
 195  322.9124
 196  292.519
 197  301.4891
 198  304.4427
 199  440.4753
 200  370.4918
 201  281.1724
 202  205.579
 203  201.1763
 204  96.89408
 205  46.68585
 206  20.66037
 207  154.1987
 208  199.0036
 209  228.6364
 210  262.0012
 211  254.025
 212  244.3219
 213  309.5044
 214  368.4019
 215  245.3938
 216  111.4807
 217  21.52316
 218  30.245
 219  12.84092
 220  109.5216
 221  242.5587
 222  289.4336
 223  247.07
 224  133.5372
 225  150.3991
 226  244.553
 227  325.2893
 228  273.3681
 229  125.0382
 230  87.38325
 231  175.0517
 232  235.7466
 233  146.5888
 234  89.47256
 235  130.8118
 236  185.593
 237  150.0332
 238  112.4928
 239  45.94654
 240  -10.44399
 241  112.3325
 242  307.7632
 243  390.3789
 244  227.4264
 245  58.68356
 246  -42.04737
 247  79.45395
 248  226.7158
 249  285.6343
 250  261.1831
 251  237.736
 252  225.2999
 253  219.1755
 254  212.1794
 255  236.9721
 256  208.8973
 257  217.7692
 258  212.3495
 259  243.4409
 260  206.3338
 261  147.1189
 262  -30.70779
 263  -6.380318
 264  12.92086
 265  191.1744
 266  164.5046
 267  149.9866
 268  80.13628
 269  95.13204
 270  87.58998
 271  175.0992
 272  261.0186
 273  248.2444
 274  291.3011
 275  345.7569
 276  317.3055
 277  155.4076
 278  51.46554
 279  126.1057
 280  137.552
 281  188.378
 282  209.6733
 283  219.9199
 284  62.28178
 285  28.26844
 286  -7.193045
 287  30.6195
 288  -5.823346
 289  34.78767
 290  65.66353
 291  158.3784
 292  96.86044
 293  141.0294
 294  54.46034
 295  84.58073
 296  50.4061
 297  34.82413
 298  55.59759
 299  162.0202
 300  219.9037
 301  271.0768
 302  134.7097
 303  202.5736
 304  176.5776
 305  183.3171
 306  123.8479
 307  137.7942
 308  253.2982
 309  323.9398
 310  307.099
 311  235.4062
 312  245.9276
 313  250.7151
 314  244.957
 315  253.2737
 316  302.9543
 317  243.2647
 318  186.5905
 319  180.2743
 320  215.2094
 321  158.0987
 322  155.0609
 323  196.0196
 324  272.4793
 325  241.9565
 326  162.6944
 327  144.8213
 328  153.8589
 329  119.8844
 330  86.04002
 331  171.4267
 332  205.8264
 333  171.7292
 334  212.9201
 335  181.5672
 336  246.6166
 337  182.2711
 338  222.192
 339  167.0608
 340  163.4294
 341  187.4313
 342  311.6659
 343  373.206
 344  339.8535
 345  202.6111
 346  140.1198
 347  60.71579
 348  94.68423
 349  97.25317
 350  169.45
 351  24.49277
 352  10.2734
 353  88.1925
 354  163.741
 355  156.4422
 356  146.0913
 357  111.8567
 358  19.61265
 359  7.404836
 360  87.82218
 361  111.0688
 362  90.21936
 363  50.8862
 364  -5.994956
 365  -42.11366
 366  -126.1503
 367  -125.9736
 368  -30.90602
 369  123.6233
 370  168.3934
 371  123.6336
 372  46.00425
 373  59.71648
 374  29.98271
 375  134.4494
 376  142.6316
 377  170.1725
 378  184.8181
 379  244.2991
 380  241.4973
 381  206.1751
 382  116.6403
 383  91.79263
 384  88.61439
 385  104.3944
 386  116.6664
 387  133.0673
 388  215.944
 389  307.3865
 390  240.4473
 391  210.1611
 392  121.3263
 393  130.4769
 394  98.64187
 395  129.4772
 396  163.7424
 397  185.9117
 398  208.2112
 399  177.8338
 400  145.087
 401  75.27822
 402  41.93151
 403  13.21569
 404  100.652
 405  242.0917
 406  222.6342
 407  152.5678
 408  -19.68348
 409  36.2915
 410  61.95202
 411  147.5896
 412  42.09012
 413  31.40585
 414  -20.86324
 415  50.3064
 416  123.9711
 417  249.943
 418  352.4673
 419  297.1595
 420  257.8333
 421  139.6142
 422  156.701
 423  141.2552
 424  224.6207
 425  287.6964
 426  212.481
 427  113.4356
 428  59.54836
 429  136.1226
 430  194.3735
 431  220.057
 432  139.1571
 433  58.18011
 434  28.27763
 435  48.77304
 436  38.65311
 437  73.73308
 438  159.5069
 439  140.5016
 440  118.6358
 441  172.6342
 442  256.6185
 443  254.7331
 444  239.3044
 445  183.4795
 446  161.4233
 447  156.1464
 448  223.4362
 449  221.2975
 450  155.9296
 451  225.5567
 452  322.7442
 453  323.1409
 454  288.9545
 455  305.397
 456  408.7003
 457  390.7324
 458  369.8608
 459  314.1432
 460  364.6598
 461  354.6067
 462  370.5686
 463  209.1636
 464  114.3538
 465  44.25594
 466  154.311
 467  285.2251
 468  319.7076
 469  326.9243
 470  332.6741
 471  347.2562
 472  325.2865
 473  243.501
 474  256.2364
 475  255.1224
 476  288.4045
 477  271.564
 478  311.1843
 479  292.223
 480  237.7109
 481  151.9691
 482  171.7125
 483  156.4907
 484  113.8607
 485  103.3004
 486  238.1218
 487  241.0693
 488  180.0764
 489  -4.919754
 490  -37.8829
 491  -57.4464
 492  -25.05047
 493  100.9777
 494  208.0959
 495  255.1638
 496  297.8064
 497  298.5169
 498  259.8983
 499  140.3202
 500  13.36101
 501  19.18952
 502  39.5025
 503  86.24659
 504  156.4983
 505  317.7901
 506  420.2992
 507  385.7015
 508  227.1054
 509  166.223
 510  47.31048
 511  5.362806
 512  82.84846
 513  267.5761
 514  235.2729
 515  151.0601
 516  97.97671
 517  188.659
 518  133.7969
 519  68.62694
 520  11.44866
 521  92.84279
 522  108.8706
 523  133.2502
 524  89.43983
 525  237.8924
 526  298.887
 527  285.4121
 528  100.3172
 529  135.6248
 530  218.0613
 531  186.5054
 532  64.37334
 533  58.07596
 534  180.885
 535  198.7634
 536  151.2449
 537  162.9078
 538  168.9796
 539  133.119
 540  62.20484
 541  87.36916
 542  209.7659
 543  337.2121
 544  366.882
 545  366.2105
 546  360.9029
 547  290.0099
 548  234.1972
 549  258.7146
 550  188.1564
 551  244.3343
 552  219.1279
 553  228.675
 554  99.29721
 555  89.98552
 556  22.63198
 557  4.576209
 558  -1.942939
 559  93.63901
 560  212.0357
 561  254.6508
 562  263.0737
 563  89.90157
 564  112.6721
 565  -16.16538
 566  102.5111
 567  26.66645
 568  125.6726
 569  118.5023
 570  157.6453
 571  159.9807
 572  91.12085
 573  135.116
 574  139.1509
 575  40.05685
 576  -41.45359
 577  -3.428645
 578  83.36033
 579  134.2587
 580  116.0021
 581  60.90873
 582  47.63522
 583  105.8817
 584  190.5766
 585  162.0473
 586  78.75861
 587  28.01124
 588  84.07116
 589  105.6025
 590  59.92194
 591  11.10606
 592  97.11505
 593  234.2099
 594  276.064
 595  237.1876
 596  111.5068
 597  105.6542
 598  52.21148
 599  135.5693
 600  121.2713
 601  191.8411
 602  163.2129
 603  186.3569
 604  60.90478
 605  -37.92058
 606  3.946837
 607  119.3565
 608  188.9416
 609  174.6829
 610  193.7819
 611  322.7523
 612  394.8013
 613  438.3299
 614  320.3966
 615  226.1758
 616  108.3242
 617  68.09425
 618  112.3415
 619  128.5724
 620  225.2446
 621  154.0831
 622  149.6315
 623  30.95516
 624  24.89007
 625  15.94655
 626  -51.18034
 627  -53.37062
 628  -74.90806
 629  58.77841
 630  147.7844
 631  189.4302
 632  204.1686
 633  158.9077
 634  104.7773
 635  33.05596
 636  84.35155
 637  155.4516
 638  151.9059
 639  306.3194
 640  369.2586
 641  508.9662
 642  547.0823
 643  615.6527
 644  650.5258
 645  630.5042
 646  707.5031
 647  739.3154
 648  834.7222
 649  923.4561
 650  1119.631
 651  1127.744
 652  992.4661
 653  671.6537
 654  596.6904
 655  421.1218
 656  371.2251
 657  103.1214
 658  -16.37006
 659  -34.15275
 660  119.5473
 661  111.7183
 662  49.38617
 663  75.32828
 664  173.6703
 665  191.391
 666  81.65099
 667  96.41273
 668  145.4401
 669  265.6758
 670  242.2573
 671  158.5683
 672  133.8588
 673  190.8729
 674  214.753
 675  159.5487
 676  75.2893
 677  36.81633
 678  135.5063
 679  225.0345
 680  316.4852
 681  211.6859
 682  219.9241
 683  191.8299
 684  284.3321
 685  153.9896
 686  50.35715
 687  -25.84215
 688  54.33247
 689  139.139
 690  172.6707
 691  315.2936
 692  273.4516
 693  260.1245
 694  44.35262
 695  137.1272
 696  131.1733
 697  151.2384
 698  101.1556
 699  153.8869
 700  197.8926
 701  196.3813
 702  184.6888
 703  160.2798
 704  180.2952
 705  175.0421
 706  115.1808
 707  128.1719
 708  167.2903
 709  272.4044
 710  294.2371
 711  274.5189
 712  305.4662
 713  293.2225
 714  257.6919
 715  177.7274
 716  126.0968
 717  264.55
 718  184.6013
 719  242.7769
 720  168.9789
 721  191.1404
 722  176.1361
 723  143.0125
 724  97.48991
 725  58.21259
 726  116.5761
 727  208.3009
 728  343.1225
 729  367.8175
 730  434.3438
 731  430.6407
 732  451.4216
 733  383.4218
 734  236.9211
 735  181.1319
 736  75.72289
 737  123.3393
 738  112.4001
 739  204.7028
 740  229.5178
 741  274.5865
 742  203.6805
 743  213.548
 744  167.3756
 745  218.9954
 746  240.5957
 747  260.7796
 748  199.754
 749  174.7723
 750  151.9227
 751  150.6477
 752  165.7037
 753  242.2001
 754  171.5446
 755  101.3981
 756  46.65721
 757  82.49057
 758  97.6849
 759  144.8712
 760  124.2143
 761  174.3297
 762  164.6861
 763  247.4329
 764  120.0265
 765  118.1355
 766  117.5179
 767  148.0219
 768  160.5205
 769  105.1388
 770  51.82633
 771  -34.10843
 772  31.26021
 773  147.6219
 774  276.4742
 775  308.1286
 776  286.2668
 777  171.1328
 778  223.567
 779  225.4245
 780  173.8727
 781  -23.10361
 782  12.81974
 783  105.7347
 784  209.9655
 785  239.3702
 786  171.9909
 787  285.9171
 788  404.6369
 789  502.5412
 790  449.8026
 791  227.667
 792  101.3289
 793  86.44405
 794  154.8373
 795  238.3457
 796  213.7558
 797  168.0813
 798  200.7784
 799  136.7664
 800  182.2954
 801  241.0642
 802  218.0368
 803  122.2286
 804  -70.46795
 805  -5.056029
 806  57.11267
 807  129.6923
 808  137.7921
 809  -38.88119
 810  -119.1377
 811  -128.0546
 812  58.1132
 813  135.706
 814  200.3123
 815  218.5444
 816  178.0946
 817  102.2379
 818  25.13033
 819  -9.020929
 820  16.77105
 821  117.8922
 822  187.8188
 823  74.76194
 824  -3.196602
 825  -34.85493
 826  11.28405
 827  35.94087
 828  -73.08152
 829  -58.14731
 830  -57.82598
 831  18.62882
 832  71.17437
 833  168.2884
 834  156.485
 835  25.63421
 836  -95.01003
 837  -32.2391
 838  179.479
 839  288.8857
 840  289.3596
 841  149.1205
 842  63.96386
 843  67.02782
 844  159.878
 845  202.7804
 846  149.5642
 847  89.6478
 848  57.17075
 849  20.68389
 850  13.6375
 851  -31.83112
 852  18.85632
 853  15.40389
 854  110.0753
 855  62.31573
 856  37.84476
 857  -21.47205
 858  44.38679
 859  89.65517
 860  130.1501
 861  92.89154
 862  104.3277
 863  121.4477
 864  158.3006
 865  124.1915
 866  99.01002
 867  149.9628
 868  203.9995
 869  152.5671
 870  52.67402
 871  36.33729
 872  8.425125
 873  89.99546
 874  95.34557
 875  154.2999
 876  175.3862
 877  172.1839
 878  192.8519
 879  83.75883
 880  114.6295
 881  175.6378
 882  279.9037
 883  362.1328
 884  261.0816
 885  133.434
 886  5.771245
 887  115.9447
 888  242.9146
 889  253.9586
 890  166.9277
 891  222.4464
 892  98.67053
 893  151.0746
 894  110.3818
 895  112.9194
 896  88.76983
 897  76.01861
 898  48.04982
 899  7.071494
 900  147.7313
 901  320.1604
 902  277.6443
 903  139.4848
 904  125.5273
 905  192.3047
 906  177.869
 907  201.4887
 908  196.1385
 909  292.0287
 910  186.1425
 911  122.6034
 912  127.3716
 913  118.6252
 914  99.78897
 915  65.52924
 916  150.8349
 917  202.6143
 918  116.3976
 919  234.852
 920  286.7331
 921  357.2833
 922  309.376
 923  292.3215
 924  268.9301
 925  152.3734
 926  179.0673
 927  154.3479
 928  179.8521
 929  240.2323
 930  248.4048
 931  211.1375
 932  89.97136
 933  85.11475
 934  157.2766
 935  343.2933
 936  354.9145
 937  281.1891
 938  131.1935
 939  143.5554
 940  115.0949
 941  172.5778
 942  159.6285
 943  142.5195
 944  79.22368
 945  145.519
 946  179.3218
 947  273.2273
 948  141.7023
 949  76.13109
 950  37.63396
 951  124.976
 952  172.7665
 953  179.858
 954  192.06
 955  175.5499
 956  218.7898
 957  314.8971
 958  338.0182
 959  325.2053
 960  354.7267
 961  325.4659
 962  268.1948
 963  161.3536
 964  125.5894
 965  47.14946
 966  142.6563
 967  168.3319
 968  155.9351
 969  69.72241
 970  75.13837
 971  108.9144
 972  84.78214
 973  48.33413
 974  139.5756
 975  187.0419
 976  210.4424
 977  204.9711
 978  222.6373
 979  155.9799
 980  152.3962
 981  212.1479
 982  174.7145
 983  149.9181
 984  120.5112
 985  170.1856
 986  124.9928
 987  70.06284
 988  146.2426
 989  261.5353
 990  349.5784
 991  239.7437
 992  141.3171
 993  101.6971
 994  103.4052
 995  137.0123
 996  139.7192
 997  141.06
 998  107.4344
 999  133.1361
1000  115.749
1001  213.3306
1002  295.2327
1003  210.8193
1004  124.6294
1005  54.25922
1006  178.8966
1007  152.1752
1008  127.4905
1009  99.75825
1010  128.4731
1011  101.3591
1012  98.60606
1013  114.2197
1014  224.6037
1015  256.2728
1016  240.87
1017  126.3297
1018  211.7879
1019  237.0091
1020  290.7825
1021  244.684
1022  246.0148
1023  229.3673
