# Input file       =  1186799925.14863_cleaned.dat
# Candidate        =  PSR_0332+5434
# Telescope        =  AR
# Epoch_topo       =  57980.110464683217
# Epoch_bary       =  N/A
# T_sample         =  0.002
# Data Folded      =  7340032
# Data Avg         =  0.0171041834868707
# Data StdDev      =  2.26159340377964 
# Profile Bins     =  1024
# Profile Avg      =  122.59778592912  
# Profile StdDev   =  191.475638820641 
# Reduced chi-sqr  =  1.444
# Prob(Noise)      <  3.91e-19   (~8.9 sigma)
# P_topo (ms)      =  714.464855199676  +/- 9.96e-05
# P'_topo (s/s)    =  -0                +/- 5.26e-11
# P''_topo (s/s^2) =  0                 +/- 2.32e-14
# P_bary (ms)      =  N/A
# P'_bary (s/s)    =  N/A
# P''_bary (s/s^2) =  N/A
# P_orb (s)        =  N/A
# asin(i)/c (s)    =  N/A
# eccentricity     =  N/A
# w (rad)          =  N/A
# T_peri           =  N/A
######################################################
   0  -48.62603
   1  28.4553
   2  56.66314
   3  1.550062
   4  -2.641833
   5  5.619091
   6  -32.67252
   7  -213.1719
   8  -174.4729
   9  -29.07707
  10  138.3724
  11  46.77246
  12  -131.0387
  13  -180.4384
  14  -30.79346
  15  57.18653
  16  -0.2340653
  17  -52.15248
  18  56.79736
  19  211.3866
  20  292.7657
  21  209.3779
  22  192.5393
  23  202.4154
  24  147.7373
  25  23.57758
  26  21.18493
  27  160.9592
  28  340.3202
  29  221.2116
  30  59.47144
  31  -134.0164
  32  -45.70213
  33  32.00729
  34  87.27041
  35  183.3736
  36  326.2664
  37  373.2741
  38  240.6791
  39  84.57609
  40  -42.84812
  41  -80.51703
  42  -87.03262
  43  45.9263
  44  50.4828
  45  109.43
  46  25.34556
  47  110.9955
  48  92.57199
  49  172.6091
  50  114.8833
  51  170.8779
  52  136.0679
  53  249.8102
  54  222.6701
  55  233.8011
  56  185.8726
  57  180.6632
  58  188.4324
  59  244.4277
  60  246.484
  61  301.9492
  62  242.289
  63  238.9084
  64  196.9469
  65  173.8044
  66  223.2616
  67  317.755
  68  266.7117
  69  149.7327
  70  115.7035
  71  218.1095
  72  176.8359
  73  186.3624
  74  203.8835
  75  301.9439
  76  303.3186
  77  245.2914
  78  147.5787
  79  74.54469
  80  93.58195
  81  14.45251
  82  44.59743
  83  -0.7071224
  84  -1.106452
  85  14.24936
  86  79.91119
  87  181.8144
  88  139.6065
  89  118.9459
  90  32.41979
  91  34.69035
  92  69.98476
  93  92.97632
  94  148.2402
  95  233.3065
  96  294.8858
  97  266.0003
  98  173.8096
  99  82.11219
 100  77.65504
 101  86.83121
 102  81.52741
 103  42.51523
 104  71.45898
 105  134.6222
 106  256.5208
 107  351.6088
 108  346.8074
 109  278.7217
 110  152.7769
 111  24.99285
 112  20.95964
 113  82.93166
 114  272.4588
 115  352.7234
 116  367.3558
 117  277.3303
 118  225.9747
 119  222.4458
 120  296.933
 121  320.5319
 122  272.2506
 123  216.9483
 124  129.0552
 125  63.06483
 126  29.8741
 127  45.87051
 128  73.12872
 129  143.075
 130  240.6891
 131  246.5077
 132  184.1813
 133  146.8465
 134  126.4156
 135  82.2964
 136  115.8872
 137  204.8104
 138  215.9649
 139  140.6388
 140  47.91164
 141  37.17659
 142  73.04828
 143  80.41932
 144  107.1284
 145  135.3129
 146  135.4335
 147  102.1246
 148  77.89776
 149  114.4243
 150  75.7277
 151  69.27934
 152  89.3866
 153  98.58363
 154  -5.878097
 155  -46.57649
 156  37.93146
 157  55.83983
 158  48.9305
 159  47.69958
 160  226.2994
 161  216.0198
 162  200.7708
 163  93.32153
 164  133.6118
 165  78.74018
 166  60.03531
 167  24.63907
 168  6.435023
 169  54.03798
 170  76.103
 171  120.9098
 172  56.12149
 173  5.985156
 174  66.26289
 175  229.6497
 176  237.5036
 177  248.443
 178  114.4063
 179  110.8591
 180  30.48453
 181  57.75491
 182  102.0098
 183  202.5937
 184  273.6755
 185  189.8878
 186  55.32528
 187  -71.21239
 188  -86.1021
 189  -23.62727
 190  71.45768
 191  123.6559
 192  213.4468
 193  155.143
 194  199.2742
 195  134.723
 196  215.8718
 197  184.8024
 198  238.6444
 199  223.3911
 200  282.4546
 201  235.2867
 202  271.5594
 203  216.9501
 204  115.6237
 205  85.27106
 206  133.8504
 207  164.7064
 208  169.8138
 209  164.8724
 210  197.2954
 211  169.9977
 212  29.40347
 213  12.54555
 214  -6.216722
 215  79.07964
 216  110.4648
 217  201.847
 218  138.7955
 219  57.95219
 220  24.4478
 221  133.6547
 222  168.2767
 223  136.4641
 224  151.636
 225  144.6376
 226  79.84643
 227  -91.40133
 228  -148.6087
 229  -62.91579
 230  116.0721
 231  184.3671
 232  243.9849
 233  232.1715
 234  227.5947
 235  105.4475
 236  -15.65771
 237  -26.09252
 238  79.61298
 239  176.1698
 240  244.4904
 241  236.8947
 242  141.22
 243  101.1398
 244  91.08877
 245  253.8172
 246  210.6952
 247  181.3215
 248  77.14667
 249  137.419
 250  163.2678
 251  252.4504
 252  281.5657
 253  343.2805
 254  324.4967
 255  284.0409
 256  150.5092
 257  103.1067
 258  88.228
 259  78.42924
 260  148.5065
 261  111.3431
 262  126.5449
 263  46.56483
 264  10.06525
 265  4.270202
 266  52.16562
 267  175.5086
 268  252.7149
 269  270.9137
 270  311.2817
 271  284.2325
 272  224.3846
 273  200.9768
 274  193.8506
 275  294.1875
 276  291.9962
 277  289.6144
 278  297.904
 279  235.0968
 280  150.2966
 281  34.87769
 282  197.9329
 283  293.9286
 284  354.5517
 285  158.6905
 286  15.55947
 287  -98.51667
 288  -71.68662
 289  -22.48692
 290  60.2736
 291  113.7507
 292  182.7644
 293  329.5558
 294  243.0216
 295  110.1326
 296  -9.897364
 297  60.25311
 298  127.8944
 299  195.7038
 300  290.0968
 301  308.0349
 302  263.9295
 303  287.1494
 304  181.093
 305  132.237
 306  11.74812
 307  113.0823
 308  175.0859
 309  221.6349
 310  165.3053
 311  116.625
 312  67.08848
 313  149.4525
 314  330.9095
 315  326.5777
 316  237.6121
 317  147.0034
 318  236.2243
 319  335.8102
 320  312.541
 321  208.6656
 322  148.3907
 323  148.0927
 324  125.597
 325  106.7919
 326  188.1527
 327  217.9704
 328  190.7681
 329  124.1732
 330  99.07131
 331  105.9938
 332  184.8897
 333  319.7238
 334  309.9591
 335  176.0849
 336  122.0981
 337  -7.290228
 338  95.91005
 339  171.0656
 340  181.2827
 341  170.4134
 342  119.4533
 343  238.5931
 344  120.7077
 345  39.97432
 346  -16.19288
 347  66.94588
 348  73.59276
 349  67.20885
 350  76.75513
 351  192.2388
 352  350.7461
 353  412.0863
 354  262.8912
 355  72.86019
 356  79.50633
 357  191.4847
 358  241.9527
 359  150.8614
 360  113.8944
 361  87.00102
 362  142.7507
 363  101.8782
 364  159.8635
 365  186.9165
 366  224.4353
 367  111.5316
 368  78.37724
 369  79.20563
 370  105.8382
 371  159.6416
 372  308.0895
 373  358.5994
 374  226.7929
 375  74.90051
 376  15.11502
 377  87.88166
 378  158.0733
 379  294.5102
 380  295.8562
 381  238.3874
 382  194.5482
 383  139.3897
 384  225.9229
 385  223.0014
 386  275.0296
 387  216.3953
 388  176.5188
 389  206.957
 390  237.6219
 391  180.3976
 392  168.9868
 393  227.4815
 394  329.1596
 395  108.5622
 396  -2.966719
 397  -28.55437
 398  43.45539
 399  12.38872
 400  5.024293
 401  91.05339
 402  210.6959
 403  265.5959
 404  302.7443
 405  190.5347
 406  187.7424
 407  165.1964
 408  168.4601
 409  164.7312
 410  159.1952
 411  205.0361
 412  116.7308
 413  17.74237
 414  13.34985
 415  126.4474
 416  234.8395
 417  133.1257
 418  50.05266
 419  45.89183
 420  177.0091
 421  183.6983
 422  185.0106
 423  109.6166
 424  149.3498
 425  124.4126
 426  193.0705
 427  198.6466
 428  273.103
 429  159.121
 430  66.19527
 431  -16.27007
 432  85.50079
 433  124.0281
 434  171.1268
 435  163.2057
 436  162.3493
 437  122.7207
 438  90.92175
 439  145.5498
 440  139.7386
 441  152.2929
 442  43.24326
 443  10.94535
 444  -29.25885
 445  43.44986
 446  13.59142
 447  -29.06591
 448  -21.03725
 449  125.2566
 450  167.2167
 451  73.89693
 452  149.1034
 453  145.0697
 454  177.4771
 455  19.31306
 456  11.54805
 457  -10.2833
 458  -86.8688
 459  -13.35403
 460  40.75395
 461  77.44361
 462  42.06864
 463  170.0995
 464  274.145
 465  215.4837
 466  62.36987
 467  87.92475
 468  104.5867
 469  156.9237
 470  154.2197
 471  202.6682
 472  163.3443
 473  92.18312
 474  200.9266
 475  161.4152
 476  97.0187
 477  54.32035
 478  36.7909
 479  -37.61089
 480  -28.15927
 481  73.43625
 482  54.87663
 483  -0.3578355
 484  -126.4018
 485  -142.2838
 486  -125.9123
 487  29.35876
 488  154.7008
 489  216.8211
 490  221.3529
 491  139.7826
 492  51.10202
 493  -73.34685
 494  29.02243
 495  203.1939
 496  328.3495
 497  288.8073
 498  222.9609
 499  233.9035
 500  217.0298
 501  97.23934
 502  -27.13651
 503  -64.44236
 504  44.62384
 505  133.1298
 506  189.0304
 507  184.9327
 508  115.0936
 509  92.78688
 510  76.18785
 511  63.39019
 512  6.42216
 513  36.42266
 514  123.5125
 515  166.5065
 516  120.4233
 517  123.1916
 518  157.1502
 519  217.5498
 520  192.5832
 521  187.206
 522  283.7359
 523  372.5804
 524  313.1215
 525  108.2645
 526  74.98462
 527  79.04542
 528  111.8406
 529  99.33691
 530  -0.5050503
 531  20.26945
 532  11.01204
 533  62.25959
 534  -10.82968
 535  -7.851104
 536  14.45937
 537  57.2599
 538  44.22764
 539  8.215255
 540  -29.08275
 541  -29.98032
 542  -41.26518
 543  -23.67528
 544  28.3705
 545  127.8291
 546  104.6613
 547  9.045123
 548  40.99402
 549  65.92502
 550  39.67945
 551  -52.96476
 552  52.75864
 553  175.258
 554  224.9618
 555  179.3228
 556  147.2474
 557  88.34719
 558  45.99234
 559  -1.901735
 560  -16.61903
 561  -19.91903
 562  -15.63183
 563  -36.14079
 564  -57.24396
 565  20.21856
 566  218.8758
 567  339.6799
 568  268.2744
 569  121.2025
 570  64.68535
 571  41.25036
 572  63.83882
 573  194.1431
 574  265.8239
 575  369.1857
 576  324.5746
 577  233.7556
 578  144.761
 579  73.50478
 580  143.3827
 581  126.3169
 582  35.84996
 583  -34.30685
 584  -7.3757
 585  38.99642
 586  68.46984
 587  66.19571
 588  148.4904
 589  84.9433
 590  -71.21932
 591  -183.744
 592  -141.0232
 593  -23.21537
 594  10.41554
 595  64.06832
 596  72.96655
 597  53.69135
 598  -36.5355
 599  -129.8719
 600  -127.6121
 601  -102.5601
 602  -68.321
 603  -38.15936
 604  -76.86344
 605  -4.231016
 606  6.480266
 607  78.57294
 608  172.5195
 609  194.6634
 610  259.2364
 611  245.7832
 612  319.7851
 613  316.815
 614  226.4067
 615  102.3562
 616  -39.69135
 617  -1.258757
 618  127.4599
 619  108.153
 620  82.08562
 621  37.87175
 622  149.7868
 623  97.5067
 624  24.24934
 625  41.96634
 626  188.9221
 627  275.5556
 628  217.1502
 629  167.0666
 630  126.1941
 631  180.4629
 632  130.531
 633  121.8935
 634  100.4879
 635  145.3197
 636  235.867
 637  290.8972
 638  226.4148
 639  150.7982
 640  140.6886
 641  212.17
 642  383.7976
 643  596.975
 644  726.2247
 645  844.9755
 646  947.4857
 647  1012.608
 648  986.6399
 649  912.9722
 650  816.5053
 651  708.7221
 652  552.5529
 653  404.1477
 654  272.1155
 655  270.6888
 656  286.4214
 657  251.952
 658  189.6359
 659  115.7731
 660  63.58017
 661  52.78673
 662  18.48345
 663  87.30911
 664  150.1287
 665  170.2715
 666  119.8477
 667  130.8792
 668  198.2202
 669  95.59026
 670  20.63914
 671  21.59981
 672  130.4798
 673  97.4087
 674  36.03654
 675  -6.564784
 676  56.39756
 677  82.94868
 678  222.7106
 679  284.9401
 680  281.4974
 681  101.313
 682  24.32968
 683  -98.48708
 684  -67.42999
 685  -3.619194
 686  105.2232
 687  28.94475
 688  30.80348
 689  29.54017
 690  160.7933
 691  185.0971
 692  297.5635
 693  236.0898
 694  190.6477
 695  120.8555
 696  88.30811
 697  108.5484
 698  185.8468
 699  249.7221
 700  210.2299
 701  123.5236
 702  135.3898
 703  87.07407
 704  188.3634
 705  99.72295
 706  168.5756
 707  128.7011
 708  198.2126
 709  215.5501
 710  181.6681
 711  215.6153
 712  132.9925
 713  94.92222
 714  21.8048
 715  18.33798
 716  80.26954
 717  205.1008
 718  220.6155
 719  110.1958
 720  8.172755
 721  -2.742577
 722  79.4471
 723  64.48386
 724  79.62755
 725  17.32584
 726  -43.34908
 727  -111.6419
 728  -3.908222
 729  230.9304
 730  284.8154
 731  208.2774
 732  81.66268
 733  48.10613
 734  19.34384
 735  32.9609
 736  96.36763
 737  125.6378
 738  91.30756
 739  -38.85526
 740  -78.24395
 741  4.330826
 742  109.2299
 743  133.9017
 744  104.9317
 745  211.2278
 746  275.5696
 747  224.8652
 748  128.4624
 749  39.93138
 750  47.13195
 751  -7.939034
 752  -72.65749
 753  -62.89368
 754  -46.98532
 755  24.86625
 756  11.397
 757  152.198
 758  146.4152
 759  164.1416
 760  52.25511
 761  51.90243
 762  52.03471
 763  96.09723
 764  56.56347
 765  -122.9203
 766  -195.8947
 767  -156.1669
 768  -42.21985
 769  -28.46249
 770  75.88795
 771  26.94045
 772  70.10439
 773  63.31969
 774  116.4562
 775  -3.477422
 776  -81.19992
 777  5.310051
 778  190.9433
 779  229.5012
 780  91.98543
 781  16.65495
 782  39.54286
 783  180.4714
 784  178.3815
 785  39.90647
 786  -83.54582
 787  -69.49717
 788  38.60849
 789  55.52539
 790  32.46505
 791  3.478557
 792  16.98816
 793  133.1497
 794  254.376
 795  223.0373
 796  148.0883
 797  150.5287
 798  190.3186
 799  155.3102
 800  126.6327
 801  116.794
 802  194.159
 803  178.5866
 804  156.9232
 805  145.7048
 806  115.5446
 807  172.1246
 808  183.3042
 809  210.9942
 810  140.2538
 811  71.18406
 812  66.27042
 813  161.3536
 814  182.8705
 815  206.1683
 816  189.0582
 817  168.4123
 818  152.2753
 819  48.07964
 820  -7.363679
 821  -36.8864
 822  -9.329233
 823  7.225482
 824  89.54176
 825  152.1969
 826  195.5148
 827  170.4165
 828  98.82119
 829  -31.57253
 830  -120.2745
 831  0.7463291
 832  135.0679
 833  104.5801
 834  101.7993
 835  21.64513
 836  137.9709
 837  49.81174
 838  -37.18265
 839  -122.8093
 840  -47.08218
 841  90.37679
 842  106.3193
 843  52.2045
 844  57.66166
 845  173.4855
 846  227.2253
 847  133.3301
 848  77.83807
 849  59.48557
 850  132.2693
 851  126.5005
 852  136.6293
 853  226.9569
 854  215.4861
 855  147.0584
 856  52.18414
 857  62.67033
 858  39.9611
 859  -12.64725
 860  -62.83131
 861  -17.99298
 862  38.28962
 863  197.6934
 864  211.5755
 865  73.27808
 866  -90.43128
 867  -187.4532
 868  -81.35685
 869  -71.69993
 870  21.28895
 871  36.23181
 872  53.03992
 873  -17.92469
 874  43.62049
 875  107.5427
 876  218.6801
 877  153.7685
 878  183.1284
 879  121.986
 880  -0.777782
 881  -92.00357
 882  -65.89402
 883  148.6855
 884  161.1872
 885  134.4626
 886  65.60469
 887  84.47382
 888  62.35935
 889  106.3405
 890  81.45972
 891  47.87401
 892  69.75816
 893  126.2422
 894  237.5326
 895  179.1178
 896  213.3898
 897  160.2711
 898  185.2689
 899  153.5636
 900  160.0923
 901  203.8385
 902  235.5474
 903  228.1535
 904  205.8964
 905  94.09527
 906  -3.557336
 907  -39.41251
 908  27.63603
 909  135.8459
 910  238.6756
 911  315.085
 912  278.8241
 913  266.9138
 914  197.2793
 915  97.69037
 916  38.01712
 917  56.56068
 918  189.9171
 919  196.0772
 920  97.19304
 921  17.50874
 922  -35.37242
 923  33.35793
 924  107.423
 925  213.9539
 926  188.5831
 927  174.7535
 928  140.2197
 929  139.1855
 930  108.6743
 931  129.8013
 932  202.0155
 933  316.1055
 934  289.9027
 935  197.7975
 936  70.52453
 937  62.7767
 938  94.05312
 939  170.511
 940  186.586
 941  24.44618
 942  -44.37165
 943  -88.68779
 944  21.79105
 945  -47.9892
 946  -19.54291
 947  57.81945
 948  87.44695
 949  104.9295
 950  -22.87343
 951  30.90885
 952  33.10648
 953  64.61893
 954  57.31443
 955  45.326
 956  92.07298
 957  103.3947
 958  61.83685
 959  118.778
 960  227.7648
 961  315.1955
 962  282.9171
 963  204.337
 964  251.1543
 965  330.094
 966  346.9378
 967  250.2437
 968  187.1818
 969  135.6696
 970  208.6497
 971  169.2087
 972  168.5915
 973  73.10116
 974  57.21785
 975  54.63686
 976  13.81378
 977  -2.074915
 978  -41.64565
 979  144.9576
 980  274.3816
 981  198.9635
 982  88.72565
 983  2.30872
 984  71.5924
 985  74.18671
 986  98.97764
 987  152.1607
 988  94.39288
 989  103.9553
 990  -18.08589
 991  19.5686
 992  -11.95432
 993  -28.12162
 994  16.82328
 995  81.00881
 996  98.37037
 997  6.436649
 998  -62.55643
 999  50.08739
1000  143.8425
1001  166.2108
1002  90.50683
1003  118.1333
1004  289.295
1005  359.4877
1006  333.3419
1007  158.3175
1008  74.33074
1009  80.34427
1010  79.78607
1011  64.84404
1012  81.33942
1013  104.8121
1014  59.61457
1015  -21.01897
1016  -38.80069
1017  58.95044
1018  69.6284
1019  58.92651
1020  29.99626
1021  -23.81544
1022  -66.81694
1023  -107.1134
