# Input file       =  1186210989.145512_cleaned.dat
# Candidate        =  PSR_0332+5434
# Telescope        =  AR
# Epoch_topo       =  57973.294075758240
# Epoch_bary       =  N/A
# T_sample         =  0.002
# Data Folded      =  7340032
# Data Avg         =  0.0195053518982605
# Data StdDev      =  2.6931202214294  
# Profile Bins     =  1024
# Profile Avg      =  139.769593025886 
# Profile StdDev   =  228.010443414444 
# Reduced chi-sqr  =  1.467
# Prob(Noise)      <  9.66e-21   (~9.3 sigma)
# P_topo (ms)      =  714.467065768362  +/- 0.000122
# P'_topo (s/s)    =  -0                +/- 6.46e-11
# P''_topo (s/s^2) =  0                 +/- 2.85e-14
# P_bary (ms)      =  N/A
# P'_bary (s/s)    =  N/A
# P''_bary (s/s^2) =  N/A
# P_orb (s)        =  N/A
# asin(i)/c (s)    =  N/A
# eccentricity     =  N/A
# w (rad)          =  N/A
# T_peri           =  N/A
######################################################
   0  65.39782
   1  125.4032
   2  266.4042
   3  287.8716
   4  255.7013
   5  126.0957
   6  85.82198
   7  227.6338
   8  375.7408
   9  385.3521
  10  386.3567
  11  336.8415
  12  192.7064
  13  -22.64437
  14  -51.10527
  15  -71.88527
  16  -46.58463
  17  -49.30579
  18  11.40011
  19  47.53668
  20  202.8318
  21  185.8007
  22  62.78956
  23  -72.63482
  24  -34.01656
  25  40.68237
  26  39.05466
  27  111.0414
  28  132.0615
  29  143.022
  30  74.60045
  31  163.3365
  32  148.5737
  33  259.1595
  34  310.0684
  35  377.3874
  36  321.214
  37  191.3503
  38  -3.396861
  39  -12.476
  40  74.34885
  41  103.6649
  42  49.57014
  43  17.08452
  44  167.0973
  45  329.2126
  46  296.8734
  47  154.3048
  48  69.99768
  49  84.00892
  50  136.1791
  51  118.6852
  52  81.17703
  53  61.60456
  54  56.03954
  55  154.1506
  56  223.3981
  57  97.64633
  58  25.18604
  59  -41.26957
  60  28.88017
  61  53.054
  62  -12.23749
  63  -53.34652
  64  -69.91822
  65  -15.03741
  66  54.69279
  67  -59.72092
  68  -69.61752
  69  -85.59995
  70  58.93444
  71  85.43837
  72  58.39317
  73  -11.30433
  74  -11.1515
  75  -59.96941
  76  -87.23097
  77  -67.09496
  78  128.5791
  79  277.8853
  80  392.6462
  81  354.2156
  82  229.4195
  83  85.67889
  84  23.70862
  85  31.62719
  86  133.2585
  87  116.2934
  88  149.5857
  89  91.96335
  90  76.03593
  91  155.5249
  92  142.8571
  93  88.2858
  94  91.53479
  95  157.196
  96  267.3121
  97  254.8684
  98  276.1643
  99  275.7322
 100  224.1461
 101  194.2849
 102  38.8695
 103  -82.02544
 104  -16.81906
 105  87.78415
 106  185.9442
 107  67.9787
 108  -64.15201
 109  -200.1006
 110  -61.26714
 111  31.24962
 112  74.63095
 113  -6.483928
 114  51.45598
 115  72.26249
 116  132.5676
 117  61.2677
 118  102.5677
 119  67.46395
 120  30.55447
 121  40.50845
 122  115.1672
 123  350.3979
 124  230.0313
 125  123.6598
 126  -7.584278
 127  83.6732
 128  156.3877
 129  265.3793
 130  233.2294
 131  261.5865
 132  209.5521
 133  151.3806
 134  145.6585
 135  136.4808
 136  188.7652
 137  104.2439
 138  101.3354
 139  20.66783
 140  -51.86464
 141  -167.4853
 142  -134.8021
 143  -48.01972
 144  26.98172
 145  59.54799
 146  81.8597
 147  117.1917
 148  63.91417
 149  29.56285
 150  19.07605
 151  70.55967
 152  120.0539
 153  143.7127
 154  174.3346
 155  64.88467
 156  5.955686
 157  14.98731
 158  70.35364
 159  198.0562
 160  251.6051
 161  310.7146
 162  282.355
 163  239.9965
 164  224.5848
 165  157.6285
 166  142.0127
 167  46.99375
 168  68.35238
 169  125.3798
 170  183.4286
 171  -62.0419
 172  -207.2561
 173  -273.8439
 174  -160.8451
 175  -42.41259
 176  5.989189
 177  40.17635
 178  41.71666
 179  117.8406
 180  121.2172
 181  23.00931
 182  -4.535387
 183  33.25745
 184  100.2262
 185  125.7224
 186  19.53345
 187  -18.52872
 188  -53.95152
 189  -19.03944
 190  -97.98779
 191  -119.2869
 192  62.6693
 193  290.6112
 194  240.5631
 195  103.2922
 196  78.16251
 197  190.6516
 198  202.9666
 199  183.2689
 200  166.6673
 201  174.3014
 202  103.3443
 203  22.89701
 204  -52.11152
 205  -78.86541
 206  73.64509
 207  279.1104
 208  359.962
 209  229.9673
 210  26.32598
 211  50.08116
 212  17.64677
 213  71.12337
 214  46.40273
 215  126.2662
 216  97.28028
 217  24.20294
 218  43.53017
 219  130.9633
 220  135.8741
 221  82.36916
 222  60.61496
 223  139.9018
 224  181.8167
 225  143.8585
 226  41.41857
 227  4.57497
 228  -51.24807
 229  -136.3786
 230  -143.2001
 231  -16.2459
 232  110.652
 233  83.01578
 234  37.97052
 235  39.03851
 236  68.71291
 237  223.5862
 238  201.3853
 239  96.27348
 240  63.97818
 241  230.674
 242  233.234
 243  181.6375
 244  220.3808
 245  347.4961
 246  277.4434
 247  148.6472
 248  101.0137
 249  158.4825
 250  88.58247
 251  122.8016
 252  74.13629
 253  104.9118
 254  54.15341
 255  112.1209
 256  183.6328
 257  102.5985
 258  105.0237
 259  20.69573
 260  49.91811
 261  60.01275
 262  73.14503
 263  135.5813
 264  195.8733
 265  293.9224
 266  252.0302
 267  142.2002
 268  92.77043
 269  5.688378
 270  -34.8775
 271  -88.34584
 272  94.67802
 273  129.1223
 274  277.5831
 275  343.8747
 276  399.6852
 277  367.8165
 278  275.1557
 279  331.3404
 280  357.25
 281  360.9149
 282  204.948
 283  127.6576
 284  190.9349
 285  247.3034
 286  316.3955
 287  194.0795
 288  190.2565
 289  231.5329
 290  308.8132
 291  227.2004
 292  -8.780935
 293  -95.97656
 294  16.04481
 295  196.1545
 296  257.2529
 297  170.0833
 298  139.7561
 299  146.3705
 300  270.2914
 301  306.8615
 302  207.1365
 303  50.458
 304  -16.56115
 305  -57.44917
 306  144.4434
 307  237.2395
 308  303.7927
 309  165.3446
 310  112.8205
 311  151.7593
 312  204.9117
 313  268.1392
 314  153.2587
 315  -25.3494
 316  -134.3012
 317  -158.1661
 318  -94.52773
 319  -46.4866
 320  9.390541
 321  63.96212
 322  67.06445
 323  39.08687
 324  57.0709
 325  61.30484
 326  131.9076
 327  9.446848
 328  109.3663
 329  166.814
 330  224.3337
 331  78.09641
 332  -31.33171
 333  4.543627
 334  120.7753
 335  238.4155
 336  225.1055
 337  79.59352
 338  -55.30878
 339  -17.10077
 340  -1.600233
 341  3.928629
 342  -13.14936
 343  79.71325
 344  50.19773
 345  31.16818
 346  155.2796
 347  205.3107
 348  273.421
 349  304.5403
 350  425.8012
 351  396.2842
 352  272.3733
 353  114.909
 354  225.1025
 355  343.0465
 356  241.9146
 357  105.3239
 358  -28.44437
 359  89.0742
 360  185.0371
 361  289.1369
 362  299.4039
 363  231.3552
 364  217.744
 365  211.6277
 366  118.9966
 367  110.9846
 368  112.4915
 369  108.128
 370  4.167714
 371  -124.6166
 372  -138.2574
 373  20.61745
 374  144.8169
 375  237.2141
 376  127.5993
 377  193.434
 378  51.59837
 379  84.21299
 380  30.11923
 381  85.43138
 382  124.3119
 383  139.8122
 384  154.1436
 385  60.80422
 386  -11.64484
 387  -76.04916
 388  2.519242
 389  129.6744
 390  180.8057
 391  170.7707
 392  169.2782
 393  249.3413
 394  169.5707
 395  -27.97278
 396  -104.396
 397  -154.4665
 398  -169.6156
 399  -162.2892
 400  55.02065
 401  127.4089
 402  123.5406
 403  173.4525
 404  281.7568
 405  243.0696
 406  55.47658
 407  92.46797
 408  55.61823
 409  123.8279
 410  95.65791
 411  90.76308
 412  -38.20881
 413  -146.2757
 414  -42.50605
 415  21.22909
 416  106.0835
 417  77.07446
 418  242.725
 419  236.6499
 420  258.6752
 421  150.0026
 422  265.6422
 423  244.8634
 424  334.303
 425  335.9126
 426  332.4635
 427  275.9746
 428  184.5225
 429  157.6955
 430  147.9649
 431  146.5328
 432  117.9784
 433  76.70187
 434  80.29969
 435  99.03261
 436  102.6705
 437  32.99916
 438  107.3222
 439  118.0952
 440  169.8519
 441  14.9263
 442  67.52477
 443  109.9818
 444  260.9503
 445  208.7547
 446  211.8224
 447  231.5752
 448  198.9557
 449  155.7032
 450  10.25796
 451  37.7569
 452  28.4894
 453  57.39742
 454  73.19214
 455  64.35849
 456  91.02648
 457  139.9988
 458  290.2583
 459  303.9987
 460  347.7151
 461  472.2086
 462  346.0535
 463  195.0316
 464  199.0521
 465  240.8261
 466  197.7827
 467  163.4859
 468  211.1521
 469  228.0513
 470  185.6057
 471  232.393
 472  165.8434
 473  77.262
 474  126.6293
 475  175.5574
 476  245.1727
 477  168.7263
 478  111.942
 479  -58.74968
 480  -4.142635
 481  164.9652
 482  378.1781
 483  258.0025
 484  16.37861
 485  -4.886508
 486  -7.715037
 487  89.29939
 488  132.2782
 489  161.513
 490  83.6578
 491  6.085238
 492  119.5271
 493  90.41322
 494  107.6328
 495  39.44771
 496  234.9653
 497  273.209
 498  188.3807
 499  71.33471
 500  31.07884
 501  96.86899
 502  22.98124
 503  74.40649
 504  97.80769
 505  108.8481
 506  57.61565
 507  -59.85197
 508  -73.74479
 509  -54.77858
 510  100.0878
 511  150.7853
 512  231.9726
 513  263.5255
 514  253.935
 515  153.476
 516  36.36024
 517  34.23211
 518  52.09814
 519  32.46842
 520  -8.218955
 521  -59.49678
 522  -45.08242
 523  8.331642
 524  83.29923
 525  134.3401
 526  141.8144
 527  264.6308
 528  249.7532
 529  309.2479
 530  233.8692
 531  353.8419
 532  311.7733
 533  424.3733
 534  336.6215
 535  189.9058
 536  128.1743
 537  193.7952
 538  251.3097
 539  262.8622
 540  200.9825
 541  285.0808
 542  274.5962
 543  221.1291
 544  207.379
 545  186.8438
 546  176.5701
 547  95.95476
 548  58.84149
 549  169.9565
 550  133.4603
 551  207.8723
 552  261.3129
 553  406.5681
 554  323.8555
 555  215.8478
 556  96.85818
 557  189.8945
 558  131.1448
 559  203.9338
 560  79.51507
 561  161.6868
 562  283.4376
 563  322.743
 564  190.6847
 565  21.03765
 566  104.6755
 567  220.98
 568  217.3065
 569  75.10449
 570  187.8632
 571  196.0073
 572  290.4462
 573  83.11078
 574  -35.8953
 575  -89.39433
 576  -75.92078
 577  104.4707
 578  115.4942
 579  207.7275
 580  171.9067
 581  106.0713
 582  20.41251
 583  70.50306
 584  208.814
 585  243.0236
 586  291.3157
 587  198.47
 588  185.7887
 589  178.243
 590  290.9402
 591  273.0859
 592  178.6962
 593  131.9466
 594  122.538
 595  77.6817
 596  101.7277
 597  81.93649
 598  174.176
 599  60.85305
 600  35.24364
 601  -11.53175
 602  12.55819
 603  6.312252
 604  -13.10631
 605  -90.27251
 606  -20.24624
 607  42.85968
 608  212.6486
 609  188.4677
 610  237.9476
 611  201.2657
 612  281.5129
 613  299.3305
 614  286.34
 615  193.1969
 616  277.1535
 617  316.7783
 618  334.1607
 619  245.0075
 620  235.6662
 621  125.8763
 622  235.9894
 623  176.2708
 624  223.6686
 625  87.53635
 626  143.9819
 627  73.19399
 628  62.11345
 629  92.86338
 630  208.5969
 631  213.2238
 632  222.3442
 633  242.2554
 634  410.4508
 635  525.0457
 636  399.0626
 637  192.602
 638  165.4236
 639  294.6707
 640  409.2541
 641  406.6619
 642  467.4135
 643  566.2963
 644  730.9159
 645  834.2434
 646  879.0721
 647  931.2584
 648  1052.628
 649  1123.782
 650  984.8265
 651  823.0535
 652  715.6353
 653  690.0452
 654  537.3185
 655  427.0695
 656  334.7713
 657  258.0642
 658  172.9684
 659  144.9992
 660  199.1096
 661  270.3711
 662  293.3944
 663  242.347
 664  199.8118
 665  144.4502
 666  123.7826
 667  53.23947
 668  54.76541
 669  122.9471
 670  33.14039
 671  11.26531
 672  -86.66634
 673  66.95234
 674  111.3944
 675  172.3977
 676  121.4983
 677  104.2193
 678  148.3702
 679  338.2805
 680  495.126
 681  479.7791
 682  379.9818
 683  320.7462
 684  266.204
 685  140.522
 686  75.79169
 687  53.34227
 688  57.80145
 689  -10.08382
 690  133.0513
 691  273.6241
 692  390.0915
 693  209.8745
 694  19.6654
 695  32.91627
 696  169.3742
 697  252.2141
 698  71.48669
 699  123.9315
 700  138.8759
 701  147.1672
 702  35.86913
 703  -13.03718
 704  32.18358
 705  154.869
 706  295.7841
 707  242.3073
 708  185.7214
 709  134.8228
 710  67.8065
 711  49.72594
 712  132.3605
 713  221.6301
 714  198.1817
 715  205.7877
 716  133.9361
 717  89.09953
 718  34.27748
 719  115.9126
 720  127.8144
 721  75.16
 722  -23.66024
 723  -63.04702
 724  39.56515
 725  117.5904
 726  109.571
 727  151.6097
 728  127.2609
 729  113.9303
 730  -68.88409
 731  -167.6893
 732  -176.1643
 733  -26.47462
 734  5.115662
 735  18.53465
 736  55.47718
 737  16.90921
 738  -119.2646
 739  -238.8193
 740  -181.3491
 741  -74.04197
 742  -39.66962
 743  -189.8804
 744  -42.76515
 745  184.6095
 746  358.9521
 747  218.9406
 748  57.30331
 749  95.20223
 750  116.1303
 751  147.5407
 752  59.40033
 753  120.2804
 754  154.0197
 755  136.4507
 756  39.50451
 757  30.99475
 758  115.8254
 759  183.1817
 760  213.7157
 761  206.3878
 762  179.971
 763  112.1147
 764  -28.7792
 765  -88.27614
 766  -156.5672
 767  -59.86269
 768  28.6968
 769  81.8818
 770  110.4296
 771  96.31551
 772  150.6909
 773  28.61663
 774  -107.3661
 775  -80.748
 776  -122.2469
 777  34.73165
 778  -29.51707
 779  38.80574
 780  -104.1249
 781  -227.9727
 782  -168.1853
 783  -70.29718
 784  -6.983465
 785  -24.80276
 786  -79.74029
 787  23.06762
 788  9.385726
 789  111.1675
 790  22.10828
 791  -50.86115
 792  -114.0088
 793  130.4868
 794  65.27356
 795  -86.97684
 796  -272.1662
 797  -121.1647
 798  67.43575
 799  114.759
 800  89.41055
 801  88.58543
 802  37.75815
 803  31.05426
 804  77.78663
 805  165.8194
 806  153.1269
 807  162.7541
 808  139.9085
 809  108.5225
 810  45.85949
 811  36.80988
 812  61.95794
 813  128.3293
 814  174.5263
 815  121.1592
 816  3.299584
 817  25.04365
 818  122.3158
 819  109.7885
 820  22.66341
 821  38.09208
 822  183.2301
 823  245.6302
 824  186.2496
 825  88.85195
 826  0.6285514
 827  50.43877
 828  115.4257
 829  223.5323
 830  312.4481
 831  355.2893
 832  231.9462
 833  125.5952
 834  136.7527
 835  295.0846
 836  272.9524
 837  218.2744
 838  202.1736
 839  298.347
 840  319.1016
 841  247.5663
 842  299.0332
 843  257.8773
 844  144.2374
 845  -5.416937
 846  -16.98426
 847  85.13143
 848  179.5343
 849  113.9084
 850  40.81649
 851  -84.0573
 852  -17.52477
 853  -27.99726
 854  63.58765
 855  -24.79486
 856  -90.08685
 857  -4.489016
 858  209.7612
 859  230.0322
 860  22.53945
 861  -100.0435
 862  -95.24504
 863  2.550585
 864  76.71195
 865  191.9824
 866  161.5333
 867  180.8346
 868  74.50443
 869  136.3993
 870  130.0825
 871  274.7409
 872  273.3622
 873  241.3205
 874  226.7677
 875  317.2848
 876  389.7989
 877  182.4938
 878  239.0546
 879  307.6443
 880  494.7566
 881  381.5048
 882  357.1254
 883  276.9506
 884  235.9052
 885  316.7145
 886  468.5381
 887  500.1408
 888  364.1375
 889  217.1695
 890  189.649
 891  174.6103
 892  85.06914
 893  40.79795
 894  -8.657619
 895  98.24236
 896  204.8764
 897  291.2456
 898  274.9157
 899  186.2094
 900  228.7114
 901  283.2826
 902  309.1213
 903  180.8207
 904  -6.366
 905  -11.85008
 906  30.11745
 907  24.92799
 908  -163.3023
 909  -128.866
 910  82.41138
 911  265.3578
 912  279.0032
 913  269.8715
 914  196.3983
 915  182.175
 916  308.2016
 917  430.2089
 918  452.644
 919  291.1489
 920  193.8942
 921  161.0078
 922  223.2901
 923  215.9381
 924  278.3167
 925  178.5311
 926  19.12402
 927  -120.6995
 928  5.671521
 929  102.2527
 930  183.9405
 931  150.1381
 932  58.69581
 933  52.72365
 934  97.72744
 935  195.3225
 936  164.1325
 937  144.0373
 938  132.4765
 939  226.3441
 940  220.6043
 941  332.8144
 942  349.9587
 943  466.2395
 944  414.7671
 945  343.6336
 946  325.4204
 947  287.4193
 948  320.7289
 949  220.6707
 950  260.7115
 951  273.9911
 952  302.7843
 953  337.2386
 954  304.8833
 955  370.3282
 956  384.0547
 957  393.8071
 958  285.3752
 959  306.8625
 960  263.3378
 961  296.8328
 962  223.7375
 963  308.7255
 964  368.2631
 965  314.2895
 966  224.5153
 967  267.0374
 968  388.4459
 969  388.4985
 970  293.995
 971  175.8565
 972  74.14635
 973  38.96943
 974  -31.32427
 975  36.51758
 976  3.122493
 977  110.5118
 978  146.7591
 979  133.3701
 980  -9.953856
 981  6.129299
 982  114.3335
 983  271.8023
 984  419.3208
 985  566.538
 986  618.6541
 987  459.9176
 988  369.2801
 989  254.9685
 990  196.1861
 991  76.19673
 992  -4.00555
 993  58.06654
 994  152.1241
 995  324.8485
 996  195.3973
 997  124.1871
 998  -29.57549
 999  94.36118
1000  77.2067
1001  130.1683
1002  150.3783
1003  165.947
1004  261.385
1005  248.2988
1006  150.8327
1007  -51.1619
1008  -165.8769
1009  -110.8386
1010  -6.0069
1011  134.3006
1012  238.1116
1013  218.3232
1014  183.3591
1015  248.3987
1016  235.3405
1017  227.9953
1018  198.7462
1019  226.29
1020  128.9214
1021  107.1579
1022  120.1401
1023  39.59865
