# Input file       =  1186009154.1103_cleaned.dat
# Candidate        =  PSR_0332+5434
# Telescope        =  AR
# Epoch_topo       =  57970.958022109953
# Epoch_bary       =  N/A
# T_sample         =  0.002
# Data Folded      =  7208960
# Data Avg         =  0.175825890680691
# Data StdDev      =  4.90660579483301 
# Profile Bins     =  1024
# Profile Avg      =  1237.85588512038 
# Profile StdDev   =  411.687325768304 
# Reduced chi-sqr  =  0.423
# Prob(Noise)      <  1   (~0.0 sigma)
# P_topo (ms)      =  714.467518086152  +/- 0.00145
# P'_topo (s/s)    =  -0                +/- 7.81e-10
# P''_topo (s/s^2) =  0                 +/- 3.51e-13
# P_bary (ms)      =  N/A
# P'_bary (s/s)    =  N/A
# P''_bary (s/s^2) =  N/A
# P_orb (s)        =  N/A
# asin(i)/c (s)    =  N/A
# eccentricity     =  N/A
# w (rad)          =  N/A
# T_peri           =  N/A
######################################################
   0  1297.505
   1  1289.7
   2  1277.054
   3  1346.171
   4  1331.995
   5  1539.659
   6  1399.309
   7  1181.502
   8  1004.746
   9  1213.801
  10  1206.168
  11  1139.093
  12  966.1862
  13  961.6227
  14  909.7595
  15  1079.46
  16  1126.107
  17  1100.817
  18  1024.515
  19  1138.044
  20  1181.166
  21  1037.072
  22  1097.785
  23  1244.902
  24  1426.633
  25  1372.025
  26  1344.132
  27  1170.325
  28  1137.644
  29  1056.445
  30  1149.963
  31  1053.311
  32  990.0041
  33  854.8921
  34  751.4489
  35  798.8141
  36  1028.587
  37  1051.137
  38  1042.656
  39  937.4789
  40  1098.033
  41  1197.128
  42  1244.205
  43  1310.566
  44  1201.924
  45  1114.67
  46  1120.037
  47  1269.369
  48  1330.302
  49  1365.588
  50  1301.416
  51  1329.428
  52  1262.377
  53  1289.039
  54  1397.461
  55  1376.731
  56  1428.212
  57  1393.675
  58  1348.24
  59  1184.559
  60  1218.064
  61  1313.882
  62  1271.034
  63  1209.876
  64  1162.515
  65  1302.583
  66  1260.951
  67  1318.12
  68  1181.573
  69  1217.207
  70  1311.114
  71  1367.271
  72  1256.691
  73  1100.718
  74  1131.987
  75  1195.651
  76  1187.628
  77  1140.314
  78  986.0795
  79  1062.774
  80  1248.643
  81  1391.426
  82  1339.997
  83  1330.747
  84  1438.027
  85  1396.223
  86  1202.889
  87  1294.333
  88  1232.266
  89  1264.983
  90  1304.441
  91  1423.143
  92  1425.886
  93  1168.249
  94  1219.18
  95  1284.062
  96  1254.478
  97  1189.962
  98  1125.102
  99  1068.477
 100  1055.549
 101  1206.47
 102  1266.976
 103  1233.288
 104  1075.124
 105  1172.196
 106  1184.935
 107  1349.628
 108  1376.373
 109  1253.695
 110  1242.105
 111  1261.43
 112  1448.636
 113  1388.454
 114  1402.329
 115  1397.622
 116  1308.677
 117  1212.807
 118  1056.91
 119  1238.366
 120  1323.708
 121  1509.748
 122  1527.83
 123  1496.491
 124  1337.987
 125  1144.584
 126  1043.073
 127  1094.167
 128  1236.731
 129  1247.381
 130  1255.528
 131  1250.988
 132  1352.124
 133  1171.657
 134  1185.368
 135  1270.516
 136  1348.437
 137  1138.07
 138  1054.503
 139  1146.285
 140  1206.617
 141  1248.712
 142  1257.738
 143  1311.639
 144  1183.898
 145  1172.154
 146  1133.62
 147  1130.218
 148  1163.824
 149  1196.495
 150  1244.75
 151  1146.552
 152  1278.701
 153  1160.476
 154  1055.323
 155  1066.256
 156  1301.434
 157  1547.852
 158  1405.949
 159  1298.483
 160  1336.622
 161  1434.094
 162  1467.241
 163  1393.908
 164  1216.446
 165  1301.504
 166  1304.49
 167  1489.285
 168  1412.148
 169  1323.763
 170  1228.906
 171  1154.668
 172  1259.704
 173  1339.576
 174  1184.761
 175  1222.428
 176  1239.213
 177  1477.302
 178  1268.406
 179  1216.323
 180  1283.37
 181  1389.384
 182  1487.539
 183  1434.124
 184  1332.925
 185  1219.07
 186  1270.056
 187  1360.169
 188  1302.515
 189  1115.237
 190  1176.482
 191  1120.629
 192  1110.52
 193  1027.642
 194  1117.825
 195  1260.444
 196  1383.32
 197  1369.903
 198  1360.602
 199  1346.707
 200  1531.24
 201  1559.043
 202  1427.962
 203  1379.554
 204  1349.14
 205  1419.567
 206  1309.959
 207  1197.053
 208  1173.384
 209  1159.318
 210  1257.607
 211  1155.569
 212  1122.247
 213  1111.497
 214  1312.947
 215  1322.728
 216  1311.56
 217  1391.85
 218  1445.711
 219  1353.878
 220  1185.035
 221  1255.909
 222  1242.477
 223  1211.207
 224  1143.259
 225  1359.556
 226  1376.162
 227  1277.983
 228  1311.404
 229  1210.473
 230  1239.952
 231  1182.434
 232  1297.109
 233  1255.546
 234  1116.281
 235  1232.743
 236  1318.588
 237  1274.294
 238  1175.761
 239  1103.455
 240  1150.726
 241  1260.635
 242  1314.651
 243  1192.644
 244  1199.799
 245  1212.301
 246  1337.961
 247  1247.898
 248  1186.122
 249  1118.923
 250  1228.77
 251  1374.823
 252  1368.815
 253  1253.924
 254  1246.054
 255  1337.268
 256  1244.497
 257  1063.645
 258  1055.499
 259  1109.388
 260  1152.617
 261  1181.271
 262  1252.031
 263  1218.15
 264  1112.276
 265  1117.786
 266  1137.712
 267  1128.984
 268  1095.027
 269  1071.191
 270  1080.025
 271  1154.8
 272  1207.643
 273  1287.025
 274  1170.114
 275  1374.369
 276  1414.48
 277  1340.992
 278  1218.356
 279  1312.26
 280  1296.516
 281  1291.147
 282  1359.722
 283  1457.745
 284  1401.841
 285  1316.32
 286  1398.104
 287  1380.733
 288  1307.375
 289  1278.597
 290  1387.644
 291  1366.077
 292  1301.912
 293  1280.311
 294  1201.044
 295  1015.197
 296  1028.282
 297  1121.376
 298  1330.421
 299  1280.623
 300  1384.229
 301  1307.393
 302  1320.406
 303  1318.812
 304  1418.645
 305  1449.303
 306  1358.822
 307  1127.6
 308  1008.279
 309  1123.463
 310  1312.342
 311  1308.597
 312  1278.605
 313  1282.827
 314  1375.46
 315  1263.826
 316  1213.128
 317  1153.682
 318  1137.935
 319  1248.978
 320  1427.16
 321  1372.875
 322  1155.006
 323  1178.242
 324  1200.893
 325  1245.772
 326  1106.19
 327  1166.903
 328  1019.045
 329  940.0203
 330  884.4585
 331  1038.604
 332  1048.262
 333  1149.372
 334  1178.605
 335  1172.951
 336  1221.647
 337  1227.729
 338  1349.229
 339  1298.369
 340  1337.58
 341  1474.908
 342  1330.011
 343  1353.135
 344  1350.878
 345  1458.009
 346  1400.434
 347  1352.266
 348  1426.193
 349  1388.972
 350  1330.033
 351  1340.542
 352  1288.184
 353  1219.559
 354  1225.651
 355  1235.906
 356  1106.471
 357  968.252
 358  1119.302
 359  1237.704
 360  1327.754
 361  1374.38
 362  1655.007
 363  1654.377
 364  1466.281
 365  1373.175
 366  1325.79
 367  1271.549
 368  1274.099
 369  1376.98
 370  1497.632
 371  1381.787
 372  1246.834
 373  1200.599
 374  1335.733
 375  1341.726
 376  1381.143
 377  1307.252
 378  1387.849
 379  1277.311
 380  1200.298
 381  1149.083
 382  1168.595
 383  1081.262
 384  1058.774
 385  1288.049
 386  1361.131
 387  1313.558
 388  1226.899
 389  1386.975
 390  1474.792
 391  1393.77
 392  1325.139
 393  1237.865
 394  1158.675
 395  1100.672
 396  1115.145
 397  1071.7
 398  1089.654
 399  1238.312
 400  1263.434
 401  1190.828
 402  1170.91
 403  1203.79
 404  1335.661
 405  1311.799
 406  1465.714
 407  1263.514
 408  1230.572
 409  1171.422
 410  1365.049
 411  1117.371
 412  1007.722
 413  839.322
 414  1001.127
 415  1038.518
 416  1150.857
 417  1157.883
 418  1048.723
 419  1136.97
 420  1281.14
 421  1407.414
 422  1324.937
 423  1233.32
 424  1306.979
 425  1069.21
 426  1090.337
 427  1114.578
 428  1297.184
 429  1238.529
 430  1130.334
 431  1059.363
 432  938.529
 433  1085.218
 434  1120.214
 435  1277.455
 436  1235.445
 437  1319.772
 438  1236.257
 439  1347.914
 440  1213.438
 441  1166.671
 442  1179.202
 443  1307.584
 444  1281.011
 445  1129.557
 446  1105.185
 447  1129.512
 448  1178.069
 449  1135.118
 450  1095.686
 451  982.0302
 452  1063.171
 453  1181.581
 454  1319.08
 455  1252.927
 456  986.8789
 457  1011.769
 458  1051.854
 459  1211.192
 460  1154.502
 461  1112.062
 462  977.4713
 463  759.7358
 464  897.5259
 465  947.0662
 466  1201.781
 467  1250.569
 468  1358.225
 469  1289.802
 470  1174.302
 471  1022.983
 472  970.3506
 473  1030.961
 474  1256.634
 475  1295.265
 476  1202.447
 477  1238.07
 478  1273.116
 479  1256.483
 480  1196.142
 481  1203.244
 482  1162.784
 483  987.0887
 484  980.9818
 485  953.5491
 486  930.2275
 487  1000.104
 488  1240.507
 489  1303.175
 490  1102.072
 491  981.3291
 492  957.8402
 493  1035.906
 494  1169.264
 495  1475.233
 496  1396.604
 497  1370.154
 498  1245.694
 499  1246.878
 500  1115.183
 501  1108.842
 502  1377.229
 503  1489.306
 504  1455.998
 505  1229.875
 506  1079.843
 507  1164.876
 508  1217.506
 509  1408.615
 510  1497.08
 511  1472.58
 512  1418.074
 513  1219.666
 514  1146.4
 515  1273.106
 516  1280.901
 517  1310.516
 518  1298.204
 519  1376.962
 520  1315.825
 521  1177.042
 522  1220.419
 523  1252.134
 524  1184.657
 525  1167.651
 526  1323.764
 527  1380.607
 528  1340.598
 529  1176.327
 530  1088.864
 531  1105.735
 532  1071.006
 533  1220.095
 534  1237.895
 535  1311.923
 536  1387.739
 537  1398.663
 538  1418.793
 539  1417.898
 540  1467.31
 541  1440.144
 542  1402.246
 543  1225.389
 544  1065.104
 545  1056.099
 546  1238.356
 547  1296.888
 548  1147.485
 549  1163.376
 550  1158.871
 551  1088.789
 552  1109.098
 553  1230.622
 554  1259.622
 555  1221.076
 556  1394.094
 557  1550.028
 558  1375.787
 559  1148.096
 560  1031.807
 561  1033.505
 562  1036.389
 563  984.0381
 564  1000.492
 565  829.6984
 566  972.9736
 567  1101.799
 568  1230.9
 569  1113.696
 570  1143.302
 571  1238.561
 572  1377.425
 573  1335.652
 574  1290.147
 575  1117.394
 576  1273.863
 577  1433.173
 578  1578.187
 579  1460.681
 580  1387.926
 581  1194.91
 582  1102.109
 583  1137.25
 584  1246.845
 585  1257.037
 586  1143.125
 587  1213.432
 588  1324.72
 589  1212.767
 590  1077.76
 591  1002.452
 592  1029.187
 593  1061.448
 594  1187.966
 595  1180.003
 596  981.986
 597  874.5156
 598  1035.744
 599  1142.273
 600  1007.087
 601  1060.533
 602  1035.13
 603  1060.71
 604  1175.615
 605  1381.576
 606  1376.632
 607  1319.447
 608  1258.01
 609  1275.48
 610  1384.699
 611  1499.864
 612  1371.861
 613  1233.905
 614  1110.676
 615  1249.047
 616  1146.382
 617  1097.488
 618  1181.201
 619  1251.925
 620  1401.98
 621  1466.891
 622  1465.397
 623  1398.365
 624  1251.074
 625  1270.515
 626  1168.671
 627  1182.315
 628  1214.964
 629  1241.15
 630  1199.008
 631  1175.292
 632  1279.714
 633  1202.095
 634  1271.169
 635  1290.119
 636  1539.701
 637  1530.888
 638  1575.613
 639  1466.842
 640  1345.435
 641  1344.109
 642  1478.653
 643  1581.635
 644  1590.414
 645  1697.929
 646  1763.272
 647  1833.415
 648  1780.48
 649  1821.488
 650  1866.672
 651  1698.643
 652  1690.672
 653  1569.75
 654  1455.48
 655  1375.615
 656  1463.408
 657  1415.825
 658  1384.776
 659  1425.839
 660  1408.276
 661  1323.687
 662  1189.524
 663  1349.238
 664  1391.529
 665  1266.339
 666  1165.707
 667  1052.08
 668  1156.62
 669  1173.279
 670  1217.623
 671  1270.553
 672  1393.69
 673  1495.083
 674  1477.103
 675  1417.759
 676  1352.894
 677  1388.109
 678  1319.778
 679  1397.173
 680  1387.426
 681  1294.779
 682  1158.966
 683  1213.769
 684  1308.234
 685  1327.917
 686  1440.114
 687  1348.865
 688  1289.153
 689  1144.427
 690  1363.305
 691  1509.286
 692  1411.184
 693  1053.634
 694  917.4144
 695  926.2951
 696  1123.705
 697  1151.535
 698  1108.491
 699  1062.595
 700  1141.922
 701  1386.904
 702  1204.471
 703  1104.656
 704  1056.858
 705  1207.72
 706  1189.86
 707  1079.264
 708  990.0709
 709  941.024
 710  1340.029
 711  1530.848
 712  1549.523
 713  1416.268
 714  1268.642
 715  1285.655
 716  1138.099
 717  1155.895
 718  1242.397
 719  1142.012
 720  1109.135
 721  996.865
 722  1257.448
 723  1320.332
 724  1526.116
 725  1380.653
 726  1326.321
 727  1163.606
 728  1309.895
 729  1205.649
 730  1258.738
 731  1312.771
 732  1414.011
 733  1344.546
 734  1308.158
 735  1197.029
 736  1117.389
 737  1195.657
 738  1290.461
 739  1299.418
 740  1272.527
 741  1267.756
 742  1219.528
 743  1231.791
 744  1368.972
 745  1398.48
 746  1315.909
 747  1121.251
 748  1210.037
 749  1158.493
 750  1139.383
 751  1195.956
 752  1291.411
 753  1377.782
 754  1186.473
 755  1220.711
 756  1186.506
 757  1114.45
 758  1152.86
 759  1305.447
 760  1367.082
 761  1347.575
 762  1234.689
 763  1215.693
 764  1174.215
 765  1268.699
 766  1276.307
 767  1230.35
 768  1098.764
 769  1151.946
 770  1155.863
 771  1282.005
 772  1201.508
 773  1324.629
 774  1168.73
 775  1211.391
 776  1231.644
 777  1268.446
 778  1272.909
 779  1256.996
 780  1264.383
 781  1336.973
 782  1404.143
 783  1450.605
 784  1374.422
 785  1185.278
 786  1146.946
 787  936.83
 788  1056.48
 789  1153.935
 790  1398.04
 791  1498.969
 792  1565.845
 793  1539.996
 794  1361.913
 795  1279.795
 796  1350.566
 797  1458.648
 798  1389.735
 799  1217.315
 800  1150.72
 801  1102.199
 802  1224.187
 803  1203.588
 804  1224.726
 805  1153.586
 806  1303.909
 807  1458.345
 808  1504.906
 809  1353.783
 810  1287.678
 811  1244.014
 812  1277.999
 813  1384.976
 814  1370.66
 815  1227.233
 816  1205.465
 817  1245.724
 818  1310.318
 819  1293.397
 820  1386.347
 821  1500.072
 822  1361.422
 823  1361.802
 824  1437.09
 825  1468.583
 826  1465.705
 827  1400.69
 828  1353.646
 829  1269.849
 830  1209.782
 831  1335.055
 832  1344.494
 833  1319.955
 834  1304.168
 835  1234.583
 836  1132.983
 837  1065.948
 838  1129.661
 839  1142.721
 840  1101.642
 841  1020.786
 842  1193.483
 843  1402.658
 844  1508.73
 845  1354.714
 846  1230.948
 847  1264.869
 848  1203.362
 849  1201.678
 850  1113.689
 851  1288.343
 852  1337.277
 853  1315.758
 854  1248.984
 855  1284.834
 856  1399.348
 857  1372.912
 858  1393.353
 859  1260.337
 860  1197.847
 861  1164.199
 862  1375.977
 863  1444.345
 864  1245.902
 865  1105.813
 866  1024.478
 867  1259.621
 868  1189.166
 869  986.7525
 870  832.6148
 871  910.7806
 872  1164.611
 873  1090.16
 874  1101.219
 875  1056.206
 876  1012.128
 877  982.1997
 878  1026.582
 879  1103.11
 880  1079.878
 881  1180.952
 882  1269.97
 883  1197.209
 884  1043.777
 885  1110.868
 886  1158.161
 887  1098.641
 888  1071.613
 889  1167.281
 890  1091.216
 891  1027.534
 892  1135.776
 893  1244.975
 894  1318.267
 895  1297.401
 896  1412.575
 897  1311.546
 898  1237.891
 899  1325.069
 900  1391.711
 901  1440.568
 902  1418.441
 903  1285.737
 904  1110.648
 905  1054.83
 906  1203.384
 907  1241.704
 908  1240.583
 909  1230.125
 910  1299.103
 911  1151.939
 912  1138.397
 913  1135.611
 914  1146.511
 915  1197.886
 916  1263.784
 917  1388.949
 918  1242.579
 919  1224.781
 920  1145.342
 921  1257.027
 922  1289.768
 923  1282.46
 924  1214.691
 925  1080.907
 926  1143.135
 927  1112.324
 928  1105.318
 929  1076.476
 930  1119.951
 931  1110.919
 932  1208.812
 933  1192.034
 934  1127.056
 935  1039.169
 936  1223.459
 937  1475.182
 938  1302.806
 939  1217.248
 940  1306.668
 941  1360.641
 942  1223.471
 943  1140.591
 944  1273.407
 945  1322.39
 946  1267.441
 947  1076.655
 948  1048.718
 949  1046.234
 950  1325.725
 951  1277.566
 952  1052.923
 953  900.3315
 954  1040.399
 955  1172.457
 956  1103.729
 957  1128.013
 958  1088.861
 959  1174.942
 960  1088.38
 961  1117.584
 962  972.7081
 963  906.0031
 964  1008.542
 965  1018.493
 966  980.0375
 967  1077.617
 968  1220.011
 969  1197.544
 970  1177.822
 971  1058.4
 972  1110.309
 973  1197.027
 974  1436.855
 975  1573.849
 976  1364.085
 977  1270.076
 978  1065.131
 979  1080.351
 980  996.5751
 981  1180.018
 982  1188.071
 983  1144.34
 984  1150.768
 985  1150.782
 986  1283.736
 987  1379.381
 988  1527.532
 989  1358.898
 990  1304.573
 991  1403.852
 992  1462.139
 993  1212.704
 994  1037.826
 995  1024.062
 996  1003.509
 997  1110.664
 998  1119.186
 999  1160.192
1000  1046.735
1001  1017.559
1002  1221.528
1003  1292.598
1004  1256.813
1005  1194.17
1006  1216.032
1007  1241.24
1008  1277.137
1009  1216.32
1010  1297.602
1011  1360.812
1012  1488.737
1013  1340.725
1014  1225.941
1015  1156.821
1016  1166.827
1017  990.0971
1018  1032.582
1019  1170.816
1020  1154.092
1021  953.4538
1022  959.7888
1023  1171.944
