# Input file       =  1186297159.116241_cleaned.dat
# Candidate        =  PSR_0332+5434
# Telescope        =  AR
# Epoch_topo       =  57974.291413382416
# Epoch_bary       =  N/A
# T_sample         =  0.002
# Data Folded      =  7340032
# Data Avg         =  0.0336349993969115
# Data StdDev      =  2.93227442034074 
# Profile Bins     =  1024
# Profile Avg      =  241.11485550953  
# Profile StdDev   =  248.258204544566 
# Reduced chi-sqr  =  1.117
# Prob(Noise)      <  0.00511   (~2.6 sigma)
# P_topo (ms)      =  714.46674756521   +/- 0.000145
# P'_topo (s/s)    =  -0                +/- 7.66e-11
# P''_topo (s/s^2) =  0                 +/- 3.38e-14
# P_bary (ms)      =  N/A
# P'_bary (s/s)    =  N/A
# P''_bary (s/s^2) =  N/A
# P_orb (s)        =  N/A
# asin(i)/c (s)    =  N/A
# eccentricity     =  N/A
# w (rad)          =  N/A
# T_peri           =  N/A
######################################################
   0  122.987
   1  165.7915
   2  245.6181
   3  202.2706
   4  220.937
   5  135.8266
   6  217.6285
   7  160.1108
   8  188.0296
   9  163.1886
  10  232.8516
  11  234.4229
  12  256.297
  13  293.5579
  14  357.1552
  15  358.2417
  16  404.2834
  17  446.5062
  18  382.605
  19  205.2834
  20  40.50264
  21  0.5638575
  22  116.6971
  23  171.4792
  24  210.3869
  25  113.6045
  26  117.6876
  27  -10.12573
  28  87.29643
  29  119.9038
  30  186.1459
  31  177.5487
  32  292.1374
  33  244.3508
  34  236.1868
  35  213.3314
  36  364.5435
  37  513.4477
  38  432.5609
  39  325.9543
  40  287.3091
  41  335.7542
  42  464.6652
  43  389.3687
  44  255.3166
  45  184.5162
  46  243.9224
  47  268.1337
  48  185.4917
  49  221.06
  50  329.2225
  51  457.1347
  52  525.7582
  53  376.011
  54  221.0064
  55  150.0202
  56  307.3081
  57  322.6107
  58  261.6208
  59  213.0444
  60  338.691
  61  388.9066
  62  293.0926
  63  73.39247
  64  6.096796
  65  102.2794
  66  316.4907
  67  451.47
  68  386.676
  69  214.8893
  70  151.5437
  71  243.8825
  72  502.8395
  73  513.3154
  74  350.8909
  75  170.9331
  76  170.508
  77  177.4387
  78  211.671
  79  159.1015
  80  176.3997
  81  259.3794
  82  285.377
  83  223.2414
  84  77.27417
  85  202.1902
  86  186.7109
  87  218.3968
  88  217.1985
  89  286.0896
  90  319.8981
  91  353.4518
  92  417.8761
  93  370.1632
  94  185.2259
  95  264.8111
  96  243.6348
  97  276.0522
  98  150.7476
  99  222.355
 100  227.5305
 101  276.0577
 102  186.8683
 103  361.1647
 104  324.8754
 105  314.2345
 106  184.6217
 107  205.0335
 108  194.8981
 109  226.3045
 110  308.1164
 111  359.2896
 112  267.205
 113  143.9433
 114  100.2756
 115  164.3698
 116  220.93
 117  316.18
 118  267.931
 119  290.9922
 120  258.3824
 121  289.0064
 122  229.0337
 123  320.6107
 124  383.5839
 125  450.6452
 126  282.8232
 127  223.9048
 128  293.2448
 129  487.6635
 130  616.1033
 131  500.7166
 132  491.6163
 133  539.4993
 134  424.8707
 135  294.6873
 136  262.3634
 137  399.3009
 138  496.3438
 139  450.1396
 140  307.8592
 141  80.68376
 142  60.80094
 143  164.0595
 144  252.7382
 145  259.7729
 146  438.5117
 147  481.5867
 148  516.3589
 149  432.393
 150  419.5063
 151  464.895
 152  351.7933
 153  313.0602
 154  208.8208
 155  211.1234
 156  239.92
 157  180.5925
 158  189.5706
 159  130.0962
 160  203.3818
 161  315.9961
 162  385.3487
 163  361.2464
 164  309.55
 165  141.4086
 166  173.5108
 167  64.55174
 168  111.6998
 169  37.50566
 170  273.2842
 171  482.5599
 172  550.8567
 173  313.0705
 174  206.2982
 175  162.8426
 176  123.9682
 177  58.64404
 178  7.165953
 179  190.1089
 180  327.6297
 181  495.7651
 182  483.1343
 183  421.5715
 184  392.2574
 185  370.547
 186  288.0809
 187  148.1619
 188  68.44545
 189  47.49802
 190  82.66705
 191  59.23967
 192  161.4747
 193  224.7016
 194  323.7685
 195  352.7559
 196  425.855
 197  399.9957
 198  352.4428
 199  191.1602
 200  171.9384
 201  138.5187
 202  165.7733
 203  150.936
 204  140.713
 205  184.9357
 206  226.169
 207  279.6611
 208  383.3103
 209  318.6355
 210  455.7692
 211  486.9832
 212  561.1251
 213  463.9622
 214  275.0647
 215  157.194
 216  24.41619
 217  23.7721
 218  136.3805
 219  269.9728
 220  375.8525
 221  274.8965
 222  214.8791
 223  227.758
 224  277.0138
 225  267.3997
 226  230.1436
 227  196.4951
 228  186.3809
 229  169.8311
 230  233.4002
 231  413.0371
 232  455.9525
 233  419.2491
 234  389.7144
 235  535.4384
 236  562.6619
 237  436.7475
 238  287.4451
 239  243.6969
 240  319.944
 241  382.1716
 242  394.2632
 243  439.0792
 244  503.6028
 245  436.6249
 246  303.9168
 247  197.9747
 248  277.2762
 249  370.0715
 250  362.1201
 251  276.9285
 252  236.4467
 253  303.5609
 254  375.1681
 255  413.7832
 256  500.6302
 257  462.4873
 258  447.2126
 259  311.8212
 260  252.9003
 261  145.1579
 262  136.6173
 263  203.3712
 264  242.9773
 265  324.8778
 266  382.4124
 267  349.05
 268  226.0282
 269  300.1205
 270  266.6717
 271  262.8564
 272  134.6513
 273  205.4642
 274  153.9857
 275  225.6361
 276  298.5525
 277  448.8486
 278  485.0057
 279  454.2865
 280  411.8951
 281  416.9563
 282  382.3933
 283  342.8699
 284  262.829
 285  182.6468
 286  180.1214
 287  266.5326
 288  244.1192
 289  198.0498
 290  127.9141
 291  108.2804
 292  118.2507
 293  356.9336
 294  513.925
 295  509.6173
 296  277.2582
 297  209.3904
 298  199.9647
 299  254.1979
 300  290.3964
 301  284.5881
 302  312.2231
 303  258.5427
 304  285.0958
 305  213.2265
 306  211.6607
 307  232.4657
 308  214.4585
 309  223.4015
 310  276.2732
 311  336.2735
 312  516.2853
 313  307.9106
 314  286.1131
 315  155.1033
 316  289.6745
 317  327.8016
 318  263.5338
 319  253.0636
 320  243.7962
 321  488.0068
 322  469.1982
 323  362.848
 324  198.5888
 325  193.776
 326  248.4354
 327  217.3692
 328  209.1011
 329  219.7023
 330  227.3762
 331  180.9792
 332  117.7146
 333  145.9668
 334  193.8817
 335  215.3145
 336  198.1938
 337  265.8832
 338  259.0286
 339  243.266
 340  209.2783
 341  203.624
 342  224.7294
 343  229.911
 344  159.6393
 345  152.2598
 346  192.5944
 347  286.1033
 348  377.4458
 349  401.2224
 350  354.0775
 351  297.153
 352  332.1498
 353  419.0406
 354  367.9845
 355  322.0064
 356  209.7283
 357  238.3788
 358  172.1545
 359  281.4672
 360  280.1332
 361  256.1888
 362  260.0047
 363  234.9209
 364  388.8759
 365  296.4659
 366  285.1184
 367  327.6914
 368  340.294
 369  295.339
 370  408.6353
 371  491.2878
 372  569.007
 373  318.7961
 374  211.7784
 375  131.32
 376  156.5944
 377  93.316
 378  149.4924
 379  215.1271
 380  224.007
 381  194.938
 382  178.5991
 383  219.2851
 384  234.6664
 385  261.897
 386  484.9853
 387  534.0809
 388  474.485
 389  412.0236
 390  395.2675
 391  430.7945
 392  239.2739
 393  61.69172
 394  -88.18908
 395  56.19345
 396  208.7016
 397  324.7588
 398  357.6612
 399  379.5215
 400  237.6077
 401  64.24474
 402  -36.81974
 403  83.95993
 404  150.3977
 405  175.8329
 406  147.3688
 407  297.6836
 408  360.8761
 409  456.0254
 410  480.5726
 411  438.4656
 412  250.9097
 413  136.512
 414  294.5756
 415  398.1534
 416  297.9775
 417  237.2777
 418  174.8966
 419  185.768
 420  69.38168
 421  164.4006
 422  224.1978
 423  331.9668
 424  489.0581
 425  484.3007
 426  424.7704
 427  253.0551
 428  101.0577
 429  66.53912
 430  85.7797
 431  219.6378
 432  130.9861
 433  14.79994
 434  33.5236
 435  1.011508
 436  71.63725
 437  200.8286
 438  240.0518
 439  304.3575
 440  375.4528
 441  522.2413
 442  396.7086
 443  207.4616
 444  117.5891
 445  224.2553
 446  256.2195
 447  258.4357
 448  63.16851
 449  60.89111
 450  99.12376
 451  206.3841
 452  203.5289
 453  158.7087
 454  228.6989
 455  294.8456
 456  396.9165
 457  386.1453
 458  394.6277
 459  354.5228
 460  155.7185
 461  109.9833
 462  -20.68579
 463  -43.08417
 464  -108.1707
 465  -0.432528
 466  155.6475
 467  178.6391
 468  154.7769
 469  113.417
 470  219.4123
 471  192.0007
 472  232.2384
 473  102.4966
 474  177.4537
 475  75.97129
 476  115.4408
 477  26.08534
 478  135.0106
 479  128.6176
 480  109.2744
 481  87.19745
 482  68.80248
 483  43.65547
 484  28.49624
 485  40.39927
 486  -4.292513
 487  -47.62064
 488  -38.6628
 489  27.42924
 490  126.1221
 491  95.75627
 492  153.9143
 493  133.3759
 494  234.976
 495  248.8431
 496  339.8979
 497  291.3351
 498  313.4599
 499  356.6518
 500  427.4169
 501  498.3884
 502  474.2765
 503  379.7094
 504  307.151
 505  319.3084
 506  310.9492
 507  219.9323
 508  177.0044
 509  345.1311
 510  448.7748
 511  457.4083
 512  291.4122
 513  271.379
 514  289.4225
 515  264.1798
 516  318.1264
 517  275.5448
 518  263.6764
 519  181.497
 520  152.6364
 521  79.84599
 522  102.4892
 523  227.4217
 524  203.8546
 525  128.9626
 526  112.6081
 527  244.144
 528  215.2364
 529  130.8813
 530  98.23084
 531  135.9136
 532  296.4346
 533  246.6507
 534  274.2734
 535  40.18188
 536  174.6931
 537  77.5382
 538  69.76031
 539  16.89444
 540  71.37582
 541  168.5199
 542  88.20643
 543  11.60018
 544  2.446967
 545  267.5047
 546  471.2109
 547  391.9095
 548  296.8708
 549  260.251
 550  326.7391
 551  292.5599
 552  326.6355
 553  333.1457
 554  194.6896
 555  83.64505
 556  107.5227
 557  164.5697
 558  -16.97485
 559  -157.012
 560  -217.4785
 561  -120.3587
 562  -48.96081
 563  -52.3496
 564  -50.8986
 565  13.77872
 566  137.5112
 567  279.6844
 568  426.2612
 569  480.7894
 570  304.4829
 571  285.8549
 572  322.4722
 573  311.1037
 574  96.43835
 575  49.18968
 576  171.3862
 577  209.7176
 578  101.552
 579  30.9824
 580  5.02136
 581  12.01486
 582  21.33978
 583  11.20408
 584  167.6965
 585  163.4641
 586  189.0488
 587  85.23135
 588  102.0035
 589  95.49004
 590  163.6356
 591  224.6866
 592  196.5577
 593  157.3486
 594  177.032
 595  269.7183
 596  147.4568
 597  175.8482
 598  201.6909
 599  288.5125
 600  404.5312
 601  353.8888
 602  236.5118
 603  115.703
 604  320.0065
 605  393.4021
 606  366.9927
 607  264.7389
 608  360.8548
 609  402.3393
 610  319.4809
 611  335.9718
 612  409.1724
 613  519.5146
 614  445.0829
 615  297.9348
 616  160.6783
 617  -12.45058
 618  33.51204
 619  165.1935
 620  269.0031
 621  159.9587
 622  32.57007
 623  -2.052586
 624  42.32326
 625  201.8054
 626  217.7822
 627  200.5406
 628  203.5112
 629  248.2393
 630  229.5783
 631  173.0316
 632  195.251
 633  148.8421
 634  205.7797
 635  162.3774
 636  221.4302
 637  156.6431
 638  250.7605
 639  304.5571
 640  389.2018
 641  501.5899
 642  626.736
 643  802.1744
 644  770.7989
 645  727.5527
 646  749.726
 647  805.0696
 648  813.0287
 649  794.6569
 650  969.5542
 651  993.9852
 652  867.1333
 653  632.0537
 654  337.0474
 655  178.3859
 656  100.5431
 657  133.8422
 658  220.1247
 659  241.5273
 660  287.5084
 661  181.9904
 662  306.7343
 663  192.2896
 664  155.7196
 665  85.86861
 666  148.1654
 667  366.2791
 668  498.6859
 669  473.7107
 670  301.5943
 671  217.6418
 672  174.1367
 673  242.2018
 674  224.9177
 675  393.9301
 676  462.5243
 677  335.5757
 678  167.7138
 679  76.16904
 680  200.9211
 681  388.8773
 682  501.6007
 683  488.6479
 684  428.9677
 685  239.18
 686  216.885
 687  190.3314
 688  308.1829
 689  331.936
 690  246.6433
 691  218.8943
 692  186.3931
 693  309.9172
 694  380.4917
 695  390.2753
 696  313.5463
 697  317.3395
 698  345.2703
 699  403.7795
 700  362.6871
 701  349.1179
 702  403.4955
 703  459.9533
 704  433.0323
 705  294.416
 706  118.1051
 707  95.13058
 708  160.0185
 709  178.2457
 710  157.6758
 711  59.53007
 712  144.5507
 713  151.6066
 714  172.9203
 715  201.7399
 716  246.1915
 717  320.38
 718  437.3337
 719  402.5359
 720  332.2653
 721  184.7578
 722  140.091
 723  140.9733
 724  157.1439
 725  232.6132
 726  240.7381
 727  267.9733
 728  257.9141
 729  251.5648
 730  374.6471
 731  394.1187
 732  342.474
 733  148.4592
 734  146.8204
 735  200.6252
 736  227.7657
 737  184.5877
 738  171.0049
 739  153.7354
 740  192.6202
 741  264.0874
 742  257.4929
 743  221.4539
 744  96.4072
 745  153.3532
 746  158.062
 747  145.1752
 748  150.9204
 749  141.534
 750  202.8965
 751  176.7072
 752  160.255
 753  184.2945
 754  168.029
 755  194.3836
 756  256.9854
 757  359.9206
 758  289.1941
 759  200.3469
 760  2.948462
 761  -9.622066
 762  0.5554059
 763  132.7397
 764  289.7601
 765  306.318
 766  258.1404
 767  189.6473
 768  248.3265
 769  321.1417
 770  287.5368
 771  173.3872
 772  79.22295
 773  122.1503
 774  296.7196
 775  450.7577
 776  446.4104
 777  295.4862
 778  160.0912
 779  133.2757
 780  141.0471
 781  131.4193
 782  79.40823
 783  181.2802
 784  240.001
 785  282.3029
 786  238.4429
 787  222.9333
 788  151.3391
 789  182.6828
 790  232.4611
 791  224.2452
 792  165.9261
 793  131.5079
 794  143.4079
 795  234.4215
 796  373.011
 797  469.3243
 798  397.5247
 799  383.8239
 800  289.3658
 801  375.0272
 802  296.9474
 803  260.7876
 804  112.3633
 805  88.52905
 806  97.31342
 807  66.71398
 808  73.46624
 809  149.8551
 810  237.1085
 811  249.56
 812  265.868
 813  224.9346
 814  226.6552
 815  49.99043
 816  -39.42905
 817  34.58487
 818  78.60488
 819  104.1167
 820  36.53131
 821  146.872
 822  116.7688
 823  165.4202
 824  239.7375
 825  256.4183
 826  198.8709
 827  108.0902
 828  267.5483
 829  302.2847
 830  226.9485
 831  236.5419
 832  234.8415
 833  291.8196
 834  305.7908
 835  361.7976
 836  336.1854
 837  248.2377
 838  211.8472
 839  214.5646
 840  265.3787
 841  451.4493
 842  386.438
 843  368.6637
 844  379.4114
 845  399.6314
 846  388.6062
 847  206.006
 848  203.8013
 849  217.1808
 850  167.7627
 851  70.47471
 852  51.55063
 853  227.7108
 854  269.7778
 855  191.7196
 856  92.51944
 857  149.3896
 858  97.37099
 859  48.10829
 860  106.2317
 861  118.9072
 862  165.1072
 863  205.5269
 864  188.0698
 865  172.0334
 866  72.73418
 867  82.03575
 868  20.65208
 869  37.78381
 870  102.6287
 871  138.3938
 872  182.76
 873  158.0169
 874  214.4672
 875  86.4276
 876  29.27179
 877  26.60184
 878  168.9657
 879  214.5395
 880  90.83433
 881  90.08923
 882  75.17299
 883  137.2347
 884  69.86572
 885  109.0695
 886  83.7113
 887  160.8419
 888  106.4047
 889  215.6122
 890  199.6181
 891  94.11912
 892  71.0319
 893  183.6933
 894  354.6164
 895  319.3116
 896  222.1389
 897  150.2064
 898  86.19572
 899  45.0986
 900  82.19708
 901  68.30883
 902  167.4749
 903  233.4717
 904  308.9498
 905  297.8239
 906  222.821
 907  86.75925
 908  -51.8408
 909  9.910794
 910  74.92768
 911  84.40805
 912  139.2966
 913  68.81815
 914  72.05994
 915  50.55478
 916  67.07864
 917  147.9555
 918  133.5181
 919  288.6599
 920  97.92264
 921  18.71795
 922  43.20094
 923  225.9063
 924  228.9724
 925  232.7024
 926  236.8118
 927  288.1111
 928  264.2032
 929  322.6667
 930  349.3643
 931  354.3041
 932  308.7403
 933  319.2673
 934  286.5361
 935  187.1375
 936  114.5336
 937  227.6368
 938  297.0005
 939  387.8181
 940  422.251
 941  510.7172
 942  414.1425
 943  377.3322
 944  317.7606
 945  356.3551
 946  323.8997
 947  253.0321
 948  148.0679
 949  183.0127
 950  312.6053
 951  311.1367
 952  286.454
 953  179.1832
 954  197.1989
 955  202.4333
 956  262.3849
 957  83.71893
 958  14.34731
 959  31.73661
 960  207.1743
 961  203.8886
 962  212.8943
 963  83.08584
 964  54.26521
 965  -100.8097
 966  -33.52305
 967  -5.021812
 968  151.7233
 969  183.314
 970  298.6864
 971  429.7332
 972  454.5251
 973  428.5683
 974  346.0888
 975  319.6229
 976  221.3276
 977  229.1399
 978  15.25851
 979  -157.7498
 980  -318.5595
 981  -172.1358
 982  -30.93574
 983  84.76454
 984  82.1667
 985  6.144809
 986  -5.148268
 987  33.41099
 988  186.4111
 989  267.8951
 990  254.215
 991  192.5835
 992  162.3767
 993  177.3453
 994  116.5238
 995  59.71375
 996  185.0742
 997  321.5403
 998  235.2867
 999  149.0643
1000  52.87014
1001  180.4011
1002  262.5919
1003  390.2422
1004  415.672
1005  421.57
1006  367.6288
1007  241.4063
1008  291.042
1009  212.7473
1010  296.3085
1011  267.601
1012  324.5317
1013  291.4816
1014  436.7741
1015  586.4199
1016  555.8552
1017  331.5702
1018  359.7412
1019  370.0438
1020  390.3137
1021  289.1934
1022  248.0305
1023  209.2422
