# Input file       =  1186023785.110087_cleaned.dat
# Candidate        =  PSR_0332+5434
# Telescope        =  AR
# Epoch_topo       =  57971.127362385268
# Epoch_bary       =  N/A
# T_sample         =  0.002
# Data Folded      =  7340032
# Data Avg         =  0.0212328226428197
# Data StdDev      =  2.43920755623329 
# Profile Bins     =  1024
# Profile Avg      =  152.136346290015 
# Profile StdDev   =  206.513170875612 
# Reduced chi-sqr  =  1.415
# Prob(Noise)      <  3.67e-17   (~8.3 sigma)
# P_topo (ms)      =  714.467471698042  +/- 0.000101
# P'_topo (s/s)    =  -0                +/- 5.32e-11
# P''_topo (s/s^2) =  0                 +/- 2.35e-14
# P_bary (ms)      =  N/A
# P'_bary (s/s)    =  N/A
# P''_bary (s/s^2) =  N/A
# P_orb (s)        =  N/A
# asin(i)/c (s)    =  N/A
# eccentricity     =  N/A
# w (rad)          =  N/A
# T_peri           =  N/A
######################################################
   0  195.2877
   1  176.5059
   2  186.3828
   3  180.4431
   4  165.5906
   5  159.6229
   6  234.7644
   7  227.9294
   8  310.9528
   9  198.5302
  10  177.703
  11  11.00949
  12  157.257
  13  281.8971
  14  220.6831
  15  158.121
  16  126.5515
  17  106.4252
  18  105.918
  19  42.45576
  20  84.11689
  21  70.22876
  22  160.0051
  23  251.631
  24  240.0838
  25  201.1142
  26  167.2092
  27  113.3952
  28  103.5424
  29  19.52317
  30  25.04342
  31  52.43816
  32  160.1062
  33  244.0017
  34  230.0668
  35  153.3164
  36  49.17977
  37  6.914806
  38  40.26063
  39  63.6792
  40  109.064
  41  86.45139
  42  69.01614
  43  100.929
  44  138.4969
  45  135.395
  46  110.754
  47  137.1876
  48  163.7892
  49  95.42323
  50  143.9566
  51  159.7589
  52  186.0633
  53  109.2121
  54  91.65387
  55  155.6002
  56  172.5361
  57  156.8852
  58  117.5183
  59  151.7494
  60  140.0282
  61  66.77481
  62  6.142469
  63  15.15061
  64  19.33625
  65  90.03124
  66  124.0529
  67  77.35275
  68  -20.95876
  69  -50.17939
  70  30.62166
  71  47.3545
  72  59.14678
  73  45.37466
  74  10.38814
  75  70.97819
  76  88.90805
  77  100.8308
  78  80.31092
  79  101.31
  80  152.9167
  81  157.3707
  82  151.29
  83  130.6369
  84  227.6171
  85  331.5966
  86  287.8015
  87  162.3759
  88  57.84766
  89  5.741354
  90  109.3899
  91  144.7034
  92  170.5398
  93  113.152
  94  101.3902
  95  150.2673
  96  212.8565
  97  214.8963
  98  139.518
  99  104.6883
 100  213.5951
 101  229.5
 102  295.3062
 103  224.1284
 104  211.7251
 105  159.9285
 106  241.5075
 107  212.6981
 108  166.3382
 109  67.37515
 110  108.271
 111  104.8812
 112  142.0166
 113  163.9369
 114  225.8949
 115  219.6341
 116  155.3896
 117  85.5041
 118  -32.08854
 119  -151.7021
 120  -198.2125
 121  -111.426
 122  24.82481
 123  128.0077
 124  91.97568
 125  73.18778
 126  -42.56621
 127  -4.559213
 128  104.4038
 129  193.6638
 130  195.5834
 131  78.4167
 132  98.31757
 133  81.10767
 134  136.0813
 135  154.074
 136  201.4224
 137  235.9882
 138  188.0264
 139  72.96485
 140  95.48042
 141  93.2132
 142  133.5928
 143  76.48766
 144  29.08188
 145  -78.76534
 146  -167.1699
 147  -176.2663
 148  -133.0414
 149  -51.25297
 150  87.515
 151  180.173
 152  164.9933
 153  153.6135
 154  73.91051
 155  52.24617
 156  35.41225
 157  137.6642
 158  176.549
 159  114.64
 160  13.0906
 161  -9.13363
 162  9.019794
 163  -8.636163
 164  -31.87107
 165  102.5246
 166  255.1942
 167  344.466
 168  360.1339
 169  300.2142
 170  207.5544
 171  219.8697
 172  270.0847
 173  315.0411
 174  269.2928
 175  110.2986
 176  0.005266787
 177  -48.64363
 178  -46.82684
 179  57.43822
 180  129.8185
 181  198.0442
 182  130.0449
 183  154.2741
 184  292.9869
 185  370.624
 186  375.5879
 187  282.95
 188  218.8746
 189  16.58838
 190  28.07133
 191  138.2467
 192  285.427
 193  317.0051
 194  326.7854
 195  346.7542
 196  236.4667
 197  248.3868
 198  252.4735
 199  242.0588
 200  236.0578
 201  250.6179
 202  283.9286
 203  281.2126
 204  260.6305
 205  207.71
 206  84.23167
 207  -15.37364
 208  6.902652
 209  53.42329
 210  42.85226
 211  95.94924
 212  200.0107
 213  340.6348
 214  391.7748
 215  448.5157
 216  440.4852
 217  300.8088
 218  248.5379
 219  276.3644
 220  304.2207
 221  270.2762
 222  218.2682
 223  190.949
 224  96.29565
 225  31.35706
 226  -53.55159
 227  -78.78644
 228  -90.00372
 229  -125.1217
 230  -82.25029
 231  -26.41328
 232  37.87087
 233  77.84904
 234  166.3473
 235  298.8765
 236  192.1877
 237  172.7558
 238  176.197
 239  258.2466
 240  161.9751
 241  13.16086
 242  -21.06565
 243  36.79459
 244  153.523
 245  146.4194
 246  35.73456
 247  -71.97714
 248  -177.0428
 249  -19.2708
 250  28.54763
 251  158.0298
 252  91.29808
 253  -8.902846
 254  -37.85278
 255  65.47098
 256  226.2051
 257  237.8349
 258  87.1747
 259  -35.30336
 260  36.73865
 261  104.5096
 262  81.73402
 263  -31.98857
 264  82.40232
 265  356.5488
 266  417.1718
 267  376.7524
 268  289.1978
 269  222.6223
 270  165.4945
 271  119.2747
 272  86.80694
 273  116.5096
 274  212.7616
 275  272.5146
 276  232.2296
 277  205.0208
 278  307.4283
 279  285.0096
 280  194.3119
 281  101.2565
 282  23.29946
 283  24.5427
 284  183.3067
 285  406.4194
 286  385.1908
 287  277.9636
 288  208.5109
 289  251.5325
 290  180.3608
 291  149.0325
 292  106.7861
 293  125.3289
 294  165.606
 295  123.294
 296  175.5624
 297  177.2518
 298  173.897
 299  118.6008
 300  30.61169
 301  50.97319
 302  169.9676
 303  301.5332
 304  314.564
 305  296.0114
 306  284.877
 307  345.444
 308  281.5049
 309  245.3012
 310  111.2805
 311  43.95576
 312  -21.36081
 313  24.04207
 314  77.32052
 315  139.3944
 316  214.4433
 317  254.6118
 318  168.7776
 319  98.36584
 320  183.5693
 321  266.0601
 322  254.6244
 323  303.4562
 324  325.1292
 325  215.6916
 326  93.936
 327  18.79884
 328  42.32555
 329  53.17577
 330  132.0045
 331  123.6643
 332  -99.17692
 333  -162.2765
 334  -125.0515
 335  137.4355
 336  222.4066
 337  351.2728
 338  496.5226
 339  532.3743
 340  390.0335
 341  86.09628
 342  -48.36736
 343  -6.15638
 344  40.37337
 345  217.1504
 346  251.9112
 347  222.2237
 348  83.39375
 349  93.66553
 350  139.5769
 351  217.4965
 352  206.9173
 353  205.9607
 354  142.8338
 355  129.1079
 356  110.1687
 357  160.5106
 358  142.165
 359  120.4552
 360  147.399
 361  134.1293
 362  123.2091
 363  47.83669
 364  158.5635
 365  150.2899
 366  205.3047
 367  172.3512
 368  182.6867
 369  144.8214
 370  142.9487
 371  52.50084
 372  -46.18934
 373  -9.116683
 374  60.66476
 375  74.62703
 376  -5.235292
 377  3.165286
 378  121.3852
 379  40.15804
 380  54.51035
 381  95.57739
 382  219.8078
 383  148.4852
 384  95.63946
 385  120.0711
 386  100.0107
 387  206.1143
 388  287.429
 389  362.7041
 390  263.6519
 391  238.7209
 392  133.6382
 393  141.3858
 394  -44.50652
 395  -12.58603
 396  66.92198
 397  202.5268
 398  203.0612
 399  83.11604
 400  192.0952
 401  123.3718
 402  206.9409
 403  189.8958
 404  253.5235
 405  173.3027
 406  124.7019
 407  58.31009
 408  122.0598
 409  122.9231
 410  140.8703
 411  31.48692
 412  47.52995
 413  128.7689
 414  116.0084
 415  130.9895
 416  -25.26361
 417  -33.11105
 418  -51.9208
 419  54.86731
 420  116.6585
 421  160.1769
 422  107.7457
 423  51.71872
 424  84.79399
 425  88.57576
 426  138.6469
 427  118.567
 428  143.6936
 429  78.44267
 430  75.79301
 431  11.53662
 432  32.54845
 433  11.20892
 434  142.2172
 435  240.8144
 436  226.8697
 437  160.4559
 438  126.6173
 439  224.9673
 440  250.7156
 441  258.0456
 442  115.2358
 443  187.6239
 444  208.8999
 445  193.9291
 446  162.4747
 447  262.1397
 448  344.4129
 449  223.9103
 450  100.6297
 451  143.7354
 452  105.3772
 453  79.27812
 454  -50.55604
 455  -95.72414
 456  3.878713
 457  181.4834
 458  211.5978
 459  180.5681
 460  152.9916
 461  204.4752
 462  106.5779
 463  140.942
 464  190.5758
 465  286.7424
 466  226.2729
 467  215.7267
 468  212.9401
 469  159.5432
 470  172.883
 471  136.3101
 472  179.1924
 473  54.69277
 474  78.62939
 475  59.44051
 476  147.8065
 477  142.5537
 478  139.9867
 479  129.5219
 480  105.1096
 481  173.9562
 482  130.8145
 483  199.6903
 484  120.5256
 485  110.3254
 486  123.9993
 487  163.2104
 488  169.1857
 489  73.40004
 490  27.72247
 491  -22.89244
 492  20.8299
 493  181.7893
 494  310.9385
 495  331.3165
 496  259.396
 497  147.3019
 498  68.28491
 499  127.1428
 500  256.2167
 501  381.688
 502  431.7783
 503  361.9089
 504  271.2248
 505  119.4328
 506  92.59298
 507  169.8101
 508  175.2934
 509  136.1327
 510  76.47002
 511  33.4964
 512  -8.607475
 513  52.8434
 514  136.7438
 515  242.8383
 516  230.8605
 517  252.9609
 518  408.3002
 519  425.6646
 520  270.753
 521  48.29348
 522  -1.97886
 523  6.910275
 524  25.789
 525  -26.04618
 526  11.53065
 527  -49.70572
 528  -49.47715
 529  -71.98663
 530  -84.9319
 531  -37.24907
 532  -47.72424
 533  49.88854
 534  132.9489
 535  184.7059
 536  229.5047
 537  199.1575
 538  211.1697
 539  65.599
 540  47.22886
 541  65.37664
 542  76.91268
 543  81.88461
 544  87.50176
 545  103.341
 546  94.80202
 547  115.084
 548  130.9497
 549  79.21664
 550  121.917
 551  133.5829
 552  206.2148
 553  150.6332
 554  153.5122
 555  62.41919
 556  121.6178
 557  214.3721
 558  284.8671
 559  265.0464
 560  177.0827
 561  178.7823
 562  145.2892
 563  169.984
 564  113.2708
 565  47.59461
 566  67.21884
 567  141.9273
 568  280.0514
 569  307.0056
 570  277.7638
 571  189.2287
 572  37.05902
 573  -2.633829
 574  23.27581
 575  88.76125
 576  45.69896
 577  24.6279
 578  112.6497
 579  266.1519
 580  217.92
 581  127.6442
 582  128.6279
 583  233.1233
 584  238.9824
 585  59.43388
 586  -107.7807
 587  -79.57074
 588  88.67965
 589  111.3231
 590  -12.15104
 591  -34.99553
 592  -0.6437277
 593  149.8453
 594  155.4774
 595  162.1733
 596  47.44631
 597  -17.68549
 598  17.47809
 599  61.32432
 600  114.6746
 601  150.8124
 602  260.8943
 603  351.0279
 604  323.0872
 605  290.8317
 606  122.7927
 607  198.2674
 608  153.2602
 609  331.9536
 610  274.4839
 611  246.4462
 612  221.3962
 613  215.8348
 614  311.2904
 615  302.7708
 616  279.0245
 617  208.7821
 618  191.9693
 619  215.8604
 620  267.7492
 621  308.9918
 622  202.3787
 623  77.51925
 624  -18.61748
 625  28.40112
 626  117.1487
 627  190.5649
 628  270.6486
 629  272.1918
 630  248.9108
 631  251.9629
 632  317.9149
 633  247.553
 634  201.0208
 635  134.4216
 636  262.27
 637  334.4143
 638  270.5724
 639  267.5042
 640  309.6248
 641  389.5102
 642  413.157
 643  532.3875
 644  633.3077
 645  720.2621
 646  722.8708
 647  860.9573
 648  904.0388
 649  980.0579
 650  916.3229
 651  883.3865
 652  829.6412
 653  871.6243
 654  805.1667
 655  552.2464
 656  302.7732
 657  175.2438
 658  258.5296
 659  154.6319
 660  143.4306
 661  147.8004
 662  208.4709
 663  123.7257
 664  109.0147
 665  200.6609
 666  330.0867
 667  326.638
 668  290.2312
 669  217.1336
 670  264.0256
 671  226.0655
 672  181.7346
 673  36.86459
 674  48.21554
 675  116.8418
 676  110.1406
 677  0.728464
 678  -148.4088
 679  -58.73517
 680  105.5731
 681  265.0368
 682  370.7952
 683  311.8579
 684  260.0164
 685  44.89175
 686  -31.35395
 687  -72.39175
 688  73.55849
 689  234.7543
 690  173.5958
 691  179.4764
 692  157.7709
 693  293.3774
 694  154.5807
 695  105.2438
 696  108.0811
 697  116.471
 698  113.9287
 699  53.24662
 700  2.16599
 701  8.746052
 702  193.6551
 703  276.062
 704  252.6656
 705  180.0245
 706  144.4615
 707  79.87435
 708  74.9967
 709  173.2252
 710  199.1433
 711  174.3622
 712  6.142485
 713  -30.95535
 714  -14.49036
 715  82.30357
 716  101.8433
 717  213.706
 718  313.863
 719  337.5373
 720  312.5654
 721  270.4144
 722  299.2398
 723  304.3999
 724  286.8553
 725  232.5803
 726  135.6609
 727  30.92012
 728  40.55275
 729  123.3877
 730  117.2632
 731  42.10775
 732  62.55616
 733  79.09869
 734  105.4077
 735  149.1086
 736  148.6323
 737  174.5635
 738  81.39003
 739  146.1683
 740  130.5314
 741  268.0342
 742  249.319
 743  193.3004
 744  -48.35773
 745  -33.18484
 746  0.5976155
 747  183.3497
 748  127.6238
 749  166.509
 750  170.7382
 751  216.2547
 752  156.1601
 753  156.9009
 754  190.0408
 755  235.3028
 756  182.8846
 757  229.6744
 758  167.3463
 759  206.0635
 760  180.265
 761  68.55579
 762  -22.97042
 763  15.31928
 764  64.75433
 765  -18.44685
 766  -100.8231
 767  47.08188
 768  159.9807
 769  258.9135
 770  225.1487
 771  147.0768
 772  25.19648
 773  64.16498
 774  120.3268
 775  206.9141
 776  133.0159
 777  79.71825
 778  -10.20893
 779  13.05606
 780  58.94652
 781  141.3596
 782  153.7741
 783  135.5134
 784  53.17795
 785  -56.20433
 786  -59.20769
 787  42.0725
 788  147.7883
 789  22.06505
 790  1.721807
 791  52.79773
 792  258.4869
 793  406.2165
 794  359.6657
 795  211.6306
 796  109.8211
 797  154.1906
 798  186.3846
 799  113.7685
 800  221.5018
 801  302.787
 802  340.5767
 803  211.3345
 804  267.5109
 805  240.6994
 806  221.0247
 807  141.658
 808  187.0047
 809  189.0677
 810  134.1062
 811  148.7539
 812  193.869
 813  282.4269
 814  242.986
 815  100.7931
 816  92.77365
 817  148.3688
 818  298.8245
 819  226.0853
 820  178.3826
 821  38.02708
 822  64.21526
 823  78.99833
 824  192.8512
 825  232.8765
 826  194.3375
 827  118.5758
 828  42.4856
 829  -13.109
 830  44.18757
 831  -38.34424
 832  47.47395
 833  47.96932
 834  156.5014
 835  94.32044
 836  101.9079
 837  218.3777
 838  210.1156
 839  188.2293
 840  141.4445
 841  179.6403
 842  270.3648
 843  245.6695
 844  317.8857
 845  338.6311
 846  423.4256
 847  525.575
 848  477.5892
 849  390.2024
 850  279.5291
 851  248.4885
 852  136.9763
 853  65.5319
 854  139.7511
 855  151.5027
 856  153.512
 857  38.82372
 858  -58.6924
 859  -184.8834
 860  -123.978
 861  -21.11262
 862  84.45967
 863  157.4144
 864  270.9808
 865  173.0576
 866  140.957
 867  120.517
 868  294.6806
 869  412.3149
 870  344.9585
 871  197.86
 872  149.8906
 873  253.2534
 874  362.0657
 875  385.2365
 876  316.1698
 877  196.7901
 878  82.24636
 879  155.8884
 880  171.947
 881  292.7645
 882  189.3884
 883  187.9328
 884  89.17764
 885  145.7687
 886  179.5387
 887  137.9917
 888  210.639
 889  180.7042
 890  247.9501
 891  200.6671
 892  221.1366
 893  159.4789
 894  142.3148
 895  169.7831
 896  195.3703
 897  225.0369
 898  145.515
 899  117.2834
 900  107.445
 901  200.514
 902  126.3377
 903  57.89629
 904  144.131
 905  159.4717
 906  204.0406
 907  166.928
 908  96.77473
 909  111.5135
 910  90.77168
 911  188.4161
 912  81.76924
 913  73.85457
 914  73.4186
 915  116.0753
 916  45.02386
 917  -36.93284
 918  -37.6944
 919  76.4807
 920  178.617
 921  294.2676
 922  208.504
 923  131.074
 924  96.71761
 925  163.7848
 926  286.1522
 927  434.5332
 928  443.9966
 929  343.6814
 930  218.7842
 931  173.8055
 932  65.2733
 933  95.60109
 934  196.8674
 935  295.1004
 936  271.8023
 937  247.0083
 938  86.57063
 939  27.08598
 940  -25.80276
 941  -37.78467
 942  -59.61042
 943  45.39845
 944  129.3179
 945  182.2208
 946  170.6338
 947  168.8362
 948  87.26997
 949  15.80166
 950  -18.97207
 951  62.91066
 952  157.319
 953  225.2257
 954  254.5476
 955  99.15619
 956  -103.9536
 957  -268.9782
 958  -200.4449
 959  -100.3858
 960  54.85756
 961  194.0181
 962  314.086
 963  274.5034
 964  244.7568
 965  234.1936
 966  277.1593
 967  171.4832
 968  125.993
 969  51.57903
 970  28.83688
 971  42.57182
 972  135.7566
 973  159.1313
 974  93.14809
 975  20.79708
 976  -8.075649
 977  -2.363002
 978  99.0228
 979  188.6359
 980  200.8377
 981  156.1199
 982  66.47443
 983  48.39963
 984  141.4837
 985  266.687
 986  191.5178
 987  189.7304
 988  217.5689
 989  296.6295
 990  181.7125
 991  120.1553
 992  123.7594
 993  220.8856
 994  200.2901
 995  176.5423
 996  127.3133
 997  47.88091
 998  -108.4013
 999  -154.4467
1000  -195.3722
1001  -170.4374
1002  -116.354
1003  57.8199
1004  115.8422
1005  134.1375
1006  157.1841
1007  187.9578
1008  198.6682
1009  284.5885
1010  292.6006
1011  278.3164
1012  207.6413
1013  217.9294
1014  224.2842
1015  339.6994
1016  362.456
1017  220.2428
1018  23.64067
1019  -53.57936
1020  112.506
1021  275.1702
1022  335.512
1023  288.4792
