# Input file       =  1187215416.107602_cleaned.dat
# Candidate        =  PSR_0332+5434
# Telescope        =  AR
# Epoch_topo       =  57984.919387819464
# Epoch_bary       =  N/A
# T_sample         =  0.002
# Data Folded      =  7208960
# Data Avg         =  0.0855190402881074
# Data StdDev      =  4.00042267021563 
# Profile Bins     =  1024
# Profile Avg      =  602.054593486587 
# Profile StdDev   =  335.654295435409 
# Reduced chi-sqr  =  0.618
# Prob(Noise)      <  1   (~0.0 sigma)
# P_topo (ms)      =  714.463933802778  +/- 2.33e-05
# P'_topo (s/s)    =  -0                +/- 1.25e-11
# P''_topo (s/s^2) =  0                 +/- 5.63e-15
# P_bary (ms)      =  N/A
# P'_bary (s/s)    =  N/A
# P''_bary (s/s^2) =  N/A
# P_orb (s)        =  N/A
# asin(i)/c (s)    =  N/A
# eccentricity     =  N/A
# w (rad)          =  N/A
# T_peri           =  N/A
######################################################
   0  700.0411
   1  793.0845
   2  820.3231
   3  529.5239
   4  509.8664
   5  511.1886
   6  525.7009
   7  527.321
   8  760.5918
   9  819.625
  10  632.196
  11  626.533
  12  607.9865
  13  581.7857
  14  508.1765
  15  624.6443
  16  516.5396
  17  476.4246
  18  679.1575
  19  775.7529
  20  572.3795
  21  362.3342
  22  556.5164
  23  644.1545
  24  676.4168
  25  711.5444
  26  706.86
  27  497.0945
  28  439.8975
  29  674.9825
  30  764.0315
  31  667.6635
  32  666.8346
  33  660.8388
  34  614.423
  35  624.2952
  36  739.2399
  37  848.9157
  38  782.5626
  39  773.7599
  40  709.0929
  41  516.5017
  42  417.2444
  43  481.2498
  44  536.9903
  45  617.051
  46  697.4424
  47  762.9475
  48  737.7666
  49  795.4566
  50  802.5414
  51  811.3663
  52  851.1298
  53  875.4571
  54  719.8787
  55  758.5944
  56  681.2137
  57  650.7347
  58  546.8345
  59  694.6085
  60  744.5242
  61  603.6524
  62  664.5615
  63  722.4343
  64  634.3737
  65  559.2407
  66  677.7477
  67  732.4534
  68  463.2599
  69  477.8895
  70  663.8969
  71  622.606
  72  487.476
  73  541.28
  74  672.7195
  75  666.5196
  76  796.8051
  77  765.0983
  78  483.0522
  79  336.4719
  80  476.7484
  81  566.3357
  82  368.3176
  83  295.6501
  84  308.7572
  85  172.8565
  86  194.3391
  87  405.416
  88  660.9391
  89  603.2369
  90  593.7924
  91  708.4205
  92  622.429
  93  483.5028
  94  604.5858
  95  747.6468
  96  694.1476
  97  737.6411
  98  650.4313
  99  559.8069
 100  402.5832
 101  490.6831
 102  512.9429
 103  486.0599
 104  526.5097
 105  552.5887
 106  611.2521
 107  770.54
 108  712.4829
 109  631.1461
 110  566.3311
 111  779.1635
 112  729
 113  651.6066
 114  558.5076
 115  591.8257
 116  513.8499
 117  484.0067
 118  529.1671
 119  440.2668
 120  439.4434
 121  474.5729
 122  546.5211
 123  493.0879
 124  509.9392
 125  661.2
 126  564.1912
 127  634.3969
 128  686.4705
 129  569.7715
 130  504.0743
 131  581.4636
 132  870.1462
 133  738.4628
 134  749.8433
 135  763.3669
 136  731.2068
 137  399.215
 138  485.3304
 139  572.9797
 140  618.7571
 141  491.4994
 142  650.5884
 143  592.5392
 144  605.8871
 145  656.3914
 146  691.0318
 147  652.2974
 148  720.1138
 149  891.4612
 150  713.9525
 151  456.8928
 152  437.4569
 153  449.138
 154  450.5665
 155  555.2898
 156  623.3984
 157  674.1634
 158  552.1149
 159  710.6855
 160  687.4662
 161  694.7725
 162  757.4903
 163  846.3729
 164  730.6174
 165  586.025
 166  507.7932
 167  517.0398
 168  410.4868
 169  485.8152
 170  479.9795
 171  530.8098
 172  568.9606
 173  585.1495
 174  542.5035
 175  538.5115
 176  619.1462
 177  603.2572
 178  761.6572
 179  794.5584
 180  815.969
 181  660.4158
 182  743.4619
 183  751.6304
 184  588.835
 185  513.2494
 186  685.2968
 187  633.8595
 188  445.2
 189  473.9818
 190  716.0911
 191  677.9365
 192  517.2548
 193  500.5664
 194  438.2769
 195  459.777
 196  647.7543
 197  726.4527
 198  595.8962
 199  534.0213
 200  678.8884
 201  568.5571
 202  472.5367
 203  568.3874
 204  673.6953
 205  596.9745
 206  536.2142
 207  735.462
 208  721.1858
 209  537.0074
 210  515.2651
 211  624.8527
 212  649.0166
 213  682.5186
 214  830.7706
 215  840.977
 216  652.1159
 217  614.4536
 218  555.4173
 219  458.4857
 220  377.1579
 221  580.8701
 222  698.5109
 223  723.9286
 224  692.7419
 225  749.142
 226  715.0714
 227  666.163
 228  609.8181
 229  593.5405
 230  600.7698
 231  544.7393
 232  349.679
 233  231.1732
 234  247.8286
 235  348.4429
 236  375.171
 237  512.9477
 238  693.2233
 239  849.2719
 240  772.985
 241  633.7339
 242  541.6965
 243  634.2445
 244  822.3557
 245  751.1219
 246  613.7371
 247  495.2175
 248  583.1746
 249  467.4535
 250  517.8953
 251  650.6733
 252  725.4444
 253  591.553
 254  533.001
 255  529.8851
 256  373.1726
 257  356.976
 258  625.0895
 259  723.5453
 260  581.7263
 261  426.3149
 262  533.1868
 263  454.6264
 264  445.5638
 265  513.928
 266  635.5461
 267  668.1259
 268  720.8699
 269  649.4922
 270  473.3111
 271  347.7879
 272  423.5614
 273  487.6035
 274  481.4663
 275  617.3044
 276  684.3354
 277  642.0949
 278  504.8533
 279  583.1583
 280  601.439
 281  572.6603
 282  597.8566
 283  611.4221
 284  552.2903
 285  385.3676
 286  346.1818
 287  397.4605
 288  519.3479
 289  669.1973
 290  621.471
 291  585.6375
 292  467.2826
 293  506.6837
 294  508.1605
 295  710.0657
 296  785.4597
 297  671.7307
 298  593.7758
 299  513.0733
 300  568.8492
 301  441.8425
 302  625.4663
 303  733.2765
 304  751.5594
 305  734.9559
 306  746.531
 307  597.0294
 308  499.5252
 309  555.8065
 310  584.0067
 311  395.5068
 312  352.1926
 313  560.8749
 314  488.4209
 315  423.277
 316  517.1885
 317  613.6687
 318  530.9008
 319  476.5612
 320  573.2081
 321  537.2144
 322  434.9709
 323  404.4329
 324  569.3762
 325  567.5206
 326  551.7582
 327  524.0173
 328  454.9457
 329  367.0473
 330  421.9746
 331  527.6268
 332  498.4016
 333  565.0058
 334  611.4796
 335  638.175
 336  535.2246
 337  581.2496
 338  680.5464
 339  625.4772
 340  676.1237
 341  732.8682
 342  735.9951
 343  666.45
 344  686.3629
 345  646.094
 346  734.8337
 347  772.744
 348  733.6287
 349  548.3735
 350  434.6112
 351  460.3657
 352  515.7141
 353  624.7593
 354  791.3267
 355  777.5843
 356  692.6
 357  613.5928
 358  570.3062
 359  472.3435
 360  521.5585
 361  667.7443
 362  688.6807
 363  649.6769
 364  637.886
 365  649.092
 366  528.6263
 367  632.8763
 368  742.9263
 369  638.1147
 370  553.3902
 371  674.3159
 372  658.1144
 373  585.1456
 374  660.2008
 375  802.8958
 376  588.1354
 377  433.7256
 378  659.28
 379  613.9745
 380  373.2641
 381  342.9005
 382  542.2872
 383  632.7413
 384  465.9074
 385  648.8083
 386  675.4742
 387  681.8451
 388  665.1884
 389  743.5128
 390  573.2064
 391  504.1935
 392  548.7765
 393  661.6647
 394  520.8393
 395  596.2041
 396  560.8419
 397  494.7419
 398  500.9052
 399  683.6935
 400  645.9076
 401  508.9021
 402  566.8557
 403  653.8148
 404  604.8343
 405  489.9263
 406  623.4697
 407  719.1276
 408  811.1633
 409  894.5893
 410  787.142
 411  744.4928
 412  718.3978
 413  749.2977
 414  637.541
 415  701.8503
 416  652.2145
 417  586.5969
 418  587.4922
 419  680.2848
 420  709.9269
 421  528.0992
 422  487.231
 423  416.8919
 424  314.1136
 425  330.2812
 426  406.0826
 427  585.3924
 428  632.5538
 429  839.6901
 430  795.6154
 431  687.0342
 432  519.4019
 433  504.8188
 434  289.3246
 435  254.9902
 436  394.358
 437  554.656
 438  465.5798
 439  542.5096
 440  615.471
 441  490.1674
 442  469.2809
 443  603.103
 444  685.2979
 445  559.8331
 446  452.1165
 447  392.3509
 448  222.775
 449  228.5983
 450  588.2625
 451  757.3923
 452  638.2905
 453  568.4722
 454  556.9449
 455  518.8556
 456  370.0236
 457  543.7765
 458  548.804
 459  508.0863
 460  521.4305
 461  576.7053
 462  558.9366
 463  552.2289
 464  653.3433
 465  540.9977
 466  488.1887
 467  540.2396
 468  675.872
 469  657.0555
 470  696.9104
 471  657.5008
 472  699.2734
 473  639.4969
 474  688.9108
 475  459.9939
 476  385.0847
 477  541.4971
 478  744.0076
 479  832.1218
 480  788.088
 481  813.2972
 482  556.1748
 483  456.9492
 484  449.2486
 485  629.1623
 486  576.5551
 487  634.5704
 488  718.3452
 489  634.914
 490  668.832
 491  703.4732
 492  706.4988
 493  547.209
 494  630.5037
 495  674.2325
 496  604.8984
 497  525.9857
 498  632.139
 499  583.2156
 500  576.7617
 501  647.685
 502  779.7856
 503  585.5991
 504  553.7015
 505  540.5439
 506  605.7343
 507  497.0876
 508  495.5601
 509  577.6376
 510  516.025
 511  494.5243
 512  517.9335
 513  450.9579
 514  347.2006
 515  503.1595
 516  587.5455
 517  626.2125
 518  596.9941
 519  659.9708
 520  613.7003
 521  610.7857
 522  696.4794
 523  838.4596
 524  785.8035
 525  723.1557
 526  552.8736
 527  447.9089
 528  505.3723
 529  703.2575
 530  670.8061
 531  581.3626
 532  605.371
 533  694.4163
 534  538.989
 535  489.5218
 536  528.6815
 537  587.6686
 538  624.2421
 539  715.2127
 540  588.9119
 541  518.8896
 542  423.9788
 543  553.0761
 544  587.142
 545  770.4868
 546  744.4931
 547  497.7693
 548  368.5912
 549  423.5476
 550  399.5373
 551  335.0034
 552  481.8325
 553  647.7615
 554  599.3524
 555  648.3949
 556  733.9794
 557  629.6883
 558  472.7213
 559  592.2636
 560  713.8335
 561  660.8277
 562  598.8414
 563  597.8587
 564  538.2284
 565  348.861
 566  507.5344
 567  516.2554
 568  421.9841
 569  300.7764
 570  526.952
 571  596.6031
 572  570.0919
 573  701.9221
 574  708.607
 575  641.1989
 576  455.7952
 577  490.7604
 578  385.7661
 579  400.5267
 580  504.4947
 581  631.7278
 582  673.4166
 583  713.2977
 584  747.8668
 585  645.1513
 586  570.7004
 587  610.6316
 588  628.0957
 589  565.6096
 590  623.4371
 591  672.1479
 592  744.9747
 593  725.6562
 594  748.1956
 595  662.4292
 596  642.0785
 597  634.6506
 598  683.8859
 599  730.2179
 600  832.6027
 601  733.3158
 602  512.305
 603  609.7059
 604  826.9614
 605  915.233
 606  763.2347
 607  846.6271
 608  842.8555
 609  623.0389
 610  476.4586
 611  588.3483
 612  578.8286
 613  480.4782
 614  544.7782
 615  536.1677
 616  357.7695
 617  245.1547
 618  473.7978
 619  567.2225
 620  640.9265
 621  704.8444
 622  618.8656
 623  419.3519
 624  349.2658
 625  546.4499
 626  552.565
 627  506.5494
 628  624.7122
 629  758.4567
 630  784.8455
 631  739.4702
 632  802.3515
 633  744.1689
 634  624.2179
 635  693.152
 636  760.345
 637  790.1018
 638  764.7386
 639  841.9764
 640  808.8253
 641  906.1316
 642  1017.866
 643  1108.474
 644  1152.469
 645  1298.958
 646  1497.49
 647  1600.072
 648  1572.754
 649  1412.337
 650  1255.338
 651  1196.566
 652  1066.92
 653  791.7101
 654  638.2927
 655  615.9589
 656  649.0871
 657  637.4974
 658  710.0911
 659  835.2193
 660  787.0852
 661  714.5344
 662  728.4836
 663  653.0723
 664  500.3394
 665  550.6951
 666  651.4958
 667  583.2466
 668  607.084
 669  769.6198
 670  814.217
 671  632.3572
 672  687.7949
 673  708.8155
 674  466.1397
 675  422.457
 676  587.977
 677  725.3333
 678  594.6635
 679  665.9609
 680  716.9048
 681  443.9236
 682  279.7079
 683  417.8807
 684  661.3467
 685  663.0534
 686  810.3982
 687  852.4166
 688  770.9977
 689  642.5273
 690  701.589
 691  554.4486
 692  461.4242
 693  649.1492
 694  719.0455
 695  612.2699
 696  496.1806
 697  585.1207
 698  556.2886
 699  523.286
 700  611.9951
 701  775.9498
 702  814.8166
 703  943.4598
 704  972.0097
 705  855.6404
 706  795.0126
 707  838.0416
 708  855.9816
 709  640.85
 710  520.5227
 711  563.3576
 712  635.4048
 713  637.2086
 714  568.269
 715  532.2136
 716  535.1761
 717  586.8597
 718  563.0225
 719  569.441
 720  609.0823
 721  693.8212
 722  635.3563
 723  605.2528
 724  584.8434
 725  537.3541
 726  571.3122
 727  739.3729
 728  744.4116
 729  535.5858
 730  625.0923
 731  760.9601
 732  700.4276
 733  623.8702
 734  743.378
 735  780.8093
 736  592.0338
 737  608.7561
 738  646.9958
 739  524.7879
 740  443.866
 741  619.2941
 742  560.0604
 743  441.8831
 744  458.0447
 745  641.4944
 746  609.4495
 747  538.5908
 748  515.9836
 749  561.8157
 750  356.6579
 751  413.8804
 752  577.6136
 753  627.2584
 754  613.8452
 755  748.3083
 756  812.9392
 757  686.258
 758  707.0671
 759  761.1561
 760  619.8879
 761  424.8465
 762  352.1509
 763  404.0737
 764  485.1487
 765  672.3524
 766  664.8236
 767  652.7169
 768  612.5767
 769  606.6467
 770  498.9044
 771  489.2158
 772  503.5419
 773  500.2827
 774  475.2791
 775  552.617
 776  593.6385
 777  510.5353
 778  634.9298
 779  642.8174
 780  707.8978
 781  576.2812
 782  674.4144
 783  527.111
 784  448.4897
 785  484.0099
 786  696.8331
 787  585.4372
 788  629.4911
 789  725.675
 790  684.8889
 791  536.2625
 792  484.8727
 793  673.2704
 794  502.005
 795  492.7766
 796  469.345
 797  358.6456
 798  257.2307
 799  396.3409
 800  501.6907
 801  475.4857
 802  555.4116
 803  822.5215
 804  738.998
 805  635.3578
 806  722.0706
 807  707.3782
 808  525.1791
 809  496.1385
 810  549.5287
 811  477.1089
 812  202.3825
 813  400.3237
 814  469.9252
 815  510.6697
 816  395.4145
 817  512.9891
 818  543.2631
 819  637.2191
 820  721.5416
 821  657.9886
 822  478.5539
 823  386.8094
 824  590.6674
 825  580.8365
 826  604.795
 827  543.639
 828  605.4804
 829  550.6765
 830  635.5528
 831  637.636
 832  683.9151
 833  740.6442
 834  726.9084
 835  651.6951
 836  733.7345
 837  682.8664
 838  553.2088
 839  473.0477
 840  565.6023
 841  626.7552
 842  566.0408
 843  721.1843
 844  790.0823
 845  761.1756
 846  698.6785
 847  695.0748
 848  725.8069
 849  580.4175
 850  585.5103
 851  624.5675
 852  585.879
 853  463.144
 854  646.8819
 855  642.1998
 856  639.1321
 857  703.2108
 858  752.9147
 859  624.1388
 860  513.2358
 861  800.4762
 862  817.1855
 863  687.6348
 864  634.7529
 865  653.1339
 866  538.32
 867  513.8813
 868  576.8614
 869  644.271
 870  647.3464
 871  784.4295
 872  814.0467
 873  596.1736
 874  523.4177
 875  518.9756
 876  542.2949
 877  566.6613
 878  826.1098
 879  827.178
 880  570.9543
 881  433.2744
 882  503.6014
 883  564.2767
 884  452.3354
 885  567.0782
 886  575.1497
 887  521.0364
 888  438.9527
 889  434.5806
 890  411.5125
 891  479.3397
 892  651.6425
 893  714.527
 894  664.2528
 895  587.6361
 896  517.8532
 897  517.0412
 898  721.7866
 899  768.2659
 900  699.6885
 901  638.8138
 902  646.914
 903  459.2348
 904  502.0129
 905  670.147
 906  714.8625
 907  630.9776
 908  621.8785
 909  662.4788
 910  424.669
 911  352.1979
 912  453.0921
 913  552.3043
 914  493.6136
 915  628.7079
 916  668.8307
 917  569.168
 918  447.7407
 919  628.9123
 920  617.7173
 921  441.0427
 922  594.3612
 923  824.6514
 924  764.4287
 925  578.1148
 926  718.2365
 927  732.9045
 928  567.3395
 929  555.3853
 930  606.6047
 931  562.282
 932  503.6468
 933  567.0167
 934  504.329
 935  366.1614
 936  489.0803
 937  725.0933
 938  700.4355
 939  518.2033
 940  512.5107
 941  536.15
 942  430.8378
 943  429.3052
 944  478.5267
 945  483.1275
 946  547.1488
 947  571.3778
 948  546.0986
 949  482.4758
 950  595.2552
 951  562.5325
 952  594.9622
 953  591.8188
 954  660.2158
 955  524.4813
 956  444.4665
 957  372.6325
 958  292.4603
 959  330.0627
 960  307.7868
 961  305.5111
 962  249.5561
 963  587.9469
 964  668.0901
 965  597.118
 966  539.3368
 967  686.0467
 968  660.5556
 969  566.8694
 970  545.494
 971  499.6764
 972  192.6191
 973  243.6922
 974  541.0201
 975  424.0406
 976  263.3401
 977  387.439
 978  566.8695
 979  508.4539
 980  459.6253
 981  655.9277
 982  707.398
 983  596.9349
 984  566.4576
 985  440.2953
 986  245.7861
 987  275.1618
 988  551.8015
 989  648.7416
 990  588.2055
 991  574.4164
 992  731.6084
 993  587.4808
 994  570.9006
 995  573.6363
 996  711.1907
 997  579.2631
 998  657.6518
 999  497.3021
1000  502.1833
1001  638.5704
1002  891.7799
1003  816.2092
1004  660.7222
1005  590.9431
1006  531.207
1007  639.4905
1008  682.6955
1009  636.4835
1010  524.1897
1011  524.6734
1012  611.2464
1013  557.0797
1014  516.0931
1015  592.9215
1016  600.7939
1017  601.9507
1018  686.1971
1019  774.8813
1020  669.0543
1021  573.6007
1022  668.3562
1023  662.3243
