# Input file       =  1187244965.110599_cleaned.dat
# Candidate        =  PSR_0332+5434
# Telescope        =  AR
# Epoch_topo       =  57985.261390168969
# Epoch_bary       =  N/A
# T_sample         =  0.002
# Data Folded      =  7340032
# Data Avg         =  0.0308916507742001
# Data StdDev      =  2.50484127456814 
# Profile Bins     =  1024
# Profile Avg      =  221.416404099167 
# Profile StdDev   =  212.069986758315 
# Reduced chi-sqr  =  1.233
# Prob(Noise)      <  4.11e-07   (~4.9 sigma)
# P_topo (ms)      =  714.464233458237  +/- 0.000124
# P'_topo (s/s)    =  -0                +/- 6.56e-11
# P''_topo (s/s^2) =  0                 +/- 2.9e-14
# P_bary (ms)      =  N/A
# P'_bary (s/s)    =  N/A
# P''_bary (s/s^2) =  N/A
# P_orb (s)        =  N/A
# asin(i)/c (s)    =  N/A
# eccentricity     =  N/A
# w (rad)          =  N/A
# T_peri           =  N/A
######################################################
   0  237.2782
   1  187.2255
   2  253.1764
   3  279.2693
   4  368.3314
   5  330.5029
   6  342.8878
   7  388.9397
   8  372.9304
   9  273.3271
  10  171.4135
  11  118.6694
  12  271.8804
  13  335.3643
  14  318.9153
  15  210.4167
  16  151.1866
  17  286.2638
  18  281.7419
  19  235.0867
  20  103.9448
  21  114.4211
  22  112.5987
  23  232.0125
  24  203.6779
  25  193.9356
  26  91.69977
  27  154.0423
  28  299.1386
  29  326.0417
  30  267.6861
  31  187.0619
  32  211.526
  33  223.3927
  34  108.9505
  35  124.3257
  36  231.1404
  37  300.0266
  38  244.8201
  39  238.1439
  40  213.7741
  41  288.4064
  42  145.6858
  43  320.1783
  44  207.6763
  45  272.2667
  46  174.4337
  47  195.2628
  48  94.60848
  49  110.3284
  50  242.7866
  51  207.8478
  52  57.74278
  53  56.43259
  54  103.4122
  55  244.0107
  56  232.1295
  57  300.0771
  58  178.9106
  59  33.34307
  60  -106.2516
  61  -45.88252
  62  15.06468
  63  79.34776
  64  216.5182
  65  290.9673
  66  231.0359
  67  75.87012
  68  12.55559
  69  148.3846
  70  213.9119
  71  321.8583
  72  221.1903
  73  149.3555
  74  143.0102
  75  180.6714
  76  178.5536
  77  203.6434
  78  276.2615
  79  213.1165
  80  171.695
  81  145.6516
  82  51.03835
  83  16.25902
  84  91.9652
  85  267.2641
  86  316.4945
  87  151.2362
  88  99.67933
  89  41.0831
  90  154.4903
  91  154.7878
  92  84.20795
  93  115.9747
  94  203.9587
  95  240.6284
  96  166.7807
  97  111.3636
  98  116.4913
  99  122.9405
 100  199.6134
 101  228.1923
 102  252.3738
 103  239.8906
 104  300.5099
 105  276.8214
 106  268.125
 107  223.4668
 108  280.2316
 109  231.4973
 110  192.4782
 111  141.9591
 112  108.9435
 113  77.29507
 114  -30.37629
 115  5.802665
 116  143.6084
 117  333.408
 118  374.2706
 119  355.3654
 120  288.499
 121  306.4263
 122  303.9596
 123  212.5521
 124  75.77245
 125  -4.995398
 126  13.2652
 127  -94.11922
 128  -92.33894
 129  11.84552
 130  88.42858
 131  92.68864
 132  125.1738
 133  267.9521
 134  249.8937
 135  211.5022
 136  134.8231
 137  101.1495
 138  126.3469
 139  217.8698
 140  252.8566
 141  227.4555
 142  202.5791
 143  256.9601
 144  247.3062
 145  238.7944
 146  199.0627
 147  177.8491
 148  190.1224
 149  72.29448
 150  4.995966
 151  56.09947
 152  201.6273
 153  205.534
 154  216.0165
 155  199.7614
 156  292.9949
 157  257.0313
 158  335.3489
 159  307.3645
 160  313.694
 161  328.2434
 162  310.9622
 163  239.1673
 164  202.0689
 165  197.872
 166  286.223
 167  242.3765
 168  264.282
 169  226.5067
 170  340.2753
 171  378.7072
 172  371.2348
 173  291.1476
 174  221.3602
 175  271.6835
 176  320.0824
 177  394.6549
 178  430.4891
 179  424.2263
 180  314.4427
 181  167.43
 182  196.5492
 183  278.4422
 184  377.9838
 185  345.5077
 186  329.6811
 187  335.1
 188  329.9728
 189  254.929
 190  222.5709
 191  242.7081
 192  240.2104
 193  179.8321
 194  163.6853
 195  248.3095
 196  325.2101
 197  297.6208
 198  283.8376
 199  244.8718
 200  289.2708
 201  312.9203
 202  348.2743
 203  297.4425
 204  269.2921
 205  210.6763
 206  127.0523
 207  200.6438
 208  295.9553
 209  372.2297
 210  211.3268
 211  229.6287
 212  335.5217
 213  346.3786
 214  191.7316
 215  201.0317
 216  220.853
 217  228.276
 218  78.73894
 219  10.75999
 220  54.60152
 221  148.2878
 222  227.6133
 223  254.2611
 224  201.2607
 225  154.4353
 226  90.48591
 227  97.22749
 228  117.1713
 229  213.6432
 230  211.4705
 231  189.1123
 232  137.3532
 233  204.077
 234  237.3741
 235  228.9121
 236  242.3529
 237  318.3602
 238  292.0741
 239  214.3801
 240  165.6926
 241  170.051
 242  288.8144
 243  315.8524
 244  313.9407
 245  375.2622
 246  331.8223
 247  341.5385
 248  287.9973
 249  279.5067
 250  312.4956
 251  339.7379
 252  367.2658
 253  317.9153
 254  352.7321
 255  415.9022
 256  304.8513
 257  244.4805
 258  328.1036
 259  413.3973
 260  235.9888
 261  37.59373
 262  1.077619
 263  23.04089
 264  84.489
 265  215.7084
 266  326.4212
 267  299.0228
 268  86.69556
 269  91.0255
 270  112.1236
 271  200.2111
 272  186.6833
 273  329.2465
 274  484.9574
 275  571.693
 276  429.4285
 277  217.4653
 278  41.97691
 279  197.9008
 280  386.32
 281  552.9327
 282  418.5412
 283  373.3381
 284  311.7157
 285  339.4161
 286  297.1548
 287  340.5216
 288  302.3843
 289  176.0295
 290  77.00813
 291  91.69161
 292  219.1979
 293  232.2826
 294  227.1209
 295  222.3108
 296  288.2128
 297  211.5852
 298  136.051
 299  88.23
 300  175.3003
 301  314.084
 302  316.5234
 303  224.6973
 304  145.1139
 305  182.6906
 306  286.199
 307  278.6653
 308  278.1429
 309  232.0705
 310  182.4884
 311  94.52796
 312  150.411
 313  161.5928
 314  263.4388
 315  249.904
 316  249.7275
 317  173.6368
 318  274.8698
 319  360.8669
 320  381.1728
 321  256.6563
 322  254.8951
 323  337.6913
 324  380.4648
 325  430.4929
 326  402.9549
 327  386.2705
 328  371.9202
 329  304.9353
 330  235.5719
 331  150.8038
 332  88.16618
 333  82.87881
 334  129.1867
 335  237.0085
 336  242.1191
 337  254.4328
 338  246.6572
 339  261.8416
 340  201.8012
 341  135.7852
 342  116.4709
 343  166.3931
 344  231.1775
 345  276.1776
 346  229.4006
 347  267.9658
 348  253.8479
 349  325.7835
 350  262.8399
 351  245.9227
 352  146.4841
 353  216.1531
 354  238.2834
 355  286.9572
 356  193.2309
 357  140.5859
 358  198.424
 359  218.5876
 360  215.1095
 361  156.1289
 362  122.0166
 363  194.145
 364  215.7185
 365  216.8139
 366  222.9105
 367  209.3825
 368  131.8946
 369  115.9716
 370  181.3889
 371  232.9374
 372  251.8882
 373  221.4336
 374  226.1193
 375  181.7104
 376  205.5432
 377  104.3844
 378  82.0957
 379  65.34302
 380  152.1857
 381  108.7675
 382  81.91288
 383  59.2523
 384  124.6938
 385  76.39331
 386  158.2504
 387  236.185
 388  265.4919
 389  129.3991
 390  99.9597
 391  217.737
 392  291.6952
 393  314.5317
 394  208.8354
 395  207.6695
 396  249.224
 397  316.7032
 398  246.9346
 399  186.6429
 400  189.2803
 401  219.1525
 402  172.0805
 403  206.3087
 404  212.6434
 405  314.3656
 406  398.7657
 407  387.9617
 408  405.9387
 409  285.2772
 410  238.6659
 411  197.2141
 412  154.9137
 413  123.2697
 414  36.39571
 415  44.47585
 416  71.95175
 417  203.1881
 418  288.8718
 419  361.7827
 420  345.4117
 421  205.3658
 422  56.58317
 423  -40.80864
 424  45.16855
 425  151.3851
 426  173.9855
 427  287.9771
 428  312.1942
 429  320.2075
 430  250.8824
 431  177.7207
 432  134.05
 433  21.93004
 434  -61.91584
 435  -15.57768
 436  48.48426
 437  96.85987
 438  89.34577
 439  140.4824
 440  163.7205
 441  93.48566
 442  99.81854
 443  242.617
 444  452.5515
 445  488.5755
 446  368.5247
 447  195.3209
 448  116.7159
 449  128.6099
 450  213.8099
 451  243.016
 452  189.7963
 453  112.1932
 454  142.7776
 455  230.8708
 456  327.761
 457  400.9539
 458  400.2577
 459  282.4054
 460  180.0503
 461  220.5292
 462  275.6103
 463  333.9963
 464  291.2121
 465  192.6565
 466  19.18818
 467  -9.928914
 468  56.29056
 469  88.03723
 470  162.5736
 471  177.7695
 472  216.452
 473  200.5608
 474  284.3171
 475  334.9496
 476  286.01
 477  129.7166
 478  52.20709
 479  162.8177
 480  280.2531
 481  278.3673
 482  326.6562
 483  293.567
 484  239.9445
 485  90.28471
 486  37.08743
 487  77.8936
 488  221.9966
 489  329.251
 490  263.7456
 491  75.08389
 492  168.4484
 493  267.0063
 494  317.8891
 495  229.1452
 496  92.74771
 497  112.8496
 498  44.22015
 499  -29.52131
 500  -137.9755
 501  -119.284
 502  -26.97256
 503  131.9465
 504  238.8912
 505  364.1863
 506  336.5325
 507  286.0435
 508  301.6633
 509  212.1484
 510  187.0233
 511  125.6538
 512  195.9844
 513  216.7545
 514  190.196
 515  170.6042
 516  209.772
 517  160.6852
 518  190.5949
 519  199.3084
 520  323.3571
 521  279.8379
 522  239.8754
 523  244.3683
 524  337.1681
 525  409.0184
 526  257.2021
 527  155.6825
 528  134.3082
 529  247.1232
 530  208.0286
 531  168.1875
 532  158.5916
 533  206.7269
 534  75.94898
 535  -15.90811
 536  -64.00641
 537  159.7491
 538  354.2847
 539  475.1036
 540  410.6071
 541  420.0355
 542  348.7925
 543  296.5977
 544  207.2465
 545  289.438
 546  321.9083
 547  231.6066
 548  97.51684
 549  49.73764
 550  208.9577
 551  237.825
 552  255.1237
 553  212.4111
 554  206.9542
 555  243.2921
 556  191.8882
 557  129.7753
 558  60.11403
 559  45.93275
 560  140.8765
 561  204.3736
 562  257.1368
 563  272.8532
 564  288.2352
 565  278.88
 566  271.2722
 567  191.5909
 568  186.8973
 569  182.2613
 570  241.1631
 571  229.8368
 572  182.8349
 573  175.1145
 574  125.8332
 575  156.1509
 576  170.272
 577  148.6584
 578  123.7259
 579  110.4198
 580  36.65691
 581  111.1745
 582  212.2265
 583  351.2447
 584  273.6882
 585  155.1351
 586  185.7589
 587  202.6313
 588  230.4635
 589  128.1603
 590  178.6201
 591  183.7715
 592  249.9045
 593  256.918
 594  330.9215
 595  327.0981
 596  175.6107
 597  66.09474
 598  -21.63729
 599  126.3841
 600  272.5497
 601  310.6724
 602  244.9431
 603  344.969
 604  444.8051
 605  342.6893
 606  293.1025
 607  262.6865
 608  321.6293
 609  223.9208
 610  166.9166
 611  197.3343
 612  194.195
 613  222.0867
 614  213.7479
 615  208.3149
 616  194.8363
 617  240.4963
 618  231.5059
 619  177.2858
 620  47.19895
 621  82.38277
 622  76.11678
 623  114.3184
 624  126.4298
 625  184.5192
 626  283.8426
 627  197.4333
 628  189.0991
 629  130.3381
 630  177.8984
 631  229.1862
 632  338.6738
 633  444.3961
 634  424.3253
 635  432.0859
 636  399.7245
 637  384.3202
 638  325.2321
 639  404.3346
 640  537.2687
 641  597.3792
 642  671.5515
 643  872.4321
 644  1081.71
 645  1142.408
 646  1089.263
 647  1085.46
 648  1027.814
 649  961.6873
 650  849.5664
 651  806.4559
 652  635.1844
 653  522.3484
 654  387.3272
 655  294.6952
 656  195.5346
 657  156.9872
 658  183.4572
 659  289.4141
 660  322.532
 661  244.6715
 662  170.5346
 663  194.3213
 664  242.5097
 665  297.5126
 666  205.615
 667  194.3058
 668  180.4209
 669  178.5794
 670  174.1985
 671  83.65948
 672  132.8694
 673  251.5856
 674  292.5586
 675  332.8796
 676  366.7744
 677  354.3519
 678  256.1645
 679  123.8122
 680  109.2352
 681  128.3579
 682  174.7006
 683  179.3357
 684  223.4459
 685  239.0953
 686  268.5105
 687  183.68
 688  63.15377
 689  68.3871
 690  91.69814
 691  103.509
 692  -40.5513
 693  108.381
 694  282.3625
 695  395.7561
 696  298.8041
 697  252.9034
 698  152.3616
 699  61.81092
 700  164.505
 701  189.8164
 702  242.7976
 703  238.909
 704  377.0368
 705  376.0342
 706  363.5157
 707  280.714
 708  312.2189
 709  319.8936
 710  261.5925
 711  207.7928
 712  48.75973
 713  6.860175
 714  133.9765
 715  269.5574
 716  334.0732
 717  292.203
 718  371.9465
 719  449.5824
 720  371.2726
 721  267.9691
 722  261.9848
 723  251.5718
 724  260.9175
 725  148.5847
 726  207.4915
 727  215.7365
 728  218.907
 729  197.9149
 730  251.7811
 731  295.464
 732  326.5451
 733  193.661
 734  216.0923
 735  234.4195
 736  290.1622
 737  283.7797
 738  313.7497
 739  355.4376
 740  327.7589
 741  246.5018
 742  114.1844
 743  186.7545
 744  285.5185
 745  340.8242
 746  245.0744
 747  203.1391
 748  165.4699
 749  111.3082
 750  120.7837
 751  234.9
 752  342.3269
 753  335.6685
 754  223.2113
 755  66.92158
 756  -13.42566
 757  6.561956
 758  93.38023
 759  205.6316
 760  207.822
 761  129.2431
 762  84.26351
 763  139.7347
 764  143.6987
 765  132.0152
 766  216.3676
 767  318.6
 768  333.0396
 769  295.3356
 770  247.6052
 771  295.9385
 772  316.5113
 773  233.3186
 774  104.2349
 775  -6.394428
 776  58.14459
 777  86.5396
 778  123.6097
 779  93.66969
 780  172.8951
 781  210.3853
 782  196.3037
 783  71.34177
 784  29.5626
 785  -26.39406
 786  -45.29259
 787  92.46529
 788  246.8817
 789  431.7375
 790  348.0812
 791  250.7004
 792  126.9404
 793  107.8951
 794  25.71576
 795  105.8422
 796  261.7015
 797  365.9792
 798  327.5312
 799  111.8219
 800  -7.011236
 801  -11.80791
 802  232.2824
 803  258.9675
 804  247.2648
 805  144.1155
 806  268.9125
 807  345.2571
 808  341.9197
 809  282.8763
 810  182.0685
 811  146.1093
 812  157.1916
 813  233.0424
 814  83.45947
 815  -22.75733
 816  52.666
 817  301.6468
 818  250.672
 819  160.4701
 820  136.0871
 821  171.9104
 822  132.8347
 823  128.13
 824  232.7948
 825  292.427
 826  320.6824
 827  345.8484
 828  272.7194
 829  205.6282
 830  108.6538
 831  208.6542
 832  361.5538
 833  391.4879
 834  283.6013
 835  184.0805
 836  246.6315
 837  139.0094
 838  42.88008
 839  106.6463
 840  266.7733
 841  381.4432
 842  243.5584
 843  137.4767
 844  11.24139
 845  70.15991
 846  120.0737
 847  170.0586
 848  137.6025
 849  143.3437
 850  -8.364016
 851  -38.1572
 852  -13.45207
 853  246.9119
 854  242.3978
 855  195.2632
 856  96.54506
 857  72.16904
 858  91.93163
 859  3.428705
 860  128.3312
 861  261.6966
 862  321.3473
 863  295.9816
 864  206.3646
 865  203.8834
 866  169.5871
 867  248.7172
 868  253.2179
 869  294.3362
 870  204.9638
 871  231.8835
 872  249.9778
 873  231.1456
 874  193.4043
 875  148.0773
 876  241.8261
 877  298.9226
 878  219.105
 879  112.0562
 880  119.3189
 881  184.8827
 882  230.377
 883  272.3875
 884  310.6559
 885  195.5443
 886  117.3762
 887  189.5048
 888  235.3609
 889  170.0637
 890  119.7872
 891  113.651
 892  113.7782
 893  52.24459
 894  96.01794
 895  175.9492
 896  242.3597
 897  222.971
 898  171.9685
 899  142.2024
 900  112.7522
 901  172.3265
 902  234.691
 903  338.6713
 904  273.9372
 905  277.7221
 906  260.531
 907  308.5775
 908  338.8956
 909  390.1734
 910  395.2621
 911  229.9912
 912  96.05009
 913  57.28634
 914  129.2135
 915  208.0815
 916  140.9131
 917  193.6024
 918  147.5637
 919  303.4124
 920  367.5737
 921  396.0443
 922  326.6986
 923  149.6129
 924  73.51999
 925  84.39146
 926  69.97097
 927  76.57661
 928  77.96767
 929  246.2882
 930  378.4483
 931  416.8721
 932  337.1284
 933  270.0638
 934  303.3434
 935  311.8892
 936  324.067
 937  310.1333
 938  247.1932
 939  225.3913
 940  229.9826
 941  332.5678
 942  249.8348
 943  138.7909
 944  100.0882
 945  170.1278
 946  254.4877
 947  230.364
 948  261.6101
 949  271.2713
 950  272.0416
 951  180.7269
 952  120.2053
 953  144.3765
 954  245.1286
 955  299.652
 956  235.4765
 957  162.1624
 958  146.5276
 959  237.3287
 960  270.2245
 961  268.5522
 962  187.865
 963  233.1791
 964  297.1999
 965  307.4969
 966  264.5774
 967  253.694
 968  224.9628
 969  167.6152
 970  3.217427
 971  106.1415
 972  182.0549
 973  231.5149
 974  185.2159
 975  175.156
 976  220.9372
 977  216.6035
 978  292.4289
 979  296.8902
 980  243.9938
 981  261.5316
 982  330.3017
 983  517.1716
 984  288.7104
 985  169.2225
 986  57.93821
 987  234.1844
 988  229.418
 989  136.2473
 990  141.0459
 991  149.5651
 992  231.3026
 993  310.6891
 994  354.3076
 995  299.1588
 996  271.8177
 997  335.2109
 998  343.5208
 999  173.6467
1000  127.9973
1001  202.588
1002  307.3582
1003  377.6049
1004  405.2677
1005  369.6498
1006  351.4427
1007  260.7194
1008  231.8728
1009  274.8665
1010  307.415
1011  309.743
1012  215.2665
1013  150.7253
1014  38.35646
1015  -77.45462
1016  -162.1066
1017  -59.06015
1018  130.9312
1019  320.2128
1020  385.901
1021  352.7386
1022  319.1806
1023  264.5094
