# Input file       =  1187215416.107602_cleaned.dat
# Candidate        =  PSR_0332+5434
# Telescope        =  AR
# Epoch_topo       =  57984.919387819464
# Epoch_bary       =  N/A
# T_sample         =  0.002
# Data Folded      =  7208960
# Data Avg         =  0.0855190402881074
# Data StdDev      =  4.00042267021563 
# Profile Bins     =  512
# Profile Avg      =  1204.10918659244 
# Profile StdDev   =  474.686856873541 
# Reduced chi-sqr  =  0.630
# Prob(Noise)      <  1   (~0.0 sigma)
# P_topo (ms)      =  714.463933897267  +/- 5.88e-05
# P'_topo (s/s)    =  -0                +/- 3.16e-11
# P''_topo (s/s^2) =  0                 +/- 1.42e-14
# P_bary (ms)      =  N/A
# P'_bary (s/s)    =  N/A
# P''_bary (s/s^2) =  N/A
# P_orb (s)        =  N/A
# asin(i)/c (s)    =  N/A
# eccentricity     =  N/A
# w (rad)          =  N/A
# T_peri           =  N/A
######################################################
   0  1412.258
   1  1510.432
   2  977.4799
   3  1048.408
   4  1458.634
   5  1322.021
   6  1243.003
   7  1108.884
   8  1071.564
   9  1323.272
  10  1123.399
  11  1079.46
  12  1312.987
  13  1337.608
  14  971.3459
  15  1494.14
  16  1301.588
  17  1234.635
  18  1485.681
  19  1620.961
  20  1378.031
  21  890.7601
  22  1071.242
  23  1408.413
  24  1509.084
  25  1603.571
  26  1710.97
  27  1532.223
  28  1411.495
  29  1154.577
  30  1424.146
  31  1327.762
  32  1260.642
  33  1382.803
  34  1014.464
  35  1276.428
  36  1013.227
  37  1268.678
  38  1527.087
  39  1021.591
  40  960.7394
  41  770.2366
  42  557.3549
  43  418.9894
  44  1222.097
  45  1268.147
  46  1217.649
  47  1185.677
  48  1440.09
  49  1311.923
  50  912.5472
  51  1014.348
  52  1037.294
  53  1270.134
  54  1427.123
  55  1251.358
  56  1478.906
  57  1160.42
  58  1061.778
  59  1017.817
  60  876.8079
  61  1042.233
  62  1066.965
  63  1219.542
  64  1296.417
  65  1016.01
  66  1567.481
  67  1499.158
  68  1315.83
  69  958.2116
  70  1162.651
  71  1221.821
  72  1216.587
  73  1335.587
  74  1472.627
  75  1420.189
  76  901.8223
  77  880.6275
  78  1277.738
  79  1241.203
  80  1403.812
  81  1547.753
  82  1447.519
  83  1061.006
  84  909.7
  85  957.3397
  86  1129.44
  87  1117.303
  88  1172.636
  89  1450.798
  90  1582.559
  91  1456.969
  92  1202.121
  93  1283.796
  94  961.7383
  95  1353.69
  96  1063.06
  97  887.1805
  98  1255.355
  99  1215.606
 100  1270.312
 101  992.7739
 102  1302.776
 103  1146.296
 104  1413.784
 105  1047.706
 106  1296.827
 107  1653.013
 108  1365.404
 109  1103.533
 110  839.5966
 111  1393.657
 112  1410.558
 113  1437.902
 114  1215.639
 115  1187.792
 116  742.292
 117  538.0659
 118  787.2716
 119  1379.248
 120  1559.989
 121  1127.242
 122  1535.945
 123  1247.333
 124  1049.828
 125  1036.357
 126  1389.062
 127  1084.709
 128  778.7885
 129  1204.554
 130  1141.249
 131  1001.552
 132  893.0452
 133  1250.324
 134  1392.368
 135  960.6146
 136  837.356
 137  1011.895
 138  1357.741
 139  1090.652
 140  1201.666
 141  1176.759
 142  1056.708
 143  712.5975
 144  1067.484
 145  1241.69
 146  1013.569
 147  1088.546
 148  1527.888
 149  1181.121
 150  1022.029
 151  1198.349
 152  1498.279
 153  1454.496
 154  1020.02
 155  1099.714
 156  808.8825
 157  984.5292
 158  1042.359
 159  1070.314
 160  1109.18
 161  878.8658
 162  1064.306
 163  1109.501
 164  902.5174
 165  844.4791
 166  1028.46
 167  1259.907
 168  1126.11
 169  1293.897
 170  1335.244
 171  1449.345
 172  1329.62
 173  1434.021
 174  1440.967
 175  917.7544
 176  1024.878
 177  1522.366
 178  1368.999
 179  1134.839
 180  1058.404
 181  1365.266
 182  1282.722
 183  1159.062
 184  1420.937
 185  1178.946
 186  1291.342
 187  1374.65
 188  1197.101
 189  1206.897
 190  806.9224
 191  1057.544
 192  1070.083
 193  1372.377
 194  1380.004
 195  1187.312
 196  1137.512
 197  1124.003
 198  1148.764
 199  1064.211
 200  1261.225
 201  1140.385
 202  1154.75
 203  1229.388
 204  1632.617
 205  1602.214
 206  1498.903
 207  1325.01
 208  1305.229
 209  1187.891
 210  1344.113
 211  967.4714
 212  652.5267
 213  864.1448
 214  1342.535
 215  1611.659
 216  1115.881
 217  626.3831
 218  826.3062
 219  1001.6
 220  1146.795
 221  967.0803
 222  1315.537
 223  946.8972
 224  478.3536
 225  1090.161
 226  1297.622
 227  1152.438
 228  863.3168
 229  1065.928
 230  1079.117
 231  1103.913
 232  1242.628
 233  978.3967
 234  1298.011
 235  1362.578
 236  1321.562
 237  1283.13
 238  836.5402
 239  1469.694
 240  1615.771
 241  1169.592
 242  981.1957
 243  1196.683
 244  1387.77
 245  1321.023
 246  1339.121
 247  1264.633
 248  1197.31
 249  1200.049
 250  1146.717
 251  1451.322
 252  1078.978
 253  1126.669
 254  1033.273
 255  1037.675
 256  997.5107
 257  802.9806
 258  1207.592
 259  1224.203
 260  1248.85
 261  1402.433
 262  1588.942
 263  1160.954
 264  1037.962
 265  1330.649
 266  1240.316
 267  1128.633
 268  1029.098
 269  1301.12
 270  1228.519
 271  955.132
 272  1245.003
 273  1399.664
 274  794.2885
 275  799.2399
 276  953.9406
 277  1241.342
 278  1420.297
 279  1024.128
 280  1388.191
 281  1214.729
 282  1019.718
 283  963.7491
 284  787.2409
 285  978.5312
 286  1212.501
 287  1431.034
 288  974.3411
 289  806.8151
 290  1040.69
 291  1330.588
 292  1444.767
 293  1185.849
 294  1224.893
 295  1253.293
 296  1446.334
 297  1445.124
 298  1286.499
 299  1364.08
 300  1579.892
 301  1105.96
 302  1660.579
 303  1620.905
 304  1631.989
 305  1026.835
 306  1138.913
 307  1059.204
 308  736.726
 309  862.6912
 310  1283.115
 311  1227.781
 312  764.8792
 313  1100.761
 314  1244.578
 315  1547.463
 316  1548.736
 317  1328.201
 318  1512.453
 319  1560.011
 320  1683.174
 321  2057.108
 322  2334.901
 323  2971.395
 324  3098.943
 325  2542.134
 326  2088.324
 327  1291.725
 328  1287.94
 329  1441.403
 330  1570.427
 331  1433.916
 332  1067.141
 333  1243.125
 334  1247.985
 335  1551.753
 336  1349.761
 337  986.0555
 338  1193.784
 339  1257.155
 340  1341.393
 341  621.567
 342  1252.843
 343  1577.486
 344  1515.411
 345  1328.639
 346  1008.083
 347  1420.892
 348  1038.074
 349  1109.345
 350  1266.254
 351  1681.944
 352  1871.728
 353  1623.833
 354  1652.42
 355  1102.587
 356  1255.719
 357  1133.889
 358  1085.49
 359  1157.378
 360  1233.288
 361  1271.543
 362  1144.199
 363  1197.337
 364  1419.317
 365  1238.932
 366  1399.409
 367  1475.644
 368  1251.313
 369  1233.343
 370  988.071
 371  1133.098
 372  967.4729
 373  1199.262
 374  1096.135
 375  799.1965
 376  1126.516
 377  1255.238
 378  1592.297
 379  1428.627
 380  1230.257
 381  733.8
 382  1011.188
 383  1366.104
 384  1222.297
 385  1045.586
 386  1006.428
 387  977.2535
 388  1129.323
 389  1199.622
 390  1319.406
 391  1272.573
 392  914.7496
 393  1253.059
 394  1265.201
 395  1337.897
 396  1060.111
 397  1098.645
 398  931.2734
 399  585.0984
 400  943.1696
 401  1193.811
 402  1459.019
 403  1431.652
 404  1093.779
 405  1097.162
 406  586.6036
 407  978.1539
 408  872.1756
 409  1107.116
 410  1421.226
 411  960.8192
 412  1072.286
 413  1167.586
 414  1144.2
 415  1241.012
 416  1344.613
 417  1440.646
 418  1411.776
 419  1129.499
 420  1125.181
 421  1194.093
 422  1591.39
 423  1373.774
 424  1376.229
 425  1210.032
 426  1119.023
 427  1219.176
 428  1275.124
 429  1447.682
 430  1175.905
 431  1623.238
 432  1292.054
 433  1100.768
 434  1168.335
 435  1357.256
 436  1537.732
 437  1059.939
 438  1061.074
 439  1554.561
 440  1188.063
 441  1000.216
 442  1006.109
 443  1163.592
 444  890.2171
 445  832.0173
 446  1271.692
 447  1320.461
 448  1039.316
 449  1393.395
 450  1416.902
 451  1207.31
 452  1026.003
 453  1383.394
 454  1275.175
 455  927.3083
 456  910.0408
 457  1045.09
 458  1356.997
 459  1000.09
 460  1144.714
 461  1224.057
 462  1478.665
 463  1408.959
 464  1160.57
 465  1186.608
 466  1043.016
 467  1016.417
 468  986.7975
 469  1329.006
 470  1052.555
 471  915.02
 472  943.6235
 473  1055.18
 474  1099.013
 475  1110.024
 476  1151.609
 477  1228.052
 478  899.569
 479  642.846
 480  622.2965
 481  647.0628
 482  1337.36
 483  1140.835
 484  1320.123
 485  1101.596
 486  496.5444
 487  911.9894
 488  614.4011
 489  1065.4
 490  1007.197
 491  1368.937
 492  1098.944
 493  554.2043
 494  1036.134
 495  1189.432
 496  1326.803
 497  1145.021
 498  1274.484
 499  1228.634
 500  1034.149
 501  1646.345
 502  1356.901
 503  1137.06
 504  1334.397
 505  1059.664
 506  1183.528
 507  1092.526
 508  1198.152
 509  1366.274
 510  1354.632
 511  1310.099
