# Input file       =  1187990819.111274_cleaned.dat
# Candidate        =  PSR_0332+5434
# Telescope        =  AR
# Epoch_topo       =  57993.893959621229
# Epoch_bary       =  N/A
# T_sample         =  0.002
# Data Folded      =  7208960
# Data Avg         =  0.0632461517763495
# Data StdDev      =  3.0102158960153  
# Profile Bins     =  512
# Profile Avg      =  890.493354683677 
# Profile StdDev   =  357.18973718176  
# Reduced chi-sqr  =  1.280
# Prob(Noise)      <  1.82e-05   (~4.1 sigma)
# P_topo (ms)      =  714.463335772958  +/- 0.00012
# P'_topo (s/s)    =  -0                +/- 6.42e-11
# P''_topo (s/s^2) =  0                 +/- 2.89e-14
# P_bary (ms)      =  N/A
# P'_bary (s/s)    =  N/A
# P''_bary (s/s^2) =  N/A
# P_orb (s)        =  N/A
# asin(i)/c (s)    =  N/A
# eccentricity     =  N/A
# w (rad)          =  N/A
# T_peri           =  N/A
######################################################
   0  1075.173
   1  924.844
   2  781.3212
   3  544.8879
   4  941.4952
   5  799.8156
   6  649.4385
   7  781.1122
   8  1206.368
   9  1129.652
  10  679.5294
  11  1105.738
  12  1088.5
  13  459.0418
  14  394.1847
  15  912.6709
  16  1101.562
  17  684.4496
  18  474.7878
  19  511.4085
  20  476.6309
  21  446.6618
  22  611.2992
  23  418.1929
  24  562.9077
  25  794.113
  26  1186.583
  27  894.7812
  28  431.1044
  29  164.6303
  30  284.4638
  31  807.9826
  32  683.8749
  33  948.5956
  34  1215.72
  35  1209.301
  36  797.6111
  37  627.1808
  38  749.4955
  39  595.4462
  40  698.3623
  41  1176.417
  42  1112.638
  43  963.2681
  44  748.0043
  45  376.2856
  46  625.4105
  47  1009.34
  48  1230.625
  49  1389.9
  50  1207.701
  51  823.3282
  52  478.7036
  53  684.4038
  54  846.0302
  55  969.7893
  56  866.0068
  57  957.6248
  58  1036.443
  59  670.9434
  60  778.6841
  61  713.9285
  62  672.8132
  63  448.1063
  64  605.7357
  65  676.4502
  66  785.3598
  67  791.2703
  68  773.9102
  69  797.1347
  70  781.3262
  71  621.3524
  72  734.6
  73  1058.99
  74  974.3531
  75  1020.968
  76  891.4642
  77  742.4782
  78  773.7557
  79  647.1375
  80  888.9109
  81  1114.026
  82  882.4316
  83  333.9683
  84  655.3234
  85  520.3277
  86  469.9481
  87  463.1392
  88  687.8848
  89  1030.703
  90  924.2357
  91  1006.771
  92  961.995
  93  880.5026
  94  618.7352
  95  740.9597
  96  791.8481
  97  944.8873
  98  1088.079
  99  921.2341
 100  908.4518
 101  838.4137
 102  898.73
 103  658.2471
 104  802.9567
 105  766.8787
 106  703.2167
 107  654.3253
 108  974.7916
 109  988.0459
 110  975.3515
 111  978.3156
 112  840.5886
 113  578.4597
 114  868.8253
 115  1267.427
 116  1314.123
 117  1073.297
 118  675.6099
 119  480.0591
 120  725.9545
 121  717.9944
 122  431.8264
 123  553.288
 124  624.7991
 125  912.7788
 126  919.518
 127  443.7697
 128  212.2589
 129  173.4686
 130  678.0264
 131  803.4697
 132  1022.679
 133  1273.811
 134  1265.163
 135  1083.095
 136  934.5291
 137  922.1989
 138  1128.296
 139  905.4727
 140  808.8891
 141  1031.347
 142  983.5891
 143  947.7841
 144  832.9038
 145  836.0113
 146  812.2472
 147  935.5799
 148  1171.769
 149  1122.781
 150  1175.849
 151  978.9226
 152  682.975
 153  642.884
 154  626.8413
 155  566.0736
 156  1143.627
 157  1123.953
 158  1134.105
 159  909.2194
 160  612.9231
 161  1008.107
 162  1194.817
 163  1232.542
 164  914.6204
 165  941.6075
 166  1055.31
 167  1218.042
 168  1093.857
 169  1261.963
 170  948.1364
 171  749.1599
 172  945.8578
 173  1135.866
 174  1183.963
 175  1309.293
 176  1019.804
 177  612.9935
 178  1213.721
 179  1234.095
 180  1037.531
 181  851.2434
 182  860.677
 183  918.8282
 184  749.1285
 185  928.5822
 186  746.1385
 187  844.8975
 188  825.0903
 189  449.6688
 190  660.5789
 191  1299.645
 192  1424.469
 193  950.3693
 194  449.7762
 195  710.3844
 196  1059.337
 197  831.3452
 198  900.9077
 199  1217.978
 200  1105.88
 201  944.5043
 202  941.2878
 203  703.7198
 204  702.4339
 205  973.4606
 206  1241.362
 207  1158.895
 208  1093.503
 209  868.2271
 210  630.3741
 211  507.2455
 212  831.3041
 213  954.7622
 214  915.3458
 215  895.3703
 216  936.5333
 217  889.1077
 218  952.6812
 219  1070.764
 220  786.4433
 221  898.3903
 222  1101.743
 223  845.2428
 224  989.1653
 225  1106.543
 226  1289.216
 227  1123.12
 228  759.2856
 229  757.2482
 230  868.7161
 231  1044.703
 232  1069.752
 233  1079.163
 234  886.2792
 235  969.5303
 236  1115.757
 237  1178.49
 238  1212.946
 239  890.7888
 240  666.652
 241  943.9418
 242  1086.076
 243  913.4036
 244  927.6577
 245  1147.404
 246  1039.15
 247  1076.151
 248  702.7097
 249  1154.851
 250  1110.112
 251  971.761
 252  951.9655
 253  776.0648
 254  1065.363
 255  1435.038
 256  968.3453
 257  768.149
 258  902.1406
 259  892.1716
 260  857.3561
 261  957.6046
 262  1059.797
 263  1042.117
 264  1225.077
 265  1413.6
 266  1340.89
 267  1185.941
 268  871.1655
 269  964.0594
 270  836.3616
 271  1071.504
 272  806.3596
 273  745.1363
 274  643.4867
 275  363.8572
 276  799.3007
 277  1026.469
 278  1342.375
 279  1112.36
 280  1166.046
 281  1001.195
 282  934.4441
 283  676.8845
 284  716.4791
 285  596.0043
 286  802.7365
 287  664.6359
 288  907.7934
 289  891.4779
 290  1281.288
 291  1167.489
 292  720.9318
 293  728.6986
 294  918.1824
 295  1346.711
 296  1209.841
 297  828.1998
 298  974.6043
 299  587.037
 300  714.8005
 301  963.3749
 302  1212.052
 303  811.4714
 304  658.7971
 305  972.1008
 306  993.9611
 307  722.0946
 308  888.1808
 309  1045.575
 310  884.6804
 311  876.6946
 312  877.6069
 313  1099.238
 314  1325.665
 315  1341.108
 316  1324.856
 317  1350.076
 318  1477.522
 319  1707.373
 320  1845.267
 321  2035.16
 322  2543.338
 323  2715.005
 324  2796.142
 325  2470.092
 326  2016.94
 327  1448.057
 328  1189.984
 329  966.5228
 330  822.3027
 331  1273.242
 332  1110.553
 333  1159.209
 334  897.8671
 335  1001.646
 336  1145.1
 337  1108.313
 338  1145.02
 339  1103.026
 340  827.1552
 341  673.9223
 342  1051.951
 343  828.8795
 344  508.6924
 345  603.3513
 346  841.7534
 347  898.347
 348  703.5959
 349  468.7817
 350  644.0944
 351  999.9196
 352  759.2527
 353  596.7289
 354  765.8714
 355  1023.553
 356  705.7188
 357  538.7511
 358  837.9685
 359  569.1406
 360  595.1446
 361  681.9855
 362  791.4396
 363  805.207
 364  804.9355
 365  756.4388
 366  501.9273
 367  838.124
 368  812.0716
 369  930.4606
 370  1090.049
 371  944.4578
 372  996.3708
 373  943.2241
 374  1050.351
 375  888.2798
 376  678.7304
 377  1225.732
 378  959.5924
 379  1077.12
 380  1206.995
 381  920.1992
 382  878.8682
 383  925.6555
 384  1002.414
 385  639.6196
 386  606.3718
 387  943.9745
 388  778.9724
 389  1251.684
 390  745.7121
 391  637.6535
 392  768.8694
 393  546.2056
 394  737.9902
 395  587.7533
 396  588.5632
 397  643.5189
 398  754.6582
 399  1052.707
 400  931.6644
 401  712.7706
 402  907.7211
 403  708.3703
 404  877.9331
 405  828.1119
 406  1087.64
 407  957.0062
 408  961.9767
 409  912.2733
 410  941.5828
 411  971.7423
 412  1033.692
 413  1167.824
 414  1023.301
 415  800.2705
 416  878.5275
 417  702.0638
 418  1139.814
 419  992.3828
 420  794.4708
 421  844.2907
 422  1297.402
 423  1225.794
 424  800.8514
 425  896.4955
 426  1135.344
 427  1291.309
 428  1118.862
 429  896.0027
 430  769.6877
 431  826.0228
 432  756.2389
 433  964.1219
 434  981.19
 435  1017.59
 436  938.7681
 437  955.5997
 438  832.7634
 439  787.6531
 440  745.1035
 441  544.0709
 442  737.3843
 443  1291.241
 444  1006.065
 445  1074.11
 446  1063.209
 447  482.7661
 448  585.2929
 449  525.8304
 450  402.3975
 451  624.9392
 452  676.2776
 453  777.577
 454  772.7217
 455  638.2488
 456  929.882
 457  649.8163
 458  379.2643
 459  540.1843
 460  657.6897
 461  700.9178
 462  657.7106
 463  800.6991
 464  953.446
 465  798.3364
 466  525.827
 467  579.1504
 468  460.2979
 469  752.6416
 470  960.7325
 471  1258.428
 472  1070.17
 473  969.4726
 474  785.493
 475  604.9766
 476  554.3591
 477  493.5287
 478  738.8992
 479  658.8188
 480  595.7172
 481  307.482
 482  531.2026
 483  794.563
 484  884.2289
 485  866.1845
 486  754.2697
 487  842.9871
 488  730.3314
 489  756.7789
 490  823.3434
 491  693.1245
 492  835.3392
 493  709.2442
 494  808.7274
 495  697.6543
 496  656.193
 497  840.3533
 498  817.9869
 499  749.2306
 500  649.4874
 501  491.3707
 502  720.9579
 503  901.9169
 504  777.6317
 505  1024.664
 506  936.3345
 507  838.2903
 508  347.6578
 509  572.4993
 510  804.54
 511  737.2187
