# Input file       =  1187934207.111591_cleaned.dat
# Candidate        =  PSR_0332+5434
# Telescope        =  AR
# Epoch_topo       =  57993.238728143413
# Epoch_bary       =  N/A
# T_sample         =  0.002
# Data Folded      =  7340032
# Data Avg         =  0.0388541386419091
# Data StdDev      =  3.13039516136323 
# Profile Bins     =  512
# Profile Avg      =  556.914301953703 
# Profile StdDev   =  374.811717729157 
# Reduced chi-sqr  =  1.183
# Prob(Noise)      <  0.0027   (~2.8 sigma)
# P_topo (ms)      =  714.463677739793  +/- 0.00012
# P'_topo (s/s)    =  -0                +/- 6.35e-11
# P''_topo (s/s^2) =  0                 +/- 2.8e-14
# P_bary (ms)      =  N/A
# P'_bary (s/s)    =  N/A
# P''_bary (s/s^2) =  N/A
# P_orb (s)        =  N/A
# asin(i)/c (s)    =  N/A
# eccentricity     =  N/A
# w (rad)          =  N/A
# T_peri           =  N/A
######################################################
   0  453.2
   1  564.4309
   2  544.4036
   3  405.6637
   4  733.5192
   5  846.0918
   6  560.6336
   7  248.4069
   8  600.7218
   9  600.2831
  10  455.3676
  11  902.3404
  12  1036.908
  13  981.7146
  14  699.799
  15  88.06634
  16  -112.4523
  17  894.1734
  18  829.9365
  19  597.5247
  20  395.1389
  21  369.4503
  22  447.0247
  23  442.7062
  24  702.7072
  25  703.9152
  26  408.5416
  27  665.1262
  28  438.3651
  29  505.9984
  30  468.0836
  31  411.8373
  32  458.2253
  33  577.3794
  34  62.75109
  35  209.2549
  36  229.2149
  37  716.9024
  38  578.03
  39  373.1635
  40  457.8859
  41  536.006
  42  287.963
  43  241.4902
  44  481.0505
  45  388.6738
  46  575.86
  47  532.5808
  48  668.5925
  49  454.8697
  50  697.3477
  51  695.4659
  52  595.6138
  53  784.5818
  54  762.5541
  55  530.5779
  56  660.248
  57  200.8506
  58  -4.255877
  59  340.8891
  60  550.7686
  61  720.5559
  62  525.8418
  63  776.3333
  64  894.7666
  65  373.6724
  66  449.3846
  67  337.1829
  68  260.4843
  69  387.4046
  70  541.4285
  71  162.0208
  72  343.1578
  73  358.8223
  74  551.3603
  75  390.2893
  76  173.5118
  77  542.0856
  78  542.6476
  79  119.5092
  80  183.3033
  81  -5.080642
  82  112.4895
  83  185.1006
  84  351.3471
  85  223.2718
  86  174.1499
  87  518.9106
  88  179.1128
  89  255.3267
  90  199.1494
  91  372.9251
  92  560.7692
  93  485.1713
  94  697.0204
  95  475.7555
  96  178.8012
  97  504.4464
  98  375.2667
  99  707.2987
 100  549.3899
 101  313.0195
 102  292.7216
 103  632.3735
 104  457.6693
 105  261.9688
 106  581.1874
 107  439.0012
 108  330.408
 109  474.9319
 110  483.7665
 111  689.663
 112  456.4107
 113  312.7126
 114  147.1571
 115  80.38094
 116  493.0096
 117  270.9946
 118  299.9765
 119  336.8367
 120  550.1698
 121  430.4397
 122  393.0898
 123  340.7125
 124  510.8024
 125  529.4599
 126  715.199
 127  849.6793
 128  883.649
 129  733.7567
 130  477.356
 131  663.8904
 132  635.6251
 133  430.7903
 134  377.1622
 135  191.0631
 136  -0.9652493
 137  123.4653
 138  -64.17135
 139  494.289
 140  492.8275
 141  524.1531
 142  239.9066
 143  396.1334
 144  575.0363
 145  785.4875
 146  742.097
 147  256.262
 148  377.3306
 149  392.0757
 150  792.2626
 151  985.1168
 152  1016.916
 153  748.6607
 154  904.8943
 155  670.0911
 156  601.8944
 157  369.9382
 158  854.327
 159  1000.486
 160  950.7162
 161  701.4966
 162  644.2683
 163  265.2542
 164  290.5597
 165  35.79704
 166  586.4354
 167  1044.045
 168  859.4527
 169  658.5159
 170  230.4304
 171  747.6714
 172  840.2178
 173  544.017
 174  776.6068
 175  985.2361
 176  1096.408
 177  539.4892
 178  296.7302
 179  461.9713
 180  301.703
 181  828.9839
 182  791.2106
 183  467.64
 184  559.0284
 185  871.7144
 186  775.3908
 187  1034.381
 188  282.9465
 189  152.1773
 190  366.6239
 191  246.8865
 192  352.9572
 193  465.3626
 194  581.6564
 195  566.955
 196  543.5367
 197  970.6919
 198  866.752
 199  536.8127
 200  692.0663
 201  929.6392
 202  491.1894
 203  309.6837
 204  397.5302
 205  505.0364
 206  481.3965
 207  458.9204
 208  286.7535
 209  74.08089
 210  610.9766
 211  796.5615
 212  548.5974
 213  705.2563
 214  741.7115
 215  619.7259
 216  404.8195
 217  976.3126
 218  1044.526
 219  631.6549
 220  651.527
 221  693.6939
 222  675.5499
 223  1053.416
 224  299.0543
 225  385.963
 226  753.3642
 227  973.5629
 228  616.2369
 229  277.5888
 230  560.8384
 231  456.2814
 232  584.0541
 233  431.0452
 234  246.9265
 235  280.4367
 236  500.2843
 237  931.5392
 238  553.6381
 239  260.4877
 240  701.699
 241  635.4721
 242  864.1663
 243  696.1105
 244  -181.9129
 245  40.02237
 246  756.5781
 247  673.3563
 248  527.1166
 249  173.4295
 250  394.3704
 251  830.7333
 252  694.3224
 253  494.0311
 254  278.2839
 255  218.0809
 256  453.4678
 257  572.0103
 258  316.5119
 259  411.3658
 260  338.1399
 261  369.4577
 262  347.8579
 263  401.3065
 264  429.7185
 265  450.8316
 266  323.4012
 267  541.2767
 268  503.6702
 269  -14.56081
 270  419.9644
 271  375.347
 272  506.7025
 273  887.3229
 274  614.6005
 275  461.9262
 276  636.295
 277  442.3853
 278  102.2383
 279  888.5414
 280  648.4098
 281  647.3772
 282  57.55873
 283  283.362
 284  309.1569
 285  425.0876
 286  191.943
 287  366.6984
 288  730.4445
 289  623.0694
 290  413.548
 291  353.3497
 292  469.5971
 293  420.3497
 294  596.5869
 295  282.9347
 296  84.98071
 297  369.2544
 298  655.8215
 299  527.0141
 300  652.6884
 301  972.8657
 302  495.5256
 303  454.9977
 304  886.216
 305  787.1935
 306  708.8438
 307  605.2042
 308  342.1501
 309  84.10552
 310  288.7444
 311  567.0938
 312  948.6266
 313  765.2716
 314  860.8676
 315  1011.066
 316  1143.213
 317  952.2984
 318  708.1614
 319  575.8299
 320  1302.899
 321  2000.332
 322  2270.936
 323  2193.068
 324  1910.895
 325  1271.311
 326  922.0829
 327  563.3972
 328  703.9185
 329  887.8497
 330  1123.744
 331  1040.156
 332  632.2795
 333  566.6239
 334  322.5943
 335  103.527
 336  50.06638
 337  248.3079
 338  259.5692
 339  518.66
 340  885.8148
 341  210.553
 342  524.4805
 343  915.0434
 344  739.4468
 345  579.171
 346  537.5204
 347  329.3589
 348  323.804
 349  140.5995
 350  426.5398
 351  199.7316
 352  210.5653
 353  141.4766
 354  -104.3387
 355  343.821
 356  759.9719
 357  487.9132
 358  130.4631
 359  255.0712
 360  187.6991
 361  621.2709
 362  656.767
 363  562.9087
 364  525.1479
 365  494.8404
 366  766.1615
 367  699.4128
 368  812.1168
 369  564.6465
 370  564.5023
 371  790.7409
 372  1052.546
 373  645.6226
 374  569.3384
 375  794.6279
 376  565.7184
 377  424.1589
 378  273.7877
 379  618.8683
 380  409.7735
 381  339.6192
 382  865.187
 383  590.0291
 384  582.038
 385  927.3524
 386  694.7753
 387  161.6588
 388  162.5593
 389  443.2788
 390  519.528
 391  337.2173
 392  55.78963
 393  110.1285
 394  414.9403
 395  752.1942
 396  356.3004
 397  447.9802
 398  1060.922
 399  773.2731
 400  700.6826
 401  740.5187
 402  582.7704
 403  866.3527
 404  1145.203
 405  917.7025
 406  908.0225
 407  1011.049
 408  1015.076
 409  902.8233
 410  1149.93
 411  932.2098
 412  763.0012
 413  523.3561
 414  815.7692
 415  736.5399
 416  697.2924
 417  217.4391
 418  90.49692
 419  437.4378
 420  450.9892
 421  70.27469
 422  481.2688
 423  588.9933
 424  684.255
 425  -50.59394
 426  63.71717
 427  118.1456
 428  419.5984
 429  826.4148
 430  533.829
 431  535.7675
 432  888.1523
 433  745.1159
 434  670.9852
 435  1043.354
 436  586.045
 437  379.6899
 438  561.7183
 439  669.1499
 440  277.1967
 441  885.4171
 442  875.399
 443  605.5276
 444  553.9937
 445  692.6694
 446  918.1412
 447  825.9395
 448  559.399
 449  535.1354
 450  570.2235
 451  1002.825
 452  343.1936
 453  297.4345
 454  602.8427
 455  512.6688
 456  485.9142
 457  639.6105
 458  732.9723
 459  1081.179
 460  784.1029
 461  704.6283
 462  730.0359
 463  206.2507
 464  205.9102
 465  845.0469
 466  605.3234
 467  811.0424
 468  790.384
 469  907.5497
 470  417.951
 471  609.468
 472  794.4831
 473  773.5734
 474  598.39
 475  735.9141
 476  818.2968
 477  687.1316
 478  388.707
 479  605.4063
 480  556.1116
 481  575.0977
 482  737.6682
 483  592.4521
 484  321.1385
 485  367.6203
 486  737.1278
 487  666.938
 488  704.0221
 489  809.149
 490  622.3884
 491  104.1846
 492  594.0487
 493  498.5619
 494  861.591
 495  563.3622
 496  819.3668
 497  715.0998
 498  783.3892
 499  582.5889
 500  226.5127
 501  342.755
 502  330.4169
 503  435.5167
 504  771.9292
 505  249.7408
 506  501.9089
 507  1056.67
 508  1260.437
 509  1015.392
 510  1009.611
 511  696.9486
