# Input file       =  1187934207.111591_cleaned.dat
# Candidate        =  PSR_0332+5434
# Telescope        =  AR
# Epoch_topo       =  57993.238728143413
# Epoch_bary       =  N/A
# T_sample         =  0.002
# Data Folded      =  7340032
# Data Avg         =  0.0388541386419091
# Data StdDev      =  3.13039516136323 
# Profile Bins     =  512
# Profile Avg      =  556.914301963174 
# Profile StdDev   =  374.811717729157 
# Reduced chi-sqr  =  1.181
# Prob(Noise)      <  0.00297   (~2.8 sigma)
# P_topo (ms)      =  714.463677988724  +/- 0.000125
# P'_topo (s/s)    =  -0                +/- 6.61e-11
# P''_topo (s/s^2) =  0                 +/- 2.92e-14
# P_bary (ms)      =  N/A
# P'_bary (s/s)    =  N/A
# P''_bary (s/s^2) =  N/A
# P_orb (s)        =  N/A
# asin(i)/c (s)    =  N/A
# eccentricity     =  N/A
# w (rad)          =  N/A
# T_peri           =  N/A
######################################################
   0  773.0906
   1  534.329
   2  531.3635
   3  665.7847
   4  886.7239
   5  266.7537
   6  390.1106
   7  635.6544
   8  462.7193
   9  506.9964
  10  651.6708
  11  830.4316
  12  1053.78
  13  714.7325
  14  761.9634
  15  654.4237
  16  87.6153
  17  388.9286
  18  827.2882
  19  588.8215
  20  843.8229
  21  766.8419
  22  905.6665
  23  342.3075
  24  719.4905
  25  795.7629
  26  724.2037
  27  607.2144
  28  769.9285
  29  819.7908
  30  604.0637
  31  401.0386
  32  625.7919
  33  506.3927
  34  651.9633
  35  718.9792
  36  535.1216
  37  264.2746
  38  503.4958
  39  727.2092
  40  677.2917
  41  699.9748
  42  847.5728
  43  447.5014
  44  189.3556
  45  605.4766
  46  544.7587
  47  854.9539
  48  508.7986
  49  911.1208
  50  647.5436
  51  862.9801
  52  405.3388
  53  249.2347
  54  353.1903
  55  340.6685
  56  544.8389
  57  699.5038
  58  187.1137
  59  660.5866
  60  1117.595
  61  1240.037
  62  984.0264
  63  983.7205
  64  611.9855
  65  469.7372
  66  585.2744
  67  513.8212
  68  429.3869
  69  816.7159
  70  783.891
  71  483.291
  72  233.5149
  73  718.2596
  74  518.6715
  75  521.3799
  76  962.6964
  77  1048.129
  78  887.9294
  79  640.3654
  80  -75.78688
  81  100.1975
  82  1015.838
  83  714.2277
  84  559.3212
  85  362.2048
  86  414.4563
  87  415.9127
  88  509.5256
  89  738.1837
  90  634.8508
  91  410.5732
  92  676.5779
  93  432.2461
  94  500.0064
  95  432.6817
  96  395.6848
  97  557.436
  98  430.2285
  99  60.86544
 100  182.7261
 101  355.8777
 102  740.5514
 103  527.6669
 104  364.4337
 105  497.397
 106  493.9127
 107  221.067
 108  327.6653
 109  490.7604
 110  450.2331
 111  553.8897
 112  512.7849
 113  663.1535
 114  463.946
 115  749.7795
 116  627.7894
 117  660.1955
 118  814.9947
 119  666.4079
 120  534.0461
 121  635.0256
 122  56.38388
 123  141.6044
 124  331.9241
 125  664.0519
 126  638.8247
 127  542.5721
 128  889.3061
 129  735.22
 130  418.4779
 131  383.6711
 132  369.9038
 133  221.9561
 134  497.1045
 135  424.576
 136  175.9011
 137  337.2917
 138  432.839
 139  530.8828
 140  329.4915
 141  188.3087
 142  627.3097
 143  470.1028
 144  70.95448
 145  198.2086
 146  -72.75054
 147  167.6374
 148  194.0989
 149  393.7116
 150  133.1897
 151  296.2198
 152  432.0993
 153  208.2767
 154  196.7054
 155  296.4465
 156  359.3716
 157  594.2333
 158  499.334
 159  751.6735
 160  327.9672
 161  260.742
 162  440.2971
 163  439.0937
 164  760.7756
 165  433.1845
 166  295.1205
 167  295.5728
 168  702.8355
 169  374.1882
 170  347.0277
 171  621.0298
 172  386.6961
 173  367.3722
 174  437.5941
 175  538.1354
 176  657.4642
 177  388.368
 178  315.9558
 179  79.10329
 180  192.4162
 181  512.5179
 182  220.9631
 183  290.3628
 184  409.0908
 185  514.2731
 186  450.6279
 187  332.2608
 188  401.5309
 189  479.5244
 190  577.1852
 191  787.2402
 192  844.2354
 193  885.2344
 194  618.8048
 195  508.091
 196  713.0295
 197  595.366
 198  409.8276
 199  339.699
 200  113.2867
 201  31.55979
 202  52.43383
 203  13.30968
 204  581.8071
 205  454.2263
 206  528.9368
 207  177.125
 208  513.4948
 209  567.1698
 210  865.3608
 211  620.6899
 212  195.7647
 213  413.9135
 214  439.5584
 215  872.4456
 216  1038.496
 217  917.0391
 218  831.8072
 219  844.5649
 220  653.4965
 221  511.1779
 222  466.3343
 223  908.7011
 224  997.8279
 225  896.5357
 226  706.9161
 227  568.1433
 228  262.6361
 229  243.5139
 230  53.92321
 231  742.2469
 232  1007.508
 233  853.5574
 234  579.4277
 235  268.6977
 236  850.8265
 237  722.6628
 238  556.1431
 239  842.1259
 240  1024.428
 241  1044.641
 242  390.9479
 243  383.3728
 244  391.6423
 245  385.0206
 246  915.4828
 247  679.9402
 248  464.7239
 249  642.6486
 250  842.1985
 251  869.5482
 252  926.6212
 253  140.1165
 254  228.1694
 255  362.1621
 256  226.1019
 257  435.1922
 258  451.7789
 259  601.1855
 260  548.0293
 261  584.5598
 262  1071.739
 263  704.1222
 264  581.2208
 265  764.178
 266  900.8932
 267  394.5197
 268  311.8045
 269  447.4966
 270  462.3594
 271  478.1237
 272  457.0837
 273  180.4759
 274  201.8082
 275  668.4801
 276  801.0861
 277  491.9924
 278  766.3337
 279  683.996
 280  596.8152
 281  440.7821
 282  1138.82
 283  874.2056
 284  607.2032
 285  691.2239
 286  669.1215
 287  787.9487
 288  951.9768
 289  210.7604
 290  483.3149
 291  820.7777
 292  943.1682
 293  457.1249
 294  393.4601
 295  520.892
 296  483.1808
 297  572.3156
 298  360.554
 299  231.8596
 300  311.6742
 301  629.8079
 302  922.6796
 303  377.0642
 304  397.412
 305  723.6796
 306  637.9579
 307  932.5015
 308  511.0204
 309  -324.249
 310  256.9499
 311  761.9648
 312  717.6991
 313  419.647
 314  174.6043
 315  486.5814
 316  905.2339
 317  591.3304
 318  456.6057
 319  223.1651
 320  257.6895
 321  541.0228
 322  495.4177
 323  296.8368
 324  408.6396
 325  349.0169
 326  377.6877
 327  344.2318
 328  392.2675
 329  471.7389
 330  394.2433
 331  369.0166
 332  594.8566
 333  321.8036
 334  76.92707
 335  449.8327
 336  365.9091
 337  583.9594
 338  914.6992
 339  513.4236
 340  521.3541
 341  621.3849
 342  325.7303
 343  226.243
 344  946.1469
 345  606.9296
 346  564.2451
 347  -2.996087
 348  355.0287
 349  275.8173
 350  438.9025
 351  162.9638
 352  478.1211
 353  756.1583
 354  562.0184
 355  361.9675
 356  414.5466
 357  414.7966
 358  520.6376
 359  498.1937
 360  253.856
 361  40.96745
 362  548.5561
 363  604.0679
 364  543.629
 365  690.8725
 366  932.5281
 367  376.1539
 368  625.0064
 369  856.4403
 370  842.4894
 371  606.9944
 372  632.9983
 373  177.4501
 374  191.3655
 375  277.6813
 376  730.7247
 377  910.7959
 378  748.9833
 379  876.9011
 380  1083.333
 381  1087.444
 382  950.4713
 383  625.6578
 384  696.4881
 385  1428.142
 386  2109.48
 387  2256.462
 388  2211.307
 389  1777.561
 390  1166.894
 391  832.3036
 392  496.2867
 393  784.0917
 394  912.1187
 395  1199.615
 396  900.5024
 397  618.7125
 398  545.1991
 399  242.0586
 400  72.15522
 401  120.8238
 402  254.1477
 403  275.0861
 404  590.3121
 405  820.798
 406  156.5979
 407  690.2145
 408  908.396
 409  630.7134
 410  634.9957
 411  476.3839
 412  331.6052
 413  269.8336
 414  167.4733
 415  433.7359
 416  193.116
 417  190.9092
 418  95.52378
 419  -105.4485
 420  536.4769
 421  723.7982
 422  379.404
 423  166.2504
 424  240.5282
 425  270.3596
 426  664.5319
 427  594.4278
 428  565.4636
 429  480.8284
 430  583.9967
 431  790.9635
 432  663.3063
 433  825.1099
 434  519.7975
 435  585.6364
 436  896.1307
 437  980.8353
 438  556.4084
 439  682.1156
 440  735.9229
 441  529.1647
 442  402.6855
 443  289.8685
 444  686.3825
 445  273.4032
 446  476.6822
 447  859.049
 448  550.8666
 449  670.8401
 450  939.6749
 451  523.1844
 452  119.3086
 453  241.3713
 454  456.2265
 455  551.7319
 456  213.9402
 457  93.69295
 458  78.11352
 459  559.4103
 460  688.1009
 461  304.2754
 462  621.6018
 463  1061.413
 464  697.6259
 465  747.5638
 466  679.8011
 467  629.5933
 468  954.8815
 469  1111.218
 470  852.0608
 471  975.9333
 472  1012.947
 473  991.0639
 474  918.6217
 475  1196.9
 476  857.0215
 477  712.022
 478  544.2549
 479  811.2349
 480  755.9958
 481  593.6597
 482  132.5097
 483  127.5601
 484  556.532
 485  322.3177
 486  143.6489
 487  532.4436
 488  600.8175
 489  540.7208
 490  -127.8899
 491  147.5023
 492  115.1257
 493  598.1887
 494  770.3784
 495  479.8734
 496  608.5819
 497  964.0443
 498  600.2733
 499  825.9032
 500  991.8776
 501  477.4707
 502  388.8662
 503  647.3074
 504  584.559
 505  341.4117
 506  969.0419
 507  783.382
 508  582.0325
 509  574.4
 510  747.7215
 511  917.7914
