# Input file       =  1187732385.107513_cleaned.dat
# Candidate        =  PSR_0332+5434
# Telescope        =  AR
# Epoch_topo       =  57990.902825318437
# Epoch_bary       =  N/A
# T_sample         =  0.002
# Data Folded      =  7143424
# Data Avg         =  0.170412691338885
# Data StdDev      =  3.5067708199153  
# Profile Bins     =  1024
# Profile Avg      =  1188.78188119403 
# Profile StdDev   =  292.894097731354 
# Reduced chi-sqr  =  0.618
# Prob(Noise)      <  1   (~0.0 sigma)
# P_topo (ms)      =  714.463378738703  +/- 0.000136
# P'_topo (s/s)    =  -0                +/- 7.35e-11
# P''_topo (s/s^2) =  0                 +/- 3.33e-14
# P_bary (ms)      =  N/A
# P'_bary (s/s)    =  N/A
# P''_bary (s/s^2) =  N/A
# P_orb (s)        =  N/A
# asin(i)/c (s)    =  N/A
# eccentricity     =  N/A
# w (rad)          =  N/A
# T_peri           =  N/A
######################################################
   0  1125.136
   1  1200.804
   2  1296.728
   3  1323.45
   4  1265.44
   5  1199.679
   6  1163.91
   7  1188.392
   8  1211.89
   9  1173.601
  10  1150.126
  11  1130.043
  12  1203.717
  13  1240.958
  14  1220.144
  15  1243.939
  16  1218.309
  17  1204.81
  18  1106.741
  19  1117.127
  20  1111.425
  21  1128.981
  22  1125.041
  23  1064.046
  24  1079.574
  25  1107.852
  26  1072.389
  27  1100.854
  28  1091.036
  29  1097.714
  30  1043.303
  31  1052.897
  32  1082.298
  33  1007.859
  34  1049.303
  35  1045.545
  36  1025.397
  37  1033.786
  38  1126.261
  39  1243.5
  40  1239.627
  41  1144.275
  42  1133.905
  43  1215.308
  44  1272.416
  45  1358.984
  46  1274.236
  47  1296.633
  48  1275.114
  49  1273.651
  50  1165.783
  51  1072.18
  52  1145.541
  53  1202.099
  54  1276.551
  55  1302.169
  56  1258.279
  57  1125.326
  58  1027.118
  59  1028.654
  60  1126.876
  61  1141.309
  62  1274.765
  63  1246.425
  64  1242.428
  65  1272.272
  66  1275.694
  67  1248.062
  68  1241.255
  69  1361.203
  70  1296.454
  71  1202.159
  72  1139.39
  73  1157.959
  74  1155.436
  75  1260.209
  76  1351.928
  77  1238.262
  78  1157.542
  79  1055.59
  80  1119.486
  81  1113.65
  82  1166.4
  83  1168.884
  84  1125.86
  85  1078.992
  86  1112.343
  87  1158.473
  88  1203.716
  89  1222.277
  90  1226.323
  91  1267.563
  92  1318.378
  93  1282.528
  94  1073.875
  95  1049.761
  96  1196.999
  97  1374.112
  98  1341.096
  99  1309.095
 100  1245.403
 101  1262.147
 102  1291.367
 103  1361.684
 104  1356.13
 105  1231.288
 106  1211.645
 107  1084.341
 108  1018.171
 109  941.9767
 110  984.7937
 111  1058.667
 112  1155.237
 113  1304.4
 114  1286.1
 115  1245.034
 116  1109.272
 117  1200.138
 118  1215.065
 119  1257.151
 120  1232.865
 121  1216.717
 122  1152.892
 123  1072.823
 124  976.8593
 125  945.1343
 126  934.6614
 127  996.8759
 128  1024.492
 129  1023.429
 130  1200.867
 131  1245.616
 132  1167.458
 133  1061.425
 134  1193.523
 135  1235.664
 136  1182.424
 137  1129.709
 138  1150.322
 139  1109.719
 140  1106.327
 141  1280.715
 142  1325.719
 143  1327.509
 144  1244.354
 145  1205.971
 146  1196.228
 147  1256.432
 148  1354.432
 149  1275.192
 150  1270.782
 151  1233.409
 152  1359.564
 153  1248.417
 154  1326.903
 155  1283.298
 156  1326.565
 157  1214.266
 158  1202.858
 159  1080.651
 160  980.9773
 161  888.4706
 162  1103.143
 163  1265.826
 164  1416.254
 165  1355.916
 166  1255.938
 167  1173.744
 168  1131.591
 169  1119.229
 170  1185.544
 171  1205.31
 172  1266.454
 173  1122.396
 174  1080.113
 175  1014.714
 176  1063.418
 177  1217.986
 178  1325.229
 179  1336.446
 180  1217.159
 181  1205.675
 182  1134.09
 183  1121.049
 184  953.2124
 185  1070.427
 186  1057.142
 187  1054.938
 188  1074.375
 189  1230.932
 190  1245.047
 191  1185.759
 192  1171.448
 193  1175.034
 194  1057.582
 195  1148.188
 196  1160.928
 197  1156.669
 198  1130.817
 199  1187.617
 200  1207.889
 201  1146.739
 202  1167.027
 203  1148.702
 204  1178.545
 205  1149.104
 206  1195.057
 207  1188.246
 208  1276.869
 209  1324.973
 210  1356.18
 211  1221.622
 212  1040.835
 213  1051.666
 214  1019.2
 215  1030.975
 216  1094.818
 217  1162.286
 218  1242.503
 219  1265.567
 220  1260.57
 221  1121.441
 222  992.436
 223  1006.698
 224  1163.055
 225  1064.988
 226  1048.951
 227  952.7062
 228  1040.951
 229  1056.648
 230  1245.926
 231  1228.451
 232  1269.943
 233  1373.481
 234  1363.954
 235  1259.098
 236  1061.601
 237  1121.348
 238  1037.845
 239  1049.737
 240  1156.899
 241  1201.669
 242  1199.021
 243  1177.218
 244  1201.375
 245  1102.718
 246  971.4479
 247  979.2162
 248  1070.223
 249  1165.228
 250  1234.131
 251  1297.987
 252  1261.333
 253  1121.854
 254  1114.448
 255  1159.45
 256  1278.713
 257  1235.201
 258  1232.275
 259  1097.072
 260  1122.534
 261  1200.177
 262  1171.581
 263  1118.299
 264  1072.952
 265  1159.618
 266  1237.414
 267  1218.747
 268  1232.31
 269  1206.08
 270  1212.015
 271  1179.214
 272  1213.037
 273  1162.301
 274  1212.497
 275  1177.103
 276  1222.937
 277  1219.045
 278  1278.061
 279  1158.704
 280  1084.748
 281  975.2549
 282  1141.945
 283  1113.326
 284  1216.729
 285  1252.635
 286  1347.255
 287  1318.251
 288  1321.242
 289  1213.182
 290  1155.583
 291  1174.071
 292  1255.721
 293  1237.11
 294  1145.176
 295  1079.12
 296  1002.641
 297  1027.688
 298  1069.637
 299  1015.557
 300  991.7469
 301  1009.641
 302  1194.023
 303  1166.622
 304  1154.069
 305  1025.457
 306  1005.677
 307  1014.301
 308  1075.905
 309  1244.905
 310  1283.132
 311  1259.032
 312  1328.692
 313  1283.053
 314  1294.848
 315  1101.561
 316  1166.383
 317  1126.439
 318  1171.023
 319  1086.828
 320  1070.947
 321  992.3656
 322  1074.605
 323  1114.742
 324  1157.393
 325  1091.751
 326  1142.944
 327  1176.121
 328  1167.158
 329  1182.834
 330  1177.052
 331  1179.855
 332  1197.134
 333  1247.691
 334  1183.133
 335  1117.612
 336  1121.866
 337  1126.037
 338  1174.798
 339  1220.923
 340  1286.357
 341  1247.024
 342  1294.202
 343  1289.723
 344  1184.424
 345  1086.841
 346  1006.615
 347  1115.682
 348  1156.037
 349  1273.757
 350  1224.982
 351  1308.405
 352  1289.864
 353  1391.816
 354  1287.904
 355  1220.837
 356  1270.457
 357  1308.17
 358  1191.444
 359  1051.896
 360  938.0419
 361  988.7592
 362  897.3066
 363  1045.603
 364  1124.391
 365  1171.373
 366  1177.645
 367  1175.034
 368  1121.464
 369  957.7933
 370  1007.668
 371  1061.121
 372  1088.714
 373  1098.623
 374  1171.332
 375  1296.412
 376  1295.531
 377  1371.722
 378  1259.865
 379  1311.727
 380  1252.091
 381  1240.371
 382  1118.124
 383  1080.637
 384  1167.616
 385  1226.51
 386  1304.463
 387  1266.303
 388  1158.341
 389  1070.257
 390  1120.621
 391  1204.912
 392  1276.402
 393  1244.546
 394  1290.94
 395  1193.111
 396  1126.065
 397  1212.573
 398  1253.486
 399  1228.674
 400  1134.677
 401  1171.908
 402  1081.188
 403  1058.493
 404  1006.639
 405  989.3656
 406  821.4249
 407  864.8167
 408  1021.663
 409  1064.136
 410  1020.831
 411  949.1421
 412  1063.299
 413  1117.587
 414  1098.306
 415  1118.558
 416  1113.418
 417  1177.994
 418  1125.172
 419  1004.493
 420  959.1845
 421  1035.662
 422  1156.936
 423  1142.134
 424  1058.286
 425  1084.436
 426  1118.049
 427  1136.768
 428  1199.118
 429  1259.104
 430  1234.756
 431  1207.358
 432  1083.231
 433  1040.993
 434  1041.868
 435  1253.542
 436  1281.332
 437  1146.166
 438  1084.342
 439  1102.154
 440  1123.45
 441  946.5994
 442  1003.005
 443  1050.688
 444  1059.161
 445  997.393
 446  993.9669
 447  975.6633
 448  946.5631
 449  966.2065
 450  1063.735
 451  1179.731
 452  1171.52
 453  1187.191
 454  1142.211
 455  1135.167
 456  1089.458
 457  1161.5
 458  1137.318
 459  1171.566
 460  1168.265
 461  1218.571
 462  1157.492
 463  1150.3
 464  1211.529
 465  1231.593
 466  1172.495
 467  1092.904
 468  1092.62
 469  1157.987
 470  1172.297
 471  1186.84
 472  1194.364
 473  1264.38
 474  1141.771
 475  1048.412
 476  1069.294
 477  1167.303
 478  1225.123
 479  1177.246
 480  1286.422
 481  1152.205
 482  1174.33
 483  1156.872
 484  1143.605
 485  1021.746
 486  982.3173
 487  1074.358
 488  1065.063
 489  969.8046
 490  1059.657
 491  1150.413
 492  1184.188
 493  1136.716
 494  1188.666
 495  1205.253
 496  1177.33
 497  1182.403
 498  1142.219
 499  1095.912
 500  1145.46
 501  1195.69
 502  1154.851
 503  1164.975
 504  1197.109
 505  1276.657
 506  1284.589
 507  1214.654
 508  1116.209
 509  1160.985
 510  1128.189
 511  1136.418
 512  1017.738
 513  1039.695
 514  1142.642
 515  1296.318
 516  1269.435
 517  1234.012
 518  1238.591
 519  1290.858
 520  1266.711
 521  1252
 522  1136.643
 523  1079.19
 524  1076.281
 525  1247.005
 526  1167.035
 527  1184.898
 528  1132.132
 529  1157.704
 530  1171.579
 531  1187.294
 532  1237.08
 533  1144.958
 534  1203.512
 535  1175.813
 536  1170.377
 537  1139.872
 538  1138.919
 539  1048.321
 540  973.2444
 541  1149.448
 542  1340.178
 543  1294.491
 544  1162.366
 545  1199.816
 546  1228.414
 547  1240.24
 548  1283.842
 549  1350.252
 550  1214.219
 551  1074.026
 552  983.7141
 553  950.5744
 554  877.9934
 555  973.4259
 556  1049.269
 557  1153.696
 558  1218.653
 559  1239.749
 560  1255.14
 561  1182.213
 562  1233.047
 563  1263.376
 564  1269.975
 565  1251.727
 566  1192.136
 567  1146.054
 568  1031.895
 569  1014.642
 570  971.2506
 571  1004.025
 572  919.4963
 573  987.7257
 574  959.1033
 575  989.6215
 576  1035.297
 577  1042.214
 578  1239.759
 579  1277.995
 580  1291.974
 581  1254.282
 582  1223.078
 583  1222.257
 584  1265.363
 585  1302.461
 586  1425.366
 587  1242.025
 588  1114.249
 589  1090.957
 590  1152.458
 591  1087.508
 592  1053.42
 593  1134.63
 594  1172.986
 595  1181.407
 596  1259.544
 597  1375.627
 598  1341.421
 599  1297.941
 600  1273.224
 601  1189.807
 602  1194.071
 603  1156.433
 604  1127.84
 605  1118.548
 606  1201.169
 607  1275.455
 608  1208.588
 609  1194.292
 610  1339.549
 611  1368.427
 612  1298.775
 613  1213.584
 614  1310.659
 615  1377.62
 616  1348.294
 617  1265.455
 618  1076.482
 619  1018.546
 620  1128.748
 621  1287.249
 622  1270.958
 623  1217.994
 624  1216.313
 625  1187.241
 626  1103.099
 627  1141.328
 628  1211.958
 629  1293.115
 630  1323.888
 631  1326.781
 632  1399.897
 633  1355.602
 634  1416.632
 635  1369.64
 636  1363.835
 637  1288.474
 638  1335.178
 639  1329.947
 640  1492.118
 641  1559.43
 642  1639.955
 643  1663.424
 644  1899.518
 645  2029.208
 646  2071.253
 647  1981.232
 648  1891.256
 649  1764.782
 650  1728.238
 651  1684.294
 652  1576.657
 653  1423.352
 654  1320.624
 655  1268.024
 656  1320.991
 657  1383.891
 658  1555.26
 659  1422.784
 660  1335.792
 661  1296.089
 662  1331.419
 663  1318.323
 664  1372.939
 665  1562.946
 666  1443.005
 667  1301.654
 668  1147.642
 669  1239.572
 670  1306.351
 671  1337.606
 672  1400.078
 673  1299.703
 674  1293.098
 675  1349.641
 676  1498.306
 677  1431.298
 678  1386.875
 679  1337.273
 680  1350.013
 681  1309.618
 682  1341.46
 683  1283.103
 684  1202.595
 685  1179.463
 686  1172.011
 687  1154.071
 688  1235.831
 689  1336.051
 690  1189.101
 691  1072.56
 692  1094.378
 693  1243.546
 694  1212.13
 695  1138.062
 696  1115.124
 697  1141.147
 698  1326.663
 699  1428.432
 700  1482.975
 701  1345.895
 702  1247.678
 703  1139.261
 704  1152.243
 705  1096.607
 706  1153.117
 707  1141.56
 708  1181.13
 709  1214.994
 710  1181.595
 711  1159.59
 712  1086.443
 713  1088.387
 714  991.504
 715  1060.787
 716  1208.764
 717  1291.386
 718  1145.93
 719  1107.225
 720  1016.332
 721  1027.689
 722  1105.511
 723  1111.761
 724  1085.671
 725  1024.736
 726  1229.024
 727  1330.654
 728  1377.995
 729  1435.97
 730  1421.651
 731  1223.139
 732  1000.648
 733  1049.067
 734  1144.056
 735  1184.284
 736  1223.33
 737  1275.075
 738  1141.095
 739  1057.787
 740  1182.776
 741  1294.986
 742  1267.158
 743  1246.336
 744  1292.93
 745  1359.315
 746  1378.427
 747  1324.608
 748  1215.891
 749  990.4522
 750  1002.705
 751  1061.034
 752  1204.643
 753  1215.397
 754  1230.495
 755  1229.468
 756  1089.888
 757  1088.495
 758  1201.981
 759  1346.899
 760  1359.36
 761  1293.137
 762  1176.26
 763  1123.248
 764  1079.703
 765  1008.683
 766  1067.318
 767  1147.978
 768  1199.507
 769  1058.834
 770  1068.357
 771  1111.066
 772  1159.501
 773  1262.587
 774  1248.688
 775  1287.709
 776  1137.314
 777  1159.554
 778  1173.28
 779  1269.981
 780  1185.42
 781  1142.855
 782  1119.877
 783  1120.624
 784  1167.234
 785  1189.554
 786  1119.077
 787  1051.127
 788  1036.638
 789  1118.403
 790  1121.405
 791  1240.506
 792  1157.348
 793  1109.79
 794  1150.215
 795  1265.897
 796  1305.311
 797  1221.999
 798  1299.13
 799  1311.796
 800  1268.56
 801  1279.424
 802  1224.153
 803  1248.324
 804  1226.711
 805  1297.123
 806  1169.357
 807  1076.135
 808  1069.275
 809  1105.125
 810  1112.707
 811  1115.528
 812  1156.969
 813  1172.48
 814  1110.745
 815  1189.883
 816  1146.516
 817  1098.545
 818  1027.774
 819  1088.6
 820  1217.058
 821  1187.699
 822  1155.349
 823  1117.074
 824  1240.98
 825  1334.939
 826  1437.405
 827  1501.538
 828  1529.935
 829  1415.518
 830  1193.086
 831  1089.818
 832  1217.696
 833  1298.351
 834  1266.898
 835  1150.773
 836  1177.53
 837  1161.256
 838  1149.681
 839  1119.537
 840  1236.043
 841  1331
 842  1464.279
 843  1354.804
 844  1228.946
 845  1079.217
 846  1192.599
 847  1244.669
 848  1312.533
 849  1313.706
 850  1319.485
 851  1184.284
 852  1094.431
 853  1059.495
 854  1061.043
 855  1145.242
 856  1298.639
 857  1305.025
 858  1133.055
 859  1064.428
 860  1202.822
 861  1321.277
 862  1345.984
 863  1329.966
 864  1309.319
 865  1230.1
 866  1209.159
 867  1208.511
 868  1245.367
 869  1219.514
 870  1199.767
 871  1159.3
 872  1052.639
 873  1034.527
 874  1152.984
 875  1201.622
 876  1101.272
 877  1130.735
 878  1226.203
 879  1280.423
 880  1272.633
 881  1238.418
 882  1151.295
 883  1059.375
 884  1110.34
 885  1163.78
 886  1097.949
 887  1230.688
 888  1197.039
 889  1260.374
 890  1280.321
 891  1216.709
 892  1186.31
 893  1121.42
 894  1168.058
 895  1171.259
 896  1167.689
 897  1155.505
 898  1176.106
 899  1100.759
 900  1091.597
 901  1176.007
 902  1164.241
 903  1200.509
 904  1163.28
 905  1267.442
 906  1233.625
 907  1183.326
 908  1275.211
 909  1261.165
 910  1266.447
 911  1243.77
 912  1290.015
 913  1277.127
 914  1215.898
 915  1150.191
 916  1095.934
 917  948.5901
 918  975.8725
 919  1030.71
 920  1194.515
 921  1202.828
 922  1305.607
 923  1292.277
 924  1247.33
 925  1173.204
 926  1074.744
 927  981.9629
 928  1077.915
 929  1225.578
 930  1294.288
 931  1305.6
 932  1251.677
 933  1188.323
 934  1160.151
 935  1216.399
 936  1329.132
 937  1299.837
 938  1333.944
 939  1338.119
 940  1262.771
 941  1241.906
 942  1160.188
 943  1189.216
 944  1195.905
 945  1167.275
 946  1202.974
 947  1174.305
 948  1214.389
 949  1320.391
 950  1258.18
 951  1230.26
 952  1231.834
 953  1256.484
 954  1137.376
 955  1048.037
 956  1117.713
 957  1173.534
 958  1181.374
 959  1259.356
 960  1348.413
 961  1378.902
 962  1310.551
 963  1204.348
 964  1096.219
 965  1142.264
 966  1132.416
 967  1133.06
 968  952.1969
 969  920.6694
 970  1031.687
 971  1072.389
 972  1055.696
 973  1094.381
 974  1131.715
 975  1212.442
 976  1289.245
 977  1357.073
 978  1340.326
 979  1253.706
 980  1297.598
 981  1267.574
 982  1201.15
 983  1158.759
 984  1094.349
 985  1049.244
 986  1068.076
 987  1092.864
 988  1128.794
 989  1057.29
 990  1172.32
 991  1124.494
 992  1228.454
 993  1246.862
 994  1317.688
 995  1276.998
 996  1211.726
 997  1170.774
 998  1038.575
 999  1044.864
1000  1070.296
1001  1085.11
1002  1105.165
1003  1245.907
1004  1418.554
1005  1339.13
1006  1275.752
1007  1206.114
1008  1262.39
1009  1173.179
1010  1216.908
1011  1249.38
1012  1201.394
1013  1121.562
1014  1238.426
1015  1308.842
1016  1363.13
1017  1325.636
1018  1396.746
1019  1261.286
1020  1078.238
1021  1112.323
1022  1163.787
1023  1170.423
