# Input file       =  1187158786.106359_cleaned.dat
# Candidate        =  PSR_0332+5434
# Telescope        =  AR
# Epoch_topo       =  57984.263947990265
# Epoch_bary       =  N/A
# T_sample         =  0.002
# Data Folded      =  7340032
# Data Avg         =  0.036843469993203
# Data StdDev      =  2.66319942695933 
# Profile Bins     =  1024
# Profile Avg      =  264.132037204164 
# Profile StdDev   =  225.477228016132 
# Reduced chi-sqr  =  1.537
# Prob(Noise)      <  5.04e-26   (~10.5 sigma)
# P_topo (ms)      =  714.464380974797  +/- 0.000299
# P'_topo (s/s)    =  -0                +/- 1.58e-10
# P''_topo (s/s^2) =  0                 +/- 6.97e-14
# P_bary (ms)      =  N/A
# P'_bary (s/s)    =  N/A
# P''_bary (s/s^2) =  N/A
# P_orb (s)        =  N/A
# asin(i)/c (s)    =  N/A
# eccentricity     =  N/A
# w (rad)          =  N/A
# T_peri           =  N/A
######################################################
   0  36.88662
   1  32.7146
   2  20.08344
   3  27.29081
   4  86.10598
   5  183.4519
   6  171.4656
   7  145.5641
   8  131.5306
   9  230.0736
  10  240.6606
  11  240.5682
  12  236.9746
  13  223.0469
  14  200.9215
  15  102.7312
  16  15.84506
  17  -50.05221
  18  -32.18224
  19  55.73699
  20  141.2325
  21  230.8406
  22  260.4555
  23  287.1268
  24  203.3377
  25  71.27644
  26  -15.03328
  27  -38.63497
  28  2.034247
  29  38.69331
  30  85.78777
  31  40.63157
  32  13.96207
  33  94.21336
  34  292.8185
  35  275.174
  36  194.8657
  37  124.2859
  38  157.5631
  39  204.6299
  40  171.3793
  41  184.708
  42  185.0179
  43  258.2033
  44  300.5403
  45  375.9737
  46  286.2305
  47  273.0743
  48  177.0533
  49  159.155
  50  160.9183
  51  142.9364
  52  120.3337
  53  93.26761
  54  155.2717
  55  63.83987
  56  20.00974
  57  138.9428
  58  213.7781
  59  250.1256
  60  258.7883
  61  230.9502
  62  171.1502
  63  177.6553
  64  314.39
  65  396.55
  66  280.3245
  67  197.2715
  68  131.9206
  69  259.9654
  70  276.9663
  71  246.4048
  72  206.8139
  73  125.6799
  74  195.7857
  75  196.8537
  76  262.7549
  77  256.3726
  78  327.2656
  79  396.4655
  80  399.9041
  81  282.3762
  82  139.2043
  83  145.7447
  84  215.5328
  85  308.8505
  86  229.5961
  87  192.757
  88  244.7919
  89  273.2322
  90  257.3625
  91  206.1676
  92  183.3238
  93  316.7607
  94  331.9611
  95  327.3418
  96  232.9046
  97  244.2907
  98  140.8663
  99  140.3885
 100  105.3122
 101  71.59234
 102  51.0673
 103  45.48606
 104  128.6603
 105  135.5013
 106  191.7939
 107  310.1887
 108  362.4139
 109  278.7713
 110  135.3218
 111  148.965
 112  269.102
 113  206.6228
 114  116.4644
 115  27.54698
 116  -43.87979
 117  -60.05884
 118  -135.2661
 119  -77.84308
 120  29.77037
 121  114.7366
 122  109.3083
 123  155.2038
 124  334.3754
 125  451.3464
 126  390.9969
 127  263.377
 128  166.3811
 129  194.849
 130  112.4689
 131  78.39465
 132  82.36224
 133  196.4478
 134  199.6513
 135  24.77564
 136  1.48636
 137  95.9297
 138  285.8246
 139  238.9221
 140  237.827
 141  238.5828
 142  374.7418
 143  356.4296
 144  311.157
 145  239.0854
 146  330.9079
 147  275.777
 148  163.4043
 149  111.8781
 150  137.0775
 151  273.4046
 152  284.7828
 153  227.4661
 154  196.92
 155  203.2652
 156  298.724
 157  376.1109
 158  319.0657
 159  211.9497
 160  20.50973
 161  40.2176
 162  165.884
 163  179.6501
 164  184.7085
 165  220.3171
 166  328.007
 167  341.9394
 168  299.8663
 169  265.2882
 170  303.2989
 171  325.8542
 172  340.5322
 173  377.2038
 174  410.075
 175  376.4247
 176  220.2393
 177  129.9496
 178  209.7943
 179  344.6213
 180  320.3317
 181  135.9104
 182  2.807127
 183  120.1241
 184  125.2178
 185  101.1556
 186  83.1268
 187  195.2563
 188  225.2005
 189  202.8087
 190  300.2292
 191  303.9694
 192  250.8036
 193  261.5187
 194  366.244
 195  455.2849
 196  326.9598
 197  209.7751
 198  244.6913
 199  333.8757
 200  360.0565
 201  339.8586
 202  318.245
 203  357.3521
 204  367.7415
 205  400.4141
 206  354.8396
 207  385.2384
 208  434.9244
 209  461.2303
 210  482.0358
 211  496.2596
 212  548.502
 213  579.9805
 214  580.9902
 215  512.9491
 216  453.9478
 217  436.7234
 218  355.3717
 219  418.923
 220  430.5999
 221  435.3371
 222  370.6618
 223  321.846
 224  236.6443
 225  220.6237
 226  274.3827
 227  458.903
 228  422.9778
 229  388.8171
 230  481.4108
 231  618.6127
 232  600.5216
 233  478.0917
 234  352.129
 235  417.9712
 236  458.9359
 237  386.1624
 238  383.2007
 239  417.1822
 240  447.6717
 241  381.2955
 242  270.2335
 243  257.5838
 244  226.2453
 245  204.2688
 246  120.6012
 247  112.8301
 248  261.1309
 249  365.2849
 250  366.8098
 251  248.9024
 252  194.9775
 253  126.5245
 254  148.7169
 255  266.7844
 256  235.6413
 257  218.6932
 258  45.36101
 259  73.73758
 260  61.05862
 261  121.4058
 262  129.6132
 263  255.819
 264  324.7146
 265  281.6529
 266  218.5376
 267  48.15001
 268  37.53453
 269  16.49638
 270  129.1586
 271  189.3028
 272  187.921
 273  326.516
 274  348.1006
 275  328.0006
 276  125.1462
 277  -69.76335
 278  -20.49185
 279  152.6982
 280  319.7491
 281  314.4448
 282  318.7507
 283  265.0385
 284  260.3059
 285  256.9345
 286  337.0573
 287  421.993
 288  324.6147
 289  200.8494
 290  199.1033
 291  355.2505
 292  473.0133
 293  491.753
 294  444.0109
 295  389.6026
 296  464.0141
 297  455.9167
 298  347.185
 299  245.9925
 300  246.0799
 301  265.3595
 302  220.0161
 303  139.7186
 304  176.2021
 305  129.5243
 306  120.5015
 307  64.00743
 308  68.38748
 309  62.39381
 310  205.8754
 311  375.8884
 312  395.1595
 313  241.8285
 314  170.4618
 315  275.648
 316  319.0082
 317  186.3878
 318  61.3016
 319  13.21598
 320  54.85352
 321  142.2681
 322  256.2586
 323  269.2423
 324  242.6603
 325  330.4137
 326  370.4851
 327  334.4911
 328  302.2837
 329  358.4557
 330  401.0403
 331  310.3616
 332  275.4561
 333  246.6951
 334  412.3266
 335  481.1155
 336  419.0808
 337  227.7969
 338  230.9417
 339  317.8337
 340  308.1742
 341  218.0383
 342  161.264
 343  149.6913
 344  83.72032
 345  186.1996
 346  346.4212
 347  531.7691
 348  496.8725
 349  456.4016
 350  298.3702
 351  205.7465
 352  128.187
 353  240.7872
 354  340.9115
 355  289.3378
 356  102.6882
 357  21.55176
 358  65.50262
 359  91.28202
 360  105.7151
 361  123.8516
 362  276.2861
 363  337.7574
 364  374.8956
 365  373.4654
 366  463.8586
 367  529.4876
 368  538.572
 369  435.541
 370  306.4298
 371  203.1497
 372  309.8143
 373  388.9444
 374  476.7416
 375  321.969
 376  332.8194
 377  228.4552
 378  201.5891
 379  163.0514
 380  209.6534
 381  227.1961
 382  220.9543
 383  218.1224
 384  299.6326
 385  329.2611
 386  242.0502
 387  240.079
 388  152.8669
 389  137.4965
 390  95.77173
 391  140.8068
 392  190.61
 393  349.8354
 394  459.4159
 395  410.3521
 396  303.5018
 397  309.5597
 398  409.4314
 399  361.1917
 400  419.1216
 401  309.825
 402  309.8872
 403  244.459
 404  233.558
 405  122.5506
 406  68.9092
 407  132.4887
 408  187.3916
 409  230.9476
 410  222.4928
 411  164.4752
 412  125.8378
 413  133.2311
 414  204.03
 415  220.6077
 416  233.6909
 417  296.9638
 418  319.0433
 419  256.9066
 420  80.8697
 421  56.47948
 422  91.70306
 423  254.2657
 424  273.7134
 425  301.2069
 426  232.5384
 427  240.4336
 428  319.3521
 429  218.7997
 430  122.8361
 431  12.51832
 432  148.0484
 433  131.0971
 434  319.8188
 435  389.7274
 436  432.7433
 437  371.6333
 438  397.718
 439  442.3327
 440  375.5481
 441  288.5487
 442  186.7253
 443  253.1231
 444  386.499
 445  515.4424
 446  372.1714
 447  203.5102
 448  177.7838
 449  374.3142
 450  403.3353
 451  380.362
 452  263.8006
 453  289.1417
 454  280.8926
 455  229.7662
 456  207.3747
 457  238.6198
 458  312.3568
 459  294.0889
 460  196.2635
 461  132.4549
 462  178.643
 463  279.4408
 464  291.4784
 465  286.3394
 466  218.7444
 467  228.0075
 468  197.8743
 469  236.4953
 470  359.3479
 471  455.8052
 472  426.2868
 473  270.4512
 474  254.647
 475  372.9467
 476  395.3949
 477  264.8882
 478  151.0363
 479  129.4827
 480  136.8386
 481  146.1119
 482  127.8313
 483  129.6678
 484  202.6475
 485  291.6847
 486  333.8462
 487  325.5696
 488  337.689
 489  360.1157
 490  209.5673
 491  72.29491
 492  28.58064
 493  122.9925
 494  184.6134
 495  241.9156
 496  279.2764
 497  307.5977
 498  382.6463
 499  331.976
 500  340.1304
 501  179.632
 502  159.2074
 503  207.8665
 504  377.761
 505  469.799
 506  374.2144
 507  219.2164
 508  217.3868
 509  287.8065
 510  431.5311
 511  440.7601
 512  466.8598
 513  411.8528
 514  354.9297
 515  267.4911
 516  294.9714
 517  288.7958
 518  411.7751
 519  406.4345
 520  486.8406
 521  436.2655
 522  472.9006
 523  399.5307
 524  380.8922
 525  442.1026
 526  449.8214
 527  380.3831
 528  296.3363
 529  342.6117
 530  391.1614
 531  381.5271
 532  394.152
 533  396.6401
 534  415.734
 535  337.0377
 536  280.4321
 537  243.5988
 538  359.7074
 539  414.3718
 540  500.9829
 541  524.8821
 542  566.9083
 543  460.8099
 544  381.7986
 545  433.7009
 546  460.7216
 547  400.2592
 548  253.9589
 549  142.6731
 550  115.7771
 551  126.3838
 552  239.2835
 553  324.4178
 554  324.6371
 555  301.626
 556  295.6001
 557  434.1499
 558  471.138
 559  411.3728
 560  322.8918
 561  264.3352
 562  260.4153
 563  276.6672
 564  292.6216
 565  314.1954
 566  381.0987
 567  364.4911
 568  320.1386
 569  165.9527
 570  229.9703
 571  160.3045
 572  135.0624
 573  23.36004
 574  105.6415
 575  230.4443
 576  320.6815
 577  320.5667
 578  324.3553
 579  386.9215
 580  284.4421
 581  258.3243
 582  196.9336
 583  314.8494
 584  259.2348
 585  89.99407
 586  42.57266
 587  80.33097
 588  144.0038
 589  50.78883
 590  149.6608
 591  287.5547
 592  332.7108
 593  221.6452
 594  167.032
 595  81.36372
 596  166.8922
 597  209.014
 598  245.5809
 599  236.5434
 600  180.2567
 601  167.1264
 602  118.2742
 603  206.7021
 604  237.8305
 605  301.3367
 606  230.3512
 607  85.10477
 608  -47.17749
 609  116.0703
 610  242.1378
 611  245.2041
 612  210.7662
 613  254.5108
 614  311.1242
 615  183.1509
 616  218.4733
 617  334.075
 618  521.9561
 619  544.4276
 620  432.9005
 621  303.6177
 622  185.0968
 623  219.6781
 624  218.5614
 625  261.7733
 626  215.4083
 627  256.5487
 628  281.381
 629  296.8886
 630  290.2242
 631  339.348
 632  471.0158
 633  417.117
 634  353.8108
 635  260.5815
 636  377.7299
 637  394.7819
 638  532.4883
 639  636.0174
 640  754.8175
 641  794.58
 642  790.6392
 643  866.613
 644  977.9034
 645  1135.425
 646  1161.001
 647  1021.096
 648  904.7264
 649  893.8906
 650  947.4361
 651  960.0861
 652  808.6636
 653  616.3199
 654  410.1582
 655  317.4692
 656  293.2763
 657  312.387
 658  369.7437
 659  398.1157
 660  270.8705
 661  294.8847
 662  258.6848
 663  384.8183
 664  407.654
 665  531.3138
 666  597.897
 667  503.0798
 668  393.1935
 669  285.188
 670  361.3279
 671  354.735
 672  468.3698
 673  432.5237
 674  421.4396
 675  387.1125
 676  419.0815
 677  537.5945
 678  630.9618
 679  627.2171
 680  473.1483
 681  339.145
 682  376.4166
 683  363.895
 684  398.8006
 685  398.4198
 686  476.2293
 687  527.3603
 688  486.0841
 689  466.593
 690  445.3581
 691  399.9785
 692  466.8826
 693  441.1614
 694  428.3822
 695  344.1849
 696  382.3417
 697  390.8453
 698  389.0252
 699  406.2366
 700  374.1125
 701  415.6135
 702  354.8258
 703  401.8656
 704  417.8716
 705  375.7276
 706  330.9932
 707  284.1178
 708  310.1745
 709  305.8923
 710  302.8002
 711  272.9455
 712  268.6105
 713  301.0832
 714  280.4644
 715  177.5314
 716  187.8208
 717  282.7136
 718  222.0062
 719  160.2352
 720  147.6037
 721  228.6114
 722  243.8211
 723  262.8399
 724  279.959
 725  251.4799
 726  208.7714
 727  323.173
 728  383.0423
 729  337.4092
 730  162.2212
 731  131.6179
 732  143.2635
 733  162.5791
 734  178.3159
 735  130.021
 736  194.5021
 737  176.8433
 738  318.9201
 739  136.0996
 740  36.74633
 741  -50.08842
 742  32.92664
 743  90.35194
 744  118.5987
 745  179.4643
 746  157.2702
 747  184.9758
 748  109.6077
 749  146.2684
 750  180.9117
 751  174.3808
 752  151.6966
 753  77.36838
 754  89.99813
 755  109.8678
 756  145.303
 757  190.149
 758  188.8495
 759  250.4727
 760  292.8336
 761  251.4958
 762  294.0465
 763  344.1425
 764  389.2418
 765  310.5969
 766  283.3618
 767  292.1115
 768  438.7758
 769  431.3584
 770  474.5532
 771  301.8271
 772  315.6253
 773  235.2206
 774  315.84
 775  295.4328
 776  333.5836
 777  276.7479
 778  279.5657
 779  296.0944
 780  357.9321
 781  400.1049
 782  424.4677
 783  380.4377
 784  287.8391
 785  325.0034
 786  328.4163
 787  371.6237
 788  306.1773
 789  447.2014
 790  590.004
 791  718.4172
 792  651.0834
 793  503.1107
 794  318.7023
 795  309.9505
 796  306.5737
 797  337.7551
 798  369.3887
 799  386.5129
 800  462.3784
 801  395.099
 802  415.6017
 803  349.9227
 804  336.4345
 805  267.7792
 806  302.367
 807  282.3568
 808  241.4646
 809  267.793
 810  246.1476
 811  292.2142
 812  362.9348
 813  548.5847
 814  481.8745
 815  332.7616
 816  314.5511
 817  368.1649
 818  466.7951
 819  449.3045
 820  419.0327
 821  307.3217
 822  302.1111
 823  374.9003
 824  345.1314
 825  320.668
 826  360.1863
 827  474.1749
 828  532.0491
 829  514.1156
 830  522.9559
 831  379.9395
 832  252.0882
 833  173.6553
 834  278.5999
 835  359.4644
 836  451.7421
 837  464.6763
 838  534.2506
 839  485.7364
 840  396.2934
 841  326.3058
 842  286.7539
 843  318.2684
 844  175.4172
 845  163.6327
 846  109.6974
 847  151.3556
 848  142.1499
 849  186.169
 850  130.5024
 851  214.0196
 852  218.9678
 853  239.4242
 854  138.711
 855  136.8179
 856  153.2199
 857  128.3776
 858  94.9409
 859  75.36666
 860  132.4134
 861  105.2396
 862  141.5429
 863  -42.83339
 864  76.46507
 865  189.3055
 866  325.8479
 867  226.2128
 868  177.6688
 869  232.8327
 870  233.6573
 871  146.6608
 872  78.41378
 873  -36.06106
 874  -103.0277
 875  -130.0301
 876  101.2095
 877  177.058
 878  257.0456
 879  200.0107
 880  252.4493
 881  230.0317
 882  258.4909
 883  152.9731
 884  89.67455
 885  107.2275
 886  224.8265
 887  239.524
 888  176.6838
 889  250.7067
 890  321.1519
 891  385.3145
 892  282.6106
 893  268.5789
 894  219.4966
 895  169.2083
 896  90.38472
 897  166.5787
 898  230.7423
 899  219.933
 900  147.5497
 901  21.68188
 902  52.36155
 903  115.6902
 904  203.9478
 905  170.6836
 906  150.3435
 907  139.2833
 908  273.3481
 909  304.6124
 910  351.0439
 911  324.526
 912  321.5951
 913  226.7631
 914  173.9694
 915  165.9863
 916  151.8746
 917  197.9161
 918  262.9684
 919  294.2559
 920  174.7267
 921  184.562
 922  231.2709
 923  337.0432
 924  359.313
 925  325.7392
 926  236.8497
 927  163.339
 928  247.549
 929  267.0509
 930  293.9923
 931  239.3741
 932  215.8703
 933  141.5674
 934  149.1008
 935  273.8281
 936  326.3069
 937  262.4969
 938  291.7213
 939  406.0908
 940  441.9328
 941  334.8203
 942  214.0043
 943  204.4379
 944  234.6765
 945  279.2785
 946  275.1169
 947  224.7673
 948  243.3937
 949  273.6139
 950  330.798
 951  342.4965
 952  255.5719
 953  271.2104
 954  267.1252
 955  260.0888
 956  39.29482
 957  -4.454182
 958  -13.50649
 959  71.95235
 960  190.6938
 961  271.8908
 962  287.462
 963  191.7998
 964  284.287
 965  416.0504
 966  530.6987
 967  534.4557
 968  402.743
 969  167.1846
 970  127.538
 971  172.5782
 972  243.8922
 973  184.708
 974  45.98745
 975  0.6826175
 976  -32.5938
 977  -52.11991
 978  -38.23941
 979  -35.44788
 980  -16.86295
 981  32.91474
 982  101.3228
 983  257.4738
 984  285.9278
 985  306.5082
 986  226.3838
 987  74.69227
 988  25.72462
 989  -48.37664
 990  16.4624
 991  -32.74241
 992  18.50248
 993  12.23608
 994  -12.75668
 995  -26.62569
 996  -8.949616
 997  49.99992
 998  73.65157
 999  -29.06474
1000  -8.134387
1001  12.43121
1002  76.80445
1003  68.37161
1004  111.2706
1005  167.8794
1006  180.4523
1007  178.5148
1008  228.8394
1009  159.5659
1010  161.2844
1011  110.1645
1012  95.49326
1013  112.5914
1014  196.2324
1015  246.14
1016  110.614
1017  -63.28241
1018  -82.26624
1019  -35.72489
1020  112.2533
1021  257.7078
1022  232.1546
1023  175.0115
