# Input file       =  1187158786.106359_cleaned.dat
# Candidate        =  PSR_0332+5434
# Telescope        =  AR
# Epoch_topo       =  57984.263947990265
# Epoch_bary       =  N/A
# T_sample         =  0.002
# Data Folded      =  7340032
# Data Avg         =  0.036843469993203
# Data StdDev      =  2.66319942695933 
# Profile Bins     =  512
# Profile Avg      =  528.264074408328 
# Profile StdDev   =  318.872953866704 
# Reduced chi-sqr  =  1.686
# Prob(Noise)      <  2.39e-20   (~9.2 sigma)
# P_topo (ms)      =  714.464380974797  +/- 0.000311
# P'_topo (s/s)    =  -0                +/- 1.64e-10
# P''_topo (s/s^2) =  0                 +/- 7.24e-14
# P_bary (ms)      =  N/A
# P'_bary (s/s)    =  N/A
# P''_bary (s/s^2) =  N/A
# P_orb (s)        =  N/A
# asin(i)/c (s)    =  N/A
# eccentricity     =  N/A
# w (rad)          =  N/A
# T_peri           =  N/A
######################################################
   0  201.2893
   1  448.549
   2  531.6359
   3  525.6492
   4  713.9514
   5  684.6368
   6  496.2568
   7  718.4591
   8  653.3294
   9  753.1333
  10  748.2331
  11  833.8818
  12  943.1376
  13  1076.583
  14  1142.901
  15  967.8545
  16  768.9321
  17  848.6498
  18  749.0013
  19  518.5336
  20  594.3861
  21  862.489
  22  931.2549
  23  1195.35
  24  789.6973
  25  878.9655
  26  756.5648
  27  880.097
  28  604.8704
  29  471.5421
  30  288.3191
  31  467.0418
  32  699.1898
  33  388.8864
  34  291.0189
  35  512.0786
  36  200.5575
  37  159.4158
  38  285.576
  39  632.8772
  40  429.4029
  41  34.63324
  42  188.9178
  43  426.5274
  44  712.5867
  45  312.0704
  46  -35.42736
  47  550.111
  48  608.4658
  49  508.4977
  50  667.8045
  51  683.0063
  52  412.6129
  53  895.2054
  54  893.3319
  55  883.5758
  56  737.106
  57  510.8582
  58  434.2101
  59  301.1491
  60  228.144
  61  130.9977
  62  361.9531
  63  769.0546
  64  380.5685
  65  594.7532
  66  179.36
  67  82.23738
  68  457.7652
  69  509.4139
  70  729.1468
  71  644.6258
  72  753.723
  73  550.0569
  74  751.3425
  75  826.4218
  76  470.9573
  77  600.073
  78  357.8479
  79  223.978
  80  643.6456
  81  1028.051
  82  681.5529
  83  305.9799
  84  632.617
  85  284.6635
  86  107.9127
  87  196.7083
  88  501.7796
  89  719.237
  90  895.7433
  91  1042.501
  92  662.6834
  93  561.4036
  94  860.1153
  95  600.9564
  96  410.0217
  97  403.8524
  98  443.9326
  99  553.1047
 100  551.7385
 101  348.1314
 102  228.6717
 103  377.5378
 104  863.4108
 105  654.8555
 106  767.5508
 107  763.8054
 108  580.2164
 109  453.4644
 110  155.8987
 111  348.4037
 112  466.0626
 113  268.5719
 114  379.9828
 115  466.0342
 116  633.2317
 117  236.6047
 118  207.9093
 119  548.5588
 120  493.5281
 121  589.0956
 122  270.7733
 123  194.2479
 124  541.7891
 125  828.4568
 126  792.0411
 127  763.6974
 128  423.5364
 129  765.2869
 130  779.963
 131  414.2763
 132  817.8234
 133  585.2678
 134  561.9985
 135  410.8556
 136  588.1819
 137  426.4989
 138  367.7733
 139  569.7655
 140  498.6994
 141  422.2564
 142  675.4977
 143  844.7375
 144  530.6631
 145  749.0944
 146  356.0909
 147  277.3617
 148  261.697
 149  374.3087
 150  651.8284
 151  664.8578
 152  499.9656
 153  98.10371
 154  354.1601
 155  534.6728
 156  719.5048
 157  625.8923
 158  323.3169
 159  685.1662
 160  759.3869
 161  446.6026
 162  773.1501
 163  903.8407
 164  716.9299
 165  579.7021
 166  736.6318
 167  922.1755
 168  888.6812
 169  767.815
 170  895.1798
 171  658.9554
 172  754.9669
 173  769.0631
 174  790.3389
 175  553.3998
 176  673.5156
 177  956.8013
 178  1092.502
 179  818.923
 180  893.8416
 181  551.358
 182  261.821
 183  422.9415
 184  666.0127
 185  630.1454
 186  903.6649
 187  679.207
 188  514.749
 189  582.1145
 190  731.468
 191  606.2363
 192  403.1308
 193  227.7215
 194  200.8074
 195  598.756
 196  680.2661
 197  619.9464
 198  464.1288
 199  522.2156
 200  102.0428
 201  215.7362
 202  263.8893
 203  613.0577
 204  331.701
 205  293.7861
 206  480.5696
 207  386.1897
 208  282.8069
 209  476.8318
 210  475.4224
 211  12.25856
 212  439.3295
 213  449.2242
 214  561.0216
 215  417.5277
 216  957.5374
 217  905.6424
 218  436.9866
 219  461.219
 220  476.7672
 221  549.7068
 222  586.2397
 223  872.9086
 224  681.7429
 225  700.4733
 226  1008.235
 227  1459.141
 228  1589.984
 229  1928.1
 230  2297.148
 231  1857.575
 232  1878.973
 233  1681.306
 234  897.2542
 235  597.8022
 236  716.4866
 237  605.4006
 238  607.8448
 239  839.9892
 240  1131.942
 241  797.4937
 242  661.7452
 243  884.0218
 244  845.6741
 245  819.7953
 246  1222.761
 247  1005.622
 248  726.7749
 249  741.1331
 250  928.5953
 251  998.836
 252  886.2973
 253  886.2152
 254  840.5493
 255  735.4485
 256  782.8589
 257  796.467
 258  763.7302
 259  787.0848
 260  672.7118
 261  605.9986
 262  610.7546
 263  545.424
 264  537.9064
 265  398.4048
 266  476.0605
 267  320.2298
 268  487.0963
 269  539.2964
 270  457.6006
 271  741.4048
 272  424.2968
 273  286.7277
 274  348.3864
 275  326.466
 276  485.386
 277  103.639
 278  33.50193
 279  239.6845
 280  327.2947
 281  287.8705
 282  347.4213
 283  302.4141
 284  155.5497
 285  288.7934
 286  387.1381
 287  553.4034
 288  565.2422
 289  742.1462
 290  572.4537
 291  794.0793
 292  876.6756
 293  579.134
 294  556.9705
 295  642.1631
 296  556.4457
 297  688.2274
 298  824.4114
 299  632.6758
 300  690.7734
 301  679.7366
 302  1146.402
 303  1314.39
 304  711.3406
 305  638.9055
 306  711.316
 307  874.7692
 308  792.1276
 309  637.2033
 310  580.2945
 311  529.5851
 312  540.0511
 313  735.4048
 314  983.1641
 315  620.7321
 316  880.063
 317  821.3469
 318  619.9
 319  699.2401
 320  717.4932
 321  1045.942
 322  992.5359
 323  542.1201
 324  518.2444
 325  853.3904
 326  1012.315
 327  818.4232
 328  612.5211
 329  450.6118
 330  255.1546
 331  309.0443
 332  331.088
 333  451.3891
 334  323.5683
 335  306.4324
 336  193.7641
 337  225.3351
 338  210.2576
 339  83.53319
 340  552.6367
 341  391.717
 342  437.5472
 343  175.6609
 344  -206.34
 345  99.61007
 346  443.4229
 347  460.6646
 348  471.6874
 349  210.1459
 350  392.6599
 351  386.7946
 352  642.2776
 353  613.2175
 354  471.9961
 355  249.6565
 356  424.8257
 357  295.6771
 358  73.06331
 359  364.3831
 360  291.6818
 361  493.0594
 362  676.2725
 363  615.7431
 364  362.2563
 365  331.0212
 366  516.1737
 367  400.2893
 368  469.4732
 369  710.9736
 370  500.6313
 371  430.7607
 372  558.1922
 373  432.824
 374  307.5309
 375  609.5111
 376  607.0923
 377  851.6068
 378  471.6763
 379  471.0311
 380  555.86
 381  464.9791
 382  639.9597
 383  557.1046
 384  546.2755
 385  186.3677
 386  16.20418
 387  318.9607
 388  555.8386
 389  534.8224
 390  1012.08
 391  834.628
 392  245.9413
 393  449.8996
 394  151.6271
 395  -45.58068
 396  -80.15317
 397  -51.46535
 398  227.9243
 399  558.7692
 400  477.4698
 401  28.90932
 402  -17.02506
 403  -9.942032
 404  -0.6660571
 405  -20.68027
 406  111.697
 407  -44.71558
 408  115.4407
 409  200.8387
 410  351.0361
 411  428.6189
 412  312.0008
 413  170.4638
 414  360.2472
 415  271.5149
 416  -159.5995
 417  186.3981
 418  486.3594
 419  160.9396
 420  41.36427
 421  145.1741
 422  363.4579
 423  282.5139
 424  493.8343
 425  467.5021
 426  394.8702
 427  51.06244
 428  -50.53428
 429  265.7082
 430  528.0287
 431  424.347
 432  -19.01497
 433  -4.306536
 434  135.1221
 435  53.20625
 436  481.9441
 437  379.6687
 438  327.7279
 439  352.3968
 440  386.2138
 441  615.4944
 442  647.1967
 443  400.931
 444  330.3187
 445  231.5892
 446  266.854
 447  71.95736
 448  401.7915
 449  502.0245
 450  367.9491
 451  601.7343
 452  608.9442
 453  324.3451
 454  551.8904
 455  399.4333
 456  332.5144
 457  488.5533
 458  647.3257
 459  774.8958
 460  331.3863
 461  429.2871
 462  500.6342
 463  449.2356
 464  542.8827
 465  399.7886
 466  666.5334
 467  531.5501
 468  343.228
 469  220.6431
 470  99.02661
 471  205.3374
 472  386.2932
 473  701.4693
 474  324.9668
 475  457.1783
 476  270.3261
 477  -45.03663
 478  -225.9332
 479  28.79173
 480  233.2421
 481  603.9238
 482  780.9339
 483  383.3893
 484  287.6755
 485  206.2508
 486  350.6136
 487  3.228137
 488  472.1444
 489  460.2638
 490  661.4808
 491  625.4426
 492  572.7609
 493  377.3445
 494  317.7148
 495  561.6057
 496  376.6017
 497  563.0186
 498  675.3295
 499  138.2016
 500  268.8041
 501  375.0991
 502  609.5591
 503  607.7913
 504  576.9639
 505  669.4423
 506  818.2103
 507  494.9829
 508  418.6564
 509  615.6923
 510  97.83418
 511  253.8595
