# Input file       =  1187215416.107602_cleaned.dat
# Candidate        =  PSR_0332+5434
# Telescope        =  AR
# Epoch_topo       =  57984.919387819464
# Epoch_bary       =  N/A
# T_sample         =  0.002
# Data Folded      =  7208960
# Data Avg         =  0.0855190402881074
# Data StdDev      =  4.00042267021563 
# Profile Bins     =  512
# Profile Avg      =  1204.10918697317 
# Profile StdDev   =  474.686856873541 
# Reduced chi-sqr  =  0.629
# Prob(Noise)      <  1   (~0.0 sigma)
# P_topo (ms)      =  714.463933802778  +/- 5.89e-05
# P'_topo (s/s)    =  -0                +/- 3.17e-11
# P''_topo (s/s^2) =  0                 +/- 1.42e-14
# P_bary (ms)      =  N/A
# P'_bary (s/s)    =  N/A
# P''_bary (s/s^2) =  N/A
# P_orb (s)        =  N/A
# asin(i)/c (s)    =  N/A
# eccentricity     =  N/A
# w (rad)          =  N/A
# T_peri           =  N/A
######################################################
   0  1126.174
   1  1357.344
   2  1293.349
   3  1146.955
   4  1401.661
   5  1207.539
   6  1260.785
   7  1441.653
   8  1066.261
   9  1263.692
  10  737.1789
  11  1154.965
  12  1081.667
  13  1374.519
  14  1399.626
  15  1096.873
  16  1191.137
  17  1130.749
  18  1081.88
  19  1141.087
  20  1192.038
  21  1202.109
  22  1105.366
  23  1296.911
  24  1677.776
  25  1566.986
  26  1477.309
  27  1338.504
  28  1245.233
  29  1245.652
  30  1281.618
  31  931.449
  32  639.9034
  33  952.3517
  34  1418.353
  35  1547.607
  36  1046.882
  37  563.2259
  38  915.1111
  39  1008.554
  40  1113.971
  41  1035.719
  42  1279.905
  43  873.4999
  44  450.561
  45  1261.333
  46  1243.011
  47  1111.822
  48  869.8409
  49  1071.183
  50  1096.656
  51  1102.188
  52  1217.318
  53  1007.634
  54  1315.1
  55  1370.582
  56  1317.256
  57  1198.452
  58  898.1609
  59  1549.888
  60  1598.937
  61  1069.978
  62  1047.158
  63  1194.204
  64  1359.413
  65  1359.795
  66  1295.769
  67  1286.795
  68  1146.047
  69  1226.263
  70  1188.519
  71  1396.733
  72  1080.339
  73  1123.083
  74  1052.634
  75  1020.495
  76  969.2976
  77  850.4194
  78  1221.492
  79  1235.522
  80  1225.918
  81  1502.395
  82  1525.19
  83  1063.752
  84  1131.481
  85  1296.831
  86  1276.2
  87  1062.807
  88  1067.821
  89  1343.493
  90  1156.806
  91  961.6816
  92  1312.04
  93  1310.898
  94  778.3126
  95  764.9998
  96  1055.556
  97  1258.342
  98  1388.239
  99  1042.005
 100  1377.658
 101  1216.302
 102  926.0179
 103  1008.99
 104  728.0582
 105  1084.985
 106  1247.662
 107  1386.923
 108  945.6976
 109  795.6881
 110  1100.403
 111  1370.408
 112  1396.176
 113  1199.584
 114  1202.229
 115  1273.872
 116  1458.549
 117  1437.615
 118  1272.217
 119  1396.542
 120  1574.338
 121  1100.567
 122  1731.232
 123  1604.691
 124  1529.009
 125  1058.725
 126  1090.939
 127  1068.637
 128  639.4897
 129  988.5892
 130  1314.812
 131  1124.44
 132  818.8961
 133  1081.548
 134  1337.242
 135  1530.849
 136  1543.747
 137  1329.909
 138  1543.97
 139  1583.777
 140  1689.282
 141  2114.032
 142  2405.434
 143  3055.297
 144  3014.592
 145  2500.919
 146  1945.269
 147  1260.017
 148  1278.983
 149  1523.783
 150  1521.537
 151  1398.969
 152  1039.931
 153  1255.832
 154  1322.05
 155  1488.182
 156  1383.294
 157  919.1668
 158  1281.433
 159  1251.106
 160  1234.012
 161  653.8548
 162  1302.103
 163  1638.234
 164  1445.935
 165  1297.082
 166  1056.703
 167  1383.925
 168  1047.858
 169  1091.743
 170  1341.169
 171  1735.038
 172  1840.296
 173  1629.679
 174  1563.886
 175  1081.57
 176  1277.956
 177  1108.444
 178  1100.577
 179  1151.482
 180  1262.671
 181  1261.252
 182  1130.887
 183  1258.679
 184  1327.438
 185  1345.286
 186  1348.384
 187  1521.323
 188  1200.51
 189  1205.361
 190  1026.956
 191  1053.334
 192  1044.118
 193  1177.986
 194  1086.916
 195  767.662
 196  1174.175
 197  1324.752
 198  1540.796
 199  1460.364
 200  1104.201
 201  748.5276
 202  1104.969
 203  1334.56
 204  1221.374
 205  1003.501
 206  1013.725
 207  1005.233
 208  1101.488
 209  1254.048
 210  1300.532
 211  1231.652
 212  920.485
 213  1277.436
 214  1314.666
 215  1281.495
 216  1116.649
 217  1033.66
 218  862.4739
 219  621.3281
 220  964.2084
 221  1321.261
 222  1393.866
 223  1439.742
 224  1038.638
 225  1075.575
 226  585.9255
 227  981.9348
 228  878.945
 229  1160.951
 230  1398.614
 231  885.9605
 232  1136.079
 233  1162.722
 234  1148.429
 235  1272.399
 236  1389.727
 237  1395.213
 238  1423.252
 239  1063.643
 240  1166.203
 241  1243.981
 242  1573.198
 243  1388.637
 244  1324.715
 245  1223.9
 246  1064.547
 247  1266.874
 248  1298.317
 249  1431.721
 250  1245.881
 251  1561.651
 252  1277.461
 253  1071.67
 254  1208.796
 255  1405.42
 256  1458.404
 257  1042.057
 258  1084.361
 259  1633.155
 260  1057.646
 261  1057.737
 262  1004.86
 263  1134.361
 264  863.7599
 265  863.6211
 266  1341.668
 267  1272.121
 268  1024.48
 269  1471.305
 270  1364.191
 271  1150.68
 272  1103.007
 273  1375.223
 274  1279.029
 275  826.8798
 276  972.0184
 277  1098.155
 278  1284.952
 279  1047.277
 280  1081.693
 281  1351.473
 282  1386.148
 283  1455.667
 284  1115.233
 285  1194.795
 286  1054.141
 287  918.3111
 288  1123.064
 289  1269.782
 290  1052.722
 291  873.111
 292  959.8925
 293  1095.106
 294  1053.215
 295  1144.414
 296  1148.844
 297  1221.145
 298  846.7747
 299  625.7155
 300  616.2407
 301  772.7775
 302  1299.662
 303  1183.675
 304  1264.226
 305  1081.534
 306  441.1653
 307  953.4883
 308  610.5721
 309  1101.045
 310  1062.542
 311  1340.73
 312  1029.35
 313  531.3148
 314  1146.57
 315  1164.502
 316  1322.731
 317  1144.578
 318  1286.835
 319  1184.014
 320  1086.795
 321  1707.384
 322  1285.39
 323  1153.03
 324  1318.993
 325  1057.694
 326  1177.76
 327  1102.323
 328  1199.12
 329  1434.567
 330  1276.47
 331  1328.527
 332  1456.535
 333  1416.212
 334  988.7447
 335  1053.876
 336  1545.293
 337  1290.726
 338  1208.377
 339  1124.522
 340  1012.021
 341  1418.617
 342  994.225
 343  1159.533
 344  1352.786
 345  1259.83
 346  1048.565
 347  1462.777
 348  1312.967
 349  1241.682
 350  1557.587
 351  1576.854
 352  1288.02
 353  890.027
 354  1119.182
 355  1446.519
 356  1516.281
 357  1617.311
 358  1722.775
 359  1502.856
 360  1358.525
 361  1205.627
 362  1364.446
 363  1372.774
 364  1207.289
 365  1425.773
 366  949.9265
 367  1301.465
 368  1000.274
 369  1323.073
 370  1560.879
 371  875.6951
 372  1016.981
 373  709.2188
 374  506.8322
 375  518.5889
 376  1264.251
 377  1289.986
 378  1146.604
 379  1297.029
 380  1421.711
 381  1261.49
 382  891.6276
 383  997.545
 384  1054.834
 385  1362.881
 386  1372.756
 387  1308.682
 388  1411.807
 389  1158.377
 390  1020.047
 391  991.3209
 392  894.7676
 393  1046.753
 394  1127.66
 395  1210.861
 396  1262.237
 397  1054.808
 398  1597.046
 399  1509.883
 400  1196.854
 401  1024.196
 402  1122.603
 403  1245.839
 404  1236.214
 405  1351.127
 406  1566.935
 407  1256.116
 408  890.662
 409  960.0861
 410  1286.538
 411  1262.821
 412  1381.707
 413  1586.186
 414  1363.829
 415  1046.472
 416  891.4403
 417  987.8401
 418  1156.011
 419  1088.917
 420  1195.155
 421  1524.849
 422  1510.875
 423  1493.184
 424  1131.738
 425  1317.07
 426  925.2154
 427  1391.625
 428  1020.394
 429  896.3895
 430  1326.137
 431  1157.131
 432  1262.906
 433  1019.641
 434  1282.462
 435  1223.344
 436  1324.999
 437  1108.75
 438  1312.374
 439  1673.649
 440  1291.627
 441  1056.646
 442  900.6947
 443  1422.262
 444  1425.913
 445  1417.173
 446  1201.967
 447  1151.075
 448  644.4499
 449  579.5914
 450  846.1234
 451  1490.65
 452  1444.369
 453  1163.288
 454  1572.824
 455  1151.525
 456  1043.505
 457  1122.976
 458  1353.461
 459  1066.964
 460  728.7742
 461  1313.784
 462  1048.303
 463  1003.666
 464  916.3322
 465  1300.875
 466  1378.396
 467  866.8347
 468  882.1636
 469  1068.769
 470  1350.058
 471  1075.4
 472  1187.828
 473  1195.72
 474  993.7298
 475  721.955
 476  1132.345
 477  1245.601
 478  980.6409
 479  1158.059
 480  1485.207
 481  1129.376
 482  1012.885
 483  1307.182
 484  1486.098
 485  1398.461
 486  1037.042
 487  1028.603
 488  866.7469
 489  947.1726
 490  1098.251
 491  1024.205
 492  1105.091
 493  856.5844
 494  1120.626
 495  1090.26
 496  840.293
 497  915.6976
 498  1051.669
 499  1258.063
 500  1099.85
 501  1314.853
 502  1383.899
 503  1420.442
 504  1324.088
 505  1490.645
 506  1342.97
 507  894.2646
 508  1089.604
 509  1566.118
 510  1316.543
 511  1087.347
