# Input file       =  1187904722.109216_cleaned.dat
# Candidate        =  PSR_0332+5434
# Telescope        =  AR
# Epoch_topo       =  57992.897466541850
# Epoch_bary       =  N/A
# T_sample         =  0.002
# Data Folded      =  7143424
# Data Avg         =  0.0106293043797916
# Data StdDev      =  1.00028405470243 
# Profile Bins     =  512
# Profile Avg      =  148.264129242613 
# Profile StdDev   =  118.152136621233 
# Reduced chi-sqr  =  1.402
# Prob(Noise)      <  4.74e-09   (~5.7 sigma)
# P_topo (ms)      =  714.463331833731  +/- 0.000293
# P'_topo (s/s)    =  -0                +/- 1.59e-10
# P''_topo (s/s^2) =  0                 +/- 7.19e-14
# P_bary (ms)      =  N/A
# P'_bary (s/s)    =  N/A
# P''_bary (s/s^2) =  N/A
# P_orb (s)        =  N/A
# asin(i)/c (s)    =  N/A
# eccentricity     =  N/A
# w (rad)          =  N/A
# T_peri           =  N/A
######################################################
   0  812.1978
   1  708.8303
   2  531.7209
   3  339.4015
   4  250.312
   5  220.8488
   6  229.4224
   7  301.3295
   8  242.7819
   9  370.5458
  10  227.0569
  11  207.8681
  12  312.6175
  13  189.5464
  14  235.9892
  15  200.5097
  16  384.0323
  17  257.4592
  18  33.91304
  19  45.02222
  20  101.5468
  21  124.3279
  22  132.7229
  23  153.1338
  24  227.9695
  25  54.36227
  26  -81.14384
  27  65.75486
  28  92.46031
  29  108.1867
  30  201.8939
  31  148.7204
  32  192.4861
  33  207.1171
  34  140.4892
  35  54.55984
  36  32.30148
  37  154.6021
  38  214.7925
  39  156.4138
  40  214.292
  41  252.7663
  42  174.821
  43  113.0628
  44  151.7658
  45  210.4334
  46  124.0858
  47  -32.46895
  48  137.9849
  49  124.8673
  50  51.89246
  51  -21.49162
  52  51.26509
  53  16.78243
  54  47.37782
  55  96.99271
  56  80.53718
  57  49.0572
  58  113.4335
  59  165.033
  60  89.44723
  61  -17.75302
  62  -5.075698
  63  174.2619
  64  -60.50999
  65  -92.52335
  66  145.3992
  67  138.4633
  68  52.03908
  69  115.5282
  70  150.8323
  71  142.9012
  72  238.9116
  73  195.8599
  74  35.32027
  75  -4.76132
  76  67.73897
  77  65.56834
  78  172.5632
  79  144.8225
  80  53.22609
  81  -29.61951
  82  28.02531
  83  139.5065
  84  92.37045
  85  159.8206
  86  318.2358
  87  218.9004
  88  80.79369
  89  50.81783
  90  41.24133
  91  118.3167
  92  121.1709
  93  14.31998
  94  39.3208
  95  20.36381
  96  94.61346
  97  177.2685
  98  147.423
  99  269.0852
 100  228.193
 101  178.4194
 102  223.7518
 103  215.5986
 104  215.6711
 105  167.1514
 106  192.3112
 107  216.7738
 108  139.612
 109  182.7088
 110  94.88284
 111  104.9696
 112  104.2558
 113  59.64777
 114  107.0801
 115  182.0082
 116  88.06986
 117  198.3201
 118  242.7623
 119  115.1882
 120  112.6064
 121  103.6338
 122  87.60363
 123  206.9403
 124  131.3685
 125  118.3439
 126  97.76465
 127  55.1806
 128  190.7566
 129  143.1393
 130  105.372
 131  97.0523
 132  175.7567
 133  224.5492
 134  34.14128
 135  94.72663
 136  150.8635
 137  107.7932
 138  -38.71981
 139  -100.2839
 140  -42.17737
 141  -37.69518
 142  165.725
 143  225.7376
 144  143.4092
 145  66.92772
 146  56.95569
 147  59.52165
 148  199.5753
 149  158.6877
 150  26.52674
 151  63.7365
 152  58.78161
 153  120.8284
 154  129.3902
 155  91.85676
 156  98.17979
 157  67.32706
 158  129.9702
 159  33.68279
 160  91.32214
 161  154.763
 162  161.2004
 163  168.8524
 164  211.5377
 165  116.9283
 166  171.775
 167  267.3919
 168  208.1185
 169  177.0318
 170  131.7116
 171  38.20251
 172  150.944
 173  223.6444
 174  211.2999
 175  213.3172
 176  108.5114
 177  64.37832
 178  122.4942
 179  101.6707
 180  82.62089
 181  223.9501
 182  116.7227
 183  122.6046
 184  170.5215
 185  201.1166
 186  127.4817
 187  158.97
 188  221.2573
 189  53.39742
 190  32.03864
 191  139.0452
 192  58.43324
 193  104.4553
 194  165.4139
 195  185.1738
 196  183.9887
 197  160.7632
 198  117.1809
 199  96.16589
 200  76.64361
 201  147.1697
 202  122.672
 203  18.1866
 204  18.43533
 205  154.6615
 206  159.2999
 207  93.93797
 208  39.43633
 209  29.08537
 210  -1.409787
 211  64.87812
 212  166.917
 213  142.0877
 214  52.3416
 215  225.5488
 216  125.0177
 217  34.39209
 218  73.35035
 219  97.43874
 220  210.5367
 221  141.0629
 222  126.8211
 223  141.9498
 224  221.6593
 225  165.3468
 226  139.7
 227  116.7364
 228  129.4733
 229  287.3072
 230  73.0273
 231  85.59893
 232  49.35095
 233  56.73451
 234  213.1689
 235  204.3142
 236  86.50793
 237  132.9208
 238  182.5988
 239  104.5396
 240  67.49471
 241  54.78346
 242  56.63318
 243  51.38237
 244  191.2219
 245  167.813
 246  -24.88914
 247  -80.5194
 248  43.21063
 249  141.148
 250  266.095
 251  260.5208
 252  156.8428
 253  270.6252
 254  233.8191
 255  124.5597
 256  49.33433
 257  182.5031
 258  239.0853
 259  99.87473
 260  212.8723
 261  146.8695
 262  241.847
 263  205.0664
 264  129.7
 265  32.32404
 266  -20.15709
 267  130.761
 268  150.4686
 269  164.5575
 270  231.6054
 271  134.115
 272  30.47655
 273  133.2986
 274  186.0533
 275  95.0081
 276  80.09138
 277  76.7974
 278  151.9533
 279  136.9985
 280  194.2016
 281  157.3414
 282  95.52348
 283  113.0387
 284  150.7561
 285  133.1141
 286  129.0508
 287  113.9903
 288  125.3602
 289  215.6603
 290  198.3835
 291  125.4656
 292  160.7968
 293  237.8556
 294  248.9302
 295  261.728
 296  83.05386
 297  104.8829
 298  140.5322
 299  8.692771
 300  142.1822
 301  187.497
 302  253.5794
 303  85.27534
 304  182.1888
 305  178.551
 306  172.3809
 307  125.134
 308  116.0729
 309  48.97525
 310  62.8623
 311  60.59228
 312  72.2653
 313  119.2103
 314  -27.42028
 315  22.28065
 316  102.7427
 317  229.2506
 318  228.8841
 319  164.7436
 320  234.5189
 321  158.5661
 322  134.3359
 323  228.1902
 324  134.971
 325  115.364
 326  182.2136
 327  197.6711
 328  129.3652
 329  102.1631
 330  161.5332
 331  310.4831
 332  175.8177
 333  135.14
 334  172.4859
 335  27.04946
 336  224.5349
 337  135.6629
 338  155.8356
 339  130.2123
 340  97.55824
 341  121.7386
 342  68.50668
 343  -55.54581
 344  -18.0061
 345  98.8717
 346  213.4657
 347  229.7752
 348  98.12413
 349  135.8321
 350  174.7382
 351  235.8395
 352  160.4401
 353  157.6777
 354  159.4803
 355  214.2776
 356  259.0693
 357  277.3169
 358  145.1476
 359  143.2198
 360  225.3508
 361  266.9223
 362  315.5151
 363  256.403
 364  79.98118
 365  115.0596
 366  157.006
 367  141.2716
 368  196.805
 369  215.9895
 370  76.93274
 371  105.3891
 372  182.5488
 373  118.9702
 374  13.15904
 375  144.3237
 376  176.6284
 377  148.5872
 378  118.3418
 379  187.5616
 380  126.5699
 381  99.8642
 382  116.6726
 383  59.17056
 384  158.8177
 385  154.0787
 386  169.6023
 387  284.0787
 388  210.7036
 389  145.4935
 390  381.3645
 391  314.1902
 392  247.0763
 393  144.865
 394  134.1366
 395  105.1633
 396  246.6211
 397  180.4676
 398  123.49
 399  96.72556
 400  140.4682
 401  147.6771
 402  280.5124
 403  271.8106
 404  146.1576
 405  152.0004
 406  -2.667167
 407  11.16323
 408  133.2221
 409  154.8041
 410  -4.985166
 411  224.9449
 412  172.5506
 413  222.7484
 414  90.39979
 415  29.97482
 416  89.21635
 417  199.4037
 418  265.0836
 419  21.93017
 420  36.69933
 421  210.3377
 422  115.8946
 423  74.6949
 424  153.6318
 425  72.51814
 426  107.7225
 427  20.17914
 428  -46.14596
 429  -33.75693
 430  131.2561
 431  221.035
 432  162.044
 433  65.22305
 434  152.9569
 435  94.94403
 436  168.3089
 437  298.0021
 438  256.3333
 439  115.3752
 440  94.90717
 441  182.7527
 442  243.5457
 443  189.6397
 444  287.299
 445  295.3254
 446  271.8634
 447  183.6882
 448  186.834
 449  151.2549
 450  276.761
 451  181.7847
 452  62.92554
 453  44.99843
 454  28.79549
 455  146.8125
 456  207.4126
 457  164.5506
 458  133.2715
 459  183.286
 460  276.5117
 461  95.31583
 462  127.5869
 463  212.8902
 464  115.3574
 465  -2.336736
 466  29.52691
 467  183.2259
 468  149.9261
 469  176.8161
 470  318.4494
 471  224.4555
 472  216.0425
 473  177.8776
 474  112.777
 475  144.0644
 476  168.0621
 477  136.3664
 478  29.36186
 479  -47.9761
 480  101.8303
 481  130.903
 482  236.4046
 483  345.9021
 484  172.9754
 485  201.6087
 486  230.5939
 487  183.9388
 488  194.8057
 489  251.186
 490  238.1659
 491  227.0168
 492  234.9134
 493  302.3664
 494  249.4567
 495  289.3337
 496  238.459
 497  217.2994
 498  250.7727
 499  273.4257
 500  185.3609
 501  167.1782
 502  245.1148
 503  81.55524
 504  72.56837
 505  186.6775
 506  215.218
 507  286.9535
 508  413.6158
 509  591.2473
 510  709.1158
 511  756.6164
