# Input file       =  1187746985.105509_cleaned.dat
# Candidate        =  PSR_0332+5434
# Telescope        =  AR
# Epoch_topo       =  57991.071806776723
# Epoch_bary       =  N/A
# T_sample         =  0.002
# Data Folded      =  7340032
# Data Avg         =  0.0118960256844747
# Data StdDev      =  1.00001569146874 
# Profile Bins     =  512
# Profile Avg      =  170.553702946928 
# Profile StdDev   =  119.734915163963 
# Reduced chi-sqr  =  1.576
# Prob(Noise)      <  1.56e-15   (~7.9 sigma)
# P_topo (ms)      =  714.463383911805  +/- 0.000251
# P'_topo (s/s)    =  -0                +/- 1.32e-10
# P''_topo (s/s^2) =  0                 +/- 5.84e-14
# P_bary (ms)      =  N/A
# P'_bary (s/s)    =  N/A
# P''_bary (s/s^2) =  N/A
# P_orb (s)        =  N/A
# asin(i)/c (s)    =  N/A
# eccentricity     =  N/A
# w (rad)          =  N/A
# T_peri           =  N/A
######################################################
   0  851.1466
   1  744.6448
   2  681.5688
   3  455.5851
   4  213.1951
   5  176.3113
   6  331.3122
   7  291.7581
   8  238.8448
   9  173.4817
  10  313.3069
  11  296.476
  12  197.7707
  13  131.3164
  14  164.4174
  15  263.1862
  16  321.9824
  17  256.6035
  18  202.7107
  19  17.84991
  20  246.2482
  21  343.9093
  22  301.868
  23  273.9779
  24  163.9484
  25  148.3241
  26  177.9202
  27  172.2532
  28  54.67783
  29  98.68814
  30  262.2364
  31  233.7245
  32  114.1223
  33  77.0762
  34  54.05442
  35  116.356
  36  198.1536
  37  297.3025
  38  227.9737
  39  116.5514
  40  117.6632
  41  225.8916
  42  261.9938
  43  249.4471
  44  182.7412
  45  118.9784
  46  192.4497
  47  164.5165
  48  54.98834
  49  -44.46663
  50  72.50891
  51  -33.15043
  52  -12.63471
  53  208.417
  54  158.8606
  55  191.4341
  56  298.4344
  57  173.4224
  58  20.30458
  59  113.6197
  60  174.8631
  61  255.8807
  62  183.6464
  63  211.4855
  64  152.3794
  65  148.1505
  66  147.3668
  67  157.9332
  68  141.5716
  69  151.0312
  70  214.2657
  71  233.988
  72  148.8806
  73  220.873
  74  202.6144
  75  137.7733
  76  83.62832
  77  133.0964
  78  172.0069
  79  147.6297
  80  95.82021
  81  148.6029
  82  158.5184
  83  176.5624
  84  99.08118
  85  111.8835
  86  219.8671
  87  250.2853
  88  165.7482
  89  227.3443
  90  119.5007
  91  164.0618
  92  255.7651
  93  165.533
  94  191.2903
  95  154.2196
  96  267.2114
  97  350.3851
  98  351.9977
  99  232.2776
 100  182.104
 101  187.7281
 102  195.2506
 103  305.8215
 104  233.4464
 105  304.3748
 106  275.3721
 107  67.52201
 108  23.0528
 109  69.3422
 110  119.2008
 111  134.5762
 112  134.6332
 113  154.3289
 114  331.3085
 115  213.8381
 116  166.7669
 117  95.02344
 118  221.3157
 119  301.2975
 120  197.3857
 121  144.3309
 122  201.574
 123  246.3379
 124  192.8858
 125  169.0469
 126  30.71049
 127  -65.88077
 128  35.42528
 129  -44.58439
 130  27.1741
 131  12.89941
 132  134.04
 133  136.0893
 134  72.69531
 135  105.5134
 136  218.4899
 137  217.6144
 138  139.0822
 139  156.2172
 140  182.3086
 141  239.3154
 142  182.64
 143  105.1239
 144  170.263
 145  79.86813
 146  204.0284
 147  244.0621
 148  311.785
 149  261.2769
 150  150.6136
 151  86.62339
 152  190.5112
 153  278.3241
 154  257.5364
 155  47.34289
 156  32.99569
 157  56.27178
 158  220.2125
 159  326.6803
 160  157.4877
 161  165.64
 162  245.5492
 163  277.1526
 164  238.709
 165  262.895
 166  275.2068
 167  182.2433
 168  101.114
 169  70.90457
 170  142.712
 171  287.0068
 172  216.75
 173  187.3881
 174  88.49996
 175  121.2359
 176  306.493
 177  196.0363
 178  90.37591
 179  154.0986
 180  137.9747
 181  186.5868
 182  184.557
 183  106.007
 184  73.48284
 185  177.634
 186  169.4249
 187  137.651
 188  216.7039
 189  102.4034
 190  114.6984
 191  192.5364
 192  245.4873
 193  147.8758
 194  70.63908
 195  192.7894
 196  193.638
 197  139.3446
 198  61.38463
 199  97.36335
 200  207.7
 201  202.0413
 202  232.557
 203  128.0569
 204  35.18748
 205  0.5796768
 206  -54.36512
 207  83.17774
 208  26.28822
 209  149.0744
 210  257.1073
 211  207.7284
 212  96.58258
 213  138.9479
 214  128.9004
 215  223.1898
 216  196.1551
 217  280.9317
 218  266.0117
 219  176.7262
 220  116.5104
 221  192.4307
 222  240.3623
 223  159.0279
 224  162.9069
 225  25.45934
 226  97.99664
 227  173.7667
 228  230.5372
 229  103.0643
 230  -4.969687
 231  103.8776
 232  197.0181
 233  164.7456
 234  38.94385
 235  186.5798
 236  200.2121
 237  201.2569
 238  155.4025
 239  183.2571
 240  236.6811
 241  163.7417
 242  96.56647
 243  175.886
 244  171.6829
 245  53.19563
 246  96.49267
 247  179.3601
 248  122.1168
 249  194.0264
 250  220.9631
 251  247.9671
 252  225.5263
 253  226.2237
 254  162.5509
 255  81.62757
 256  123.804
 257  115.049
 258  76.8936
 259  91.05654
 260  159.1032
 261  85.19514
 262  108.1296
 263  80.13205
 264  54.2597
 265  122.9178
 266  44.66525
 267  89.92467
 268  130.7934
 269  149.8266
 270  219.186
 271  12.26249
 272  81.25486
 273  22.0838
 274  69.19135
 275  68.81512
 276  58.1128
 277  90.51448
 278  71.97295
 279  -0.860185
 280  34.26165
 281  10.97939
 282  -25.0565
 283  34.14844
 284  178.2628
 285  202.8302
 286  221.6948
 287  142.2961
 288  89.12793
 289  204.7878
 290  109.5667
 291  33.95959
 292  109.9179
 293  238.1712
 294  184.7272
 295  133.4108
 296  136.6287
 297  96.38029
 298  70.8501
 299  51.40926
 300  160.1778
 301  306.6034
 302  249.1507
 303  260.2067
 304  198.9886
 305  85.30503
 306  108.1559
 307  117.0578
 308  31.39687
 309  109.2785
 310  120.3715
 311  59.59246
 312  94.63725
 313  32.3911
 314  158.2927
 315  224.7192
 316  129.9438
 317  183.6233
 318  58.67355
 319  49.95022
 320  170.4988
 321  275.6054
 322  238.0229
 323  117.9967
 324  72.46691
 325  357.054
 326  258.0553
 327  48.28783
 328  132.6136
 329  76.50834
 330  109.5137
 331  48.82158
 332  -9.417245
 333  215.8222
 334  331.2064
 335  212.9211
 336  170.8119
 337  176.4383
 338  83.12525
 339  24.66186
 340  198.9418
 341  244.6608
 342  186.0923
 343  174.5026
 344  153.6161
 345  65.08063
 346  45.90719
 347  166.6931
 348  180.3253
 349  107.3236
 350  38.44684
 351  75.10538
 352  88.34548
 353  87.79169
 354  170.2027
 355  176.8551
 356  58.84631
 357  1.8124
 358  82.65234
 359  170.873
 360  79.69984
 361  40.48061
 362  124.3492
 363  103.6987
 364  3.99691
 365  49.34054
 366  147.8433
 367  270.2704
 368  211.5087
 369  63.62096
 370  119.6883
 371  160.5783
 372  86.55049
 373  149.7692
 374  100.7141
 375  70.72276
 376  181.493
 377  217.9347
 378  251.5105
 379  220.8462
 380  171.0246
 381  126.6352
 382  230.9166
 383  249.3468
 384  196.6485
 385  293.1659
 386  281.8775
 387  218.6046
 388  198.7657
 389  150.9976
 390  73.46232
 391  134.4278
 392  277.6017
 393  333.9102
 394  391.3807
 395  193.2095
 396  -56.5182
 397  56.09197
 398  176.4209
 399  170.9307
 400  128.7839
 401  -27.76872
 402  78.80424
 403  36.99186
 404  147.3478
 405  144.3152
 406  213.5647
 407  202.6375
 408  234.3031
 409  48.0004
 410  138.2179
 411  266.5179
 412  216.428
 413  252.4584
 414  269.8277
 415  150.8324
 416  143.1826
 417  186.4931
 418  147.1672
 419  317.8446
 420  350.1359
 421  281.3969
 422  234.934
 423  145.2499
 424  86.37811
 425  81.58434
 426  90.50314
 427  157.9542
 428  295.1572
 429  184.023
 430  160.0589
 431  187.0241
 432  217.8972
 433  218.5804
 434  107.5522
 435  178.3059
 436  256.9126
 437  147.2368
 438  180.3751
 439  115.0382
 440  76.82156
 441  325.3214
 442  313.9309
 443  236.2384
 444  248.5322
 445  104.9341
 446  134.4062
 447  188.4161
 448  235.0799
 449  264.7057
 450  267.2645
 451  69.62583
 452  79.98191
 453  29.17549
 454  109.7226
 455  181.9876
 456  203.0927
 457  161.0267
 458  96.1379
 459  160.3671
 460  243.0867
 461  141.7883
 462  145.7924
 463  226.2994
 464  154.3748
 465  94.72636
 466  61.54475
 467  203.2614
 468  116.5847
 469  244.6338
 470  237.9155
 471  216.9637
 472  193.945
 473  210.2814
 474  273.7768
 475  316.7899
 476  400.4785
 477  324.5239
 478  365.6102
 479  203.7103
 480  185.2037
 481  106.1994
 482  56.88298
 483  166.4477
 484  128.8548
 485  210.3635
 486  275.8456
 487  292.8439
 488  209.2814
 489  195.5232
 490  144.0119
 491  169.7283
 492  301.7819
 493  369.4579
 494  350.6055
 495  314.9085
 496  174.4502
 497  114.8864
 498  69.02447
 499  66.62884
 500  222.8125
 501  194.9735
 502  25.8492
 503  139.9466
 504  228.1894
 505  221.19
 506  177.637
 507  297.9565
 508  471.4355
 509  637.3155
 510  892.6234
 511  850.1063
