# Input file       =  1187057703.117304_cleaned.dat
# Candidate        =  PSR_0332+5434
# Telescope        =  AR
# Epoch_topo       =  57983.094005987317
# Epoch_bary       =  N/A
# T_sample         =  0.002
# Data Folded      =  7340032
# Data Avg         =  0.0292299371327056
# Data StdDev      =  2.27223685719694 
# Profile Bins     =  1024
# Profile Avg      =  209.479449651043 
# Profile StdDev   =  192.376756607299 
# Reduced chi-sqr  =  1.395
# Prob(Noise)      <  6.83e-16   (~8.0 sigma)
# P_topo (ms)      =  714.464242036763  +/- 0.000151
# P'_topo (s/s)    =  -0                +/- 7.94e-11
# P''_topo (s/s^2) =  0                 +/- 3.51e-14
# P_bary (ms)      =  N/A
# P'_bary (s/s)    =  N/A
# P''_bary (s/s^2) =  N/A
# P_orb (s)        =  N/A
# asin(i)/c (s)    =  N/A
# eccentricity     =  N/A
# w (rad)          =  N/A
# T_peri           =  N/A
######################################################
   0  102.4113
   1  111.7726
   2  135.9308
   3  138.1788
   4  172.6902
   5  162.8011
   6  149.56
   7  129.9745
   8  -2.01294
   9  -36.51426
  10  35.19886
  11  175.7333
  12  238.4611
  13  197.1647
  14  133.7256
  15  139.0102
  16  96.7454
  17  66.66486
  18  100.4894
  19  154.7724
  20  213.3187
  21  107.9402
  22  22.95181
  23  -7.386284
  24  -40.73001
  25  45.68921
  26  60.46668
  27  110.9652
  28  47.96889
  29  68.22237
  30  163.2081
  31  201.8318
  32  263.9953
  33  269.0783
  34  244.5442
  35  157.1658
  36  146.4544
  37  165.8572
  38  196.7818
  39  191.244
  40  216.4826
  41  204.622
  42  184.6337
  43  138.7675
  44  104.9898
  45  24.32394
  46  83.13661
  47  205.0314
  48  306.7407
  49  289.9085
  50  217.771
  51  187.958
  52  188.4483
  53  266.5923
  54  361.3585
  55  412.9139
  56  399.1862
  57  391.4731
  58  375.3882
  59  377.2773
  60  358.7538
  61  313.8604
  62  257.6775
  63  225.8119
  64  346.8443
  65  384.6664
  66  418.9969
  67  337.3848
  68  315.9515
  69  294.4569
  70  229.0553
  71  80.96719
  72  52.85697
  73  67.06009
  74  160.3484
  75  140.1882
  76  119.9996
  77  104.8216
  78  133.7499
  79  203.146
  80  242.6318
  81  307.836
  82  211.7985
  83  148.1536
  84  164.6463
  85  308.7317
  86  378.082
  87  278.6362
  88  225.4941
  89  265.6012
  90  391.541
  91  359.2588
  92  207.242
  93  80.84074
  94  59.11683
  95  56.38327
  96  170.4935
  97  255.5357
  98  305.0875
  99  287.0963
 100  347.0904
 101  281.5663
 102  203.8953
 103  190.464
 104  154.1191
 105  239.0418
 106  195.9734
 107  307.8379
 108  272.1622
 109  347.6437
 110  357.3916
 111  316.8141
 112  223.8688
 113  140.1014
 114  166.8396
 115  173.7705
 116  248.7239
 117  331.1596
 118  376.3334
 119  312.6463
 120  180.5167
 121  61.99198
 122  21.32143
 123  132.4902
 124  247.8049
 125  287.8157
 126  253.5784
 127  262.9352
 128  182.8702
 129  86.43891
 130  77.67592
 131  84.92119
 132  117.6486
 133  45.91488
 134  19.47498
 135  16.41816
 136  56.1891
 137  70.71665
 138  -51.29994
 139  -78.07307
 140  -106.9253
 141  36.59029
 142  116.1489
 143  205.7293
 144  268.83
 145  360.7883
 146  376.3752
 147  230.0215
 148  124.343
 149  78.35036
 150  215.093
 151  287.1781
 152  290.266
 153  228.3882
 154  78.0247
 155  12.59735
 156  70.46801
 157  298.6442
 158  372.3352
 159  275.5615
 160  229.5952
 161  208.8375
 162  276.334
 163  201.8744
 164  134.624
 165  154.7865
 166  163.6388
 167  279.3518
 168  219.6783
 169  241.9805
 170  179.3068
 171  226.8629
 172  233.2132
 173  250.3586
 174  220.5053
 175  183.9903
 176  194.0683
 177  137.5936
 178  156.5934
 179  65.4342
 180  91.46107
 181  0.0126358
 182  2.543838
 183  59.20966
 184  187.6726
 185  226.6089
 186  260.1246
 187  213.6635
 188  262.6536
 189  142.9325
 190  84.62753
 191  -56.73786
 192  -25.53196
 193  144.965
 194  355.8042
 195  372.9879
 196  196.55
 197  69.39111
 198  116.036
 199  129.7664
 200  114.6454
 201  162.7571
 202  271.5714
 203  229.0179
 204  82.51744
 205  28.7591
 206  53.56156
 207  131.6726
 208  168.4731
 209  144.0705
 210  164.4762
 211  194.3157
 212  175.4797
 213  156.7509
 214  133.5874
 215  260.8062
 216  301.3132
 217  284.2003
 218  162.0484
 219  74.42051
 220  238.1709
 221  381.8639
 222  389.8661
 223  281.1927
 224  209.6846
 225  182.4755
 226  185.2076
 227  194.3681
 228  223.8018
 229  273.6102
 230  386.7311
 231  352.3216
 232  271.6638
 233  212.8035
 234  260.9392
 235  163.3594
 236  118.16
 237  50.71272
 238  178.3098
 239  202.7832
 240  239.7606
 241  136.2095
 242  113.6842
 243  108.6211
 244  179.7996
 245  250.481
 246  238.1741
 247  159.9681
 248  204.5641
 249  197.5782
 250  261.0754
 251  265.7804
 252  339.3156
 253  173.9323
 254  66.32924
 255  -11.51636
 256  88.12782
 257  76.56265
 258  156.4003
 259  227.562
 260  294.3355
 261  255.5145
 262  227.8303
 263  252.6806
 264  185.8007
 265  189.293
 266  203.056
 267  265.9357
 268  258.4131
 269  276.0176
 270  206.8654
 271  195.5264
 272  221.442
 273  277.2154
 274  272.7777
 275  168.8167
 276  147.0284
 277  97.50706
 278  87.79362
 279  66.41161
 280  90.44144
 281  172.1525
 282  223.8648
 283  224.518
 284  162.6964
 285  174.1961
 286  166.9657
 287  197.1573
 288  231.3745
 289  206.7227
 290  279.2281
 291  256.0881
 292  202.762
 293  98.98321
 294  112.7947
 295  306.8735
 296  330.6711
 297  328.0114
 298  276.216
 299  235.5377
 300  133.392
 301  103.8169
 302  185.4245
 303  214.0022
 304  297.5369
 305  310.7149
 306  315.2127
 307  242.8887
 308  219.5665
 309  217.7979
 310  36.54226
 311  -50.0708
 312  42.69731
 313  210.888
 314  180.8938
 315  99.33138
 316  40.5895
 317  181.167
 318  160.4623
 319  112.9503
 320  75.1161
 321  117.098
 322  181.2052
 323  208.9292
 324  243.3589
 325  190.3994
 326  127.0247
 327  106.1097
 328  147.2938
 329  306.2476
 330  395.2266
 331  479.884
 332  324.4807
 333  195.3951
 334  164.6067
 335  295.737
 336  335.012
 337  296.3897
 338  239.0402
 339  231.3656
 340  200.7285
 341  163.8287
 342  205.9142
 343  230.9167
 344  211.6591
 345  104.1913
 346  110.6719
 347  103.036
 348  193.976
 349  136.2761
 350  137.5895
 351  82.39664
 352  117.1469
 353  124.5974
 354  100.1281
 355  110.0392
 356  77.50893
 357  11.6243
 358  78.47763
 359  185.9734
 360  323.0002
 361  346.129
 362  306.0489
 363  304.6624
 364  310.8889
 365  331.8896
 366  394.066
 367  309.576
 368  272.2498
 369  128.8323
 370  210.705
 371  93.82963
 372  153.9931
 373  201.7859
 374  298.3666
 375  215.4225
 376  209.9497
 377  314.6075
 378  412.452
 379  382.4907
 380  226.2068
 381  135.7976
 382  179.2116
 383  270.6288
 384  366.1052
 385  416.2429
 386  472.2953
 387  418.2845
 388  443.2186
 389  399.0845
 390  463.2798
 391  398.0341
 392  352.0852
 393  329.3847
 394  355.8192
 395  298.7149
 396  281.6267
 397  325.5051
 398  328.894
 399  261.156
 400  182.8083
 401  205.3434
 402  295.2844
 403  277.1371
 404  242.3592
 405  201.1052
 406  228.6749
 407  286.4305
 408  215.9344
 409  166.4061
 410  61.74555
 411  137.0123
 412  230.6596
 413  268.2537
 414  230.6397
 415  155.1196
 416  218.7097
 417  230.757
 418  202.9889
 419  88.91944
 420  -20.91699
 421  -43.55815
 422  51.66731
 423  302.1846
 424  351.6334
 425  306.2738
 426  186.2816
 427  209.7219
 428  255.7485
 429  286.8742
 430  242.9261
 431  146.0958
 432  156.6899
 433  187.9631
 434  178.2046
 435  209.9478
 436  235.0121
 437  320.4906
 438  228.103
 439  230.5681
 440  175.0466
 441  233.1564
 442  168.728
 443  120.8959
 444  82.5023
 445  94.62923
 446  153.0649
 447  141.4946
 448  228.627
 449  281.6972
 450  298.7033
 451  206.3192
 452  181.7855
 453  177.1367
 454  175.3752
 455  117.1392
 456  112.6637
 457  99.39061
 458  107.5683
 459  87.95539
 460  141.8042
 461  211.9134
 462  239.7288
 463  155.0448
 464  104.3768
 465  86.72687
 466  216.9192
 467  309.1366
 468  395.466
 469  345.9543
 470  182.7359
 471  139.1176
 472  114.4144
 473  180.3607
 474  142.7788
 475  105.6699
 476  75.35125
 477  177.1878
 478  238.5036
 479  278.4894
 480  201.9778
 481  192.7217
 482  188.3711
 483  134.4738
 484  168.9017
 485  202.8969
 486  178.339
 487  217.4637
 488  305.8095
 489  298.9023
 490  263.1154
 491  189.8503
 492  304.5478
 493  333.1899
 494  245.911
 495  205.9616
 496  270.4384
 497  437.0293
 498  434.0905
 499  373.2938
 500  228.6254
 501  221.8472
 502  245.6847
 503  301.0333
 504  169.0875
 505  156.3703
 506  261.8262
 507  274.7253
 508  191.1725
 509  123.8883
 510  240.3127
 511  298.706
 512  283.9327
 513  157.1712
 514  125.96
 515  110.1216
 516  142.6446
 517  187.9053
 518  145.8579
 519  67.63769
 520  76.20515
 521  135.2655
 522  124.1802
 523  10.01482
 524  -8.345066
 525  98.97953
 526  235.3183
 527  319.1646
 528  385.7019
 529  296.7502
 530  209.3236
 531  175.4142
 532  235.2848
 533  298.1372
 534  245.655
 535  258.4108
 536  262.0957
 537  273.66
 538  290.8458
 539  274.5831
 540  274.4677
 541  223.4704
 542  212.3518
 543  223.9789
 544  236.2054
 545  331.1342
 546  446.8606
 547  377.9235
 548  273.4463
 549  239.8179
 550  285.1231
 551  287.9451
 552  140.0783
 553  124.4834
 554  105.6442
 555  132.3499
 556  51.08988
 557  59.23874
 558  202.9014
 559  309.2858
 560  322.7119
 561  366.7855
 562  320.4064
 563  284.6689
 564  159.8254
 565  126.3176
 566  85.42912
 567  119.0219
 568  168.554
 569  210.9612
 570  195.2747
 571  210.818
 572  175.5645
 573  247.8682
 574  292.8358
 575  229.9005
 576  121.4124
 577  85.31036
 578  160.1201
 579  133.5638
 580  135.8726
 581  140.3187
 582  233.4395
 583  247.065
 584  345.9565
 585  242.6011
 586  155.455
 587  99.62943
 588  122.1799
 589  63.41453
 590  3.78634
 591  76.67448
 592  286.3322
 593  301.3795
 594  296.5067
 595  249.3281
 596  364.8934
 597  343.9084
 598  266.7137
 599  166.3906
 600  152.0664
 601  76.7524
 602  17.60828
 603  42.21162
 604  28.96346
 605  -16.57271
 606  -77.82747
 607  -8.248963
 608  74.55463
 609  139.3616
 610  186.9772
 611  238.2898
 612  308.423
 613  299.713
 614  208.2617
 615  133.0265
 616  168.0746
 617  189.9179
 618  152.8476
 619  182.9731
 620  329.7269
 621  422.5093
 622  371.701
 623  220.9962
 624  186.9589
 625  252.3419
 626  238.7509
 627  284.2829
 628  260.692
 629  277.9296
 630  187.1263
 631  239.2412
 632  249.7621
 633  287.6583
 634  294.3862
 635  245.6706
 636  307.3678
 637  224.655
 638  380.0291
 639  430.1207
 640  490.8036
 641  483.1818
 642  596.2684
 643  667.1339
 644  758.6235
 645  845.0715
 646  1004.682
 647  1056.712
 648  1036.652
 649  939.7178
 650  823.7404
 651  717.3475
 652  630.9929
 653  545.3743
 654  409.4027
 655  289.9641
 656  257.1278
 657  303.3891
 658  291.6247
 659  308.8626
 660  366.7923
 661  380.2466
 662  445.3354
 663  389.0479
 664  449.7797
 665  244.1506
 666  203.1542
 667  112.5135
 668  161.0788
 669  115.8895
 670  225.6702
 671  337.021
 672  385.7746
 673  337.5099
 674  305.4701
 675  315.3316
 676  282.4745
 677  327.8159
 678  402.0473
 679  458.4668
 680  441.6612
 681  410.0541
 682  406.2658
 683  363.2218
 684  328.6732
 685  280.2156
 686  246.0779
 687  267.9429
 688  314.7985
 689  367.4154
 690  310.8597
 691  282.7221
 692  310.7039
 693  285.8537
 694  271.9088
 695  275.3407
 696  366.2584
 697  309.5869
 698  167.1661
 699  68.61626
 700  189.446
 701  390.4773
 702  470.1309
 703  447.6975
 704  437.731
 705  377.5535
 706  270.9575
 707  213.457
 708  233.5931
 709  367.238
 710  429.5717
 711  413.3213
 712  394.9468
 713  309.5808
 714  219.56
 715  157.4171
 716  207.4243
 717  307.5551
 718  360.2935
 719  245.4145
 720  88.1772
 721  36.77117
 722  96.50559
 723  149.6628
 724  67.9819
 725  114.8035
 726  142.5862
 727  165.4288
 728  118.5273
 729  245.1004
 730  393.6368
 731  455.5367
 732  315.5937
 733  141.1059
 734  10.04152
 735  4.339079
 736  97.1945
 737  156.72
 738  163.4407
 739  142.4605
 740  156.5465
 741  203.9226
 742  134.2233
 743  78.17641
 744  8.041676
 745  153.9385
 746  219.7068
 747  168.0816
 748  93.00134
 749  109.2835
 750  117.0657
 751  127.8603
 752  126.2097
 753  198.8622
 754  154.1437
 755  77.56381
 756  93.21256
 757  109.0486
 758  156.7649
 759  204.5079
 760  266.2753
 761  287.9015
 762  300.1855
 763  231.8364
 764  214.6934
 765  205.3087
 766  362.2584
 767  401.6297
 768  203.1161
 769  -41.96247
 770  -130.1873
 771  68.00391
 772  203.7858
 773  389.3079
 774  406.8778
 775  353.8464
 776  256.2913
 777  234.167
 778  258.2421
 779  229.7743
 780  324.0421
 781  324.3193
 782  306.5505
 783  208.6783
 784  233.9255
 785  279.231
 786  307.7206
 787  202.0004
 788  114.3692
 789  133.4368
 790  161.0308
 791  173.9762
 792  110.2401
 793  111.2035
 794  135.4194
 795  132.7069
 796  23.92205
 797  18.90144
 798  4.533861
 799  15.62424
 800  36.9601
 801  115.9549
 802  229.5029
 803  239.0299
 804  134.5988
 805  73.3183
 806  4.297164
 807  222.9953
 808  322.7259
 809  435.8198
 810  396.314
 811  332.5779
 812  277.6057
 813  162.1255
 814  134.8629
 815  120.2543
 816  188.237
 817  276.0757
 818  323.328
 819  259.3476
 820  269.1193
 821  309.3968
 822  301.2773
 823  166.6465
 824  139.3091
 825  175.5356
 826  134.3309
 827  81.87113
 828  128.6866
 829  190.3392
 830  193.2131
 831  197.5184
 832  254.0158
 833  267.7466
 834  390.4218
 835  391.4256
 836  348.5838
 837  218.8862
 838  211.4143
 839  197.2931
 840  224.7375
 841  166.0064
 842  208.1131
 843  125.0829
 844  135.0304
 845  206.4861
 846  257.5208
 847  145.4461
 848  -19.7506
 849  38.84045
 850  177.3909
 851  153.0048
 852  223.3324
 853  237.8834
 854  317.761
 855  227.5382
 856  167.3756
 857  139.449
 858  168.023
 859  198.9884
 860  147.0457
 861  149.3526
 862  222.0776
 863  302.1561
 864  339.4858
 865  337.7045
 866  286.9514
 867  252.0803
 868  146.4947
 869  127.3795
 870  117.8662
 871  159.6909
 872  170.1042
 873  93.69011
 874  57.39997
 875  60.17873
 876  131.3875
 877  135.8224
 878  101.3545
 879  91.37818
 880  176.6502
 881  287.4581
 882  333.538
 883  282.3785
 884  138.3873
 885  11.13599
 886  -40.94431
 887  -40.33941
 888  -19.38694
 889  60.61251
 890  124.1338
 891  120.6525
 892  233.1455
 893  280.8089
 894  401.4055
 895  327.7415
 896  350.8215
 897  303.0135
 898  247.1992
 899  210.1436
 900  346.1913
 901  465.1102
 902  478.569
 903  353.4912
 904  320.3884
 905  233.5512
 906  224.9302
 907  221.1019
 908  238.8734
 909  296.7649
 910  293.3265
 911  310.6262
 912  245.6258
 913  205.1893
 914  167.0145
 915  136.7976
 916  51.56625
 917  61.70397
 918  46.44521
 919  69.48672
 920  106.7041
 921  179.0093
 922  238.9312
 923  277.958
 924  289.3441
 925  245.5699
 926  136.5666
 927  135.3485
 928  219.0856
 929  207.1131
 930  176.192
 931  82.53403
 932  111.6015
 933  101.8195
 934  49.56517
 935  57.06456
 936  87.11785
 937  170.7673
 938  173.1638
 939  134.4817
 940  53.84809
 941  60.16168
 942  57.49279
 943  183.4099
 944  234.309
 945  326.3586
 946  255.9187
 947  154.8073
 948  107.5203
 949  140.898
 950  199.1721
 951  227.954
 952  270.8011
 953  335.8019
 954  253.7442
 955  204.4877
 956  15.9362
 957  55.52596
 958  40.0208
 959  202.2854
 960  225.6488
 961  227.0005
 962  155.5809
 963  94.36054
 964  186.2055
 965  231.3114
 966  224.741
 967  191.2378
 968  193.1141
 969  105.827
 970  31.15436
 971  -24.26143
 972  43.87542
 973  100.0919
 974  175.8078
 975  156.7099
 976  31.299
 977  -81.83545
 978  -20.35121
 979  94.23898
 980  152.4982
 981  107.3377
 982  190.5263
 983  130.1598
 984  105.9972
 985  56.9964
 986  102.6116
 987  166.1715
 988  140.6251
 989  225.3967
 990  121.4622
 991  45.56559
 992  56.7242
 993  146.6614
 994  230.1931
 995  180.4476
 996  180.6589
 997  179.4238
 998  156.8353
 999  70.83243
1000  56.12485
1001  75.91644
1002  153.3343
1003  168.6721
1004  193.7926
1005  176.4856
1006  184.442
1007  197.4087
1008  350.8977
1009  431.9036
1010  378.3609
1011  192.4184
1012  154.3033
1013  131.6191
1014  74.95919
1015  41.45463
1016  128.4485
1017  227.6871
1018  205.6827
1019  231.602
1020  249.2526
1021  141.6404
1022  28.64339
1023  13.68698
