# Input file       =  1187559996.112759_cleaned.dat
# Candidate        =  PSR_0332+5434
# Telescope        =  AR
# Epoch_topo       =  57988.907582323598
# Epoch_bary       =  N/A
# T_sample         =  0.002
# Data Folded      =  7208960
# Data Avg         =  0.0160260265108533
# Data StdDev      =  1.0002531859239  
# Profile Bins     =  512
# Profile Avg      =  225.651456451107 
# Profile StdDev   =  118.689218626584 
# Reduced chi-sqr  =  1.372
# Prob(Noise)      <  4.1e-08   (~5.4 sigma)
# P_topo (ms)      =  714.463493599826  +/- 0.000269
# P'_topo (s/s)    =  -0                +/- 1.45e-10
# P''_topo (s/s^2) =  0                 +/- 6.5e-14
# P_bary (ms)      =  N/A
# P'_bary (s/s)    =  N/A
# P''_bary (s/s^2) =  N/A
# P_orb (s)        =  N/A
# asin(i)/c (s)    =  N/A
# eccentricity     =  N/A
# w (rad)          =  N/A
# T_peri           =  N/A
######################################################
   0  740.5891
   1  804.6805
   2  658.87
   3  379.9459
   4  288.8706
   5  393.3652
   6  209.4015
   7  165.638
   8  235.1243
   9  155.3861
  10  250.2933
  11  293.223
  12  282.1526
  13  369.4351
  14  256.4215
  15  305.5387
  16  258.2224
  17  279.0155
  18  271.2656
  19  230.8337
  20  233.5219
  21  139.2586
  22  170.7943
  23  197.5421
  24  164.3264
  25  173.0698
  26  120.8968
  27  46.9161
  28  143.7479
  29  331.0923
  30  110.1031
  31  79.52133
  32  328.6779
  33  243.9396
  34  155.4598
  35  265.0427
  36  164.7189
  37  108.4747
  38  172.4077
  39  194.6121
  40  208.2105
  41  225.1897
  42  295.8635
  43  169.0986
  44  168.2042
  45  312.6211
  46  339.4053
  47  244.3958
  48  223.1521
  49  242.5064
  50  123.7043
  51  92.55477
  52  62.35979
  53  67.46294
  54  105.8037
  55  154.9105
  56  211.7024
  57  241.9276
  58  201.3308
  59  234.1744
  60  270.7209
  61  238.2667
  62  277.311
  63  178.0086
  64  277.6794
  65  243.9928
  66  148.6652
  67  247.4272
  68  308.3959
  69  235.8501
  70  201.9146
  71  207.9218
  72  204.8586
  73  148.021
  74  264.8154
  75  389.3043
  76  353.9081
  77  313.1114
  78  329.5276
  79  367.1116
  80  337.7635
  81  276.6927
  82  152.382
  83  201.3329
  84  281.5187
  85  236.1006
  86  235.4726
  87  137.3494
  88  231.4086
  89  154.8881
  90  254.8743
  91  235.4294
  92  215.6957
  93  155.5019
  94  247.7407
  95  262.6137
  96  172.5871
  97  305.1039
  98  261.5736
  99  390.5826
 100  414.7036
 101  212.0264
 102  135.2836
 103  135.2095
 104  161.653
 105  289.6991
 106  180.9664
 107  146.1075
 108  234.693
 109  273.1868
 110  233.4622
 111  133.9314
 112  232.3535
 113  234.2178
 114  222.0768
 115  183.0554
 116  173.6262
 117  228.786
 118  245.1769
 119  200.8469
 120  186.6005
 121  266.2094
 122  188.0805
 123  227.9317
 124  277.8682
 125  127.5723
 126  123.4093
 127  313.5173
 128  296.7791
 129  255.3044
 130  107.2664
 131  194.5789
 132  182.8602
 133  122.7128
 134  278.3406
 135  321.3032
 136  432.419
 137  309.5737
 138  220.2347
 139  312.4544
 140  221.2008
 141  175.2865
 142  139.1655
 143  160.1431
 144  189.2363
 145  200.9425
 146  147.1411
 147  119.6367
 148  154.9252
 149  190.2571
 150  222.3426
 151  266.5946
 152  297.7854
 153  238.116
 154  155.5254
 155  203.1247
 156  241.9867
 157  141.1658
 158  117.4483
 159  158.4096
 160  182.4449
 161  111.3889
 162  119.619
 163  95.17786
 164  195.1836
 165  159.4775
 166  102.316
 167  179.0252
 168  215.5371
 169  226.444
 170  190.9331
 171  156.7327
 172  173.0069
 173  265.3438
 174  200.0584
 175  110.8212
 176  79.56407
 177  130.4173
 178  210.0532
 179  340.2381
 180  259.049
 181  231.4105
 182  128.7008
 183  193.3324
 184  98.43639
 185  183.0815
 186  283.3271
 187  237.2619
 188  224.1819
 189  243.7617
 190  222.9705
 191  243.0864
 192  211.7192
 193  184.5365
 194  332.4921
 195  329.2064
 196  246.3894
 197  239.3658
 198  315.6335
 199  387.4474
 200  331.7349
 201  265.2393
 202  207.1384
 203  369.0602
 204  334.7271
 205  240.9046
 206  289.0838
 207  310.9752
 208  276.7636
 209  105.1315
 210  260.6889
 211  328.6125
 212  321.7711
 213  364.9969
 214  403.5879
 215  279.1437
 216  351.8337
 217  364.2439
 218  308.8023
 219  300.0258
 220  262.2881
 221  349.2945
 222  336.5461
 223  317.2181
 224  329.8513
 225  305.8392
 226  247.8145
 227  253.8773
 228  146.9147
 229  241.5412
 230  297.9065
 231  257.9929
 232  118.3528
 233  193.0541
 234  281.725
 235  136.0217
 236  242.9027
 237  293.627
 238  38.5071
 239  177.8895
 240  187.6284
 241  247.8344
 242  277.632
 243  159.0002
 244  190.3165
 245  130.3983
 246  315.9398
 247  362.5439
 248  320.4417
 249  249.1657
 250  321.9271
 251  347.5973
 252  315.3289
 253  237.9161
 254  211.0323
 255  225.2456
 256  300.4145
 257  275.6409
 258  59.11182
 259  96.909
 260  105.7701
 261  150.4245
 262  182.2547
 263  215.7851
 264  223.5668
 265  259.8689
 266  256.5511
 267  73.72755
 268  30.76801
 269  164.3024
 270  271.5838
 271  352.0848
 272  248.5191
 273  300.7209
 274  284.6163
 275  239.6043
 276  195.232
 277  194.0305
 278  241.2614
 279  113.7177
 280  135.3171
 281  228.4653
 282  138.2283
 283  46.95155
 284  138.5623
 285  277.0067
 286  250.2029
 287  213.7348
 288  195.4991
 289  274.8805
 290  393.2479
 291  257.6946
 292  203.9063
 293  208.3726
 294  192.4457
 295  193.5819
 296  135.4646
 297  102.0718
 298  82.6294
 299  24.34782
 300  52.07051
 301  155.8246
 302  210.6429
 303  146.3194
 304  198.3463
 305  209.2382
 306  118.6936
 307  126.6743
 308  115.971
 309  105.0511
 310  162.2203
 311  302.9963
 312  303.3517
 313  298.7735
 314  264.9108
 315  248.107
 316  254.1488
 317  308.5688
 318  285.9892
 319  306.3484
 320  261.9611
 321  161.9913
 322  170.1539
 323  220.0009
 324  214.7631
 325  201.7551
 326  205.8776
 327  265.8518
 328  260.0927
 329  260.9122
 330  241.2765
 331  251.9053
 332  194.4966
 333  146.7211
 334  136.9874
 335  285.1385
 336  232.3003
 337  351.3921
 338  397.5582
 339  285.1057
 340  200.8589
 341  196.5845
 342  214.9536
 343  111.8897
 344  43.55099
 345  135.0229
 346  299.1815
 347  234.355
 348  205.5243
 349  181.6009
 350  251.5279
 351  206.2516
 352  238.1107
 353  276.3767
 354  206.9457
 355  196.8531
 356  230.5763
 357  241.5681
 358  278.2902
 359  174.9632
 360  135.5495
 361  69.11819
 362  231.1892
 363  329.1364
 364  267.5666
 365  195.1338
 366  207.6885
 367  247.08
 368  235.6948
 369  195.0398
 370  273.8564
 371  318.287
 372  162.2669
 373  142.0241
 374  164.733
 375  95.41496
 376  44.86069
 377  214.5377
 378  265.1337
 379  184.5211
 380  37.73214
 381  78.03789
 382  151.8856
 383  138.1022
 384  191.1475
 385  263.338
 386  284.1634
 387  175.1124
 388  162.3905
 389  237.7875
 390  128.6117
 391  119.6335
 392  169.2856
 393  221.049
 394  236.6911
 395  408.1143
 396  312.2152
 397  283.4146
 398  171.6185
 399  235.3803
 400  216.234
 401  190.4328
 402  193.1742
 403  86.01948
 404  84.17097
 405  273.1706
 406  246.1085
 407  286.2689
 408  187.6776
 409  179.1473
 410  255.4378
 411  181.018
 412  240.2457
 413  153.3079
 414  246.9666
 415  346.8116
 416  299.9795
 417  307.9446
 418  283.1491
 419  275.3914
 420  306.347
 421  252.1904
 422  134.1507
 423  71.96935
 424  157.6102
 425  80.6746
 426  120.4603
 427  371.9114
 428  271.1726
 429  297.9448
 430  135.5312
 431  199.5395
 432  166.5971
 433  232.7208
 434  117.2604
 435  148.7279
 436  102.7667
 437  140.611
 438  155.4587
 439  235.8987
 440  160.1272
 441  176.0174
 442  143.8747
 443  186.7046
 444  235.9045
 445  186.9081
 446  230.6405
 447  297.2613
 448  256.1071
 449  141.295
 450  69.12157
 451  252.6063
 452  307.5921
 453  354.6703
 454  272.7706
 455  198.3467
 456  128.6108
 457  126.3442
 458  108.4704
 459  23.90455
 460  150.3781
 461  135.3943
 462  235.0087
 463  198.6571
 464  10.26358
 465  163.5303
 466  215.0681
 467  107.7969
 468  -41.93151
 469  -60.66026
 470  221.9098
 471  181.7728
 472  159.3643
 473  145.9666
 474  173.8297
 475  259.2033
 476  229.5065
 477  160.8606
 478  215.3953
 479  370.6241
 480  273.8753
 481  274.3462
 482  269.9068
 483  226.2914
 484  266.3601
 485  122.0698
 486  84.21442
 487  296.6213
 488  257.4389
 489  349.5952
 490  249.6648
 491  142.4782
 492  143.3302
 493  260.6673
 494  321.3298
 495  300.6424
 496  301.3703
 497  265.7686
 498  315.2653
 499  221.4776
 500  258.8527
 501  323.5574
 502  397.9801
 503  286.2525
 504  227.2125
 505  270.802
 506  373.4168
 507  429.7982
 508  593.8012
 509  706.3754
 510  857.7756
 511  794.8337
