# Input file       =  1187387774.104203_cleaned.dat
# Candidate        =  PSR_0332+5434
# Telescope        =  AR
# Epoch_topo       =  57986.914272039387
# Epoch_bary       =  N/A
# T_sample         =  0.002
# Data Folded      =  7143424
# Data Avg         =  0.144537415322335
# Data StdDev      =  4.61859098492022 
# Profile Bins     =  512
# Profile Avg      =  2016.55875789373 
# Profile StdDev   =  545.54142943949  
# Reduced chi-sqr  =  0.429
# Prob(Noise)      <  1   (~0.0 sigma)
# P_topo (ms)      =  714.463677738461  +/- 0.00556
# P'_topo (s/s)    =  -0                +/- 3.01e-09
# P''_topo (s/s^2) =  0                 +/- 1.37e-12
# P_bary (ms)      =  N/A
# P'_bary (s/s)    =  N/A
# P''_bary (s/s^2) =  N/A
# P_orb (s)        =  N/A
# asin(i)/c (s)    =  N/A
# eccentricity     =  N/A
# w (rad)          =  N/A
# T_peri           =  N/A
######################################################
   0  2311.531
   1  1940.926
   2  1421.56
   3  1577.51
   4  1694.891
   5  2073.143
   6  1990.881
   7  1900.672
   8  2062.664
   9  2046.7
  10  1485.548
  11  1517.339
  12  1483.013
  13  1578.035
  14  1947.1
  15  1895.811
  16  1907.812
  17  1552.613
  18  1783.645
  19  1873.3
  20  1971.035
  21  2208.811
  22  2312.561
  23  2460.837
  24  1868.296
  25  2082.656
  26  2111.566
  27  2010.126
  28  1820.942
  29  1715.13
  30  1722.667
  31  1883.647
  32  2063.854
  33  2308.252
  34  2257.578
  35  2089.81
  36  1759.371
  37  1489.942
  38  1876.981
  39  1977.627
  40  1725.555
  41  1465.945
  42  1771.014
  43  1823.657
  44  2138.516
  45  2156.111
  46  1916.135
  47  1841.921
  48  2195.59
  49  2038.844
  50  1928.279
  51  1828.215
  52  2423.369
  53  2162.632
  54  2004.942
  55  2014.717
  56  1996.693
  57  1672.3
  58  1571.186
  59  1787.536
  60  1691.6
  61  1806.753
  62  1915.265
  63  2309.704
  64  2246.947
  65  1791.468
  66  1878.974
  67  1649.51
  68  1803.129
  69  2025.555
  70  1985.252
  71  2159.279
  72  1877.171
  73  1577.202
  74  1792.463
  75  1772.484
  76  1909.869
  77  1817.285
  78  2021.401
  79  1629.097
  80  1713.203
  81  1927.651
  82  2248.373
  83  2506.119
  84  1974.458
  85  1929.018
  86  2031.182
  87  2043.511
  88  1847.085
  89  1795.931
  90  2267.531
  91  2287.937
  92  2203.916
  93  2047.961
  94  1828.925
  95  2122.171
  96  2139.206
  97  1894.083
  98  1796.822
  99  2095.013
 100  2163.549
 101  1852.981
 102  1918.298
 103  2120.133
 104  1911.35
 105  1920.127
 106  2183.048
 107  2377.119
 108  2235.856
 109  2207.523
 110  2293.041
 111  2175.401
 112  2134.678
 113  2055.418
 114  1894.342
 115  1888.657
 116  1844.307
 117  2439.633
 118  2451.882
 119  2396.66
 120  1789.169
 121  2012.149
 122  2109.628
 123  1896.977
 124  2284.315
 125  2312.437
 126  2130.268
 127  2192.334
 128  2286.492
 129  2176.702
 130  2189.128
 131  2093.194
 132  2201.528
 133  2152.436
 134  2091.433
 135  2045.846
 136  2434.2
 137  2029.786
 138  2206.739
 139  2278.128
 140  2215.98
 141  2182.248
 142  2152.562
 143  2194.974
 144  2292.106
 145  2035.032
 146  1910.608
 147  2559.63
 148  2492.334
 149  1993.09
 150  2165.096
 151  2199.386
 152  2095.959
 153  1675.288
 154  1699.546
 155  2112.512
 156  2204.914
 157  2100.526
 158  2097.834
 159  1642.241
 160  1885.008
 161  2373.778
 162  2269.01
 163  2110.253
 164  2389.54
 165  2245.622
 166  2056.887
 167  2101.957
 168  2587.188
 169  2412.435
 170  2736.572
 171  3167.655
 172  3300.426
 173  3240.078
 174  3243.113
 175  2791.218
 176  2544.082
 177  2498.269
 178  1640.345
 179  1758.028
 180  2010.584
 181  1856.4
 182  1762.262
 183  2192.769
 184  2260.587
 185  2047.316
 186  2046.767
 187  1932.455
 188  1895.99
 189  2449.281
 190  2218.417
 191  2361.339
 192  2400.198
 193  2208.179
 194  1860.576
 195  1846.883
 196  1982.881
 197  1870.06
 198  2391.918
 199  1944.718
 200  1898.234
 201  2115.423
 202  1959.291
 203  2464.674
 204  2170.499
 205  2094.623
 206  2316.373
 207  1997.485
 208  1980.947
 209  1880.218
 210  2306.208
 211  1860.659
 212  1733.997
 213  2061.767
 214  2253.63
 215  2077.984
 216  1905.69
 217  1784.824
 218  1636.335
 219  1850.183
 220  2070.772
 221  1823.523
 222  2343.667
 223  2033.817
 224  2250.912
 225  2204.866
 226  1860.454
 227  2141.537
 228  2028.951
 229  2308.594
 230  2060.808
 231  2340.17
 232  2053.663
 233  2154.901
 234  2455.67
 235  2311.52
 236  2075.285
 237  2175.064
 238  2225.587
 239  2114.565
 240  1980.441
 241  1590.522
 242  1729.517
 243  1908.188
 244  2200.703
 245  1653.251
 246  1938.549
 247  2009.172
 248  2079.837
 249  2005.087
 250  2020.229
 251  2035.346
 252  1897.438
 253  1840.376
 254  2074.945
 255  1670.178
 256  1720.23
 257  1838.01
 258  2057.498
 259  1853.932
 260  1720.861
 261  2109.035
 262  1880.867
 263  2120.492
 264  2182.997
 265  2174.128
 266  2457.114
 267  2171.174
 268  2066.094
 269  1856.988
 270  1943.45
 271  2013.552
 272  1967.438
 273  2432.779
 274  2172.7
 275  2131.362
 276  1945.107
 277  1743.777
 278  1707.839
 279  1966.533
 280  2159.63
 281  2126.848
 282  1934.917
 283  1889.838
 284  2104.319
 285  2452.505
 286  2348.514
 287  2218.769
 288  1930.859
 289  1821.477
 290  1976.462
 291  1989.417
 292  2415.223
 293  2099.976
 294  2092.729
 295  2101.304
 296  2098.459
 297  2035.486
 298  2023.69
 299  2462.57
 300  2016.578
 301  2077.686
 302  1837.064
 303  2153.197
 304  2189.068
 305  2011.655
 306  2368.086
 307  2033.74
 308  2157.976
 309  2068.595
 310  2182.894
 311  2483.759
 312  2176.061
 313  1986.404
 314  2120.898
 315  1999.528
 316  2293.526
 317  2425.479
 318  2270.186
 319  2149.981
 320  1876.184
 321  2055.898
 322  2112.094
 323  2240.462
 324  2253.938
 325  2078.625
 326  1969.513
 327  1782.483
 328  1783.347
 329  1863.089
 330  2188.07
 331  2468.425
 332  1922.065
 333  2129.655
 334  2004.337
 335  1926.31
 336  2027.956
 337  2409.256
 338  2229.107
 339  1776.131
 340  1776.2
 341  1999.817
 342  1960.451
 343  2048.024
 344  1636.202
 345  1976.827
 346  2119.189
 347  1959.241
 348  1993.488
 349  1666.158
 350  1743.66
 351  2074.692
 352  2066.807
 353  1943.176
 354  2175.556
 355  1829.187
 356  1980.132
 357  2169.877
 358  2200.201
 359  2074.852
 360  1442.306
 361  1461.586
 362  1880.163
 363  2207.987
 364  1922.062
 365  1829.089
 366  2313.624
 367  2287.372
 368  1910.125
 369  2140.927
 370  2218.71
 371  1987.731
 372  2261.182
 373  2080.33
 374  1805.647
 375  2113.21
 376  1980.944
 377  1850.478
 378  1776.224
 379  1614.7
 380  1598.589
 381  1614.634
 382  2043.831
 383  1977.349
 384  2129.819
 385  2161.813
 386  2021.379
 387  1917.741
 388  1870.89
 389  1657.696
 390  1764.408
 391  2013.561
 392  1985.923
 393  1921.75
 394  2084.753
 395  2365.318
 396  2138.019
 397  1700.548
 398  1843.963
 399  1841.973
 400  1983.406
 401  2081.177
 402  2255.171
 403  2273.101
 404  1736.123
 405  2025.915
 406  1629.194
 407  1980.587
 408  2044.612
 409  1871.398
 410  1692.804
 411  1385.617
 412  1935.962
 413  1763.423
 414  1708.103
 415  1610.906
 416  1699.062
 417  1951.279
 418  1788.613
 419  2093.254
 420  2237.508
 421  1975.632
 422  1871.404
 423  1691.406
 424  2280.504
 425  2180.497
 426  1957.781
 427  1971.411
 428  1749.345
 429  1537.284
 430  1992.552
 431  2338.698
 432  2320.508
 433  2197.216
 434  1752.491
 435  1895.913
 436  2033.793
 437  1917.989
 438  1896.11
 439  1854.867
 440  1672.597
 441  1964.596
 442  1986.553
 443  2390.914
 444  2117.009
 445  1699.57
 446  1634.831
 447  2017.547
 448  2307.608
 449  2232.542
 450  2199.332
 451  2257.95
 452  1953.453
 453  2027.236
 454  1793.225
 455  1513.76
 456  2139.528
 457  2307.717
 458  1885.242
 459  1661.554
 460  2091.409
 461  2158.537
 462  2183.211
 463  2034.383
 464  2000.709
 465  1739.99
 466  1974.881
 467  1918.514
 468  1807.744
 469  1929.379
 470  2339.813
 471  2132.256
 472  1909.906
 473  1756.723
 474  1490.075
 475  1569.269
 476  1436.809
 477  1713.533
 478  2127.749
 479  2329.686
 480  2168.764
 481  1796.068
 482  1652.3
 483  1867.761
 484  1469.614
 485  1722.193
 486  2040.609
 487  2302.125
 488  1949.714
 489  1447.222
 490  1670.013
 491  1802.732
 492  1770.279
 493  2315.784
 494  1882.285
 495  1622.924
 496  1617.65
 497  1938.357
 498  1982.646
 499  1972.201
 500  1713.85
 501  1846.482
 502  2146.116
 503  2219.781
 504  1991.38
 505  1743.89
 506  1815.772
 507  1810.75
 508  2002.412
 509  1819.555
 510  1774.51
 511  2117.055
