# Input file       =  1187143878.108323_cleaned.dat
# Candidate        =  PSR_0332+5434
# Telescope        =  AR
# Epoch_topo       =  57984.091401716702
# Epoch_bary       =  N/A
# T_sample         =  0.002
# Data Folded      =  7340032
# Data Avg         =  0.0214284976536874
# Data StdDev      =  2.33345481341643 
# Profile Bins     =  1024
# Profile Avg      =  153.452112529065 
# Profile StdDev   =  197.559716221008 
# Reduced chi-sqr  =  1.336
# Prob(Noise)      <  2.79e-12   (~6.9 sigma)
# P_topo (ms)      =  714.46407382627   +/- 0.000151
# P'_topo (s/s)    =  -0                +/- 7.94e-11
# P''_topo (s/s^2) =  0                 +/- 3.51e-14
# P_bary (ms)      =  N/A
# P'_bary (s/s)    =  N/A
# P''_bary (s/s^2) =  N/A
# P_orb (s)        =  N/A
# asin(i)/c (s)    =  N/A
# eccentricity     =  N/A
# w (rad)          =  N/A
# T_peri           =  N/A
######################################################
   0  212.9509
   1  152.6512
   2  120.8232
   3  36.50438
   4  40.41592
   5  47.63765
   6  71.77582
   7  -21.15009
   8  -13.51405
   9  -76.59396
  10  59.37794
  11  86.09946
  12  244.0677
  13  259.3534
  14  300.5724
  15  218.1652
  16  196.3033
  17  129.9102
  18  118.3392
  19  74.42941
  20  103.5836
  21  112.7373
  22  137.0714
  23  97.91846
  24  82.33369
  25  64.85643
  26  110.2915
  27  40.85731
  28  -33.52196
  29  -131.9298
  30  -202.4508
  31  -105.6843
  32  46.85055
  33  254.7606
  34  262.4798
  35  207.5318
  36  176.0079
  37  130.6397
  38  32.5941
  39  -59.01311
  40  -32.07538
  41  208.2236
  42  337.6863
  43  236.631
  44  56.16546
  45  16.14942
  46  116.3423
  47  170.7436
  48  174.438
  49  136.4617
  50  154.4121
  51  257.115
  52  265.7524
  53  229.9369
  54  111.0951
  55  94.41716
  56  110.8931
  57  144.1176
  58  113.1625
  59  125.6668
  60  88.63405
  61  175.7896
  62  190.9904
  63  269.132
  64  252.0481
  65  254.5118
  66  290.6093
  67  190.5132
  68  79.44781
  69  -86.95947
  70  16.111
  71  -8.661645
  72  26.41638
  73  -126.6967
  74  -42.22751
  75  43.24839
  76  87.45737
  77  112.2917
  78  134.3823
  79  236.7552
  80  190.8494
  81  162.6734
  82  35.72478
  83  -25.04654
  84  -100.493
  85  -76.18043
  86  -112.6479
  87  -36.12098
  88  8.623322
  89  16.67517
  90  -13.24204
  91  43.44927
  92  107.3785
  93  111.9771
  94  78.89572
  95  78.70637
  96  97.122
  97  125.2182
  98  213.6184
  99  102.4103
 100  43.21997
 101  62.09124
 102  181.0365
 103  176.5322
 104  36.89851
 105  37.20475
 106  92.54292
 107  233.3544
 108  171.4644
 109  74.18365
 110  -7.437538
 111  74.27731
 112  63.8937
 113  21.43287
 114  27.79084
 115  133.718
 116  194.2532
 117  203.2697
 118  108.7665
 119  21.87411
 120  73.10138
 121  144.0439
 122  210.3957
 123  225.1865
 124  137.5907
 125  154.9441
 126  167.5724
 127  287.5071
 128  323.3708
 129  183.6638
 130  115.5755
 131  14.89528
 132  158.4511
 133  118.2689
 134  99.17027
 135  54.2176
 136  130.3932
 137  184.9303
 138  170.9801
 139  138.7907
 140  146.7087
 141  241.5728
 142  352.5886
 143  330.7681
 144  286.8492
 145  182.3237
 146  183.1362
 147  97.40746
 148  219.3007
 149  198.3782
 150  274.1945
 151  142.871
 152  205.5363
 153  156.1882
 154  194.2553
 155  160.7638
 156  236.3541
 157  292.7682
 158  255.7704
 159  227.8266
 160  189.4174
 161  126.5622
 162  106.8767
 163  29.01219
 164  31.07194
 165  28.60542
 166  76.17812
 167  50.92591
 168  78.29493
 169  104.0106
 170  202.2604
 171  155.7732
 172  184.4095
 173  100.932
 174  94.6869
 175  84.39333
 176  158.9251
 177  135.8132
 178  119.9506
 179  130.7763
 180  186.5121
 181  113.2103
 182  152.7666
 183  91.20751
 184  59.20647
 185  17.75656
 186  94.81733
 187  71.28422
 188  71.45975
 189  19.93054
 190  71.13406
 191  92.04568
 192  93.34325
 193  41.18758
 194  113.0103
 195  218.7112
 196  214.9482
 197  169.3673
 198  186.3202
 199  247.4789
 200  198.9564
 201  195.7526
 202  131.6365
 203  -16.12277
 204  -24.81394
 205  34.98306
 206  262.4565
 207  275.4542
 208  259.5057
 209  122.1994
 210  135.9294
 211  187.308
 212  186.6291
 213  192.2103
 214  203.6409
 215  254.2357
 216  186.3646
 217  145.2906
 218  149.7363
 219  199.8618
 220  212.0024
 221  141.3379
 222  53.16967
 223  48.25666
 224  55.01111
 225  140.9522
 226  109.8037
 227  112.9215
 228  175.0481
 229  235.845
 230  221.213
 231  235.6284
 232  246.6948
 233  209.8124
 234  61.79221
 235  -1.188315
 236  -6.32653
 237  -89.01762
 238  -55.60055
 239  -29.61845
 240  76.88029
 241  66.67429
 242  138.2782
 243  119.6426
 244  123.8195
 245  -14.99107
 246  28.67275
 247  159.8683
 248  291.4848
 249  264.8221
 250  285.4825
 251  271.3923
 252  219.259
 253  158.3047
 254  51.99033
 255  30.59014
 256  60.15446
 257  163.5882
 258  283.2584
 259  255.9734
 260  208.2129
 261  144.1546
 262  234.3407
 263  294.653
 264  243.5716
 265  52.402
 266  33.25447
 267  137.9577
 268  281.5629
 269  196.4611
 270  90.95932
 271  9.537062
 272  86.17401
 273  53.92672
 274  -10.6015
 275  -43.1182
 276  79.99291
 277  208.717
 278  240.7476
 279  242.5719
 280  261.5926
 281  294.1183
 282  263.8073
 283  156.9407
 284  70.78959
 285  12.62712
 286  -28.59316
 287  -17.49805
 288  38.29594
 289  43.4845
 290  50.81438
 291  93.72206
 292  134.8292
 293  222.055
 294  373.8354
 295  332.1822
 296  245.2726
 297  146.7612
 298  161.6435
 299  188.9033
 300  199.5419
 301  227.0157
 302  130.748
 303  162.8046
 304  250.6823
 305  348.3561
 306  336.051
 307  403.0157
 308  403.0825
 309  413.4763
 310  286.3758
 311  177.557
 312  -29.79924
 313  -43.64031
 314  91.33218
 315  200.1104
 316  118.3068
 317  10.68005
 318  -6.7623
 319  102.6618
 320  124.523
 321  137.8112
 322  85.34811
 323  185.3627
 324  230.3922
 325  192.816
 326  85.1094
 327  -29.76092
 328  -64.92663
 329  -76.31949
 330  87.90784
 331  204.3656
 332  257.9457
 333  204.2667
 334  147.1272
 335  109.403
 336  126.5207
 337  142.3986
 338  97.77083
 339  82.15191
 340  29.13627
 341  86.81879
 342  37.65646
 343  -24.88385
 344  -85.94881
 345  11.21281
 346  184.7502
 347  302.9795
 348  351.5638
 349  372.9806
 350  232.2871
 351  183.6429
 352  102.4949
 353  97.66532
 354  67.85487
 355  98.58724
 356  95.26575
 357  50.87412
 358  8.46466
 359  56.24361
 360  108.5319
 361  232.1956
 362  224.1006
 363  91.31168
 364  -98.59038
 365  -78.61486
 366  20.04573
 367  81.79348
 368  119.0081
 369  146.2283
 370  268.921
 371  260.2195
 372  299.023
 373  244.9827
 374  234.688
 375  168.1655
 376  64.03172
 377  -48.03315
 378  -35.03726
 379  -5.117768
 380  157.2372
 381  102.7568
 382  94.64592
 383  38.45009
 384  49.21404
 385  51.8273
 386  10.08564
 387  3.628528
 388  -0.4873955
 389  37.19473
 390  168.5086
 391  194.7067
 392  147.0781
 393  109.4084
 394  206.9312
 395  212.6381
 396  194.061
 397  126.3859
 398  142.1931
 399  119.8585
 400  77.79935
 401  59.37136
 402  100.6126
 403  95.76142
 404  51.52718
 405  -42.91626
 406  0.9473112
 407  104.842
 408  253.0325
 409  161.6981
 410  100.2015
 411  106.432
 412  234.6351
 413  166.3687
 414  137.1616
 415  151.1754
 416  183.873
 417  94.89091
 418  27.55187
 419  93.54881
 420  115.6352
 421  77.40916
 422  64.73933
 423  94.95697
 424  116.0421
 425  155.2029
 426  198.0916
 427  167.686
 428  158.011
 429  94.69501
 430  215.2027
 431  270.8417
 432  415.5607
 433  359.5074
 434  331.4071
 435  179.6675
 436  31.65966
 437  98.44855
 438  258.0162
 439  261.1772
 440  106.5454
 441  19.55097
 442  63.70044
 443  67.96732
 444  -14.96644
 445  33.25475
 446  96.62915
 447  194.8214
 448  243.4429
 449  295.368
 450  253.0469
 451  169.9619
 452  155.8056
 453  119.9259
 454  54.529
 455  19.14269
 456  133.4127
 457  175.4086
 458  278.9576
 459  216.3133
 460  144.4928
 461  48.56204
 462  200.6341
 463  371.0058
 464  409.2068
 465  367.9162
 466  256.4222
 467  159.8379
 468  68.35433
 469  29.63093
 470  65.27174
 471  96.33032
 472  115.8794
 473  135.4845
 474  219.371
 475  167.1955
 476  215.9827
 477  173.0149
 478  289.4744
 479  281.346
 480  263.8166
 481  180.6625
 482  120.1079
 483  152.3573
 484  130.2302
 485  150.7077
 486  242.7995
 487  256.3104
 488  231.5508
 489  138.9766
 490  168.5847
 491  124.5514
 492  148.3502
 493  135.3879
 494  258.9083
 495  230.5681
 496  302.8911
 497  285.7192
 498  333.1582
 499  236.2834
 500  245.1374
 501  129.9073
 502  165.1665
 503  118.8645
 504  227.5343
 505  174.5912
 506  126.6445
 507  135.8475
 508  128.337
 509  87.67488
 510  28.94078
 511  125.4393
 512  236.054
 513  235.6515
 514  204.5362
 515  244.6247
 516  288.0016
 517  222.8712
 518  129.5119
 519  171.3645
 520  268.7538
 521  445.9506
 522  306.61
 523  167.1483
 524  -46.15148
 525  -9.335041
 526  -14.32433
 527  26.12806
 528  24.9281
 529  34.39481
 530  -14.76346
 531  23.87328
 532  20.55148
 533  90.64987
 534  147.3057
 535  251.8058
 536  289.3063
 537  227.8843
 538  304.8853
 539  326.9865
 540  280.82
 541  171.9821
 542  141.4877
 543  172.3959
 544  181.3847
 545  196.7868
 546  126.5699
 547  104.0166
 548  44.46991
 549  98.19887
 550  146.8463
 551  183.9086
 552  222.8968
 553  263.2114
 554  335.9354
 555  307.1375
 556  245.9421
 557  292.373
 558  244.1959
 559  286.0636
 560  282.3336
 561  265.1678
 562  218.249
 563  199.49
 564  228.3148
 565  173.1696
 566  130.5184
 567  242.0714
 568  177.0149
 569  72.53525
 570  3.830143
 571  144.7827
 572  194.5399
 573  96.01914
 574  -77.0238
 575  -46.2075
 576  54.51063
 577  43.06805
 578  67.34849
 579  101.0191
 580  157.1442
 581  125.5889
 582  112.7764
 583  126.6894
 584  193.7197
 585  303.7813
 586  305.4956
 587  261.0599
 588  195.4792
 589  271.8183
 590  268.8984
 591  183.2869
 592  92.90235
 593  36.62119
 594  126.2366
 595  179.6243
 596  226.7856
 597  184.1575
 598  231.4117
 599  156.8668
 600  187.5415
 601  211.8103
 602  249.6583
 603  120.0561
 604  51.66807
 605  82.13883
 606  131.9143
 607  83.1046
 608  13.66706
 609  83.74859
 610  104.2762
 611  61.5323
 612  -35.11195
 613  -23.58414
 614  122.9759
 615  241.348
 616  145.0275
 617  36.81961
 618  -19.89673
 619  137.0084
 620  204.8995
 621  275.4441
 622  252.2047
 623  245.76
 624  203.28
 625  182.1913
 626  177.3599
 627  138.5619
 628  170.6791
 629  168.193
 630  100.423
 631  48.66982
 632  119.6393
 633  253.2286
 634  250.5533
 635  218.9126
 636  217.8769
 637  314.1192
 638  376.5829
 639  367.25
 640  464.1628
 641  591.1686
 642  809.095
 643  847.572
 644  858.2139
 645  844.2895
 646  914.2908
 647  960.2838
 648  899.4402
 649  805.8665
 650  629.6008
 651  594.8956
 652  478.9893
 653  497.0617
 654  367.936
 655  375.2303
 656  378.8054
 657  356.7032
 658  287.6028
 659  159.2152
 660  194.8833
 661  232.9308
 662  355.4959
 663  267.5861
 664  197.5925
 665  150.0619
 666  114.6702
 667  43.97196
 668  109.8984
 669  173.3033
 670  147.3761
 671  71.89445
 672  92.24596
 673  127.1445
 674  139.2063
 675  145.5117
 676  170.8832
 677  125.7235
 678  46.05632
 679  91.1789
 680  169.4203
 681  226.3965
 682  248.7072
 683  272.8069
 684  271.8197
 685  236.3423
 686  145.1127
 687  46.52889
 688  -60.2925
 689  -141.6768
 690  -87.12739
 691  36.98888
 692  189.9138
 693  185.1304
 694  184.3849
 695  150.1294
 696  86.47476
 697  -27.15223
 698  -58.27343
 699  -41.73708
 700  -32.00246
 701  -8.548842
 702  74.34357
 703  135.0873
 704  201.0993
 705  286.1429
 706  274.0545
 707  284.7276
 708  274.4126
 709  290.3922
 710  183.0982
 711  150.3856
 712  178.8981
 713  186.7224
 714  217.8324
 715  200.273
 716  257.728
 717  245.7937
 718  254.0809
 719  188.0223
 720  172.7799
 721  204.495
 722  208.447
 723  164.3832
 724  88.31322
 725  8.24512
 726  6.431633
 727  33.29234
 728  37.96114
 729  74.31808
 730  168.4158
 731  275.2807
 732  307.0906
 733  292.8911
 734  207.0634
 735  170.4874
 736  256.254
 737  329.615
 738  297.1495
 739  187.1223
 740  110.6143
 741  140.1103
 742  71.74437
 743  28.95887
 744  66.73823
 745  155.3686
 746  135.555
 747  88.78033
 748  83.87045
 749  140.4498
 750  118.6307
 751  41.59186
 752  -29.61915
 753  70.56385
 754  221.305
 755  184.4603
 756  132.5499
 757  196.234
 758  270.5652
 759  261.4548
 760  80.26672
 761  -2.493406
 762  -88.37887
 763  -19.19761
 764  76.93504
 765  116.3094
 766  194.9425
 767  285.1324
 768  331.832
 769  250.168
 770  101.928
 771  105.5057
 772  147.4379
 773  263.7299
 774  289.8829
 775  272.8279
 776  152.0799
 777  144.5341
 778  223.4196
 779  309.8596
 780  248.759
 781  258.0414
 782  287.873
 783  341.1071
 784  278.3685
 785  158.679
 786  -8.664561
 787  -40.48236
 788  14.83315
 789  49.8186
 790  56.51627
 791  84.50502
 792  158.3048
 793  114.2208
 794  38.14782
 795  77.1342
 796  126.2414
 797  267.8752
 798  278.9853
 799  316.4135
 800  223.7788
 801  218.7075
 802  215.5612
 803  223.533
 804  233.2562
 805  247.9147
 806  249.1671
 807  240.4448
 808  207.7534
 809  243.2985
 810  263.5455
 811  192.5418
 812  86.55943
 813  -1.967371
 814  -59.17307
 815  -97.56116
 816  -76.0689
 817  29.78525
 818  108.3851
 819  206.2824
 820  247.5485
 821  204.0351
 822  163.3459
 823  227.9927
 824  245.3093
 825  330.7076
 826  288.6283
 827  264.1694
 828  195.4213
 829  191.0583
 830  137.6402
 831  121.6576
 832  228.4313
 833  282.3454
 834  218.8526
 835  98.22135
 836  120.5072
 837  152.0429
 838  67.15611
 839  31.89443
 840  125.5493
 841  274.2988
 842  348.7599
 843  361.3105
 844  410.3669
 845  259.7938
 846  288.6244
 847  245.8562
 848  354.1237
 849  257.3419
 850  152.5147
 851  98.76061
 852  58.94968
 853  93.25005
 854  101.6906
 855  83.67686
 856  75.17202
 857  49.60514
 858  87.40602
 859  42.55242
 860  48.40103
 861  -13.6804
 862  68.22969
 863  133.8749
 864  204.6994
 865  238.7319
 866  308.1841
 867  325.7205
 868  284.4041
 869  157.7082
 870  144.6524
 871  82.96272
 872  129.5696
 873  124.4826
 874  -21.25851
 875  36.06727
 876  89.35281
 877  235.1144
 878  164.6438
 879  171.1441
 880  275.7907
 881  349.9071
 882  313.4553
 883  122.7044
 884  24.14611
 885  68.66772
 886  242.5879
 887  372.8364
 888  399.1343
 889  324.6115
 890  350.2661
 891  312.1603
 892  200.896
 893  98.73555
 894  97.02141
 895  208.5872
 896  173.0549
 897  195.9609
 898  165.7216
 899  175.2588
 900  56.99044
 901  -9.216341
 902  49.21968
 903  94.9532
 904  -5.283648
 905  -62.09478
 906  -92.334
 907  45.19442
 908  110.9939
 909  158.0708
 910  129.1446
 911  107.5169
 912  134.761
 913  127.518
 914  86.14945
 915  142.2168
 916  187.203
 917  193.739
 918  135.83
 919  74.22685
 920  -103.2714
 921  -114.371
 922  -209.8537
 923  -29.96001
 924  -37.15248
 925  11.9186
 926  68.99892
 927  137.634
 928  171.6625
 929  200.7407
 930  222.5653
 931  184.2816
 932  190.1148
 933  121.4287
 934  65.31354
 935  -62.80784
 936  -64.96859
 937  45.69793
 938  91.94245
 939  161.6689
 940  91.58781
 941  102.555
 942  39.06313
 943  103.9637
 944  180.8039
 945  301.5891
 946  251.0817
 947  194.8887
 948  34.87944
 949  25.64876
 950  95.7527
 951  161.5233
 952  184.3154
 953  178.5763
 954  209.3208
 955  129.1436
 956  68.91912
 957  16.90106
 958  55.58625
 959  77.78056
 960  116.7064
 961  185.6802
 962  201.1436
 963  227.8765
 964  198.0498
 965  154.9772
 966  66.60757
 967  87.45992
 968  75.67019
 969  189.98
 970  242.6161
 971  289.9831
 972  278.6148
 973  246.5544
 974  181.7869
 975  72.56911
 976  49.72888
 977  51.1362
 978  134.8466
 979  240.5538
 980  369.2528
 981  300.8088
 982  178.4368
 983  161.6699
 984  220.5326
 985  350.8145
 986  332.239
 987  420.6254
 988  344.8722
 989  340.9197
 990  251.2481
 991  164.2159
 992  13.27759
 993  -27.27419
 994  58.9812
 995  124.6844
 996  150.3856
 997  209.4676
 998  214.0188
 999  167.0274
1000  198.8494
1001  332.4839
1002  264.1785
1003  113.9326
1004  -26.12301
1005  -5.572591
1006  52.50634
1007  53.35858
1008  80.66048
1009  45.6756
1010  64.00249
1011  54.90569
1012  64.8031
1013  121.9292
1014  119.2912
1015  185.1437
1016  102.5804
1017  109.9503
1018  145.8021
1019  207.0709
1020  226.2331
1021  98.85636
1022  135.3714
1023  133.1416
