# Input file       =  1187559996.112759_cleaned.dat
# Candidate        =  PSR_0332+5434
# Telescope        =  AR
# Epoch_topo       =  57988.907582323598
# Epoch_bary       =  N/A
# T_sample         =  0.002
# Data Folded      =  7208960
# Data Avg         =  0.0160260265108533
# Data StdDev      =  1.0002531859239  
# Profile Bins     =  512
# Profile Avg      =  225.65146197651  
# Profile StdDev   =  118.689218626584 
# Reduced chi-sqr  =  1.366
# Prob(Noise)      <  6.66e-08   (~5.3 sigma)
# P_topo (ms)      =  714.46349452096   +/- 0.000267
# P'_topo (s/s)    =  -0                +/- 1.44e-10
# P''_topo (s/s^2) =  0                 +/- 6.46e-14
# P_bary (ms)      =  N/A
# P'_bary (s/s)    =  N/A
# P''_bary (s/s^2) =  N/A
# P_orb (s)        =  N/A
# asin(i)/c (s)    =  N/A
# eccentricity     =  N/A
# w (rad)          =  N/A
# T_peri           =  N/A
######################################################
   0  105.2006
   1  76.02673
   2  145.2963
   3  279.4654
   4  313.4702
   5  271.4146
   6  170.4134
   7  156.227
   8  161.0839
   9  95.88505
  10  224.4905
  11  280.8124
  12  232.755
  13  232.8103
  14  240.2979
  15  218.0073
  16  262.0055
  17  187.5861
  18  217.3423
  19  357.1299
  20  295.9108
  21  233.8437
  22  241.9785
  23  361.1766
  24  367.5765
  25  341.2837
  26  210.6456
  27  253.1202
  28  385.4581
  29  302.9572
  30  240.2928
  31  308.1798
  32  293.0822
  33  239.459
  34  110.5558
  35  320.527
  36  320.1144
  37  330.0899
  38  390.6566
  39  362.4359
  40  272.5192
  41  385.0377
  42  330.9073
  43  312.9403
  44  291.5157
  45  270.3475
  46  377.7199
  47  306.496
  48  336.0478
  49  309.7745
  50  284.6921
  51  256.2621
  52  223.914
  53  166.7619
  54  258.6068
  55  328.1174
  56  178.0958
  57  139.9443
  58  231.3499
  59  259.6908
  60  111.838
  61  325.562
  62  171.1745
  63  76.16024
  64  192.6366
  65  195.1907
  66  264.7755
  67  245.4677
  68  170.3287
  69  165.6349
  70  176.4553
  71  325.4127
  72  387.6853
  73  258.1424
  74  316.7553
  75  302.295
  76  358.873
  77  281.2376
  78  227.9846
  79  214.1803
  80  241.1554
  81  317.911
  82  193.398
  83  40.5827
  84  125.3414
  85  100.1535
  86  170.3927
  87  195.0902
  88  221.074
  89  227.8856
  90  274.2742
  91  212.0159
  92  34.32616
  93  59.11063
  94  206.8913
  95  306.261
  96  332.4027
  97  239.4037
  98  316.3767
  99  269.9387
 100  215.5346
 101  195.8254
 102  205.8685
 103  223.5443
 104  82.92249
 105  189.0804
 106  214.1772
 107  92.49844
 108  56.87299
 109  185.3864
 110  287.1403
 111  248.0645
 112  193.2278
 113  216.2696
 114  309.8347
 115  371.6028
 116  236.6976
 117  186.085
 118  213.4017
 119  194.1373
 120  178.3106
 121  120.7541
 122  99.17797
 123  69.17843
 124  18.07697
 125  69.47562
 126  210.9287
 127  164.6794
 128  183.5961
 129  175.6339
 130  220.2647
 131  82.1942
 132  158.683
 133  89.49097
 134  121.7526
 135  204.2426
 136  320.4839
 137  291.2565
 138  296.7597
 139  248.8015
 140  249.6907
 141  263.7643
 142  320.1567
 143  275.9445
 144  318.2015
 145  228.217
 146  142.265
 147  183.8723
 148  211.4927
 149  224.3521
 150  200.3774
 151  221.9267
 152  270.6229
 153  267.7657
 154  254.1395
 155  249.6671
 156  201.6315
 157  215.8849
 158  104.6638
 159  217.1321
 160  256.5024
 161  271.5973
 162  385.4503
 163  380.5959
 164  233.6543
 165  179.9108
 166  209.6839
 167  193.333
 168  86.04554
 169  50.67405
 170  198.9583
 171  283.5115
 172  210.0067
 173  212.4723
 174  208.5155
 175  244.9809
 176  195.9407
 177  260.1758
 178  259.9325
 179  187.4517
 180  214.1567
 181  231.8141
 182  266.4427
 183  238.4426
 184  163.9604
 185  98.81271
 186  95.36829
 187  291.9114
 188  323.44
 189  255.0445
 190  163.359
 191  236.3408
 192  238.0473
 193  246.3663
 194  183.0707
 195  318.8495
 196  261.9221
 197  144.44
 198  151.2134
 199  158.8211
 200  56.28892
 201  103.827
 202  241.1945
 203  246.1173
 204  122.2757
 205  41.59044
 206  115.5493
 207  155.917
 208  138.8584
 209  213.0157
 210  279.1255
 211  262.3009
 212  149.4685
 213  196.4009
 214  217.5279
 215  99.53573
 216  134.5803
 217  199.3549
 218  202.5285
 219  302.5346
 220  377.6804
 221  308.619
 222  240.0578
 223  193.0362
 224  240.7046
 225  204.0429
 226  199.6104
 227  166.0825
 228  58.7425
 229  146.0057
 230  274.6961
 231  252.782
 232  275.4788
 233  171.6292
 234  196.8512
 235  247.3072
 236  188.85
 237  230.5519
 238  145.7649
 239  309.5437
 240  317.7327
 241  317.5043
 242  284.9531
 243  299.1693
 244  266.8144
 245  325.8546
 246  196.9651
 247  94.43764
 248  103.9956
 249  144.2166
 250  64.84966
 251  207.7806
 252  368.0799
 253  259.9759
 254  250.2387
 255  138.99
 256  221.5964
 257  183.6253
 258  196.2551
 259  110.6193
 260  136.4202
 261  110.647
 262  155.1852
 263  171.5733
 264  230.0006
 265  145.7328
 266  189.9341
 267  124.3779
 268  237.9017
 269  202.3689
 270  195.0961
 271  256.8638
 272  278.7797
 273  248.5563
 274  79.84476
 275  142.3498
 276  254.2458
 277  349.8869
 278  310.5443
 279  263.0488
 280  156.3717
 281  133.2625
 282  122.5793
 283  92.84298
 284  34.60654
 285  157.4274
 286  159.9509
 287  273.0886
 288  121.8085
 289  11.62822
 290  219.6753
 291  172.4828
 292  86.04766
 293  -106.39
 294  47.19685
 295  237.0567
 296  170.5491
 297  155.4851
 298  154.8664
 299  186.3265
 300  272.6407
 301  200.062
 302  162.1255
 303  267.6878
 304  355.0154
 305  253.8105
 306  285.7711
 307  248.6803
 308  236.5478
 309  255.2233
 310  45.11763
 311  195.1465
 312  267.8108
 313  297.1589
 314  329.1602
 315  211.0905
 316  135.5036
 317  169.8498
 318  292.5662
 319  308.0067
 320  305.3253
 321  290.4874
 322  286.4532
 323  298.4104
 324  197.58
 325  289.0116
 326  348.6759
 327  391.2114
 328  245.7665
 329  234.9686
 330  307.597
 331  375.8819
 332  487.7638
 333  614.7646
 334  770.7533
 335  848.2325
 336  769.5543
 337  773.3495
 338  788.7117
 339  555.0005
 340  327.0487
 341  325.1256
 342  358.7903
 343  159.3747
 344  204.0855
 345  222.8884
 346  160.273
 347  292.4689
 348  260.065
 349  333.085
 350  321.1956
 351  267.5201
 352  299.1693
 353  262.7333
 354  277.5185
 355  260.7263
 356  224.6276
 357  218.0864
 358  128.5334
 359  194.1015
 360  172.5666
 361  172.112
 362  154.9346
 363  103.9736
 364  32.58306
 365  246.1863
 366  280.0975
 367  49.54988
 368  169.1123
 369  347.8469
 370  176.8762
 371  203.6655
 372  248.8111
 373  132.7385
 374  125.1566
 375  178.2076
 376  209.5901
 377  192.6435
 378  267.7408
 379  256.9737
 380  154.4807
 381  193.5175
 382  353.286
 383  304.0551
 384  219.9442
 385  256.667
 386  202.4533
 387  114.541
 388  70.08302
 389  53.56122
 390  91.25011
 391  102.6036
 392  200.1803
 393  205.7794
 394  242.6335
 395  202.0047
 396  252.1647
 397  267.0957
 398  244.7306
 399  262.2377
 400  179.745
 401  289.4648
 402  213.2693
 403  141.1575
 404  303.3722
 405  284.7858
 406  208.9542
 407  215.2514
 408  201.5067
 409  203.122
 410  142.597
 411  337.068
 412  358.9688
 413  362.8763
 414  288.0974
 415  371.6958
 416  354.2254
 417  332.151
 418  234.5275
 419  142.4252
 420  243.2876
 421  257.8397
 422  244.8903
 423  189.4864
 424  158.0752
 425  218.8911
 426  185.9928
 427  269.078
 428  230.1353
 429  191.9794
 430  155.3487
 431  304.8854
 432  194.817
 433  218.798
 434  283.8535
 435  291.8778
 436  433.0521
 437  353.9508
 438  168.6617
 439  135.5656
 440  139.5089
 441  191.8553
 442  288.6494
 443  130.3256
 444  184.8322
 445  254.1748
 446  280.3547
 447  185.0097
 448  154.1251
 449  242.8384
 450  241.49
 451  209.8467
 452  175.6488
 453  181.284
 454  240.6825
 455  244.2075
 456  168.1019
 457  217.314
 458  256.3454
 459  176.4237
 460  278.9841
 461  235.4821
 462  87.66529
 463  201.8899
 464  305.4182
 465  313.1512
 466  183.1036
 467  126.105
 468  207.4052
 469  153.6656
 470  150.8752
 471  312.5771
 472  342.2886
 473  431.9533
 474  255.4319
 475  250.5873
 476  299.5515
 477  203.4029
 478  147.9843
 479  147.2632
 480  152.9249
 481  217.1205
 482  171.2855
 483  159.8772
 484  98.52777
 485  189.3656
 486  182.7587
 487  247.9011
 488  269.9304
 489  297.9323
 490  199.707
 491  163.8428
 492  229.6314
 493  217.7339
 494  108.8004
 495  125.5397
 496  178.4828
 497  160.1882
 498  116.1666
 499  118.4868
 500  102.4621
 501  217.6192
 502  111.7133
 503  130.7594
 504  188.7914
 505  239.8099
 506  205.7487
 507  187.2911
 508  139.9949
 509  202.746
 510  272.678
 511  159.2865
