# Input file       =  1187746985.105509_cleaned.dat
# Candidate        =  PSR_0332+5434
# Telescope        =  AR
# Epoch_topo       =  57991.071806776723
# Epoch_bary       =  N/A
# T_sample         =  0.002
# Data Folded      =  7340032
# Data Avg         =  0.0255724302509667
# Data StdDev      =  2.18176224001807 
# Profile Bins     =  1024
# Profile Avg      =  183.318862553484 
# Profile StdDev   =  184.716809822689 
# Reduced chi-sqr  =  1.417
# Prob(Noise)      <  2.52e-17   (~8.4 sigma)
# P_topo (ms)      =  714.463385016569  +/- 0.00023
# P'_topo (s/s)    =  -0                +/- 1.21e-10
# P''_topo (s/s^2) =  0                 +/- 5.36e-14
# P_bary (ms)      =  N/A
# P'_bary (s/s)    =  N/A
# P''_bary (s/s^2) =  N/A
# P_orb (s)        =  N/A
# asin(i)/c (s)    =  N/A
# eccentricity     =  N/A
# w (rad)          =  N/A
# T_peri           =  N/A
######################################################
   0  185.4425
   1  96.88084
   2  121.6796
   3  156.069
   4  177.14
   5  222.5414
   6  259.2908
   7  252.0642
   8  207.4636
   9  122.3414
  10  90.93492
  11  59.66991
  12  172.4786
  13  212.9291
  14  254.4771
  15  174.0883
  16  153.4111
  17  151.8074
  18  119.3244
  19  102.4483
  20  43.04187
  21  160.0129
  22  244.7496
  23  207.3736
  24  198.4861
  25  189.3561
  26  227.2392
  27  247.3974
  28  230.8268
  29  100.4584
  30  -11.5591
  31  49.71502
  32  87.37825
  33  1.922021
  34  -105.9444
  35  16.2702
  36  109.0231
  37  89.37518
  38  3.404308
  39  33.79314
  40  74.60773
  41  187.2366
  42  192.8509
  43  332.7326
  44  278.2548
  45  206.6012
  46  91.63441
  47  137.6447
  48  121.6899
  49  189.0788
  50  79.98358
  51  181.8993
  52  219.67
  53  269.8629
  54  211.2123
  55  205.3594
  56  265.3669
  57  312.1569
  58  322.8879
  59  315.2463
  60  241.9167
  61  162.5196
  62  126.3229
  63  95.95544
  64  172.6735
  65  216.0276
  66  256.8174
  67  284.2158
  68  210.7112
  69  161.6787
  70  168.859
  71  161.2009
  72  118.1692
  73  4.70893
  74  33.55019
  75  150.6604
  76  158.1321
  77  196.8098
  78  223.5868
  79  269.9972
  80  189.9023
  81  115.5799
  82  -7.889745
  83  4.146042
  84  44.94353
  85  148.8928
  86  190.1465
  87  196.9168
  88  246.4163
  89  154.0778
  90  74.90214
  91  22.17941
  92  153.0762
  93  250.777
  94  244.7333
  95  215.013
  96  243.1158
  97  216.122
  98  191.8042
  99  146.9452
 100  176.1389
 101  198.1339
 102  236.267
 103  250.5788
 104  207.6243
 105  153.2409
 106  139.7879
 107  65.10867
 108  134.8552
 109  185.8605
 110  261.7137
 111  154.3096
 112  107.7054
 113  43.48537
 114  105.303
 115  105.6275
 116  216.9931
 117  197.3212
 118  166.7924
 119  127.155
 120  187.2791
 121  215.0591
 122  232.5432
 123  252.3015
 124  280.8093
 125  267.4833
 126  242.1276
 127  240.3964
 128  239.3189
 129  284.6961
 130  235.5844
 131  187.7419
 132  82.77655
 133  98.72325
 134  98.99506
 135  139.232
 136  77.79948
 137  147.29
 138  95.55164
 139  76.29065
 140  33.5616
 141  128.155
 142  167.6882
 143  206.59
 144  137.1131
 145  90.31335
 146  71.01529
 147  139.107
 148  139.7499
 149  71.74834
 150  61.4431
 151  61.0807
 152  145.9042
 153  130.5115
 154  111.8598
 155  35.26295
 156  52.0432
 157  126.3365
 158  166.8235
 159  145.7471
 160  130.296
 161  183.484
 162  252.3501
 163  219.6788
 164  77.7619
 165  -38.62921
 166  50.5168
 167  74.17479
 168  64.55303
 169  -49.17928
 170  11.97585
 171  91.3878
 172  108.6546
 173  64.245
 174  24.96038
 175  75.09004
 176  88.30712
 177  110.036
 178  84.52367
 179  64.00782
 180  17.38719
 181  -19.27962
 182  -21.95579
 183  41.64211
 184  40.74272
 185  -34.38668
 186  -59.75839
 187  -41.02615
 188  4.043303
 189  34.37504
 190  122.8458
 191  194.2727
 192  213.9636
 193  205.4591
 194  228.5169
 195  235.2957
 196  173.6027
 197  139.1087
 198  57.16682
 199  122.1612
 200  175.7046
 201  261.7696
 202  187.4741
 203  113.1961
 204  17.48244
 205  27.31928
 206  28.40191
 207  136.0405
 208  238.655
 209  253.1
 210  228.7404
 211  146.3922
 212  117.8252
 213  141.5318
 214  169.7296
 215  147.412
 216  99.77337
 217  129.015
 218  113.989
 219  54.61887
 220  -6.511944
 221  57.5965
 222  106.9777
 223  172.8172
 224  290.3022
 225  343.4679
 226  358.3931
 227  228.1507
 228  242.0431
 229  270.7492
 230  289.7271
 231  199.1014
 232  102.9044
 233  93.64452
 234  82.91162
 235  124.1054
 236  123.3053
 237  118.5183
 238  27.65804
 239  2.686792
 240  45.28609
 241  114.5097
 242  134.5143
 243  122.853
 244  79.17136
 245  116.1247
 246  113.3245
 247  130.2434
 248  20.42704
 249  31.25144
 250  120.4423
 251  183.8615
 252  266.338
 253  209.8161
 254  161.3162
 255  95.19274
 256  206.4595
 257  188.1887
 258  136.2821
 259  1.333763
 260  70.59958
 261  36.45292
 262  161.0118
 263  179.4325
 264  315.6997
 265  261.0902
 266  280.9022
 267  246.794
 268  239.629
 269  90.9131
 270  13.1584
 271  62.52856
 272  269.6859
 273  422.1711
 274  409.5608
 275  256.9692
 276  85.93301
 277  39.68198
 278  107.3849
 279  145.4987
 280  113.803
 281  49.85973
 282  96.91724
 283  113.4261
 284  98.21998
 285  16.4748
 286  -49.86777
 287  8.485088
 288  144.5651
 289  269.6572
 290  377.3521
 291  350.8604
 292  327.0314
 293  192.0542
 294  190.846
 295  167.9855
 296  233.6218
 297  177.1551
 298  160.4618
 299  75.97356
 300  14.28283
 301  59.99872
 302  101.8853
 303  259.1794
 304  242.9479
 305  260.3422
 306  194.898
 307  180.0998
 308  173.4243
 309  173.2389
 310  180.3607
 311  162.1747
 312  124.7757
 313  34.71807
 314  12.48611
 315  26.62898
 316  138.5036
 317  186.783
 318  227.8545
 319  202.4148
 320  169.8731
 321  93.07603
 322  53.62981
 323  19.67366
 324  83.88309
 325  69.16903
 326  89.41512
 327  98.62119
 328  61.03172
 329  74.84183
 330  138.0789
 331  164.6171
 332  217.9634
 333  187.5335
 334  144.3586
 335  13.89204
 336  -39.16619
 337  -4.643677
 338  23.38355
 339  96.80817
 340  167.6888
 341  180.6202
 342  122.8777
 343  74.70834
 344  37.62441
 345  29.63772
 346  106.392
 347  148.5611
 348  207.2319
 349  74.80296
 350  27.43543
 351  -10.62153
 352  41.7298
 353  49.16281
 354  103.5855
 355  170.3839
 356  244.8292
 357  280.7593
 358  315.8045
 359  193.4998
 360  78.90951
 361  55.86733
 362  114.7299
 363  151.6971
 364  185.0898
 365  186.114
 366  100.7017
 367  92.06686
 368  155.3948
 369  175.4576
 370  148.5468
 371  112.2776
 372  69.51208
 373  72.54869
 374  175.7195
 375  225.3579
 376  242.388
 377  223.1818
 378  286.3857
 379  269.7644
 380  223.4269
 381  248.9224
 382  210.9212
 383  165.7331
 384  94.06862
 385  142.7386
 386  208.5812
 387  258.2867
 388  277.7708
 389  243.9496
 390  221.2912
 391  196.7207
 392  295.0517
 393  348.5947
 394  327.356
 395  341.4337
 396  274.67
 397  208.6676
 398  155.9405
 399  201.0678
 400  179.4854
 401  132.1386
 402  75.11639
 403  90.4832
 404  104.5303
 405  182.0027
 406  259.8418
 407  330.569
 408  368.5072
 409  352.121
 410  437.4091
 411  359.8071
 412  339.6817
 413  115.9757
 414  -24.24779
 415  -99.23898
 416  -36.51667
 417  114.9157
 418  168.3783
 419  195.5459
 420  152.3985
 421  169.5017
 422  167.0609
 423  101.3107
 424  -26.41215
 425  -75.6976
 426  45.66854
 427  85.07037
 428  41.41523
 429  45.24753
 430  99.11964
 431  214.4502
 432  136.5513
 433  163.165
 434  198.4251
 435  235.4729
 436  212.6493
 437  218.0105
 438  264.9591
 439  230.9636
 440  107.5903
 441  10.12169
 442  59.14582
 443  167.9569
 444  286.3107
 445  276.9266
 446  244.1468
 447  210.9365
 448  222.6824
 449  284.8069
 450  310.0626
 451  278.7146
 452  249.486
 453  118.901
 454  110.0871
 455  185.7227
 456  223.8829
 457  210.7895
 458  91.38905
 459  205.842
 460  269.5113
 461  389.0411
 462  405.1239
 463  356.5904
 464  303.2384
 465  265.23
 466  284.5293
 467  206.6323
 468  142.5143
 469  131.8147
 470  124.5884
 471  60.79732
 472  14.38552
 473  121.7484
 474  109.5588
 475  128.9677
 476  96.01301
 477  211.1802
 478  291.9994
 479  320.1273
 480  289.8742
 481  189.8749
 482  139.9543
 483  179.7146
 484  199.6441
 485  193.5421
 486  186.0522
 487  254.2351
 488  256.7414
 489  212.1796
 490  118.1595
 491  107.6698
 492  87.00983
 493  212.0455
 494  291.6831
 495  285.7937
 496  178.6588
 497  157.3625
 498  189.6417
 499  187.0946
 500  143.6688
 501  107.1432
 502  36.89412
 503  98.29681
 504  255.1823
 505  385.0989
 506  385.5814
 507  297.3019
 508  267.1292
 509  239.1498
 510  294.8254
 511  272.4575
 512  151.692
 513  82.31528
 514  74.18696
 515  167.646
 516  209.5649
 517  202.9785
 518  229.7677
 519  273.1981
 520  291.0776
 521  304.1497
 522  356.7147
 523  255.0047
 524  119.5811
 525  45.05811
 526  77.31416
 527  82.41681
 528  -20.63052
 529  11.22453
 530  63.04956
 531  118.0529
 532  161.7758
 533  167.2039
 534  194.5916
 535  210.4904
 536  219.8716
 537  131.8214
 538  85.89828
 539  89.81844
 540  133.7413
 541  164.7489
 542  209.7213
 543  276.0096
 544  214.3599
 545  177.2512
 546  103.1878
 547  204.5209
 548  203.6459
 549  288.1642
 550  132.3406
 551  216.5908
 552  120.0747
 553  113.459
 554  -13.40391
 555  72.05552
 556  197.5034
 557  234.1971
 558  138.7231
 559  113.8099
 560  163.7947
 561  321.7613
 562  274.3559
 563  251.442
 564  214.7368
 565  263.2914
 566  204.7206
 567  246.4523
 568  221.1963
 569  215.9494
 570  205.8368
 571  328.6559
 572  322.3796
 573  350.4178
 574  398.0032
 575  471.0373
 576  395.6877
 577  326.4717
 578  399.3874
 579  398.9325
 580  293.4392
 581  195.401
 582  229.5045
 583  203.768
 584  168.8804
 585  117.6096
 586  96.34528
 587  39.70591
 588  139.7644
 589  196.03
 590  169.2837
 591  147.5655
 592  202.7505
 593  272.0073
 594  278.8631
 595  310.0147
 596  318.0206
 597  315.2539
 598  282.0314
 599  215.8426
 600  219.6382
 601  200.636
 602  191.697
 603  131.5387
 604  160.1104
 605  172.9542
 606  313.6042
 607  308.2359
 608  423.3563
 609  362.9682
 610  397.4193
 611  376.5063
 612  345.0156
 613  334.7762
 614  271.8695
 615  180.1933
 616  97.14883
 617  143.2776
 618  121.4817
 619  49.99361
 620  -39.5709
 621  125.7731
 622  250.8073
 623  259.9049
 624  269.7645
 625  203.3413
 626  129.2856
 627  -39.64331
 628  67.77524
 629  207.7317
 630  262.5473
 631  236.2407
 632  227.1482
 633  266.3967
 634  189.1735
 635  181.2783
 636  196.9211
 637  369.1964
 638  440.0371
 639  548.4962
 640  612.876
 641  696.1345
 642  871.5629
 643  991.2162
 644  970.4547
 645  870.4328
 646  874.0212
 647  910.0401
 648  833.088
 649  735.4492
 650  721.9514
 651  706.1906
 652  604.4231
 653  435.3531
 654  282.574
 655  211.6834
 656  189.409
 657  224.0565
 658  322.5135
 659  413.8671
 660  351.1098
 661  313.4313
 662  254.6025
 663  247.541
 664  151.4373
 665  176.7203
 666  257.4337
 667  367.2928
 668  325.945
 669  318.2577
 670  248.0096
 671  203.3513
 672  157.5827
 673  128.4333
 674  185.041
 675  182.2872
 676  230.2067
 677  304.3494
 678  301.0468
 679  367.7729
 680  251.2095
 681  305.2825
 682  265.8181
 683  263.1302
 684  59.78209
 685  -5.184808
 686  135.3635
 687  302.7177
 688  365.1411
 689  351.6197
 690  340.9793
 691  334.3806
 692  310.6689
 693  295.6488
 694  242.6587
 695  148.0909
 696  135.7946
 697  175.1854
 698  193.1451
 699  183.3496
 700  178.5852
 701  174.7496
 702  80.39317
 703  28.47038
 704  47.88589
 705  110.7698
 706  243.1987
 707  270.395
 708  286.4772
 709  198.7286
 710  136.2831
 711  95.57033
 712  55.78413
 713  108.3737
 714  27.46132
 715  94.31639
 716  64.92557
 717  166.4424
 718  144.6535
 719  260.1996
 720  275.1432
 721  326.5095
 722  238.9413
 723  258.0668
 724  140.0344
 725  131.0482
 726  94.09157
 727  161.0202
 728  174.4741
 729  254.6036
 730  307.6766
 731  262.1703
 732  257.1559
 733  260.8381
 734  243.593
 735  192.1745
 736  107.6083
 737  186.3831
 738  224.3314
 739  257.1263
 740  143.1938
 741  174.558
 742  132.5874
 743  45.06144
 744  -73.64606
 745  -15.63875
 746  36.0092
 747  106.9194
 748  31.01776
 749  -65.51347
 750  -138.4655
 751  22.48295
 752  248.6814
 753  208.9357
 754  174.6551
 755  177.917
 756  182.104
 757  253.8271
 758  307.8766
 759  346.7986
 760  289.8772
 761  163.6798
 762  47.22115
 763  23.80371
 764  65.47026
 765  137.7863
 766  121.7809
 767  218.1587
 768  273.1499
 769  295.8929
 770  215.0553
 771  201.9128
 772  211.3254
 773  215.8475
 774  234.6302
 775  170.3385
 776  137.1865
 777  179.0587
 778  225.4658
 779  113.6687
 780  149.5021
 781  165.0004
 782  208.6073
 783  138.8457
 784  143.6359
 785  164.4361
 786  161.6828
 787  240.2553
 788  289.6593
 789  231.7677
 790  172.5813
 791  157.774
 792  221.8055
 793  254.2852
 794  220.5983
 795  229.2625
 796  214.0016
 797  132.6373
 798  85.60238
 799  90.98337
 800  150.5666
 801  161.7838
 802  174.9062
 803  198.1608
 804  200.6842
 805  172.6937
 806  83.52361
 807  147.6057
 808  164.925
 809  213.6649
 810  133.5323
 811  183.0336
 812  187.1119
 813  214.02
 814  145.7918
 815  100.1543
 816  85.80794
 817  142.8672
 818  220.5916
 819  253.1893
 820  294.7094
 821  285.1016
 822  230.4484
 823  195.2012
 824  212.7701
 825  276.5154
 826  214.2885
 827  70.99922
 828  108.8552
 829  220.5691
 830  294.5812
 831  278.5683
 832  185.2627
 833  173.6378
 834  152.1701
 835  234.7608
 836  203.5123
 837  145.5997
 838  219.3783
 839  346.7573
 840  390.8043
 841  397.8008
 842  398.7653
 843  392.2637
 844  298.8519
 845  232.4648
 846  204.0079
 847  198.82
 848  220.0528
 849  191.8844
 850  179.4704
 851  214.0357
 852  352.6547
 853  349.2218
 854  257.2756
 855  225.321
 856  266.4754
 857  330.7808
 858  313.8191
 859  282.4792
 860  152.3237
 861  60.00102
 862  24.411
 863  34.14012
 864  36.06197
 865  62.34267
 866  90.26749
 867  122.1357
 868  157.8998
 869  143.0113
 870  190.6688
 871  85.84515
 872  127.3751
 873  116.12
 874  323.9882
 875  342.4546
 876  296.0312
 877  216.107
 878  199.8797
 879  212.2953
 880  99.36777
 881  84.80354
 882  170.7372
 883  241.4078
 884  347.0443
 885  302.6327
 886  285.8578
 887  183.7494
 888  172.8527
 889  134.6865
 890  171.5986
 891  259.3477
 892  265.0907
 893  264.216
 894  190.9547
 895  229.4474
 896  217.846
 897  184.5217
 898  70.35934
 899  -1.45741
 900  -90.63046
 901  -89.23477
 902  -28.59995
 903  72.84034
 904  6.279529
 905  -67.52168
 906  -0.5063664
 907  47.1574
 908  51.24492
 909  -12.65575
 910  60.11538
 911  175.4404
 912  232.4274
 913  125.6509
 914  84.52052
 915  71.99734
 916  78.3101
 917  140.2578
 918  177.5076
 919  260.5222
 920  212.58
 921  259.3431
 922  143.1697
 923  161.482
 924  179.5626
 925  183.6737
 926  223.9501
 927  209.164
 928  290.2425
 929  260.193
 930  263.5258
 931  192.6867
 932  89.87708
 933  124.5925
 934  188.1579
 935  166.7668
 936  85.21732
 937  75.30227
 938  167.1629
 939  247.5528
 940  238.4968
 941  292.2779
 942  347.3343
 943  352.0143
 944  342.1298
 945  258.1568
 946  231.4253
 947  138.2586
 948  85.28565
 949  127.553
 950  126.0006
 951  278.5299
 952  253.7
 953  338.7641
 954  294.614
 955  267.4038
 956  102.6838
 957  41.69154
 958  32.67701
 959  65.51978
 960  41.28889
 961  84.09821
 962  160.6241
 963  313.3705
 964  369.6959
 965  374.2421
 966  269.2586
 967  111.2084
 968  137.1701
 969  182.4783
 970  254.9188
 971  272.03
 972  276.5668
 973  333.0182
 974  255.6031
 975  249.769
 976  261.7505
 977  315.0788
 978  337.7761
 979  281.8452
 980  216.8636
 981  190.3844
 982  139.6952
 983  99.72755
 984  26.22054
 985  74.52243
 986  114.6436
 987  163.2134
 988  293.6115
 989  329.0636
 990  295.0096
 991  210.7411
 992  240.6698
 993  186.9183
 994  128.4493
 995  60.83735
 996  60.5048
 997  134.1086
 998  268.9649
 999  343.53
1000  315.0242
1001  167.8153
1002  61.51622
1003  91.38844
1004  104.7865
1005  221.6684
1006  195.7995
1007  152.6959
1008  151.5951
1009  235.4294
1010  243.3555
1011  170.8985
1012  114.9273
1013  113.3884
1014  97.55073
1015  45.92086
1016  145.8992
1017  164.946
1018  232.9472
1019  168.1372
1020  123.6089
1021  164.7714
1022  228.1856
1023  234.2337
