# Input file       =  1187331128.11481_cleaned.dat
# Candidate        =  PSR_0332+5434
# Telescope        =  AR
# Epoch_topo       =  57986.258647162154
# Epoch_bary       =  N/A
# T_sample         =  0.002
# Data Folded      =  7340032
# Data Avg         =  0.0528330982373776
# Data StdDev      =  2.77986677409479 
# Profile Bins     =  512
# Profile Avg      =  757.491748236666 
# Profile StdDev   =  332.841889585255 
# Reduced chi-sqr  =  1.679
# Prob(Noise)      <  5.18e-20   (~9.1 sigma)
# P_topo (ms)      =  714.464102592024  +/- 0.000259
# P'_topo (s/s)    =  -0                +/- 1.37e-10
# P''_topo (s/s^2) =  0                 +/- 6.03e-14
# P_bary (ms)      =  N/A
# P'_bary (s/s)    =  N/A
# P''_bary (s/s^2) =  N/A
# P_orb (s)        =  N/A
# asin(i)/c (s)    =  N/A
# eccentricity     =  N/A
# w (rad)          =  N/A
# T_peri           =  N/A
######################################################
   0  268.843
   1  416.9317
   2  669.1171
   3  811.0533
   4  680.6204
   5  9.89494
   6  312.6952
   7  585.8799
   8  715.1619
   9  658.6768
  10  880.2007
  11  667.8694
  12  459.7594
  13  363.3724
  14  414.0699
  15  238.7352
  16  78.87717
  17  376.9348
  18  778.6204
  19  818.2352
  20  851.5372
  21  881.2525
  22  737.4641
  23  730.4054
  24  736.6979
  25  786.2131
  26  1019.764
  27  930.8301
  28  1031.066
  29  836.5654
  30  311.1251
  31  341.6895
  32  659.4424
  33  469.1152
  34  635.9205
  35  708.3514
  36  657.3075
  37  559.4155
  38  909.1817
  39  1087.856
  40  1245.628
  41  1259.653
  42  974.2456
  43  846.161
  44  857.8318
  45  1160.891
  46  887.6869
  47  1042.079
  48  697.4343
  49  760.5803
  50  979.2295
  51  1166.724
  52  954.7097
  53  1055.363
  54  518.8788
  55  541.2429
  56  1250.105
  57  961.1031
  58  453.0261
  59  741.3376
  60  813.6874
  61  856.0522
  62  1072.556
  63  949.2964
  64  855.1896
  65  818.7772
  66  885.558
  67  560.6748
  68  727.546
  69  703.223
  70  1175.942
  71  1177.761
  72  899.8273
  73  1157.089
  74  959.46
  75  669.3081
  76  748.8846
  77  1045.395
  78  1475.431
  79  1239.768
  80  850.6191
  81  920.1857
  82  626.3101
  83  862.0099
  84  754.2318
  85  1141.92
  86  647.076
  87  629.6238
  88  864.9932
  89  959.0124
  90  820.1277
  91  905.1753
  92  849.4803
  93  1239.187
  94  1252.73
  95  1045.658
  96  775.838
  97  698.0817
  98  890.4022
  99  1089.522
 100  1257.405
 101  1146.251
 102  708.5745
 103  966.2187
 104  1025.523
 105  569.5043
 106  1025.692
 107  859.306
 108  946.3821
 109  752.1752
 110  935.4271
 111  1030.906
 112  1086.454
 113  1116.756
 114  321.8943
 115  684.3937
 116  887.3494
 117  1017.397
 118  1098.027
 119  1085.165
 120  949.6512
 121  1167.845
 122  1416.651
 123  1397.61
 124  1611.941
 125  1453.87
 126  1384.803
 127  1578.483
 128  1468.943
 129  1452.254
 130  1580.348
 131  1372.65
 132  1212.212
 133  1349.523
 134  938.47
 135  851.3952
 136  712.79
 137  629.8651
 138  978.7694
 139  895.8746
 140  736.1123
 141  693.2686
 142  610.9406
 143  560.2133
 144  675.0151
 145  872.8203
 146  706.7733
 147  837.5723
 148  1265.636
 149  1360.533
 150  993.5724
 151  710.9406
 152  665.3957
 153  874.5386
 154  689.6215
 155  421.6415
 156  512.0034
 157  698.7186
 158  812.0509
 159  1035.098
 160  628.0941
 161  284.7913
 162  535.0383
 163  649.4565
 164  699.6638
 165  477.3354
 166  649.8597
 167  861.4102
 168  719.0605
 169  433.8707
 170  71.47234
 171  410.1615
 172  717.2293
 173  847.9501
 174  684.7823
 175  669.5295
 176  990.434
 177  881.7123
 178  505.1115
 179  344.4135
 180  221.2653
 181  703.1556
 182  838.9953
 183  794.1642
 184  634.7275
 185  944.5444
 186  949.3297
 187  862.1702
 188  826.7448
 189  629.8699
 190  543.5703
 191  711.9086
 192  751.1848
 193  1059.59
 194  985.7554
 195  802.569
 196  400.5809
 197  494.7021
 198  806.6937
 199  824.9483
 200  535.9325
 201  328.5341
 202  567.9408
 203  764.967
 204  731.7173
 205  1109.312
 206  1021.753
 207  495.1964
 208  509.7762
 209  493.5671
 210  622.8781
 211  719.5538
 212  958.6886
 213  1080.375
 214  567.6278
 215  598.8467
 216  615.908
 217  520.019
 218  851.5045
 219  713.0477
 220  428.7251
 221  330.8039
 222  194.6381
 223  419.4878
 224  462.3246
 225  677.8694
 226  572.1024
 227  466.6777
 228  412.9182
 229  560.926
 230  385.2282
 231  667.5844
 232  457.4617
 233  235.3673
 234  757.1183
 235  925.753
 236  734.2667
 237  307.3858
 238  160.763
 239  466.718
 240  764.5476
 241  589.8099
 242  491.7316
 243  499.4776
 244  863.4788
 245  673.5502
 246  772.2749
 247  707.1154
 248  434.8076
 249  483.8195
 250  384.4973
 251  670.5081
 252  604.8961
 253  887.6056
 254  900.374
 255  721.9869
 256  592.6339
 257  817.2656
 258  891.2338
 259  587.9116
 260  868.7689
 261  434.2912
 262  231.4105
 263  468.5977
 264  558.2226
 265  459.1606
 266  736.7855
 267  639.2564
 268  600.2719
 269  651.0971
 270  613.2474
 271  423.2662
 272  181.3665
 273  581.1757
 274  815.9935
 275  311.5918
 276  462.8155
 277  865.2485
 278  827.0418
 279  413.2446
 280  552.4882
 281  520.6488
 282  621.0588
 283  351.8102
 284  656.3663
 285  895.051
 286  1018.617
 287  854.0054
 288  770.5726
 289  1143.859
 290  720.8743
 291  637.3567
 292  308.3005
 293  622.2269
 294  678.8807
 295  837.1428
 296  777.8907
 297  738.4527
 298  229.1708
 299  624.7979
 300  842.863
 301  443.8214
 302  569.0546
 303  949.2917
 304  1125.465
 305  736.1694
 306  831.4737
 307  931.0974
 308  927.0792
 309  809.4587
 310  798.3158
 311  947.8019
 312  925.8706
 313  857.7305
 314  646.2942
 315  354.8385
 316  937.476
 317  1094.654
 318  1285.601
 319  1486.806
 320  1370.974
 321  1582.812
 322  2342.201
 323  2354.005
 324  2213.737
 325  2035.94
 326  1433.97
 327  1125.728
 328  959.2816
 329  505.4776
 330  928.6803
 331  736.8748
 332  698.121
 333  618.7774
 334  1018.529
 335  1044.816
 336  991.5851
 337  1233.552
 338  1356.343
 339  1336.261
 340  1100.398
 341  878.7862
 342  962.0865
 343  613.5373
 344  469.2114
 345  351.6216
 346  481.4845
 347  676.6393
 348  906.9446
 349  779.8824
 350  756.9042
 351  892.2527
 352  728.3284
 353  871.4818
 354  714.0199
 355  797.0646
 356  561.5391
 357  860.8884
 358  661.2941
 359  730.4673
 360  872.8755
 361  1039.761
 362  884.2823
 363  453.6827
 364  663.2283
 365  765.0875
 366  438.2344
 367  94.82584
 368  362.8728
 369  822.3559
 370  591.5278
 371  725.0294
 372  967.8947
 373  896.5571
 374  607.6701
 375  233.725
 376  517.1375
 377  350.3362
 378  659.8035
 379  747.2774
 380  479.1212
 381  521.7282
 382  387.537
 383  754.9796
 384  851.7717
 385  477.8499
 386  469.6906
 387  534.1224
 388  579.6643
 389  800.9001
 390  766.4277
 391  623.415
 392  257.9589
 393  222.6621
 394  725.5658
 395  842.0756
 396  961.585
 397  809.5075
 398  100.7036
 399  455.7093
 400  570.9351
 401  606.8672
 402  390.3717
 403  489.2893
 404  690.1918
 405  590.6987
 406  961.6002
 407  930.2344
 408  1082.436
 409  654.7853
 410  470.3123
 411  976.0529
 412  1038.92
 413  989.4963
 414  956.8681
 415  855.6351
 416  805.4183
 417  782.5121
 418  1020.212
 419  1028.356
 420  842.2515
 421  1181.186
 422  1331.705
 423  1260.177
 424  825.1823
 425  792.997
 426  753.3612
 427  768.2711
 428  713.6537
 429  397.0388
 430  365.3294
 431  526.3909
 432  1071.921
 433  800.2572
 434  851.2156
 435  771.3234
 436  576.8555
 437  621.4614
 438  271.7438
 439  370.3908
 440  891.5264
 441  1258.821
 442  743.4426
 443  320.0777
 444  357.9274
 445  806.4111
 446  925.5533
 447  746.1534
 448  706.4649
 449  837.0802
 450  360.7322
 451  19.41516
 452  291.9086
 453  474.4273
 454  427.4632
 455  440.5749
 456  334.2411
 457  409.3706
 458  482.0268
 459  360.4304
 460  613.8173
 461  788.6107
 462  747.1136
 463  903.8513
 464  1017.737
 465  950.0165
 466  1120.719
 467  1113.397
 468  762.8796
 469  472.677
 470  370.6802
 471  737.9667
 472  827.2283
 473  591.7917
 474  411.3925
 475  539.6404
 476  511.4307
 477  667.7712
 478  868.791
 479  1024.881
 480  1170.482
 481  966.6515
 482  992.9405
 483  1019.71
 484  648.5811
 485  618.5834
 486  768.1275
 487  755.8844
 488  591.0683
 489  738.6808
 490  735.3597
 491  587.3591
 492  360.6007
 493  601.5846
 494  965.6797
 495  1093.365
 496  883.186
 497  480.3079
 498  311.2335
 499  582.9328
 500  699.1478
 501  422.523
 502  176.011
 503  619.7387
 504  651.9798
 505  512.9852
 506  700.4394
 507  864.652
 508  602.9871
 509  241.4261
 510  323.1573
 511  394.7119
