# Input file       =  1187503992.109945_cleaned.dat
# Candidate        =  PSR_0332+5434
# Telescope        =  AR
# Epoch_topo       =  57988.259387846585
# Epoch_bary       =  N/A
# T_sample         =  0.002
# Data Folded      =  7340032
# Data Avg         =  0.0272029389338319
# Data StdDev      =  3.0346033506929  
# Profile Bins     =  1024
# Profile Avg      =  194.94818596305  
# Profile StdDev   =  256.921785397015 
# Reduced chi-sqr  =  1.249
# Prob(Noise)      <  8.37e-08   (~5.2 sigma)
# P_topo (ms)      =  714.463908139553  +/- 0.000115
# P'_topo (s/s)    =  -0                +/- 6.08e-11
# P''_topo (s/s^2) =  0                 +/- 2.68e-14
# P_bary (ms)      =  N/A
# P'_bary (s/s)    =  N/A
# P''_bary (s/s^2) =  N/A
# P_orb (s)        =  N/A
# asin(i)/c (s)    =  N/A
# eccentricity     =  N/A
# w (rad)          =  N/A
# T_peri           =  N/A
######################################################
   0  559.0266
   1  553.1954
   2  578.4126
   3  473.7607
   4  440.7443
   5  340.9157
   6  359.2507
   7  368.4121
   8  227.3183
   9  189.5565
  10  240.7699
  11  326.7216
  12  397.9922
  13  451.6114
  14  449.8575
  15  392.3484
  16  242.887
  17  173.803
  18  15.44829
  19  46.58735
  20  78.50568
  21  269.43
  22  231.6211
  23  294.0308
  24  116.3331
  25  180.8167
  26  130.3342
  27  87.42458
  28  43.78188
  29  35.70417
  30  51.9001
  31  -10.79807
  32  27.67098
  33  93.45118
  34  176.1958
  35  128.2314
  36  123.6576
  37  39.0486
  38  172.2767
  39  197.5299
  40  227.6733
  41  189.8623
  42  180.1159
  43  157.4572
  44  150.2558
  45  73.49557
  46  104.533
  47  45.94493
  48  51.08498
  49  52.22346
  50  44.35795
  51  85.28868
  52  85.19168
  53  182.1556
  54  236.6009
  55  159.5563
  56  241.3322
  57  239.2215
  58  266.5454
  59  141.8919
  60  154.522
  61  202.1296
  62  252.0325
  63  223.5645
  64  308.5366
  65  235.4764
  66  154.4435
  67  -19.07027
  68  144.9793
  69  217.593
  70  285.8356
  71  219.6924
  72  279.5148
  73  254.2225
  74  177.5585
  75  193.9352
  76  248.6897
  77  229.3047
  78  68.05756
  79  102.5942
  80  262.8952
  81  399.9328
  82  185.5192
  83  4.962368
  84  -60.62632
  85  72.85945
  86  180.2262
  87  216.6667
  88  237.3997
  89  239.0378
  90  316.7291
  91  424.1756
  92  269.5469
  93  104.3419
  94  17.82645
  95  229.4838
  96  120.2842
  97  118.2102
  98  16.54751
  99  156.6307
 100  108.4168
 101  171.5627
 102  200.1115
 103  216.0921
 104  177.2533
 105  233.372
 106  315.4981
 107  297.6599
 108  192.5653
 109  73.37001
 110  49.22549
 111  34.75407
 112  128.5776
 113  248.3803
 114  242.9881
 115  157.0049
 116  -37.44637
 117  -70.72478
 118  -77.20668
 119  29.22925
 120  -2.731783
 121  -20.23021
 122  -60.40251
 123  -22.11987
 124  69.12514
 125  181.5822
 126  170.5534
 127  163.1524
 128  25.83854
 129  96.09097
 130  178.6448
 131  157.907
 132  417.1948
 133  440.8613
 134  463.6157
 135  241.8019
 136  51.3871
 137  -65.38528
 138  -34.00898
 139  66.06557
 140  220.4478
 141  256.3896
 142  395.0168
 143  377.6573
 144  268.9789
 145  228.93
 146  168.0873
 147  67.5724
 148  -25.89353
 149  47.7531
 150  136.8722
 151  230.2923
 152  229.5532
 153  221.2795
 154  182.835
 155  152.1914
 156  128.463
 157  69.86445
 158  11.53722
 159  97.75657
 160  179.2372
 161  219.8238
 162  158.0629
 163  227.0747
 164  129.1762
 165  165.1331
 166  186.7818
 167  310.2035
 168  288.7194
 169  188.1777
 170  249.262
 171  160.9584
 172  112.7041
 173  56.65134
 174  68.04909
 175  225.4546
 176  251.1562
 177  330.6737
 178  258.557
 179  252.5093
 180  229.9501
 181  261.5576
 182  253.7356
 183  179.4009
 184  187.0894
 185  231.1985
 186  304.297
 187  267.7462
 188  305.6021
 189  394.1405
 190  255.2525
 191  104.6642
 192  64.35756
 193  186.3354
 194  220.5284
 195  205.7979
 196  250.8752
 197  315.0802
 198  312.7909
 199  278.295
 200  127.5775
 201  26.41784
 202  117.4894
 203  257.4026
 204  340.9619
 205  300.1911
 206  168.0141
 207  106.0746
 208  -2.974392
 209  -14.90927
 210  -135.654
 211  -109.9106
 212  -13.25866
 213  166.0282
 214  140.0211
 215  205.3859
 216  120.3317
 217  118.9569
 218  59.01674
 219  139.8944
 220  191.0241
 221  263.7994
 222  256.4734
 223  254.162
 224  151.1092
 225  115.0719
 226  90.01504
 227  209.4485
 228  341.9329
 229  311.5195
 230  148.4929
 231  -138.7705
 232  -126.7729
 233  -4.918017
 234  190.218
 235  151.8587
 236  161.5317
 237  95.02917
 238  99.01544
 239  101.8178
 240  164.137
 241  173.1648
 242  183.5249
 243  121.7155
 244  86.28992
 245  101.154
 246  248.0297
 247  353.4314
 248  234.5826
 249  73.00834
 250  6.176884
 251  49.32822
 252  -3.459739
 253  58.0794
 254  106.2841
 255  182.5915
 256  154.8621
 257  119.7417
 258  58.86233
 259  141.4938
 260  253.1381
 261  298.7973
 262  225.4299
 263  144.795
 264  102.3339
 265  204.1119
 266  175.6854
 267  226.2658
 268  132.6463
 269  193.6167
 270  255.4261
 271  310.1884
 272  249.9496
 273  97.3498
 274  -1.382852
 275  134.8364
 276  192.8303
 277  285.0088
 278  150.5481
 279  164.409
 280  31.81148
 281  -47.00855
 282  -6.045585
 283  105.9589
 284  118.1565
 285  73.21288
 286  101.6349
 287  264.4147
 288  336.0643
 289  218.0112
 290  141.2451
 291  113.3262
 292  126.0098
 293  141.8225
 294  80.40501
 295  30.22462
 296  -16.07004
 297  124.1287
 298  207.3431
 299  303.6061
 300  254.7007
 301  277.4383
 302  288.722
 303  317.028
 304  186.7803
 305  82.28793
 306  5.765134
 307  71.63412
 308  26.12487
 309  119.2603
 310  65.09869
 311  173.0457
 312  11.17221
 313  -10.13142
 314  -200.8577
 315  -202.7779
 316  -125.9068
 317  -62.75853
 318  44.62523
 319  39.0113
 320  128.2797
 321  90.59798
 322  5.597857
 323  59.27653
 324  274.903
 325  352.1745
 326  278.2247
 327  170.1167
 328  156.1993
 329  125.4401
 330  67.72913
 331  -70.38401
 332  -79.9927
 333  28.32708
 334  217.3038
 335  176.2811
 336  3.810718
 337  33.31638
 338  160.5389
 339  183.6991
 340  79.0359
 341  12.44101
 342  125.3251
 343  147.3259
 344  204.0245
 345  85.59428
 346  -132.7527
 347  -232.5775
 348  -157.2715
 349  -38.46751
 350  -39.94062
 351  -11.8119
 352  180.2086
 353  380.4612
 354  464.5325
 355  326.0905
 356  47.57345
 357  26.29431
 358  78.7755
 359  167.6301
 360  53.65371
 361  116.3081
 362  157.317
 363  133.6733
 364  80.97753
 365  82.83495
 366  181.6167
 367  175.2655
 368  168.0299
 369  177.5212
 370  273.2122
 371  343.2108
 372  204.3168
 373  134.8035
 374  128.4774
 375  287.0155
 376  165.1805
 377  100.337
 378  234.0907
 379  387.1224
 380  287.3884
 381  145.1043
 382  90.76165
 383  197.6555
 384  235.5725
 385  268.8189
 386  188.6212
 387  259.31
 388  312.5573
 389  305.9757
 390  182.8402
 391  129.3421
 392  4.523063
 393  80.74978
 394  85.53783
 395  88.4971
 396  76.13422
 397  95.39017
 398  82.67606
 399  119.5706
 400  239.9373
 401  373.7261
 402  247.0577
 403  348.6111
 404  399.7856
 405  480.0066
 406  396.3235
 407  270.5463
 408  48.80373
 409  49.93114
 410  191.9933
 411  332.4178
 412  273.0859
 413  231.0081
 414  245.0415
 415  306.4576
 416  161.196
 417  181.8753
 418  94.49379
 419  209.9403
 420  288.6897
 421  438.9704
 422  323.3407
 423  111.6584
 424  63.3553
 425  202.257
 426  241.0746
 427  345.0175
 428  461.5056
 429  540.2329
 430  426.3445
 431  178.9012
 432  72.43073
 433  -2.482296
 434  140.3948
 435  102.3586
 436  195.5871
 437  153.5934
 438  156.019
 439  162.276
 440  152.7103
 441  194.5616
 442  222.1129
 443  287.0146
 444  400.906
 445  381.3349
 446  371.8174
 447  347.1842
 448  332.845
 449  436.3592
 450  428.7126
 451  458.307
 452  433.6675
 453  527.4509
 454  415.4343
 455  342.4666
 456  216.1119
 457  48.0757
 458  130.2439
 459  245.1739
 460  353.1375
 461  122.7066
 462  12.4911
 463  136.4159
 464  220.69
 465  178.0242
 466  172.8322
 467  86.05826
 468  176.7224
 469  250.5386
 470  379.5124
 471  308.3093
 472  186.7621
 473  75.96162
 474  140.2139
 475  172.3952
 476  179.4943
 477  91.26424
 478  -55.21498
 479  -132.2375
 480  -40.88882
 481  52.80233
 482  207.7851
 483  249.633
 484  423.358
 485  492.1834
 486  457.2003
 487  268.4417
 488  204.9991
 489  334.6488
 490  402.6584
 491  321.8477
 492  274.5968
 493  256.1589
 494  168.4826
 495  164.3255
 496  181.2598
 497  219.8345
 498  151.2234
 499  160.5538
 500  410.184
 501  523.4343
 502  438.8112
 503  202.7752
 504  251.3649
 505  188.4312
 506  52.85043
 507  -150.7241
 508  -141.5639
 509  -5.282383
 510  68.27925
 511  141.5841
 512  91.54705
 513  31.42351
 514  37.92667
 515  55.43616
 516  275.9745
 517  288.3883
 518  287.2135
 519  227.6515
 520  339.1611
 521  413.7003
 522  442.6343
 523  243.7576
 524  127.7085
 525  -47.63071
 526  18.60339
 527  214.263
 528  414.2324
 529  308.5601
 530  192.0863
 531  286.9227
 532  463.7958
 533  368.167
 534  84.4088
 535  58.17609
 536  100.8258
 537  149.9306
 538  132.8812
 539  175.3395
 540  299.1724
 541  407.9327
 542  602.5779
 543  638.0527
 544  365.9005
 545  155.0294
 546  126.257
 547  139.1211
 548  158.7719
 549  230.6018
 550  367.3791
 551  328.1116
 552  277.4073
 553  263.6805
 554  255.7736
 555  257.7444
 556  269.9227
 557  252.3216
 558  246.5936
 559  178.9427
 560  146.5513
 561  196.1104
 562  317.2688
 563  399.1021
 564  252.7014
 565  274.5908
 566  299.7685
 567  140.0168
 568  -59.69785
 569  -106.7293
 570  100.2281
 571  172.4316
 572  225.5724
 573  318.6645
 574  343.4134
 575  288.5332
 576  112.2876
 577  34.61422
 578  99.62126
 579  244.3094
 580  377.7838
 581  310.9454
 582  175.0492
 583  104.7622
 584  207.7006
 585  302.9629
 586  395.0378
 587  348.8883
 588  255.5559
 589  233.7323
 590  231.0378
 591  205.021
 592  19.2264
 593  96.53357
 594  280.7302
 595  503.778
 596  479.8927
 597  267.6913
 598  121.4844
 599  119.6211
 600  169.1244
 601  212.5017
 602  94.47858
 603  101.4093
 604  50.36518
 605  107.0258
 606  136.4113
 607  314.5847
 608  421.0121
 609  461.6163
 610  415.7933
 611  403.7313
 612  314.2293
 613  268.6103
 614  218.1017
 615  345.8662
 616  404.7658
 617  380.2168
 618  348.4251
 619  302.5051
 620  244.3289
 621  133.395
 622  126.8474
 623  136.6969
 624  156.2286
 625  180.3873
 626  189.5824
 627  108.3899
 628  118.9042
 629  123.3276
 630  285.5725
 631  310.6029
 632  327.8404
 633  202.705
 634  77.51184
 635  198.3935
 636  331.5615
 637  452.9087
 638  454.1217
 639  533.5765
 640  670.6689
 641  815.595
 642  914.4899
 643  923.2034
 644  1006.697
 645  992.6329
 646  1077.726
 647  980.1313
 648  1016.003
 649  931.2948
 650  848.5074
 651  614.7373
 652  585.3061
 653  475.1404
 654  237.2197
 655  -85.85524
 656  -142.7012
 657  -70.46315
 658  19.76326
 659  34.40977
 660  166.8698
 661  167.1644
 662  133.1067
 663  -5.283866
 664  -50.36993
 665  18.45751
 666  98.57152
 667  202.1848
 668  291.3216
 669  217.7114
 670  81.62672
 671  117.1776
 672  278.185
 673  409.9559
 674  396.0847
 675  516.2972
 676  540.2676
 677  463.9421
 678  350.0981
 679  192.7108
 680  168.0174
 681  140.1717
 682  292.5284
 683  289.4832
 684  197.5148
 685  196.9722
 686  136.8948
 687  158.4528
 688  72.63783
 689  118.6678
 690  12.78605
 691  27.61408
 692  225.5817
 693  399.331
 694  400.7995
 695  325.3364
 696  333.4581
 697  325.3142
 698  265.951
 699  346.6953
 700  276.7079
 701  226.6531
 702  71.03444
 703  137.8869
 704  266.9055
 705  315.0698
 706  285.3338
 707  229.1835
 708  266.3212
 709  213.9173
 710  286.7664
 711  272.3751
 712  274.1733
 713  112.5607
 714  -95.2041
 715  -2.863836
 716  118.915
 717  241.2405
 718  66.31638
 719  87.99601
 720  160.3185
 721  189.7677
 722  214.5415
 723  183.9402
 724  182.0994
 725  166.2557
 726  202.9801
 727  178.562
 728  -5.358721
 729  -4.037188
 730  134.2258
 731  226.2086
 732  233.117
 733  107.4725
 734  -12.59984
 735  -11.71104
 736  51.13021
 737  313.6155
 738  409.3599
 739  490.5035
 740  443.3987
 741  378.1458
 742  256.3796
 743  274.8719
 744  282.3316
 745  193.6325
 746  33.63427
 747  -48.59171
 748  101.2699
 749  134.5087
 750  240.9707
 751  154.4045
 752  99.42593
 753  181.8739
 754  198.5849
 755  251.9158
 756  172.9237
 757  331.5047
 758  442.3388
 759  430.2708
 760  141.8325
 761  -17.75752
 762  9.019624
 763  194.0831
 764  273.0092
 765  317.5073
 766  367.0179
 767  310.1719
 768  214.7197
 769  93.76018
 770  -36.64545
 771  -79.59576
 772  -71.79874
 773  29.32008
 774  139.205
 775  78.36453
 776  107.7762
 777  108.6235
 778  172.824
 779  239.7621
 780  175.6354
 781  128.1384
 782  18.79296
 783  -30.51601
 784  -21.68411
 785  106.9818
 786  252.9138
 787  324.1343
 788  364.933
 789  492.7793
 790  457.3991
 791  285.2313
 792  197.6488
 793  114.1209
 794  148.6874
 795  80.8251
 796  52.70373
 797  -58.16689
 798  29.47776
 799  218.5738
 800  354.8729
 801  269.0622
 802  190.5226
 803  23.6059
 804  -27.39957
 805  -14.37132
 806  308.2461
 807  324.4673
 808  364.0612
 809  91.26698
 810  143.2761
 811  116.7039
 812  230.9473
 813  249.4733
 814  288.5477
 815  267.1427
 816  156.4861
 817  97.48118
 818  152.3109
 819  301.3484
 820  307.5192
 821  300.3232
 822  264.1245
 823  193.1964
 824  220.857
 825  138.7303
 826  281.3678
 827  239.4957
 828  304.6176
 829  146.5417
 830  66.78576
 831  -54.08571
 832  -36.16853
 833  46.22073
 834  136.4844
 835  110.9588
 836  175.48
 837  284.3035
 838  276.9082
 839  44.86189
 840  -97.06817
 841  -119.0484
 842  48.80857
 843  29.79756
 844  75.20336
 845  75.66836
 846  211.3542
 847  342.3034
 848  337.358
 849  258.1675
 850  201.1004
 851  120.0721
 852  87.98268
 853  114.396
 854  111.6787
 855  77.96555
 856  31.46427
 857  -12.96293
 858  64.48769
 859  8.0451
 860  33.33306
 861  7.208518
 862  217.1005
 863  266.9153
 864  301.3217
 865  220.7545
 866  151.314
 867  9.003898
 868  -58.21229
 869  -20.84403
 870  100.1095
 871  175.9493
 872  399.1171
 873  514.7147
 874  683.0649
 875  554.559
 876  356.6974
 877  221.4787
 878  166.165
 879  184.8304
 880  201.346
 881  192.3695
 882  59.77678
 883  46.89272
 884  61.15902
 885  11.94448
 886  -48.51157
 887  20.95773
 888  200.1672
 889  205.8336
 890  259.8543
 891  210.3277
 892  132.9074
 893  73.92849
 894  134.9405
 895  284.4529
 896  302.4886
 897  272.3598
 898  244.9319
 899  316.0097
 900  273.1708
 901  219.0417
 902  136.3633
 903  234.9023
 904  306.8587
 905  323.7403
 906  303.9439
 907  284.9408
 908  205.4197
 909  120.774
 910  159.4029
 911  294.615
 912  218.0299
 913  190.7371
 914  116.9267
 915  33.85348
 916  21.69438
 917  112.1121
 918  129.3673
 919  -70.8886
 920  -95.21342
 921  68.18003
 922  194.9548
 923  257.4664
 924  304.4308
 925  385.148
 926  489.8335
 927  473.6068
 928  376.3047
 929  431.2217
 930  464.5393
 931  394.6838
 932  263.4191
 933  47.79919
 934  74.86558
 935  24.2386
 936  118.0441
 937  111.9751
 938  124.4145
 939  182.1929
 940  319.6583
 941  410.1331
 942  435.6511
 943  159.7428
 944  -29.72669
 945  -77.9179
 946  12.73412
 947  95.78831
 948  -29.90083
 949  -52.10807
 950  -93.68019
 951  60.82529
 952  202.414
 953  120.4565
 954  137.2379
 955  18.73228
 956  242.976
 957  124.493
 958  209.49
 959  150.675
 960  197.3203
 961  27.76831
 962  79.183
 963  53.10006
 964  97.85797
 965  -69.92777
 966  -53.16138
 967  69.82511
 968  180.0301
 969  133.5653
 970  34.04596
 971  -12.55807
 972  38.61464
 973  60.14103
 974  218.5421
 975  87.74291
 976  -19.99784
 977  -20.23132
 978  201.2776
 979  326.1356
 980  242.049
 981  308.6269
 982  397.6205
 983  329.9442
 984  261.8855
 985  179.1747
 986  149.31
 987  245.8875
 988  324.8344
 989  423.5685
 990  365.549
 991  335.3387
 992  349.9075
 993  230.324
 994  324.7033
 995  397.8441
 996  408.9587
 997  342.9523
 998  320.9149
 999  181.4258
1000  131.5441
1001  41.94965
1002  79.99156
1003  135.7752
1004  204.7645
1005  315.0658
1006  392.5351
1007  414.2977
1008  203.8905
1009  106.0378
1010  142.4484
1011  331.8228
1012  365.3371
1013  284.7953
1014  370.1872
1015  306.9951
1016  314.6502
1017  144.7286
1018  289.8927
1019  290.8032
1020  363.0148
1021  158.3643
1022  215.7245
1023  265.2717
