# Input file       =  1187129238.101036_cleaned.dat
# Candidate        =  PSR_0332+5434
# Telescope        =  AR
# Epoch_topo       =  57983.921957187915
# Epoch_bary       =  N/A
# T_sample         =  0.002
# Data Folded      =  7208960
# Data Avg         =  0.274160013113975
# Data StdDev      =  5.94389177366789 
# Profile Bins     =  1024
# Profile Avg      =  1930.09438172746 
# Profile StdDev   =  498.720502783093 
# Reduced chi-sqr  =  0.487
# Prob(Noise)      <  1   (~0.0 sigma)
# P_topo (ms)      =  714.464087938302  +/- 4.37e-05
# P'_topo (s/s)    =  -0                +/- 2.35e-11
# P''_topo (s/s^2) =  0                 +/- 1.05e-14
# P_bary (ms)      =  N/A
# P'_bary (s/s)    =  N/A
# P''_bary (s/s^2) =  N/A
# P_orb (s)        =  N/A
# asin(i)/c (s)    =  N/A
# eccentricity     =  N/A
# w (rad)          =  N/A
# T_peri           =  N/A
######################################################
   0  1799.412
   1  2018.339
   2  2005.803
   3  1865.459
   4  2147.649
   5  2347.365
   6  2069.415
   7  2042.02
   8  2166.575
   9  2043.48
  10  1821.107
  11  1985.579
  12  1959.212
  13  1680.383
  14  1473.795
  15  1684.071
  16  1806.143
  17  1783.525
  18  2066.694
  19  2016.059
  20  1926.944
  21  1929.473
  22  2021.794
  23  1904.463
  24  1771.776
  25  1962.269
  26  2198.186
  27  2141.554
  28  2020.749
  29  1980.62
  30  1862.831
  31  1798.914
  32  1817.432
  33  1923.556
  34  1969.6
  35  1926.939
  36  2156.054
  37  2065.748
  38  2019.338
  39  1932.404
  40  1991.815
  41  1984.132
  42  1724.726
  43  1688.735
  44  1601.712
  45  1885.119
  46  1861.276
  47  1891.48
  48  1935.72
  49  2029.075
  50  1890.418
  51  1847.806
  52  1860.153
  53  1874.093
  54  1803.818
  55  2009.952
  56  2006.067
  57  1765.874
  58  1686.275
  59  1760.347
  60  1618.872
  61  1548.891
  62  1737.409
  63  2089.266
  64  1955.385
  65  2013.728
  66  2163.68
  67  2063.737
  68  1855.416
  69  2023.976
  70  2175.717
  71  2041.385
  72  1955.583
  73  1953.397
  74  1895.069
  75  1701.046
  76  1924.947
  77  2004.039
  78  1992.248
  79  1836.435
  80  1976.282
  81  1942.713
  82  1809.634
  83  1811.893
  84  1909.957
  85  2076.522
  86  2145.065
  87  2238.696
  88  2207.041
  89  1915.266
  90  1967.706
  91  2026.383
  92  2000.393
  93  1818.863
  94  1732.625
  95  1792.63
  96  1892.15
  97  1988.523
  98  2062.224
  99  2051.515
 100  1930.724
 101  1965.983
 102  1850.267
 103  2009.932
 104  1899.789
 105  1958.955
 106  1867.606
 107  1760.829
 108  1725.746
 109  1594.085
 110  1577.802
 111  1635.698
 112  1784.949
 113  2100.477
 114  2179.865
 115  2053.997
 116  1839.585
 117  1937.624
 118  1819.869
 119  1677.011
 120  1840.06
 121  2092.963
 122  1834.413
 123  1732.486
 124  1903.735
 125  1979.016
 126  1811.94
 127  1904.361
 128  2306.898
 129  2248.568
 130  2197.862
 131  2217.48
 132  2136.286
 133  1853.575
 134  1986.012
 135  2167.4
 136  2182.937
 137  1822.709
 138  1940.211
 139  1873.434
 140  1724.689
 141  1681.49
 142  1680.141
 143  1533.185
 144  1555.689
 145  1817.56
 146  1955.941
 147  1812.931
 148  1767.349
 149  1994.164
 150  2064.363
 151  2132.692
 152  2075.407
 153  2016.986
 154  1902.212
 155  1840.548
 156  1811.104
 157  1674.349
 158  1765.217
 159  1813.282
 160  1878.426
 161  1875.828
 162  1834.348
 163  1745.314
 164  1874.45
 165  2070.213
 166  2161.558
 167  2061.902
 168  2114.196
 169  2095.886
 170  1978.963
 171  2062.105
 172  2051.923
 173  1931.534
 174  1731.193
 175  1779.036
 176  1890.735
 177  1750.402
 178  1894.661
 179  2127.838
 180  2071.476
 181  1874.907
 182  1870.817
 183  1811.951
 184  1781.119
 185  1781.996
 186  2007.48
 187  1834.553
 188  1872.335
 189  2082.872
 190  2032.227
 191  1685.878
 192  1583.932
 193  1706.594
 194  1757.853
 195  1850.827
 196  2109.887
 197  2090.773
 198  1885.495
 199  1867.955
 200  1985.318
 201  2054.779
 202  2033.196
 203  2028.942
 204  1920.728
 205  1716.246
 206  1665.5
 207  1892.153
 208  1799.384
 209  1819.122
 210  1864.109
 211  1958.53
 212  1811.782
 213  1948.231
 214  1905.131
 215  1857.937
 216  1706.727
 217  2004.762
 218  2128.544
 219  2366.589
 220  2282.767
 221  2183.085
 222  2052.975
 223  1992.752
 224  2139.036
 225  2017.488
 226  2001.13
 227  1749.961
 228  1670.854
 229  1644.123
 230  1783.06
 231  1804.009
 232  1782.066
 233  1795.502
 234  2029.723
 235  2015.376
 236  2049.565
 237  2083.645
 238  2127.573
 239  1948.059
 240  1946.38
 241  1909.765
 242  1665.466
 243  1481.676
 244  1641.43
 245  1662.281
 246  1568.034
 247  1675.651
 248  1783.644
 249  1815.511
 250  1719.97
 251  1876.562
 252  1852.627
 253  1866.344
 254  2043.634
 255  2146.75
 256  1890.798
 257  1809.686
 258  1953.395
 259  1894.735
 260  1722.688
 261  1910.079
 262  2076.322
 263  2019.712
 264  1846.113
 265  2038.468
 266  1984.125
 267  2089.84
 268  2015.418
 269  2178.637
 270  1951.457
 271  1879.369
 272  1776.192
 273  1705.764
 274  1570.821
 275  1566.181
 276  1614.457
 277  1650.503
 278  1886.456
 279  2068.178
 280  2101.649
 281  1812.547
 282  1643.929
 283  1530.134
 284  1713.23
 285  2040.799
 286  2000.292
 287  1765.451
 288  1716.693
 289  1771.718
 290  1874.23
 291  1920.563
 292  1992.164
 293  1876.685
 294  1980.754
 295  2054.988
 296  2191.48
 297  1894.938
 298  1933.58
 299  1963.943
 300  2028.664
 301  1882.005
 302  1974.534
 303  1916.066
 304  1734.807
 305  1712.795
 306  1849.614
 307  1732.479
 308  1710.517
 309  1926.135
 310  1848.711
 311  1567.113
 312  1688.649
 313  1898.5
 314  1925.536
 315  1887.109
 316  1944.19
 317  1935.29
 318  1737.072
 319  1905.38
 320  1989.821
 321  1969.011
 322  2004.642
 323  2126.355
 324  1926.913
 325  1705.449
 326  1831.607
 327  2174.064
 328  2056.967
 329  1834.268
 330  1931.302
 331  1838.756
 332  1749.674
 333  1815.743
 334  2047.14
 335  2019.408
 336  1811.718
 337  1805.595
 338  1831.134
 339  1851.975
 340  1975.333
 341  1925.682
 342  2016.142
 343  1920.32
 344  1964.574
 345  1911.116
 346  1813.31
 347  1852.573
 348  1889.835
 349  1951.508
 350  2056.805
 351  2045.611
 352  1919.507
 353  1919.435
 354  1754.32
 355  1698.043
 356  1650.478
 357  1865.864
 358  1687.145
 359  1463.699
 360  1455.09
 361  1479.66
 362  1462.309
 363  1860.294
 364  2144.778
 365  2296.631
 366  2046.455
 367  2178.878
 368  2187.013
 369  2037.163
 370  1927.867
 371  1819.993
 372  1609.89
 373  1533.419
 374  1596.28
 375  1797.793
 376  1595.396
 377  1581.896
 378  1731.775
 379  1690.37
 380  1567.865
 381  1825.934
 382  1942.831
 383  1894.206
 384  1861.379
 385  1959.876
 386  1925.925
 387  1987.974
 388  2085.48
 389  2086.947
 390  1829.659
 391  1636.26
 392  1756.968
 393  1765.015
 394  1741.785
 395  1721.044
 396  1743.579
 397  1664.467
 398  1748.553
 399  1808.979
 400  1868.889
 401  1844.809
 402  1849.983
 403  1769.595
 404  1671.951
 405  1747.724
 406  1754.36
 407  1838.604
 408  2123.8
 409  2045.261
 410  2009.766
 411  1832.009
 412  1868.828
 413  1756.973
 414  1783.96
 415  1867.69
 416  1878.354
 417  1847.295
 418  2039.724
 419  1930.261
 420  1755.604
 421  1600.153
 422  1754.737
 423  1884.152
 424  1696.156
 425  1899.797
 426  1962.736
 427  1819.62
 428  1746.039
 429  1951.641
 430  1949.343
 431  1839.833
 432  1901.718
 433  2134.728
 434  2022.934
 435  2032.878
 436  2058.114
 437  1956.963
 438  1825.788
 439  1729.217
 440  1780.637
 441  1688.596
 442  1662.776
 443  1841.57
 444  1917.761
 445  1772.521
 446  1833.454
 447  1924.034
 448  1952.194
 449  1822.36
 450  1917.107
 451  1911.252
 452  1973.715
 453  2112.458
 454  2088.603
 455  1904.413
 456  1827.84
 457  1769.186
 458  1890.484
 459  1868.256
 460  2005.391
 461  2018.619
 462  1984.304
 463  1865.559
 464  1762.015
 465  1681.596
 466  1868.727
 467  1877.725
 468  2065.939
 469  1919.441
 470  1911.363
 471  1829.244
 472  1805.189
 473  2027.133
 474  2084.58
 475  2066.735
 476  2129.702
 477  2240.488
 478  2139.079
 479  1849.463
 480  1839.5
 481  1789.782
 482  1741.395
 483  1986.95
 484  2166.909
 485  2036.911
 486  1885.751
 487  1844.975
 488  1901.127
 489  1829.16
 490  1881.719
 491  2058.685
 492  1897.361
 493  1822.483
 494  1917.856
 495  2038.109
 496  2003.344
 497  1922.818
 498  2110.968
 499  2002.046
 500  1811.5
 501  1930.913
 502  1927.537
 503  1896.59
 504  1689.4
 505  1609.436
 506  1574.243
 507  1385.802
 508  1573.612
 509  1804.378
 510  2105.863
 511  2067.155
 512  2023.92
 513  2153.599
 514  2254.483
 515  2158.854
 516  2092.663
 517  1958.986
 518  1918.561
 519  1762.806
 520  1745.913
 521  1764.2
 522  1708.219
 523  1547.252
 524  1559.802
 525  1553.465
 526  1614.406
 527  1727.142
 528  1908.984
 529  1857.448
 530  1771.795
 531  2029.026
 532  2177.573
 533  2234.788
 534  2129.128
 535  1928.488
 536  1718.216
 537  1583.128
 538  1574.676
 539  1666.976
 540  1537.374
 541  1655.508
 542  1829.025
 543  1843.87
 544  1712.84
 545  1594.109
 546  1708.919
 547  1665.935
 548  1892.112
 549  2309.439
 550  2198.362
 551  1975.056
 552  1913.76
 553  1883.899
 554  1735.877
 555  1639.199
 556  1863.264
 557  1973.008
 558  1935.897
 559  2046.848
 560  2076.967
 561  1982.189
 562  2087.624
 563  2100.997
 564  2214.774
 565  1998.971
 566  2178.029
 567  2176.507
 568  2053.989
 569  1972.976
 570  1863.257
 571  1719.715
 572  1557.333
 573  1771.328
 574  1838.639
 575  1713.192
 576  1824.224
 577  1923.527
 578  2143.928
 579  2279.065
 580  2185.481
 581  2140.803
 582  1866.541
 583  1855.217
 584  1676.781
 585  1666.861
 586  1897.219
 587  2017.197
 588  1963.686
 589  1853.001
 590  1814.286
 591  1863.958
 592  1902.156
 593  2040.644
 594  2041.643
 595  1739.293
 596  1658.917
 597  1893.935
 598  2006.229
 599  2281.876
 600  2392.621
 601  2352.352
 602  1999.536
 603  2004.693
 604  2155.181
 605  2045.042
 606  2077.144
 607  2161.483
 608  2119.818
 609  1902.503
 610  1908.891
 611  2072.146
 612  1931.909
 613  1803.417
 614  1929.482
 615  2007.321
 616  1852.88
 617  1807.91
 618  1842.746
 619  1752.4
 620  1869.972
 621  2036.273
 622  2137.137
 623  1922.873
 624  2137.288
 625  2098.806
 626  2067.029
 627  2051.543
 628  2043.944
 629  2070.719
 630  1915.334
 631  2051.416
 632  2174.101
 633  2106.479
 634  2110.684
 635  1921.724
 636  1858.122
 637  1826.522
 638  1875.579
 639  2141.542
 640  2286.83
 641  2637.82
 642  2859.693
 643  2848.404
 644  2845.835
 645  2757.063
 646  2766.309
 647  2869.574
 648  2950.736
 649  2836.505
 650  2526.371
 651  2434.257
 652  2166.484
 653  1878.306
 654  1848.493
 655  1890.541
 656  1939.465
 657  1931.884
 658  2021.778
 659  2040.013
 660  1924.518
 661  1914.337
 662  2073.343
 663  1861.726
 664  1915.917
 665  2237.164
 666  2412.63
 667  2129.067
 668  1878.259
 669  2015.211
 670  1842.436
 671  1617.733
 672  1660.193
 673  1578.928
 674  1673.244
 675  1852.005
 676  2117.392
 677  2065.418
 678  1938.076
 679  2068.064
 680  2066.651
 681  2117.391
 682  2285.209
 683  2343.636
 684  2108.955
 685  1903.377
 686  1889.834
 687  1970.667
 688  1942.011
 689  2178.671
 690  2294.225
 691  2095.83
 692  1859.018
 693  2034.919
 694  1957.192
 695  2070.802
 696  2056.57
 697  2138.192
 698  2036.253
 699  1995.642
 700  1948.702
 701  1846.902
 702  1896.414
 703  1869.37
 704  1855.041
 705  2072.218
 706  2017.049
 707  2064.297
 708  1724.417
 709  1764.807
 710  1718.259
 711  1803.776
 712  1995.415
 713  2142.517
 714  2102.481
 715  1930.41
 716  1992.678
 717  1948.303
 718  1669.496
 719  1601.986
 720  1797.608
 721  1688.968
 722  1646.324
 723  1690.088
 724  1885.111
 725  1765.896
 726  1757.387
 727  2007.028
 728  2018.704
 729  1690.793
 730  1743.057
 731  1845.691
 732  1924.942
 733  1772.491
 734  1917.639
 735  1868.567
 736  1775.788
 737  1906.329
 738  2095.727
 739  1956.831
 740  1845.3
 741  1882.775
 742  1942.524
 743  1752.105
 744  1754.89
 745  1776.408
 746  1848.247
 747  1938.347
 748  2051.076
 749  2075.614
 750  2178.203
 751  2251.323
 752  2215.485
 753  2145.283
 754  1985.322
 755  2198.897
 756  2084.864
 757  2229.252
 758  2168.156
 759  2215.317
 760  2163.58
 761  2230.981
 762  2290.852
 763  2079.532
 764  1968.857
 765  1919.41
 766  1910.083
 767  1924.496
 768  2053.09
 769  2018.734
 770  2091.061
 771  2177.429
 772  2276.537
 773  2204.478
 774  2248.602
 775  2167.441
 776  2024.632
 777  1887.127
 778  2058.249
 779  2014.067
 780  1990.032
 781  2032.461
 782  2128.433
 783  1874.168
 784  1781.529
 785  1972.059
 786  2070.81
 787  1855.202
 788  1933.908
 789  2246.391
 790  2343.961
 791  2244.777
 792  2293.532
 793  2179.644
 794  2037.239
 795  2130.665
 796  2297.891
 797  2088.055
 798  1866.448
 799  1895.114
 800  2027.903
 801  1742.812
 802  1743.014
 803  1767.941
 804  1663.838
 805  1615.728
 806  1820.101
 807  2056.664
 808  2004.874
 809  2083.884
 810  2238.314
 811  2292.361
 812  2149.175
 813  2156.362
 814  2094.097
 815  2173.984
 816  2181.017
 817  1924.72
 818  1709.162
 819  1591.58
 820  1720.998
 821  1825.315
 822  1971.407
 823  2095.901
 824  1973.37
 825  1936.835
 826  1957.732
 827  1911.586
 828  1995.311
 829  1986.507
 830  2040.66
 831  1885.258
 832  1867.287
 833  1938.962
 834  1851.601
 835  1707.171
 836  1730.337
 837  1879.048
 838  1871.929
 839  1897.765
 840  2056.165
 841  1873.158
 842  1765.8
 843  1948.295
 844  2078.139
 845  2035.249
 846  2066.573
 847  2133.155
 848  2054.046
 849  1829.423
 850  1929.397
 851  1939.942
 852  1752.254
 853  1871.688
 854  1934.249
 855  1792.952
 856  1623.567
 857  1874.282
 858  2063.465
 859  1913.064
 860  1727.302
 861  1915.25
 862  1850.438
 863  1877.431
 864  1933.704
 865  1932.926
 866  1827.673
 867  1811.048
 868  2001.233
 869  1776.668
 870  1620.819
 871  1687.57
 872  1876.02
 873  1845.792
 874  1820.927
 875  1879.438
 876  1949.441
 877  1877.518
 878  1858.519
 879  1890.377
 880  2046.013
 881  2194.149
 882  2102.693
 883  1863.182
 884  1786.104
 885  1861.09
 886  1948.732
 887  2023.563
 888  2024.515
 889  1902.118
 890  1873.401
 891  1801.418
 892  1587.486
 893  1445.369
 894  1730.185
 895  2011.929
 896  2158.386
 897  1903.126
 898  1957.133
 899  1887.047
 900  1814.402
 901  2037.344
 902  2051.425
 903  2008.854
 904  1961.128
 905  2241.406
 906  2137.072
 907  1830.739
 908  1723.488
 909  1851.196
 910  1829.364
 911  1974.257
 912  2208.273
 913  2120.995
 914  1869.02
 915  2080.678
 916  2195.024
 917  2094.345
 918  2047.974
 919  2288.392
 920  2171.39
 921  1971.441
 922  1978.259
 923  2136.693
 924  1952.618
 925  1739.414
 926  1837.374
 927  1937.936
 928  1871.49
 929  1835.215
 930  1763.274
 931  1649.511
 932  1625.698
 933  1842.186
 934  1959.196
 935  1916.912
 936  2081.231
 937  1958.091
 938  2096.329
 939  2135.078
 940  2296.329
 941  2308.755
 942  2279.496
 943  2162.353
 944  1980.365
 945  1854.301
 946  2030.216
 947  2053.19
 948  2008.716
 949  1903.947
 950  1628.134
 951  1447.106
 952  1654.544
 953  1969.48
 954  2126.478
 955  2117.884
 956  2171.266
 957  1953.978
 958  1645.031
 959  1728.31
 960  1838.657
 961  1904.909
 962  1816.08
 963  2141.429
 964  2056.225
 965  1979.32
 966  2028.628
 967  2149.233
 968  1913.12
 969  1853.294
 970  1966.996
 971  1997.74
 972  1617.053
 973  1800.202
 974  1997.072
 975  2015.469
 976  1830.946
 977  2112.619
 978  2162.467
 979  2109.193
 980  2028.892
 981  2069.494
 982  1880.049
 983  1862.89
 984  2104.508
 985  2099.739
 986  2077.634
 987  1994.072
 988  2068.072
 989  1944.011
 990  1824.437
 991  1823.521
 992  1936.996
 993  1835.129
 994  1929.084
 995  1930.593
 996  2013.189
 997  1942.793
 998  1874.277
 999  1788.751
1000  1741.425
1001  1846.214
1002  1947.121
1003  2044.429
1004  2116.026
1005  2142.702
1006  2252.811
1007  2286.62
1008  2119.878
1009  1913.69
1010  1892.964
1011  2168.098
1012  2050.21
1013  1900.518
1014  1919.375
1015  1883.832
1016  1651.175
1017  1682.668
1018  1751.443
1019  1825.009
1020  1666.963
1021  1841.548
1022  1845.276
1023  1602.036
