# Input file       =  1188020427.116889_cleaned.dat
# Candidate        =  PSR_0332+5434
# Telescope        =  AR
# Epoch_topo       =  57994.236644871402
# Epoch_bary       =  N/A
# T_sample         =  0.002
# Data Folded      =  7340032
# Data Avg         =  0.0372590259503341
# Data StdDev      =  3.05188720905531 
# Profile Bins     =  256
# Profile Avg      =  1068.30781036109 
# Profile StdDev   =  516.770213413078 
# Reduced chi-sqr  =  1.215
# Prob(Noise)      <  0.0106   (~2.3 sigma)
# P_topo (ms)      =  714.463687221927  +/- 0.000512
# P'_topo (s/s)    =  -0                +/- 2.7e-10
# P''_topo (s/s^2) =  0                 +/- 1.19e-13
# P_bary (ms)      =  N/A
# P'_bary (s/s)    =  N/A
# P''_bary (s/s^2) =  N/A
# P_orb (s)        =  N/A
# asin(i)/c (s)    =  N/A
# eccentricity     =  N/A
# w (rad)          =  N/A
# T_peri           =  N/A
######################################################
   0  788.5901
   1  155.1711
   2  654.0702
   3  1182.103
   4  1319.515
   5  1044.921
   6  1290.864
   7  1673.348
   8  1051.294
   9  1178.605
  10  622.5721
  11  1360.561
  12  1008.335
  13  1760.035
  14  1842.501
  15  2189.537
  16  2091.655
  17  833.9076
  18  1048.072
  19  1211.033
  20  635.2141
  21  233.1715
  22  741.7032
  23  631.5099
  24  566.9597
  25  779.3952
  26  816.5226
  27  673.6922
  28  269.9987
  29  1062.136
  30  580.6713
  31  421.8059
  32  311.5559
  33  528.8018
  34  797.085
  35  1101.551
  36  1180.911
  37  743.9694
  38  -58.4263
  39  709.8318
  40  1158.854
  41  643.4373
  42  1003.416
  43  962.7257
  44  1589.953
  45  1535.211
  46  2093.616
  47  1194.459
  48  1348.428
  49  1968.099
  50  1582.303
  51  769.0939
  52  343.7844
  53  980.5661
  54  1448.286
  55  440.2947
  56  1371.539
  57  797.286
  58  1156.781
  59  1101.84
  60  973.5323
  61  807.9437
  62  1004.728
  63  1456.569
  64  845.1412
  65  892.1919
  66  670.4825
  67  1025.157
  68  1201.787
  69  1161.396
  70  1069.572
  71  895.9148
  72  724.5999
  73  1493.482
  74  856.3999
  75  1304.625
  76  925.9659
  77  1171.38
  78  1255.51
  79  1581.114
  80  1478.632
  81  684.8786
  82  1125.817
  83  923.3675
  84  723.5527
  85  1090.336
  86  1735.501
  87  1558.844
  88  1652.711
  89  1222.493
  90  483.048
  91  915.1788
  92  925.7005
  93  835.6609
  94  825.9921
  95  1549.236
  96  1309.842
  97  1265.403
  98  199.2339
  99  431.617
 100  828.1732
 101  1277.274
 102  567.2238
 103  1179.72
 104  1562.168
 105  630.2059
 106  849.3467
 107  654.5999
 108  735.4269
 109  968.9674
 110  1155.171
 111  742.0909
 112  1203.621
 113  775.3
 114  194.9634
 115  366.6064
 116  940.5801
 117  1460.735
 118  1196.491
 119  983.5956
 120  388.4298
 121  772.8675
 122  811.6472
 123  885.217
 124  1409.924
 125  722.1659
 126  1535.484
 127  792.0336
 128  1112.665
 129  915.64
 130  351.8763
 131  956.8384
 132  349.0489
 133  444.1567
 134  565.2234
 135  963.0376
 136  725.627
 137  1680.103
 138  1051.562
 139  1193.551
 140  847.1666
 141  1254.891
 142  626.9647
 143  933.4768
 144  1049.79
 145  1216.428
 146  1766.645
 147  686.0218
 148  1183.5
 149  1058.262
 150  883.5728
 151  522.6766
 152  640.7991
 153  1679.283
 154  1531.612
 155  1172.272
 156  1048.392
 157  1730.501
 158  814.0519
 159  1635.993
 160  2458.094
 161  3682.749
 162  3080.608
 163  2279.356
 164  2015.724
 165  2244.73
 166  1566.12
 167  2203.151
 168  2405.71
 169  1520.619
 170  1967.494
 171  1752.059
 172  1069.017
 173  1386.874
 174  951.6431
 175  421.6402
 176  1193.558
 177  983.5797
 178  1161.129
 179  874.8771
 180  719.5172
 181  782.9601
 182  1941.604
 183  1016.833
 184  874.2181
 185  1736.666
 186  1300.156
 187  1255.02
 188  1368.152
 189  870.8613
 190  1898.313
 191  974.5524
 192  771.0336
 193  706.825
 194  906.5684
 195  904.2762
 196  1728.929
 197  1969.958
 198  468.3149
 199  1312.641
 200  652.3162
 201  926.1105
 202  1220.986
 203  1047.888
 204  382.4987
 205  899.6454
 206  552.2822
 207  1356.272
 208  1191.368
 209  740.3083
 210  829.2928
 211  828.4163
 212  636.6855
 213  1014.263
 214  1072.593
 215  1013.626
 216  256.0553
 217  996.6501
 218  781.9537
 219  1625.895
 220  889.3732
 221  575.1052
 222  1277.716
 223  797.507
 224  1544.014
 225  1003.493
 226  800.9186
 227  544.7962
 228  39.08117
 229  1201.866
 230  905.8727
 231  607.5019
 232  710.9473
 233  1056.713
 234  1304.911
 235  810.7742
 236  1010.866
 237  360.9187
 238  1308.736
 239  1199.425
 240  1456.992
 241  425.3849
 242  1237.021
 243  1083.993
 244  1603.792
 245  1299.914
 246  1016.526
 247  1197.617
 248  1065.803
 249  1233.927
 250  825.0195
 251  1183.576
 252  752.5152
 253  981.2276
 254  861.5981
 255  1599.199
