# Input file       =  1188192762.121225_cleaned.dat
# Candidate        =  PSR_0332+5434
# Telescope        =  AR
# Epoch_topo       =  57996.231262977140
# Epoch_bary       =  N/A
# T_sample         =  0.002
# Data Folded      =  7340032
# Data Avg         =  0.00873852364418682
# Data StdDev      =  1.00003130278015 
# Profile Bins     =  512
# Profile Avg      =  125.264878121643 
# Profile StdDev   =  119.73678435368  
# Reduced chi-sqr  =  1.307
# Prob(Noise)      <  3.3e-06   (~4.5 sigma)
# P_topo (ms)      =  714.463752076173  +/- 0.000205
# P'_topo (s/s)    =  -0                +/- 1.08e-10
# P''_topo (s/s^2) =  0                 +/- 4.77e-14
# P_bary (ms)      =  N/A
# P'_bary (s/s)    =  N/A
# P''_bary (s/s^2) =  N/A
# P_orb (s)        =  N/A
# asin(i)/c (s)    =  N/A
# eccentricity     =  N/A
# w (rad)          =  N/A
# T_peri           =  N/A
######################################################
   0  525.5865
   1  500.0452
   2  496.48
   3  291.3647
   4  128.8365
   5  -31.17375
   6  -51.99171
   7  40.26008
   8  70.10444
   9  220.755
  10  166.1073
  11  -3.265375
  12  -21.12134
  13  81.74368
  14  82.84657
  15  61.72367
  16  156.2326
  17  198.9315
  18  167.0065
  19  83.55547
  20  154.414
  21  115.2886
  22  110.4663
  23  124.0269
  24  225.5403
  25  173.7559
  26  100.6571
  27  182.1178
  28  282.5468
  29  146.0163
  30  46.23306
  31  230.5728
  32  283.4094
  33  196.3148
  34  116.2227
  35  247.3023
  36  181.9824
  37  85.35213
  38  108.0098
  39  252.1773
  40  284.9171
  41  425.8897
  42  395.4826
  43  270.8456
  44  259.6071
  45  169.2205
  46  181.651
  47  179.7759
  48  175.5403
  49  149.3102
  50  105.5177
  51  167.6794
  52  134.7834
  53  80.3183
  54  113.9395
  55  198.126
  56  254.5541
  57  106.4043
  58  124.6864
  59  269.7317
  60  173.7019
  61  -5.86128
  62  -58.20587
  63  59.47704
  64  216.6109
  65  183.6784
  66  37.0138
  67  34.61785
  68  123.1333
  69  -23.55843
  70  -63.16658
  71  -29.98747
  72  95.17769
  73  16.31649
  74  124.1444
  75  98.29047
  76  111.7797
  77  39.11013
  78  72.20821
  79  66.73305
  80  -63.78413
  81  -21.75103
  82  93.14918
  83  67.44814
  84  79.7991
  85  122.7361
  86  -11.79756
  87  81.96783
  88  171.3637
  89  305.5242
  90  165.2152
  91  220.8987
  92  183.5272
  93  156.6167
  94  167.0248
  95  121.7976
  96  187.6209
  97  231.9916
  98  189.8445
  99  110.1909
 100  208.3865
 101  206.1183
 102  214.0431
 103  197.3512
 104  145.6775
 105  184.973
 106  256.0829
 107  291.2545
 108  284.1995
 109  203.39
 110  259.5686
 111  362.9391
 112  290.1109
 113  174.416
 114  102.3479
 115  119.4066
 116  117.48
 117  250.1296
 118  185.8149
 119  176.5682
 120  210.2319
 121  233.6983
 122  294.7973
 123  115.9767
 124  155.5052
 125  73.80843
 126  90.12066
 127  160.095
 128  150.3183
 129  111.4363
 130  83.77603
 131  66.51823
 132  -56.1107
 133  125.3927
 134  113.4819
 135  76.82225
 136  182.9662
 137  173.9246
 138  79.28296
 139  128.1063
 140  170.9124
 141  134.5735
 142  119.7999
 143  152.1279
 144  149.3026
 145  55.33105
 146  167.7592
 147  79.19604
 148  91.40049
 149  182.3442
 150  196.0632
 151  98.9745
 152  -12.49878
 153  -13.55191
 154  47.70086
 155  162.9808
 156  126.8839
 157  186.2323
 158  139.8287
 159  -51.68951
 160  68.60097
 161  86.11162
 162  85.63544
 163  2.825285
 164  119.2018
 165  224.0945
 166  38.14272
 167  -21.55615
 168  232.2871
 169  257.4744
 170  209.9375
 171  113.4085
 172  240.1475
 173  171.2842
 174  84.36401
 175  97.52108
 176  216.3639
 177  82.01104
 178  63.14022
 179  44.89528
 180  173.8993
 181  164.3553
 182  87.97548
 183  216.0889
 184  309.0925
 185  257.0128
 186  182.9409
 187  193.5887
 188  351.0362
 189  324.115
 190  190.9277
 191  134.0522
 192  261.7307
 193  139.656
 194  184.7417
 195  205.994
 196  88.48255
 197  -0.4654424
 198  208.6425
 199  260.8371
 200  113.5908
 201  138.5583
 202  229.3439
 203  81.69538
 204  30.17257
 205  80.49309
 206  56.88036
 207  14.40696
 208  -104.6729
 209  10.92334
 210  65.17447
 211  20.78209
 212  20.15024
 213  -94.46354
 214  -66.74335
 215  61.22131
 216  70.26295
 217  83.80779
 218  45.45316
 219  -42.55063
 220  10.46547
 221  80.91467
 222  -2.06237
 223  99.3708
 224  97.14826
 225  158.4375
 226  41.2898
 227  99.63736
 228  215.2455
 229  139.3953
 230  103.8038
 231  152.9813
 232  184.5811
 233  192.289
 234  95.97222
 235  99.73489
 236  189.2691
 237  48.46792
 238  119.6855
 239  147.9293
 240  38.08909
 241  16.19271
 242  69.80235
 243  82.80994
 244  84.73389
 245  -11.83481
 246  71.29821
 247  20.22797
 248  104.6267
 249  147.6318
 250  75.42587
 251  234.5817
 252  259.3935
 253  236.4315
 254  151.3104
 255  214.3796
 256  265.6964
 257  142.7592
 258  150.1638
 259  213.1667
 260  378.0991
 261  279.1587
 262  220.7845
 263  213.4648
 264  135.4652
 265  210.7634
 266  226.3562
 267  202.283
 268  213.9385
 269  112.1154
 270  79.88272
 271  94.86778
 272  224.1181
 273  245.5405
 274  123.2996
 275  37.3628
 276  115.5145
 277  -88.11598
 278  -28.64487
 279  8.036297
 280  41.45157
 281  71.09437
 282  50.14162
 283  1.176739
 284  3.757987
 285  -36.49089
 286  -38.37943
 287  36.88325
 288  -50.96972
 289  -34.37003
 290  31.57365
 291  -29.30511
 292  67.61086
 293  -50.2956
 294  -18.25998
 295  -45.61866
 296  -6.225022
 297  86.80114
 298  186.1464
 299  127.4405
 300  16.19962
 301  96.21279
 302  108.2435
 303  22.03509
 304  111.9417
 305  104.1816
 306  -15.61131
 307  -38.50101
 308  -7.991288
 309  147.23
 310  2.001101
 311  85.60984
 312  56.639
 313  194.0111
 314  138.2601
 315  90.42951
 316  17.19476
 317  -20.46548
 318  -6.332932
 319  -12.58966
 320  198.8662
 321  229.995
 322  45.42981
 323  13.67297
 324  163.5553
 325  119.6237
 326  119.2995
 327  164.2224
 328  163.3587
 329  194.3973
 330  287.865
 331  193.7349
 332  253.6064
 333  223.8576
 334  126.9852
 335  113.8483
 336  204.9183
 337  280.6081
 338  244.0069
 339  201.7866
 340  248.9137
 341  189.7496
 342  56.24517
 343  -2.608167
 344  82.6827
 345  136.9205
 346  197.5781
 347  214.2828
 348  164.7428
 349  127.4614
 350  142.8463
 351  3.652736
 352  0.8526189
 353  66.22554
 354  117.8543
 355  -13.078
 356  45.98667
 357  67.31057
 358  157.7082
 359  70.42023
 360  46.39681
 361  181.1775
 362  122.4775
 363  27.65035
 364  225.8304
 365  173.2678
 366  125.9395
 367  17.45714
 368  -11.75607
 369  52.30869
 370  87.6487
 371  65.2048
 372  123.7224
 373  10.9634
 374  64.82101
 375  51.60115
 376  19.03926
 377  180.0945
 378  33.82774
 379  -3.312037
 380  -129.9371
 381  -3.872407
 382  96.8495
 383  135.9953
 384  23.21391
 385  24.41283
 386  273.4484
 387  229.6936
 388  178.8679
 389  50.50693
 390  20.44454
 391  108.4815
 392  211.0298
 393  247.0369
 394  208.3632
 395  204.055
 396  234.9614
 397  128.9524
 398  10.51777
 399  129.2624
 400  -2.988458
 401  79.65863
 402  154.1496
 403  258.6642
 404  201.7831
 405  5.777583
 406  90.11513
 407  174.3585
 408  231.3507
 409  105.327
 410  79.7665
 411  93.84578
 412  90.47775
 413  97.31253
 414  87.25171
 415  94.13161
 416  180.9494
 417  19.67196
 418  29.16822
 419  128.4448
 420  108.3512
 421  96.48496
 422  4.155011
 423  -49.79039
 424  94.67656
 425  106.4624
 426  103.1093
 427  99.35635
 428  -10.57493
 429  -30.93321
 430  40.14545
 431  112.8737
 432  190.3472
 433  19.42881
 434  149.7802
 435  141.0359
 436  139.7498
 437  160.0553
 438  29.47515
 439  -66.95663
 440  40.66164
 441  46.15824
 442  12.11469
 443  -119.668
 444  -2.460364
 445  77.41935
 446  129.0946
 447  72.95369
 448  25.59784
 449  -3.283997
 450  124.7298
 451  118.0351
 452  51.07487
 453  125.4665
 454  81.883
 455  163.2256
 456  163.9446
 457  132.2655
 458  153.6676
 459  39.52885
 460  17.15013
 461  264.8558
 462  255.8088
 463  151.6006
 464  107.7848
 465  275.0333
 466  212.68
 467  125.154
 468  130.1931
 469  133.9447
 470  189.5416
 471  220.538
 472  66.40062
 473  234.6383
 474  160.8822
 475  72.03479
 476  195.0658
 477  290.2579
 478  191.5496
 479  185.944
 480  205.5556
 481  241.2672
 482  264.0492
 483  133.4898
 484  97.4924
 485  222.7602
 486  284.2136
 487  195.6667
 488  188.1376
 489  209.3047
 490  44.4155
 491  91.65091
 492  95.40117
 493  21.39781
 494  67.42742
 495  275.4979
 496  302.8109
 497  243.1702
 498  108.6966
 499  219.0624
 500  163.3921
 501  109.1695
 502  90.02619
 503  103.5561
 504  210.4317
 505  201.8791
 506  189.5553
 507  176.2008
 508  158.7265
 509  231.0446
 510  388.7203
 511  572.7346
