# Input file       =  1188623559.105416_cleaned.dat
# Candidate        =  PSR_0332+5434
# Telescope        =  AR
# Epoch_topo       =  58001.217339183058
# Epoch_bary       =  N/A
# T_sample         =  0.002
# Data Folded      =  7340032
# Data Avg         =  0.0540209662036172
# Data StdDev      =  3.59897453727628 
# Profile Bins     =  512
# Profile Avg      =  774.430019017136 
# Profile StdDev   =  430.916149190756 
# Reduced chi-sqr  =  1.291
# Prob(Noise)      <  9.23e-06   (~4.3 sigma)
# P_topo (ms)      =  714.464198288696  +/- 0.000295
# P'_topo (s/s)    =  -0                +/- 1.55e-10
# P''_topo (s/s^2) =  0                 +/- 6.86e-14
# P_bary (ms)      =  N/A
# P'_bary (s/s)    =  N/A
# P''_bary (s/s^2) =  N/A
# P_orb (s)        =  N/A
# asin(i)/c (s)    =  N/A
# eccentricity     =  N/A
# w (rad)          =  N/A
# T_peri           =  N/A
######################################################
   0  582.9982
   1  411.8365
   2  -6.813983
   3  441.9174
   4  573.0435
   5  687.3702
   6  808.2144
   7  305.9356
   8  695.6743
   9  1126.69
  10  720.2419
  11  192.9429
  12  466.0025
  13  479.4289
  14  477.1096
  15  156.5683
  16  534.9416
  17  271.2754
  18  680.0499
  19  754.1628
  20  386.1905
  21  44.40332
  22  243.8284
  23  426.6352
  24  380.3433
  25  377.3
  26  542.4573
  27  210.8633
  28  784.5312
  29  763.1602
  30  139.6283
  31  284.3166
  32  201.1429
  33  121.2403
  34  238.5849
  35  309.9694
  36  529.8517
  37  785.7667
  38  571.5663
  39  648.913
  40  178.1702
  41  175.5983
  42  -52.24786
  43  336.0043
  44  656.8914
  45  1092.055
  46  709.0411
  47  637.8788
  48  1042.205
  49  892.9843
  50  592.7451
  51  491.3128
  52  524.0195
  53  767.3752
  54  930.6041
  55  975.6751
  56  946.7417
  57  899.2811
  58  1162.935
  59  1279.496
  60  1094.752
  61  800.1754
  62  675.1061
  63  788.5597
  64  649.6914
  65  1001.199
  66  609.1146
  67  162.5312
  68  286.6432
  69  663.7139
  70  858.2045
  71  893.8139
  72  583.7827
  73  331.5621
  74  448.8799
  75  595.14
  76  542.0641
  77  276.4373
  78  375.3455
  79  531.8549
  80  903.6149
  81  175.7374
  82  251.7744
  83  546.8522
  84  540.6672
  85  447.1449
  86  670.2927
  87  303.0391
  88  252.8322
  89  505.4442
  90  635.243
  91  851.5537
  92  672.3509
  93  476.222
  94  821.3075
  95  344.1672
  96  708.8783
  97  818.8395
  98  1233.226
  99  1267.988
 100  865.4789
 101  560.7102
 102  258.395
 103  721.8068
 104  904.9244
 105  785.3299
 106  884.7938
 107  978.8052
 108  770.4236
 109  959.3221
 110  664.2705
 111  242.4414
 112  849.5729
 113  920.8262
 114  1289.237
 115  1080.862
 116  1402.905
 117  1086.186
 118  1135.757
 119  1300.693
 120  1074.63
 121  705.1507
 122  657.2153
 123  146.0424
 124  516.2773
 125  1084.399
 126  753.8704
 127  680.2499
 128  738.0054
 129  606.1732
 130  370.4739
 131  457.6184
 132  770.7463
 133  667.0286
 134  628.3325
 135  555.8007
 136  504.1187
 137  28.57496
 138  385.1761
 139  624.6185
 140  641.7281
 141  1175.607
 142  1150.109
 143  989.6873
 144  970.5936
 145  811.6703
 146  1050.798
 147  745.6149
 148  477.4153
 149  493.9595
 150  597.9271
 151  870.9003
 152  434.616
 153  244.199
 154  462.0291
 155  356.596
 156  592.6488
 157  905.5585
 158  118.1763
 159  434.7112
 160  723.7524
 161  821.8365
 162  536.5348
 163  653.6258
 164  961.5475
 165  942.7437
 166  1212.527
 167  686.2674
 168  614.9919
 169  758.1805
 170  1227.272
 171  1147.803
 172  809.3234
 173  989.2867
 174  1118.666
 175  969.6968
 176  744.0665
 177  994.3574
 178  850.3835
 179  804.3839
 180  789.9814
 181  960.2543
 182  968.5469
 183  1414.431
 184  1013.308
 185  705.3725
 186  1329.55
 187  1297.703
 188  1442.765
 189  890.1765
 190  1031.465
 191  895.6307
 192  1061.783
 193  609.5876
 194  1188.013
 195  1133.8
 196  1491.266
 197  924.5003
 198  404.631
 199  974.5406
 200  1095.983
 201  1389.75
 202  1875.844
 203  814.1765
 204  464.4569
 205  553.364
 206  323.1773
 207  866.11
 208  1142.256
 209  856.204
 210  509.5456
 211  954.1988
 212  876.8895
 213  930.4865
 214  799.8775
 215  785.9948
 216  1043.273
 217  847.8882
 218  919.7956
 219  782.2705
 220  625.4998
 221  635.282
 222  878.0311
 223  735.2233
 224  972.4348
 225  613.0624
 226  777.9998
 227  919.0593
 228  655.8144
 229  1107.469
 230  933.6626
 231  880.6845
 232  758.2263
 233  934.855
 234  1018.102
 235  1214.521
 236  1068.252
 237  1005.379
 238  457.0367
 239  347.9616
 240  941.634
 241  959.4415
 242  825.3599
 243  659.1225
 244  534.2081
 245  668.8484
 246  964.1842
 247  915.4089
 248  492.258
 249  524.8795
 250  415.5588
 251  1140.629
 252  1168.046
 253  830.7426
 254  784.4943
 255  948.9889
 256  1707.16
 257  1461.993
 258  937.6943
 259  435.8227
 260  840.9471
 261  830.7883
 262  995.324
 263  1044.04
 264  429.4165
 265  444.8885
 266  983.1352
 267  719.907
 268  519.8566
 269  904.4664
 270  937.0737
 271  924.4496
 272  858.2523
 273  522.7838
 274  738.9388
 275  744.1304
 276  798.3903
 277  1114.747
 278  1717.744
 279  1798.505
 280  1928.533
 281  2370.268
 282  2642.776
 283  2906.503
 284  2677.983
 285  2012.443
 286  851.5065
 287  829.129
 288  816.8284
 289  274.3405
 290  1020.901
 291  624.3272
 292  430.8715
 293  558.6674
 294  581.6211
 295  775.5897
 296  687.4175
 297  599.5037
 298  556.2713
 299  740.1438
 300  781.7615
 301  1073.332
 302  1105.387
 303  297.6213
 304  352.8617
 305  698.6314
 306  1032.882
 307  845.3432
 308  661.5538
 309  606.0577
 310  957.7754
 311  786.5795
 312  497.4341
 313  504.8683
 314  1197.03
 315  1076.98
 316  596.3614
 317  736.2084
 318  953.562
 319  1176.388
 320  1102.555
 321  855.6238
 322  1077.94
 323  683.5153
 324  675.8288
 325  1018.35
 326  986.4734
 327  1034.188
 328  563.116
 329  297.317
 330  671.8941
 331  411.2001
 332  650.8479
 333  405.4231
 334  694.2185
 335  1032.363
 336  977.2095
 337  352.7311
 338  267.646
 339  755.7932
 340  1164.668
 341  1153.823
 342  1339.13
 343  1231.337
 344  678.7537
 345  820.3065
 346  709.3445
 347  801.4617
 348  864.6055
 349  967.0025
 350  752.4649
 351  817.2888
 352  1178.504
 353  1175.224
 354  688.3346
 355  759.2634
 356  807.5637
 357  586.1871
 358  505.0346
 359  273.5018
 360  518.7719
 361  869.6694
 362  474.161
 363  505.8623
 364  582.4194
 365  958.4041
 366  924.5733
 367  800.4306
 368  1118.008
 369  674.9241
 370  676.5886
 371  786.3023
 372  295.3522
 373  87.85723
 374  352.5562
 375  369.3225
 376  575.2064
 377  796.7832
 378  608.0651
 379  505.0778
 380  830.3069
 381  1018.64
 382  1074.019
 383  843.0097
 384  824.3851
 385  746.4374
 386  899.3781
 387  1155.636
 388  1061.674
 389  752.4332
 390  310.7506
 391  442.9424
 392  821.1818
 393  1118.312
 394  987.5649
 395  1211.933
 396  794.4613
 397  501.8492
 398  594.5117
 399  1305.045
 400  551.0377
 401  488.2071
 402  883.2791
 403  517.2038
 404  696.6962
 405  1220.703
 406  1172.086
 407  1206.748
 408  1227.525
 409  1068.709
 410  984.1262
 411  398.2035
 412  504.9505
 413  902.2498
 414  788.9328
 415  1057.273
 416  1156.562
 417  791.7794
 418  1132.577
 419  979.7798
 420  607.1584
 421  588.8791
 422  285.1275
 423  294.5588
 424  755.9473
 425  826.2864
 426  917.5128
 427  1215.955
 428  941.269
 429  994.2929
 430  755.8114
 431  679.9705
 432  748.3655
 433  673.5924
 434  947.5117
 435  219.9523
 436  655.2437
 437  430.104
 438  282.2919
 439  824.2957
 440  1050.879
 441  703.8316
 442  563.8702
 443  793.4199
 444  730.3301
 445  805.894
 446  485.7953
 447  403.0459
 448  756.8657
 449  915.5639
 450  847.326
 451  870.7821
 452  565.8972
 453  934.918
 454  918.4728
 455  762.7178
 456  869.5828
 457  1257.399
 458  1092.009
 459  791.97
 460  966.4868
 461  664.6998
 462  1395.317
 463  1550.138
 464  1050.251
 465  1083.606
 466  1074.226
 467  701.2835
 468  833.7784
 469  550.2281
 470  554.8555
 471  734.3717
 472  632.5378
 473  675.9645
 474  1.399368
 475  650.9951
 476  798.882
 477  964.7661
 478  794.3478
 479  1087.84
 480  586.9948
 481  1290.552
 482  1293.788
 483  1183.383
 484  997.1258
 485  904.6089
 486  659.3305
 487  614.0787
 488  461.341
 489  472.355
 490  976.3682
 491  983.7701
 492  709.7931
 493  660.9471
 494  1037.918
 495  903.5797
 496  724.4599
 497  1026.853
 498  610.5031
 499  339.9355
 500  360.9647
 501  568.3406
 502  661.1165
 503  545.6125
 504  240.2398
 505  630.7006
 506  553.0364
 507  208.871
 508  644.5445
 509  801.1127
 510  812.155
 511  421.9187
