# Input file       =  1188867141.111164_cleaned.dat
# Candidate        =  PSR_0332+5434
# Telescope        =  AR
# Epoch_topo       =  58004.036575360697
# Epoch_bary       =  N/A
# T_sample         =  0.002
# Data Folded      =  7340032
# Data Avg         =  0.0262838699501506
# Data StdDev      =  2.55781567095166 
# Profile Bins     =  512
# Profile Avg      =  376.920430183022 
# Profile StdDev   =  306.255036775118 
# Reduced chi-sqr  =  1.181
# Prob(Noise)      <  0.00292   (~2.8 sigma)
# P_topo (ms)      =  714.464288717501  +/- 0.00014
# P'_topo (s/s)    =  -0                +/- 7.37e-11
# P''_topo (s/s^2) =  0                 +/- 3.25e-14
# P_bary (ms)      =  N/A
# P'_bary (s/s)    =  N/A
# P''_bary (s/s^2) =  N/A
# P_orb (s)        =  N/A
# asin(i)/c (s)    =  N/A
# eccentricity     =  N/A
# w (rad)          =  N/A
# T_peri           =  N/A
######################################################
   0  899.1296
   1  500.985
   2  344.4354
   3  150.7808
   4  146.3176
   5  400.3513
   6  542.7915
   7  349.7399
   8  115.6837
   9  407.0724
  10  680.9472
  11  114.5284
  12  78.48242
  13  134.9933
  14  76.98312
  15  447.2088
  16  346.2217
  17  406.1536
  18  -34.20894
  19  27.78574
  20  200.0144
  21  -250.7054
  22  57.89713
  23  334.2711
  24  521.6384
  25  386.2772
  26  331.177
  27  353.5222
  28  147.3045
  29  -36.13229
  30  138.0207
  31  243.6595
  32  255.817
  33  406.3476
  34  751.6882
  35  589.7926
  36  756.1376
  37  637.8843
  38  319.2309
  39  114.2365
  40  220.8027
  41  285.9494
  42  284.7655
  43  558.3229
  44  440.2075
  45  357.7903
  46  474.1247
  47  314.6479
  48  415.1273
  49  288.8418
  50  501.378
  51  598.0776
  52  642.3239
  53  326.0552
  54  639.6729
  55  550.2422
  56  552.8406
  57  653.4194
  58  272.2887
  59  321.6432
  60  336.8529
  61  499.9716
  62  431.7486
  63  297.9109
  64  150.8673
  65  98.40899
  66  553.4717
  67  734.6984
  68  496.1118
  69  497.2657
  70  822.783
  71  611.177
  72  449.0012
  73  177.8181
  74  595.3105
  75  608.7938
  76  590.5411
  77  597.1075
  78  557.9078
  79  933.1522
  80  745.1166
  81  677.5927
  82  328.9285
  83  528.1473
  84  705.9149
  85  420.7852
  86  484.1013
  87  287.2418
  88  125.8972
  89  206.6451
  90  857.5354
  91  712.1729
  92  556.5391
  93  479.963
  94  519.6008
  95  444.854
  96  360.6799
  97  304.301
  98  737.4575
  99  690.6268
 100  580.1757
 101  424.9659
 102  559.9401
 103  607.6187
 104  130.7823
 105  201.9399
 106  162.1641
 107  264.2763
 108  152.9984
 109  218.6062
 110  260.901
 111  402.5504
 112  113.5084
 113  363.1789
 114  651.7166
 115  544.0444
 116  580.2326
 117  487.5543
 118  584.5302
 119  603.2378
 120  260.7129
 121  116.0382
 122  417.859
 123  471.2133
 124  439.1182
 125  127.1044
 126  112.9935
 127  309.7512
 128  162.9788
 129  555.3376
 130  450.6748
 131  311.7817
 132  17.29556
 133  -107.7483
 134  66.88389
 135  165.9288
 136  508.3555
 137  314.9086
 138  139.6696
 139  84.69734
 140  71.09964
 141  45.46389
 142  -40.15876
 143  433.801
 144  512.3684
 145  498.425
 146  466.5551
 147  607.5202
 148  247.3968
 149  -84.80306
 150  38.9503
 151  66.0312
 152  20.16751
 153  532.5624
 154  693.3815
 155  733.0544
 156  345.3019
 157  184.5597
 158  53.70355
 159  396.5038
 160  174.0669
 161  596.7328
 162  788.1072
 163  875.0032
 164  708.7603
 165  454.5588
 166  428.6219
 167  451.2491
 168  468.2749
 169  277.133
 170  274.4426
 171  215.501
 172  123.0037
 173  282.0739
 174  199.918
 175  387.7553
 176  854.2537
 177  418.0605
 178  337.3788
 179  374.2932
 180  294.3894
 181  325.489
 182  371.2287
 183  416.4749
 184  417.1584
 185  -87.51167
 186  -231.4746
 187  -48.68343
 188  177.4664
 189  228.501
 190  341.0658
 191  480.8227
 192  684.3009
 193  514.5811
 194  556.1982
 195  336.8234
 196  129.0659
 197  402.4648
 198  273.9604
 199  278.6351
 200  133.9635
 201  191.7429
 202  313.6873
 203  476.5763
 204  331.9011
 205  242.2742
 206  80.06088
 207  631.0903
 208  808.8107
 209  700.2953
 210  179.3737
 211  145.7263
 212  33.84672
 213  389.6884
 214  527.3436
 215  329.6064
 216  423.183
 217  473.6799
 218  663.3043
 219  149.4764
 220  219.832
 221  -58.11253
 222  67.72049
 223  163.5302
 224  -132.1793
 225  -401.2552
 226  87.30886
 227  380.3137
 228  228.3577
 229  384.5717
 230  521.2857
 231  294.4572
 232  525.7019
 233  381.8073
 234  383.819
 235  222.6515
 236  558.8672
 237  379.5857
 238  131.9342
 239  73.98009
 240  115.6582
 241  271.5152
 242  350.9497
 243  665.2568
 244  391.8705
 245  378.9846
 246  410.2661
 247  398.4186
 248  256.1913
 249  88.06215
 250  344.6643
 251  598.3687
 252  459.4608
 253  255.4864
 254  236.2327
 255  81.87509
 256  97.88699
 257  277.5005
 258  445.3364
 259  145.559
 260  203.4891
 261  582.5363
 262  268.7897
 263  324.3892
 264  254.5587
 265  363.2188
 266  477.2436
 267  459.9957
 268  356.3344
 269  521.7402
 270  811.6403
 271  463.2005
 272  205.8448
 273  127.0656
 274  544.1673
 275  141.6007
 276  100.5885
 277  94.15163
 278  355.3996
 279  423.4343
 280  499.0575
 281  435.952
 282  445.1892
 283  230.0664
 284  153.8515
 285  341.6875
 286  432.9647
 287  484.3958
 288  206.6888
 289  505.3091
 290  504.9221
 291  110.3225
 292  120.6223
 293  169.1123
 294  570.3226
 295  182.1722
 296  467.2749
 297  646.3383
 298  532.6781
 299  362.7143
 300  265.9791
 301  568.7561
 302  596.0444
 303  375.5881
 304  824.2131
 305  818.7534
 306  465.2447
 307  562.1517
 308  429.7244
 309  373.7446
 310  27.47398
 311  254.5092
 312  701.402
 313  746.3613
 314  587.3274
 315  592.8571
 316  821.6949
 317  758.1968
 318  587.5373
 319  915.587
 320  1495.652
 321  1582.326
 322  1378.539
 323  963.9764
 324  1309.623
 325  918.401
 326  329.3362
 327  325.7843
 328  661.5714
 329  520.5801
 330  331.4042
 331  97.46384
 332  177.3446
 333  134.8489
 334  501.0802
 335  679.8554
 336  266.392
 337  136.5788
 338  271.3066
 339  274.4406
 340  33.98589
 341  -52.7207
 342  248.2016
 343  325.1466
 344  168.0735
 345  76.28374
 346  309.5315
 347  685.2828
 348  328.6228
 349  104.6784
 350  363.8409
 351  357.9386
 352  494.2186
 353  395.6108
 354  339.3411
 355  303.9202
 356  378.26
 357  212.8076
 358  214.249
 359  172.3721
 360  429.489
 361  423.4661
 362  370.8533
 363  410.648
 364  95.16332
 365  434.7499
 366  412.6777
 367  656.9051
 368  638.2155
 369  504.9697
 370  176.6616
 371  234.091
 372  518.3336
 373  562.5079
 374  436.7337
 375  534.1398
 376  319.6253
 377  -21.19401
 378  663.8592
 379  718.2538
 380  550.3267
 381  457.773
 382  86.65813
 383  -137.9529
 384  -185.7251
 385  49.14747
 386  100.8053
 387  383.834
 388  431.1015
 389  173.4866
 390  295.1968
 391  140.2484
 392  242.4914
 393  397.7238
 394  199.6549
 395  319.9681
 396  901.6473
 397  559.3671
 398  374.1699
 399  547.0219
 400  405.3829
 401  15.2626
 402  337.9842
 403  91.72489
 404  251.9263
 405  318.2847
 406  321.3541
 407  221.8574
 408  -123.8832
 409  91.60986
 410  543.8636
 411  534.8417
 412  729.9044
 413  325.302
 414  683.2885
 415  577.6514
 416  156.4174
 417  227.9573
 418  361.1489
 419  386.4891
 420  324.3697
 421  355.6009
 422  345.4442
 423  250.6031
 424  239.6905
 425  475.3954
 426  550.5491
 427  366.3795
 428  423.6867
 429  502.8
 430  421.0095
 431  319.1881
 432  468.688
 433  624.9992
 434  628.9582
 435  532.541
 436  505.5478
 437  790.1244
 438  677.9433
 439  513.7532
 440  440.3668
 441  663.4624
 442  593.5677
 443  526.2711
 444  300.769
 445  275.2591
 446  124.4902
 447  157.7147
 448  52.8576
 449  97.44638
 450  130.8518
 451  182.8943
 452  59.64947
 453  328.2176
 454  72.29096
 455  -12.51607
 456  196.5974
 457  472.6759
 458  613.8595
 459  340.6408
 460  665.1903
 461  834.0198
 462  418.2198
 463  53.96896
 464  43.12014
 465  203.6277
 466  337.8515
 467  410.1265
 468  264.6255
 469  527.8682
 470  620.7463
 471  541.2471
 472  204.61
 473  300.5625
 474  105.5275
 475  434.8522
 476  466.6614
 477  614.2079
 478  591.8965
 479  531.9272
 480  355.5856
 481  373.6997
 482  275.8029
 483  220.2165
 484  209.9191
 485  216.4766
 486  680.7394
 487  614.8754
 488  179.8043
 489  388.7921
 490  590.8788
 491  242.7993
 492  194.7251
 493  495.4659
 494  971.4087
 495  747.0171
 496  650.368
 497  315.7733
 498  12.4769
 499  193.042
 500  283.3049
 501  42.81023
 502  429.5884
 503  528.8885
 504  433.5359
 505  318.7626
 506  580.6005
 507  648.3989
 508  491.1519
 509  340.7756
 510  339.8533
 511  664.5958
