# Input file       =  1188623559.105416_cleaned.dat
# Candidate        =  PSR_0332+5434
# Telescope        =  AR
# Epoch_topo       =  58001.217339183058
# Epoch_bary       =  N/A
# T_sample         =  0.002
# Data Folded      =  7340032
# Data Avg         =  0.0130054099602073
# Data StdDev      =  0.999967398173998
# Profile Bins     =  512
# Profile Avg      =  186.438279684496 
# Profile StdDev   =  119.729132861147 
# Reduced chi-sqr  =  1.354
# Prob(Noise)      <  1.53e-07   (~5.1 sigma)
# P_topo (ms)      =  714.464197350167  +/- 0.000293
# P'_topo (s/s)    =  -0                +/- 1.55e-10
# P''_topo (s/s^2) =  0                 +/- 6.84e-14
# P_bary (ms)      =  N/A
# P'_bary (s/s)    =  N/A
# P''_bary (s/s^2) =  N/A
# P_orb (s)        =  N/A
# asin(i)/c (s)    =  N/A
# eccentricity     =  N/A
# w (rad)          =  N/A
# T_peri           =  N/A
######################################################
   0  816.8481
   1  796.341
   2  661.8888
   3  345.2637
   4  192.1747
   5  288.4247
   6  39.0997
   7  201.2855
   8  200.7737
   9  105.3053
  10  106.5578
  11  128.3354
  12  229.2762
  13  199.0059
  14  167.1948
  15  142.9404
  16  169.1333
  17  192.4342
  18  226.7332
  19  333.847
  20  128.3806
  21  37.20067
  22  111.9041
  23  211.5892
  24  241.5405
  25  208.8683
  26  152.1579
  27  253.0268
  28  210.3896
  29  161.0176
  30  48.14293
  31  249.4633
  32  300.0543
  33  192.8291
  34  157.3753
  35  237.1678
  36  288.2999
  37  270.6207
  38  193.9819
  39  210.0648
  40  230.2319
  41  100.1234
  42  222.4076
  43  237.919
  44  260.1051
  45  190.6131
  46  33.67528
  47  138.9364
  48  103.6063
  49  134.0718
  50  112.3096
  51  88.69125
  52  245.015
  53  277.4446
  54  105.5417
  55  39.25061
  56  93.74277
  57  274.972
  58  245.6119
  59  297.7396
  60  305.1047
  61  150.818
  62  164.321
  63  170.3552
  64  165.769
  65  222.5566
  66  240.4614
  67  195.4359
  68  170.2661
  69  229.3044
  70  336.1183
  71  190.8749
  72  134.6319
  73  174.7096
  74  148.9288
  75  106.4044
  76  94.26889
  77  60.39425
  78  249.2453
  79  178.5166
  80  84.2563
  81  143.9058
  82  165.9077
  83  279.2338
  84  169.0481
  85  302.1732
  86  187.008
  87  137.5954
  88  157.755
  89  121.7467
  90  -0.8999494
  91  75.18188
  92  88.76923
  93  108.9124
  94  176.2433
  95  162.6181
  96  107.9379
  97  169.2438
  98  246.5508
  99  244.7615
 100  199.3758
 101  177.4644
 102  216.3864
 103  174.8079
 104  272.0837
 105  268.2121
 106  220.7059
 107  61.85513
 108  37.61791
 109  127.003
 110  286.3949
 111  222.2882
 112  246.5773
 113  199.6568
 114  109.5593
 115  118.1173
 116  290.8779
 117  251.3702
 118  63.62581
 119  171.6422
 120  158.555
 121  53.81731
 122  269.3437
 123  290.1226
 124  315.5292
 125  313.0279
 126  267.1554
 127  287.5584
 128  130.9813
 129  78.86111
 130  192.1064
 131  185.0647
 132  213.8285
 133  354.7219
 134  200.4187
 135  228.9583
 136  272.6469
 137  107.703
 138  69.08406
 139  13.44809
 140  -3.803586
 141  158.1573
 142  238.2212
 143  198.188
 144  285.0745
 145  245.5673
 146  223.9225
 147  192.2441
 148  182.4739
 149  174.5432
 150  176.4453
 151  268.3326
 152  114.6055
 153  100.5137
 154  115.3963
 155  31.64495
 156  192.0164
 157  279.6688
 158  270.3226
 159  126.7614
 160  187.3762
 161  173.9023
 162  214.6429
 163  114.0847
 164  69.9922
 165  126.3092
 166  218.2333
 167  177.5335
 168  240.3422
 169  121.9141
 170  160.4758
 171  232.271
 172  163.8642
 173  209.9894
 174  283.118
 175  323.6595
 176  174.1011
 177  257.7682
 178  174.8718
 179  264.815
 180  459.3062
 181  348.4877
 182  274.2226
 183  301.1013
 184  195.9317
 185  194.6344
 186  200.4558
 187  107.6203
 188  167.612
 189  130.5198
 190  180.5192
 191  19.40349
 192  86.601
 193  218.7556
 194  233.5641
 195  204.0134
 196  237.0872
 197  168.5071
 198  211.6344
 199  328.7099
 200  288.3263
 201  269.6151
 202  261.8692
 203  197.1626
 204  141.8117
 205  92.85983
 206  41.27365
 207  189.5619
 208  284.656
 209  236.5131
 210  152.2365
 211  252.0305
 212  255.8643
 213  134.3261
 214  230.3834
 215  207.752
 216  112.8004
 217  71.84742
 218  109.7536
 219  159.2776
 220  109.4776
 221  7.93054
 222  118.3005
 223  173.7106
 224  100.2739
 225  100.285
 226  227.4656
 227  221.5534
 228  161.7155
 229  126.3137
 230  163.9564
 231  55.131
 232  70.33846
 233  151.0939
 234  143.8244
 235  225.8522
 236  69.46153
 237  105.8724
 238  278.0394
 239  272.4719
 240  64.11393
 241  64.43757
 242  97.14969
 243  100.3753
 244  57.99731
 245  67.97543
 246  91.20894
 247  78.14059
 248  233.5388
 249  103.9594
 250  10.25177
 251  -33.0661
 252  68.80326
 253  90.70305
 254  83.08292
 255  91.33849
 256  18.2559
 257  108.5965
 258  247.8332
 259  36.77084
 260  73.95846
 261  49.21151
 262  25.80395
 263  74.35388
 264  36.71603
 265  84.93939
 266  148.269
 267  113.2592
 268  168.063
 269  65.50756
 270  36.45718
 271  -4.760097
 272  50.8979
 273  136.0696
 274  253.0734
 275  229.7126
 276  61.86281
 277  203.0881
 278  219.1801
 279  183.5545
 280  134.955
 281  118.7563
 282  158.0904
 283  228.9372
 284  244.3369
 285  275.4948
 286  236.4492
 287  312.9035
 288  342.116
 289  336.7844
 290  275.3608
 291  174.4438
 292  219.2977
 293  149.6168
 294  229.6767
 295  218.567
 296  25.76452
 297  33.0099
 298  137.9732
 299  195.6904
 300  233.8442
 301  169.8706
 302  99.08174
 303  102.5866
 304  176.851
 305  168.3474
 306  77.87444
 307  113.6205
 308  113.0996
 309  224.2468
 310  100.4879
 311  12.07012
 312  60.21129
 313  150.7354
 314  95.96879
 315  164.8091
 316  106.818
 317  78.55211
 318  120.2862
 319  149.1505
 320  164.8501
 321  219.8751
 322  68.41427
 323  236.9172
 324  104.9261
 325  125.5508
 326  202.7511
 327  232.5284
 328  333.7258
 329  214.3427
 330  218.2968
 331  97.06902
 332  150.6283
 333  268.973
 334  199.1008
 335  186.556
 336  257.0099
 337  166.9254
 338  199.2653
 339  200.9127
 340  43.24097
 341  154.8816
 342  183.3733
 343  287.1304
 344  291.967
 345  359.4487
 346  321.4518
 347  284.8258
 348  348.4583
 349  301.6571
 350  158.2321
 351  163.8825
 352  35.76137
 353  46.26105
 354  250.8627
 355  188.7386
 356  110.5696
 357  171.3115
 358  132.7673
 359  66.47583
 360  87.3858
 361  145.8752
 362  174.1324
 363  136.8996
 364  93.80854
 365  155.8732
 366  16.45048
 367  92.09016
 368  179.9803
 369  141.2998
 370  232.4489
 371  309.5336
 372  250.3928
 373  230.1564
 374  195.3013
 375  220.7695
 376  258.997
 377  105.182
 378  114.4562
 379  139.9297
 380  232.4105
 381  178.8315
 382  14.27897
 383  55.83974
 384  77.61882
 385  86.30119
 386  229.3313
 387  42.00922
 388  -37.54459
 389  127.0551
 390  190.9765
 391  130.6839
 392  135.2474
 393  201.6163
 394  235.6846
 395  247.6276
 396  270.2563
 397  144.4945
 398  173.9495
 399  284.3596
 400  336.8381
 401  211.2426
 402  210.4995
 403  274.8619
 404  249.8409
 405  125.6981
 406  192.5856
 407  172.4555
 408  162.5219
 409  92.49361
 410  211.3094
 411  156.6701
 412  337.8084
 413  311.0728
 414  142.981
 415  275.6556
 416  271.1154
 417  360.1851
 418  253.7552
 419  231.4952
 420  234.7437
 421  200.8648
 422  166.7937
 423  184.8095
 424  267.1558
 425  313.9029
 426  330.233
 427  68.43442
 428  135.63
 429  250.8736
 430  275.6221
 431  453.9371
 432  314.3666
 433  68.88388
 434  141.7196
 435  38.83647
 436  115.8778
 437  274.4603
 438  233.6108
 439  100.7525
 440  171.3995
 441  212.1922
 442  227.5476
 443  204.0925
 444  153.9256
 445  246.3354
 446  236.8644
 447  252.7883
 448  241.5336
 449  153.2448
 450  138.947
 451  209.9738
 452  195.5555
 453  234.451
 454  182.6467
 455  164.9147
 456  242.4177
 457  145.2245
 458  198.2768
 459  255.5045
 460  190.1637
 461  195.7701
 462  203.9581
 463  224.1746
 464  278.1616
 465  288.3706
 466  257.5249
 467  171.0392
 468  63.64485
 469  209.4737
 470  290.07
 471  199.2233
 472  145.7909
 473  139.1051
 474  105.7055
 475  176.3909
 476  218.304
 477  174.4779
 478  121.9438
 479  108.178
 480  183.0046
 481  331.7935
 482  229.8745
 483  232.3585
 484  180.7353
 485  380.5245
 486  424.1141
 487  290.4322
 488  100.3128
 489  136.4708
 490  210.2693
 491  221.6496
 492  303.6139
 493  197.9301
 494  62.64967
 495  226.9196
 496  196.2734
 497  137.3918
 498  168.6135
 499  263.4614
 500  218.9274
 501  263.9924
 502  152.3621
 503  193.7721
 504  215.0524
 505  208.6527
 506  218.315
 507  339.0565
 508  492.7476
 509  520.7465
 510  658.8356
 511  729.1431
