# Input file       =  1188020427.116889_cleaned.dat
# Candidate        =  PSR_0332+5434
# Telescope        =  AR
# Epoch_topo       =  57994.236644871402
# Epoch_bary       =  N/A
# T_sample         =  0.002
# Data Folded      =  7340032
# Data Avg         =  0.0108777116389675
# Data StdDev      =  1.00001340973573 
# Profile Bins     =  512
# Profile Avg      =  155.947303856114 
# Profile StdDev   =  119.734641965142 
# Reduced chi-sqr  =  1.199
# Prob(Noise)      <  0.0013   (~3.0 sigma)
# P_topo (ms)      =  714.463687308994  +/- 0.000421
# P'_topo (s/s)    =  -0                +/- 2.22e-10
# P''_topo (s/s^2) =  0                 +/- 9.81e-14
# P_bary (ms)      =  N/A
# P'_bary (s/s)    =  N/A
# P''_bary (s/s^2) =  N/A
# P_orb (s)        =  N/A
# asin(i)/c (s)    =  N/A
# eccentricity     =  N/A
# w (rad)          =  N/A
# T_peri           =  N/A
######################################################
   0  73.41978
   1  130.4435
   2  105.4567
   3  86.88822
   4  197.2653
   5  101.5136
   6  76.84656
   7  171.9959
   8  121.4979
   9  181.4148
  10  174.597
  11  189.4288
  12  134.8587
  13  35.627
  14  35.85583
  15  184.41
  16  110.4732
  17  104.1827
  18  100.2444
  19  246.0448
  20  244.7549
  21  153.7193
  22  47.46186
  23  118.4645
  24  69.73512
  25  175.0469
  26  242.5246
  27  95.39732
  28  91.50968
  29  262.8174
  30  193.7686
  31  198.3522
  32  34.10033
  33  62.46601
  34  110.8687
  35  96.64783
  36  50.39473
  37  -33.34659
  38  5.297876
  39  182.6506
  40  222.041
  41  242.6503
  42  -1.604391
  43  73.03011
  44  127.6858
  45  93.09943
  46  80.24799
  47  105.3934
  48  273.4116
  49  247.6382
  50  165.5831
  51  129.4437
  52  43.65203
  53  151.0599
  54  178.1173
  55  60.96714
  56  -18.45848
  57  146.9326
  58  246.5506
  59  212.6734
  60  157.0207
  61  270.738
  62  156.7499
  63  -12.79782
  64  150.2547
  65  155.1264
  66  127.346
  67  65.93415
  68  312.8591
  69  250.8448
  70  245.3803
  71  271.0346
  72  127.0479
  73  196.5117
  74  115.4195
  75  145.7694
  76  229.2556
  77  76.27077
  78  215.2148
  79  145.7079
  80  232.0629
  81  132.8244
  82  52.75375
  83  144.7405
  84  238.9001
  85  -10.76979
  86  288.9076
  87  262.1022
  88  59.36942
  89  146.457
  90  169.6574
  91  253.5865
  92  254.8269
  93  199.8687
  94  -21.05796
  95  -7.42863
  96  26.77445
  97  132.7992
  98  69.30054
  99  216.3855
 100  179.9866
 101  145.3697
 102  219.7101
 103  170.3885
 104  193.2977
 105  198.575
 106  238.2167
 107  300.1852
 108  202.825
 109  163.4539
 110  170.1031
 111  220.201
 112  123.6486
 113  144.4166
 114  0.2917455
 115  217.5793
 116  171.8465
 117  162.7353
 118  226.468
 119  234.8385
 120  334.3291
 121  296.0374
 122  279.1783
 123  330.9586
 124  327.6058
 125  375.9579
 126  266.7446
 127  101.7463
 128  132.7526
 129  182.0174
 130  96.36784
 131  162.7053
 132  148.3976
 133  88.44432
 134  4.9296
 135  -26.20045
 136  47.51644
 137  59.66061
 138  157.7836
 139  137.4278
 140  12.53083
 141  65.39542
 142  132.0205
 143  102.3114
 144  143.117
 145  70.44473
 146  173.6627
 147  153.947
 148  19.20512
 149  -2.645645
 150  77.79027
 151  143.9747
 152  175.953
 153  106.4456
 154  66.38225
 155  52.75474
 156  79.52275
 157  36.52816
 158  14.56011
 159  -16.24236
 160  189.4874
 161  106.0968
 162  116.3094
 163  182.6391
 164  172.4617
 165  182.9434
 166  198.56
 167  115.284
 168  112.0376
 169  2.38908
 170  -82.79175
 171  55.56122
 172  209.006
 173  193.4395
 174  116.9907
 175  54.17918
 176  88.41099
 177  188.9481
 178  99.27425
 179  135.0059
 180  138.8436
 181  238.1236
 182  196.7382
 183  220.3814
 184  208.6586
 185  282.7068
 186  305.1829
 187  223.9448
 188  38.09976
 189  119.0972
 190  317.946
 191  348.623
 192  234.3521
 193  265.1808
 194  187.3535
 195  122.2746
 196  21.23133
 197  -20.52993
 198  34.62944
 199  103.5901
 200  222.2546
 201  300.8254
 202  65.59873
 203  76.65781
 204  39.71069
 205  216.6158
 206  211.2274
 207  119.5216
 208  97.32137
 209  149.2177
 210  229.2591
 211  226.7601
 212  43.50804
 213  112.8483
 214  243.4153
 215  176.1668
 216  0.7851103
 217  139.2548
 218  146.3278
 219  230.9697
 220  149.1938
 221  78.24008
 222  165.4153
 223  148.5842
 224  71.6609
 225  93.96544
 226  89.63705
 227  129.4947
 228  207.857
 229  205.6837
 230  113.0572
 231  120.9796
 232  251.2711
 233  170.7366
 234  140.2809
 235  170.452
 236  76.45408
 237  87.9006
 238  93.01387
 239  232.5128
 240  242.5334
 241  93.72578
 242  126.4589
 243  216.2982
 244  188.5114
 245  177.1366
 246  24.75047
 247  131.1819
 248  198.2653
 249  115.1626
 250  194.9353
 251  271.2766
 252  192.6454
 253  213.6369
 254  301.5286
 255  121.6667
 256  28.36571
 257  138.7408
 258  225.2854
 259  189.7588
 260  37.54765
 261  102.3811
 262  92.54926
 263  83.57535
 264  216.4704
 265  200.4054
 266  337.3599
 267  300.8361
 268  153.6126
 269  256.1729
 270  239.3043
 271  258.0237
 272  45.07597
 273  48.79699
 274  77.81016
 275  155.7053
 276  124.7849
 277  114.5204
 278  136.9679
 279  173.0719
 280  39.45895
 281  127.4584
 282  170.2571
 283  312.6774
 284  159.6143
 285  173.2861
 286  249.7128
 287  169.8038
 288  144.7821
 289  25.21158
 290  -26.66484
 291  3.558804
 292  90.62758
 293  98.86264
 294  126.2369
 295  212.8836
 296  168.938
 297  35.87309
 298  124.2469
 299  211.3004
 300  147.2252
 301  265.1591
 302  196.193
 303  87.89821
 304  63.68953
 305  111.5712
 306  97.75208
 307  88.98255
 308  102.3056
 309  90.40838
 310  79.27974
 311  167.9156
 312  75.64138
 313  111.1329
 314  235.6313
 315  91.13708
 316  72.11816
 317  141.918
 318  252.9302
 319  113.8008
 320  113.6147
 321  47.46397
 322  -30.5866
 323  -44.6296
 324  153.7503
 325  173.2985
 326  106.0957
 327  169.7842
 328  279.8929
 329  209.386
 330  117.0102
 331  94.42943
 332  131.6329
 333  100.6567
 334  25.83198
 335  136.1541
 336  116.1796
 337  70.49085
 338  203.1047
 339  128.4503
 340  95.83161
 341  301.5649
 342  115.8301
 343  71.0435
 344  151.7383
 345  280.0935
 346  143.2112
 347  88.91679
 348  123.7361
 349  161.8683
 350  178.4883
 351  158.7326
 352  21.17768
 353  10.15977
 354  37.08413
 355  161.9711
 356  111.1337
 357  41.54475
 358  11.87102
 359  51.86637
 360  31.93254
 361  105.0577
 362  47.34185
 363  94.72298
 364  152.3102
 365  54.52698
 366  124.8564
 367  285.3211
 368  171.1165
 369  111.8501
 370  197.8997
 371  264.9579
 372  100.2071
 373  124.8421
 374  156.2173
 375  201.3101
 376  165.1924
 377  84.10159
 378  114.2334
 379  125.7138
 380  180.1823
 381  160.1653
 382  144.2003
 383  171.0488
 384  219.0748
 385  290.541
 386  292.7021
 387  128.8761
 388  131.3602
 389  173.692
 390  159.6027
 391  156.8178
 392  225.7688
 393  114.3163
 394  179.4805
 395  87.98801
 396  27.70788
 397  54.4482
 398  170.015
 399  225.568
 400  299.0299
 401  278.4451
 402  171.1477
 403  172.9023
 404  226.1991
 405  202.8542
 406  147.0762
 407  275.8867
 408  309.8007
 409  132.2401
 410  94.60921
 411  239.9808
 412  348.4605
 413  376.185
 414  519.5049
 415  621.9656
 416  602.0713
 417  550.2068
 418  457.9117
 419  341.7406
 420  318.042
 421  236.2902
 422  385.7836
 423  372.0599
 424  223.7703
 425  154.8125
 426  328.8527
 427  346.3248
 428  316.964
 429  387.1865
 430  388.0344
 431  229.894
 432  269.0304
 433  303.8252
 434  257.0283
 435  288.0587
 436  239.1548
 437  160.8883
 438  97.02204
 439  181.7075
 440  252.8137
 441  179.3019
 442  62.20647
 443  75.40862
 444  77.60547
 445  231.9302
 446  131.7352
 447  180.6058
 448  127.6338
 449  178.3447
 450  143.7312
 451  157.5776
 452  50.77291
 453  122.8817
 454  33.71218
 455  35.37408
 456  131.451
 457  292.1812
 458  327.403
 459  164.7291
 460  110.9878
 461  131.9708
 462  77.74559
 463  194.6942
 464  324.5651
 465  181.9218
 466  233.5574
 467  147.4672
 468  221.547
 469  229.1317
 470  210.0995
 471  31.5327
 472  225.0539
 473  301.032
 474  327.3993
 475  125.7286
 476  164.4569
 477  93.81403
 478  101.7169
 479  104.624
 480  117.351
 481  137.6915
 482  126.549
 483  106.2624
 484  138.8032
 485  180.7957
 486  377.3273
 487  306.7777
 488  275.7316
 489  -15.03936
 490  102.1565
 491  132.7134
 492  230.0068
 493  71.99159
 494  85.22322
 495  129.4003
 496  102.8976
 497  174.5315
 498  156.3672
 499  156.8466
 500  128.4965
 501  -1.330695
 502  50.63343
 503  99.37767
 504  173.9498
 505  61.30002
 506  34.96267
 507  188.0977
 508  180.3768
 509  200.2151
 510  137.453
 511  110.5003
