# Input file       =  1188537430.114192_cleaned.dat
# Candidate        =  PSR_0332+5434
# Telescope        =  AR
# Epoch_topo       =  58000.220475858703
# Epoch_bary       =  N/A
# T_sample         =  0.002
# Data Folded      =  7340032
# Data Avg         =  0.0454589822745349
# Data StdDev      =  3.39504815411621 
# Profile Bins     =  1024
# Profile Avg      =  325.831594173555 
# Profile StdDev   =  287.438499356172 
# Reduced chi-sqr  =  1.102
# Prob(Noise)      <  0.0125   (~2.2 sigma)
# P_topo (ms)      =  714.464078574556  +/- 0.000176
# P'_topo (s/s)    =  -0                +/- 9.29e-11
# P''_topo (s/s^2) =  0                 +/- 4.1e-14
# P_bary (ms)      =  N/A
# P'_bary (s/s)    =  N/A
# P''_bary (s/s^2) =  N/A
# P_orb (s)        =  N/A
# asin(i)/c (s)    =  N/A
# eccentricity     =  N/A
# w (rad)          =  N/A
# T_peri           =  N/A
######################################################
   0  202.4772
   1  158.867
   2  164.0934
   3  146.5879
   4  332.9425
   5  483.245
   6  584.0079
   7  488.3111
   8  383.0973
   9  151.5188
  10  138.9651
  11  301.6233
  12  570.4968
  13  646.8618
  14  573.6488
  15  486.0346
  16  504.6864
  17  443.0409
  18  464.272
  19  391.5423
  20  476.9643
  21  555.6644
  22  474.4956
  23  342.1889
  24  389.7827
  25  534.2927
  26  638.0432
  27  637.337
  28  734.0889
  29  704.8032
  30  636.4567
  31  415.8783
  32  532.5156
  33  640.5609
  34  643.5082
  35  515.3611
  36  288.7519
  37  149.6313
  38  138.1766
  39  235.3287
  40  379.4358
  41  315.5039
  42  265.8112
  43  294.5563
  44  462.385
  45  551.1157
  46  467.4253
  47  394.7261
  48  262.3424
  49  189.2536
  50  84.73985
  51  160.2556
  52  127.2713
  53  110.4534
  54  68.76704
  55  -46.85198
  56  45.08285
  57  50.30986
  58  288.9994
  59  272.6249
  60  369.9131
  61  398.5732
  62  433.8669
  63  469.1663
  64  409.2729
  65  587.2933
  66  596.3355
  67  619.3249
  68  386.1745
  69  255.569
  70  256.6788
  71  278.6939
  72  229.4949
  73  133.1938
  74  324.2084
  75  455.8932
  76  619.3936
  77  557.1355
  78  541.1809
  79  511.5224
  80  427.3653
  81  412.16
  82  248.4317
  83  214.2469
  84  111.3732
  85  253.0935
  86  234.5021
  87  249.5378
  88  -34.52264
  89  -75.36186
  90  -41.10509
  91  164.7199
  92  339.6191
  93  243.7146
  94  247.4863
  95  203.4563
  96  276.8577
  97  236.6598
  98  200.5255
  99  179.1171
 100  211.8622
 101  351.7421
 102  438.3433
 103  491.1087
 104  514.949
 105  362.0507
 106  262.4108
 107  334.4574
 108  360.0949
 109  316.6193
 110  217.416
 111  328.3647
 112  363.3932
 113  312.2949
 114  169.9644
 115  190.9843
 116  278.0183
 117  324.8898
 118  244.2314
 119  92.62579
 120  194.3078
 121  334.7034
 122  244.6024
 123  157.5407
 124  186.7983
 125  332.845
 126  298.3631
 127  347.1036
 128  527.2005
 129  606.5392
 130  602.2213
 131  506.4178
 132  404.92
 133  242.2518
 134  39.0785
 135  39.35627
 136  177.1682
 137  340.2103
 138  244.7832
 139  194.9179
 140  201.4889
 141  187.1579
 142  108.1484
 143  167.1816
 144  379.3286
 145  500.7795
 146  439.8106
 147  461.0092
 148  295.3036
 149  244.7434
 150  174.2106
 151  294.8833
 152  561.2435
 153  566.1795
 154  523.3941
 155  460.8398
 156  395.2555
 157  414.0371
 158  285.4404
 159  275.145
 160  281.7361
 161  259.3686
 162  417.8454
 163  482.0939
 164  449.6952
 165  292.3656
 166  121.4115
 167  221.4941
 168  345.5045
 169  588.5607
 170  589.8177
 171  443.3086
 172  264.3675
 173  369.5945
 174  469.6058
 175  411.3341
 176  293.6378
 177  371.1801
 178  519.2445
 179  416.6665
 180  313.561
 181  368.0115
 182  449.8001
 183  233.396
 184  114.9953
 185  121.2721
 186  343.7688
 187  358.3563
 188  481.8889
 189  451.8376
 190  413.6952
 191  384.3075
 192  473.6831
 193  494.9194
 194  411.9821
 195  348.1697
 196  332.5045
 197  304.1172
 198  147.0052
 199  122.2174
 200  213.9571
 201  390.5672
 202  338.454
 203  123.788
 204  145.4942
 205  197.9139
 206  345.9756
 207  243.8167
 208  265.2666
 209  335.0976
 210  360.5957
 211  258.8969
 212  135.9305
 213  83.32171
 214  208.7611
 215  213.0678
 216  71.48389
 217  82.79887
 218  234.0736
 219  275.989
 220  204.1895
 221  148.2737
 222  316.4806
 223  193.6008
 224  196.1046
 225  160.2765
 226  272.4413
 227  245.062
 228  362.6074
 229  390.9897
 230  493.6399
 231  380.7697
 232  321.6552
 233  130.7361
 234  68.28552
 235  157.6017
 236  227.3154
 237  172.8286
 238  303.8943
 239  281.7024
 240  504.4576
 241  356.4777
 242  239.2042
 243  47.15703
 244  -4.754549
 245  176.8643
 246  352.2032
 247  418.8882
 248  389.8174
 249  179.907
 250  235.6298
 251  289.8414
 252  323.4102
 253  181.4806
 254  151.7547
 255  153.5496
 256  173.0665
 257  179.532
 258  185.0682
 259  66.85092
 260  -38.15334
 261  -82.06136
 262  29.46613
 263  131.5866
 264  190.713
 265  201.148
 266  403.1669
 267  460.5379
 268  494.9846
 269  384.4171
 270  145.6879
 271  38.83245
 272  101.6342
 273  330.4025
 274  366.8628
 275  338.051
 276  305.4617
 277  265.4323
 278  156.9834
 279  81.42725
 280  192.0521
 281  294.1299
 282  379.5521
 283  337.7969
 284  432.7463
 285  405.6958
 286  457.811
 287  397.8408
 288  371.2891
 289  156.0378
 290  45.62376
 291  38.31522
 292  161.7317
 293  177.5108
 294  226.7286
 295  400.271
 296  395.3799
 297  378.0262
 298  363.0736
 299  602.111
 300  610.0413
 301  467.2894
 302  254.3926
 303  280.1903
 304  434.9767
 305  551.8228
 306  502.7733
 307  548.1367
 308  644.8716
 309  642.4559
 310  558.8142
 311  360.0453
 312  317.5526
 313  270.45
 314  214.5004
 315  317.5535
 316  474.0774
 317  465.2482
 318  371.2389
 319  414.4474
 320  439.8907
 321  481.643
 322  396.5084
 323  526.274
 324  472.4193
 325  458.9581
 326  356.2109
 327  281.6613
 328  249.101
 329  333.2858
 330  299.1816
 331  139.8184
 332  154.207
 333  398.2216
 334  513.2198
 335  439.0522
 336  339.4246
 337  406.3159
 338  370.2871
 339  214.0251
 340  108.1783
 341  166.0071
 342  334.6974
 343  328.0656
 344  350.7394
 345  370.4167
 346  432.1581
 347  348.6344
 348  360.0638
 349  443.9042
 350  545.2884
 351  540.0149
 352  641.6342
 353  657.6866
 354  681.9786
 355  619.2279
 356  500.0932
 357  345.9221
 358  299.7759
 359  246.6406
 360  342.7317
 361  225.0482
 362  404.1683
 363  316.5598
 364  426.6767
 365  238.9518
 366  106.5302
 367  43.62992
 368  79.46408
 369  61.86202
 370  133.7296
 371  209.6772
 372  275.6926
 373  421.6417
 374  494.4691
 375  472.8907
 376  266.9101
 377  307.1803
 378  359.8265
 379  348.9576
 380  364.8212
 381  457.8148
 382  386.6479
 383  295.2807
 384  264.1844
 385  314.921
 386  266.5324
 387  318.0044
 388  401.8699
 389  407.7131
 390  371.3468
 391  371.5817
 392  374.5889
 393  334.8964
 394  364.9142
 395  455.1855
 396  498.5397
 397  443.5963
 398  368.1078
 399  320.9893
 400  279.5341
 401  263.5704
 402  373.5148
 403  283.644
 404  331.9573
 405  442.0355
 406  407.5417
 407  382.54
 408  331.6005
 409  456.8957
 410  394.8332
 411  166.8578
 412  117.7558
 413  98.74132
 414  222.1819
 415  161.0781
 416  123.6519
 417  241.1503
 418  479.3225
 419  583.9003
 420  440.2876
 421  471.2725
 422  350.3381
 423  366.4942
 424  156.3454
 425  141.3888
 426  124.0489
 427  180.2905
 428  230.1339
 429  312.1613
 430  469.3947
 431  528.319
 432  458.5287
 433  310.589
 434  297.0988
 435  387.0732
 436  382.7195
 437  292.9252
 438  230.7101
 439  349.834
 440  418.1048
 441  588.3932
 442  542.1617
 443  608.7416
 444  509.5461
 445  471.9233
 446  426.7118
 447  462.6847
 448  393.2847
 449  433.0598
 450  549.4533
 451  612.3743
 452  542.499
 453  402.9457
 454  624.7595
 455  646.3312
 456  645.3917
 457  433.0739
 458  279.9967
 459  239.9939
 460  407.5581
 461  466.1981
 462  443.9143
 463  379.6726
 464  512.8581
 465  569.4978
 466  521.7441
 467  443.8767
 468  271.2409
 469  202.2368
 470  286.0687
 471  343.685
 472  545.2425
 473  521.9874
 474  538.3855
 475  486.5132
 476  436.9792
 477  378.4207
 478  294.5228
 479  378.5522
 480  305.399
 481  140.3713
 482  116.4835
 483  354.5592
 484  372.7164
 485  271.5479
 486  199.141
 487  230.3596
 488  149.6877
 489  222.782
 490  187.5693
 491  347.3483
 492  445.7939
 493  659.2735
 494  603.079
 495  456.6471
 496  323.7924
 497  269.9785
 498  177.7071
 499  169.744
 500  135.8327
 501  262.5517
 502  47.72457
 503  -63.11575
 504  -50.02151
 505  309.4775
 506  478.6359
 507  336.5714
 508  208.6889
 509  185.1442
 510  99.81857
 511  -63.58334
 512  -159.1686
 513  -134.3031
 514  141.707
 515  358.2335
 516  423.7539
 517  207.5972
 518  100.2414
 519  135.2885
 520  421.6401
 521  431.1498
 522  447.5414
 523  324.123
 524  420.1877
 525  452.5268
 526  479.9121
 527  385.14
 528  345.3557
 529  371.8289
 530  394.7064
 531  377.9979
 532  386.9484
 533  401.4388
 534  440.3509
 535  367.4237
 536  318.6513
 537  366.8663
 538  399.3156
 539  363.1874
 540  175.759
 541  1.812468
 542  -74.86383
 543  0.256397
 544  43.44294
 545  245.1836
 546  87.05717
 547  230.1042
 548  371.4278
 549  601.4947
 550  471.6611
 551  357.6852
 552  266.212
 553  240.0154
 554  98.3588
 555  99.61239
 556  156.4628
 557  190.7065
 558  202.6849
 559  253.778
 560  343.2852
 561  365.4514
 562  318.95
 563  324.6477
 564  445.6869
 565  499.7039
 566  586.7438
 567  423.5774
 568  310.3531
 569  192.6397
 570  129.9487
 571  247.6257
 572  310.9144
 573  441.3893
 574  412.5516
 575  396.624
 576  308.4773
 577  250.0612
 578  214.9215
 579  263.0169
 580  383.6406
 581  368.5215
 582  258.6039
 583  62.85978
 584  76.83104
 585  187.8734
 586  317.2936
 587  523.2067
 588  606.7089
 589  550.5729
 590  391.695
 591  303.1862
 592  237.4383
 593  294.6288
 594  288.741
 595  327.4339
 596  113.612
 597  21.72961
 598  24.4396
 599  229.5318
 600  290.4303
 601  210.126
 602  192.4334
 603  238.8389
 604  386.2355
 605  493.5454
 606  560.9622
 607  511.0206
 608  282.9006
 609  311.7738
 610  182.917
 611  275.429
 612  227.2212
 613  306.1509
 614  159.7073
 615  207.1865
 616  306.2737
 617  427.4322
 618  387.1867
 619  337.2249
 620  462.8504
 621  502.8068
 622  465.3495
 623  209.3636
 624  140.909
 625  154.954
 626  238.4589
 627  304.8354
 628  296.1909
 629  226.2143
 630  333.1307
 631  446.6411
 632  568.4736
 633  470.9564
 634  517.3027
 635  420.6166
 636  435.0319
 637  557.8431
 638  679.6145
 639  823.4903
 640  946.2369
 641  1116.294
 642  1008.483
 643  797.1307
 644  759.8278
 645  808.4522
 646  793.2648
 647  770.8927
 648  876.5886
 649  929.3903
 650  676.4979
 651  422.9092
 652  362.5189
 653  524.9802
 654  502.6407
 655  366.5361
 656  198.4008
 657  244.3789
 658  323.8834
 659  232.4072
 660  362.2097
 661  539.19
 662  643.9858
 663  437.5683
 664  317.6096
 665  364.6224
 666  421.5419
 667  467.1986
 668  463.0172
 669  410.5187
 670  311.544
 671  352.8045
 672  206.8351
 673  182.4322
 674  172.4256
 675  250.0525
 676  221.3146
 677  341.9389
 678  368.7016
 679  313.2948
 680  224.4305
 681  272.9547
 682  332.3832
 683  213.3921
 684  132.67
 685  262.0467
 686  392.5488
 687  380.0606
 688  297.3551
 689  232.251
 690  201.7291
 691  48.95642
 692  163.9457
 693  353.1493
 694  378.6836
 695  266.3553
 696  181.4151
 697  115.0642
 698  145.4025
 699  357.5331
 700  396.3776
 701  357.6268
 702  296.9926
 703  290.4708
 704  264.4818
 705  208.9218
 706  250.098
 707  242.134
 708  327.0875
 709  445.4875
 710  413.1418
 711  298.155
 712  181.4985
 713  285.5127
 714  352.3185
 715  549.6401
 716  531.1628
 717  582.5721
 718  498.4992
 719  344.7892
 720  288.1285
 721  371.3375
 722  528.0216
 723  429.6911
 724  272.4405
 725  171.1628
 726  264.3499
 727  375.8865
 728  497.4343
 729  516.4821
 730  452.3139
 731  324.6581
 732  339.1059
 733  473.3174
 734  469.1543
 735  487.0853
 736  456.3125
 737  485.26
 738  391.6439
 739  396.2291
 740  323.4774
 741  398.7083
 742  417.5403
 743  556.0768
 744  376.3918
 745  280.1845
 746  314.6028
 747  410.5161
 748  560.316
 749  603.1705
 750  682.827
 751  513.8702
 752  470.136
 753  538.1163
 754  687.83
 755  595.4029
 756  390.6425
 757  328.2975
 758  355.3731
 759  407.9339
 760  326.2817
 761  351.0198
 762  449.6243
 763  605.8746
 764  598.1365
 765  522.6661
 766  385.4986
 767  342.8571
 768  319.8003
 769  313.1588
 770  233.1542
 771  170.7514
 772  288.5297
 773  258.7636
 774  180.8421
 775  132.9705
 776  185.2488
 777  319.9651
 778  303.0282
 779  228.0638
 780  227.0856
 781  209.1608
 782  362.3862
 783  506.5265
 784  680.2979
 785  801.1574
 786  639.816
 787  415.494
 788  175.6728
 789  36.83656
 790  61.16591
 791  291.8746
 792  503.9676
 793  438.4409
 794  260.695
 795  166.7813
 796  202.1396
 797  223.4875
 798  193.1197
 799  197.6961
 800  312.5411
 801  365.4872
 802  263.3575
 803  266.1449
 804  416.9759
 805  544.9667
 806  433.0491
 807  260.277
 808  66.39367
 809  76.92067
 810  162.3489
 811  300.7579
 812  242.4642
 813  78.53297
 814  -52.91941
 815  -33.1763
 816  170.9045
 817  183.1763
 818  164.4349
 819  91.56716
 820  261.2203
 821  222.6891
 822  200.0485
 823  73.10548
 824  66.74449
 825  70.13673
 826  101.5972
 827  187.9315
 828  225.1763
 829  306.5802
 830  250.5635
 831  294.2951
 832  302.0427
 833  301.8232
 834  193.4303
 835  235.826
 836  236.2338
 837  24.84354
 838  -148.6757
 839  -170.5357
 840  -4.346395
 841  139.8378
 842  245.0974
 843  259.3341
 844  213.362
 845  162.0631
 846  200.058
 847  57.42526
 848  29.35447
 849  -35.8331
 850  131.8588
 851  318.5931
 852  494.6657
 853  616.1622
 854  552.9052
 855  529.5168
 856  460.719
 857  525.2712
 858  560.2366
 859  641.8057
 860  590.3085
 861  504.4495
 862  359.9484
 863  321.0136
 864  197.9939
 865  197.5681
 866  257.0529
 867  409.2597
 868  444.398
 869  394.9811
 870  271.3567
 871  345.8411
 872  365.4481
 873  458.6369
 874  399.2983
 875  424.8908
 876  419.4864
 877  406.4666
 878  368.6306
 879  394.8888
 880  500.0123
 881  531.522
 882  488.0081
 883  374.7629
 884  335.277
 885  427.6564
 886  400.1615
 887  415.0238
 888  354.5572
 889  411.2903
 890  429.7336
 891  385.8367
 892  295.9517
 893  223.0941
 894  210.823
 895  429.2355
 896  572.1449
 897  671.1442
 898  409.5341
 899  375.715
 900  346.2394
 901  307.7222
 902  329.8539
 903  390.0861
 904  542.2209
 905  347.9007
 906  246.3426
 907  142.1822
 908  269.0132
 909  282.1087
 910  455.4182
 911  409.3115
 912  331.4743
 913  312.8857
 914  242.9393
 915  401.5241
 916  587.8302
 917  709.9852
 918  479.5397
 919  242.0033
 920  261.1873
 921  395.8499
 922  418.7484
 923  366.1369
 924  383.8224
 925  364.9197
 926  286.3454
 927  189.4161
 928  297.3145
 929  310.349
 930  397.6853
 931  394.7128
 932  410.0766
 933  403.0823
 934  168.6262
 935  65.70956
 936  109.6279
 937  226.3209
 938  227.2174
 939  66.00031
 940  -8.245536
 941  90.96684
 942  137.6242
 943  171.9068
 944  186.1572
 945  256.3974
 946  355.9735
 947  313.088
 948  601.7833
 949  675.0303
 950  656.0635
 951  328.5516
 952  150.1735
 953  -80.61909
 954  -113.1178
 955  -89.33413
 956  144.1018
 957  126.9854
 958  199.836
 959  211.5493
 960  473.2593
 961  403.0286
 962  345.9646
 963  224.2222
 964  339.8716
 965  310.3057
 966  183.1137
 967  -14.90196
 968  -138.562
 969  -14.73535
 970  142.2684
 971  287.9075
 972  345.0539
 973  379.9657
 974  383.2336
 975  286.9697
 976  291.4006
 977  284.6285
 978  308.4971
 979  144.5904
 980  161.1191
 981  120.2595
 982  143.115
 983  174.6494
 984  337.3989
 985  307.346
 986  182.6537
 987  197.7539
 988  172.155
 989  253.519
 990  63.31074
 991  130.0758
 992  218.794
 993  330.7355
 994  291.5615
 995  133.303
 996  185.8015
 997  196.1296
 998  214.1653
 999  181.3848
1000  290.8271
1001  439.5514
1002  492.9416
1003  371.7254
1004  235.8069
1005  221.4221
1006  253.0863
1007  247.8345
1008  73.76624
1009  157.1639
1010  268.147
1011  202.1356
1012  132.928
1013  196.257
1014  311.5448
1015  336.4325
1016  399.8355
1017  380.5197
1018  393.1115
1019  410.7003
1020  499.5539
1021  396.7917
1022  251.9972
1023  156.8768
