# Input file       =  1188335615.117973_cleaned.dat
# Candidate        =  PSR_0332+5434
# Telescope        =  AR
# Epoch_topo       =  57997.884654143207
# Epoch_bary       =  N/A
# T_sample         =  0.002
# Data Folded      =  7208960
# Data Avg         =  0.0671744268017142
# Data StdDev      =  3.30339286869445 
# Profile Bins     =  512
# Profile Avg      =  945.842629885411 
# Profile StdDev   =  391.977875121511 
# Reduced chi-sqr  =  0.858
# Prob(Noise)      <  0.991   (~0.0 sigma)
# P_topo (ms)      =  714.463507900276  +/- 9.05e-05
# P'_topo (s/s)    =  -0                +/- 4.86e-11
# P''_topo (s/s^2) =  0                 +/- 2.19e-14
# P_bary (ms)      =  N/A
# P'_bary (s/s)    =  N/A
# P''_bary (s/s^2) =  N/A
# P_orb (s)        =  N/A
# asin(i)/c (s)    =  N/A
# eccentricity     =  N/A
# w (rad)          =  N/A
# T_peri           =  N/A
######################################################
   0  980.5026
   1  911.8876
   2  1462.828
   3  1197.231
   4  577.1036
   5  586.8073
   6  640.7158
   7  510.3501
   8  974.9103
   9  743.3445
  10  659.5512
  11  800.7645
  12  666.6595
  13  863.7557
  14  935.8347
  15  746.9624
  16  841.3622
  17  956.9094
  18  1059.851
  19  972.7221
  20  919.0052
  21  685.7148
  22  475.8564
  23  649.8165
  24  1018.349
  25  1281.391
  26  950.1985
  27  988.9715
  28  1110.399
  29  798.1469
  30  780.131
  31  828.887
  32  711.3876
  33  1258.9
  34  1107.315
  35  933.7723
  36  736.6448
  37  757.1465
  38  1037.278
  39  432.4041
  40  308.7263
  41  484.3184
  42  837.0112
  43  979.1283
  44  815.7298
  45  724.7841
  46  813.9444
  47  925.1353
  48  566.8648
  49  919.9918
  50  1347.926
  51  1146.626
  52  935.9173
  53  1058.402
  54  987.957
  55  827.9432
  56  620.041
  57  787.3023
  58  761.3475
  59  853.4078
  60  1014.708
  61  813.7786
  62  895.3286
  63  652.1588
  64  625.2324
  65  650.0556
  66  795.8932
  67  605.0532
  68  1144.03
  69  1357.143
  70  1009.886
  71  720.7254
  72  811.5259
  73  926.5999
  74  691.9373
  75  589.4809
  76  708.1328
  77  810.5449
  78  893.1464
  79  677.5413
  80  524.7745
  81  619.8937
  82  969.6909
  83  859.2791
  84  969.6467
  85  782.572
  86  1003.312
  87  810.2059
  88  990.2914
  89  1111.323
  90  718.7989
  91  885.1588
  92  880.0264
  93  699.4648
  94  408.2569
  95  554.4288
  96  442.3544
  97  671.1324
  98  891.6387
  99  739.3116
 100  648.6273
 101  817.8314
 102  1267.348
 103  1231.468
 104  387.7605
 105  709.9767
 106  960.426
 107  931.423
 108  941.7931
 109  1049.135
 110  801.4198
 111  979.3258
 112  1285.091
 113  1062.421
 114  910.0466
 115  1212.588
 116  1192.689
 117  993.0327
 118  967.2031
 119  799.3412
 120  901.492
 121  840.1473
 122  778.7502
 123  491.2695
 124  818.2478
 125  992.7086
 126  1303.241
 127  1149.371
 128  1047.063
 129  1129.957
 130  960.4953
 131  1043.998
 132  1149.038
 133  1258.918
 134  1170.161
 135  1077.839
 136  1046.502
 137  791.7667
 138  729.179
 139  890.8303
 140  1252.116
 141  1059.522
 142  1262.17
 143  1129.057
 144  804.1235
 145  914.314
 146  939.0764
 147  710.2912
 148  1181.051
 149  1348.636
 150  1286.479
 151  887.1933
 152  694.6448
 153  1073.371
 154  1182.282
 155  1263.542
 156  862.0156
 157  650.9231
 158  811.0457
 159  879.1672
 160  742.6398
 161  939.662
 162  928.8917
 163  1060.663
 164  1337.469
 165  1139.116
 166  718.8266
 167  925.285
 168  963.853
 169  946.0758
 170  757.9226
 171  970.5357
 172  1049.841
 173  903.6127
 174  1140.364
 175  1347.647
 176  1397.747
 177  865.7484
 178  759.5044
 179  1000.455
 180  775.1927
 181  704.5566
 182  797.8398
 183  845.3015
 184  1277.096
 185  693.8956
 186  709.3245
 187  781.14
 188  376.5026
 189  274.5897
 190  419.8393
 191  705.3237
 192  1140.145
 193  1115.258
 194  776.5577
 195  786.7603
 196  1170.725
 197  809.0002
 198  829.1207
 199  904.6446
 200  920.9559
 201  709.7283
 202  954.1727
 203  904.14
 204  718.8837
 205  808.0302
 206  966.8405
 207  908.1465
 208  921.9753
 209  919.6511
 210  845.0505
 211  859.1469
 212  547.8554
 213  967.7951
 214  1203.249
 215  910.1107
 216  1223.832
 217  1162.556
 218  1413.924
 219  1167.993
 220  949.39
 221  713.0712
 222  408.501
 223  852.5654
 224  1038.544
 225  1144.31
 226  986.9435
 227  992.5154
 228  811.7489
 229  1069.15
 230  1027.394
 231  1126.555
 232  1122.465
 233  1247.334
 234  1172.935
 235  873.2443
 236  839.6431
 237  925.1417
 238  1120.143
 239  922.0312
 240  1043.497
 241  1031.406
 242  1064.289
 243  1022.166
 244  994.7978
 245  898.9691
 246  820.1805
 247  823.2479
 248  722.6018
 249  916.9979
 250  1128.536
 251  1261.66
 252  995.6646
 253  696.6366
 254  811.8541
 255  953.849
 256  821.0891
 257  590.5887
 258  1134.02
 259  1062.951
 260  744.3497
 261  710.3702
 262  993.4861
 263  844.5104
 264  689.3571
 265  599.3743
 266  782.327
 267  597.1498
 268  569.1322
 269  1083.971
 270  831.6573
 271  837.6085
 272  329.1118
 273  428.6098
 274  605.8267
 275  623.6976
 276  980.6431
 277  685.274
 278  743.9825
 279  1003.214
 280  1001.337
 281  750.0226
 282  993.9193
 283  1240.399
 284  1323.948
 285  1253.09
 286  635.5178
 287  834.0533
 288  743.8719
 289  383.8365
 290  1039.068
 291  1227.483
 292  881.8258
 293  838.697
 294  570.7178
 295  562.8608
 296  948.8655
 297  914.915
 298  1098.603
 299  1058.967
 300  1174.388
 301  844.6656
 302  785.9599
 303  1075.418
 304  942.5887
 305  1287.434
 306  1554.906
 307  1297.221
 308  1082.109
 309  1212.951
 310  1257.79
 311  877.9116
 312  1078.016
 313  1163.967
 314  1233.071
 315  1313.501
 316  1124.195
 317  1192.167
 318  1357.003
 319  1688.911
 320  1768.491
 321  1992.887
 322  2540.994
 323  2443.05
 324  2116.515
 325  1820.829
 326  1388.286
 327  1172.179
 328  878.1083
 329  1118.997
 330  1268.26
 331  999.0205
 332  1110.329
 333  1313.256
 334  1537.447
 335  1067.205
 336  975.4816
 337  862.7435
 338  933.9418
 339  1103.445
 340  1119.325
 341  1131.045
 342  1057.021
 343  1122.999
 344  1046.617
 345  900.0924
 346  711.0906
 347  992.6898
 348  1074.747
 349  1079.341
 350  1090.682
 351  879.6447
 352  532.3571
 353  562.47
 354  834.1935
 355  759.843
 356  699.5104
 357  931.1943
 358  979.6615
 359  1103.856
 360  1055.51
 361  954.7586
 362  1009.127
 363  1106.956
 364  1339.374
 365  1271.472
 366  1164.378
 367  944.7864
 368  817.8333
 369  1109.234
 370  825.559
 371  597.139
 372  595.7668
 373  662.0093
 374  1118.994
 375  991.313
 376  1045.522
 377  1078.072
 378  1101.193
 379  909.8016
 380  1065.907
 381  1242.891
 382  986.1089
 383  862.626
 384  861.723
 385  723.2659
 386  781.2328
 387  830.8642
 388  1048.613
 389  974.8077
 390  1134.4
 391  1057.936
 392  763.9512
 393  968.7536
 394  891.4261
 395  735.4006
 396  949.7914
 397  945.5483
 398  1136.845
 399  1147.096
 400  989.7967
 401  845.5121
 402  1022.389
 403  1316.068
 404  981.1216
 405  914.1115
 406  1188.909
 407  1476.076
 408  1270.35
 409  1004.001
 410  1331.376
 411  1395.306
 412  1091.167
 413  1060.062
 414  1492.164
 415  1244.027
 416  915.2521
 417  888.8198
 418  930.6638
 419  534.8118
 420  863.8211
 421  873.5181
 422  996.3838
 423  834.3964
 424  1186.187
 425  1129.253
 426  1009.142
 427  855.7539
 428  375.5873
 429  825.2849
 430  786.7932
 431  764.4188
 432  1032.464
 433  1151.74
 434  1051.122
 435  724.4229
 436  470.1873
 437  571.8527
 438  904.1311
 439  891.8574
 440  978.8338
 441  1341.272
 442  1208.294
 443  862.9478
 444  959.8615
 445  926.4199
 446  395.9014
 447  537.5778
 448  874.1183
 449  990.8422
 450  908.7701
 451  833.3792
 452  895.1799
 453  852.0413
 454  900.3227
 455  1085.977
 456  1037.631
 457  748.8277
 458  758.0399
 459  819.5419
 460  815.9531
 461  889.1894
 462  874.606
 463  1070.642
 464  1258.707
 465  1472.741
 466  1071.69
 467  1018.279
 468  880.9046
 469  592.0084
 470  481.8786
 471  421.7003
 472  892.6696
 473  1153.415
 474  1528.377
 475  1045.112
 476  1109.514
 477  949.9907
 478  943.7603
 479  976.6911
 480  1306.627
 481  1415.851
 482  1179.555
 483  1119.181
 484  970.4342
 485  909.5958
 486  846.7339
 487  906.1954
 488  858.8925
 489  900.3232
 490  906.16
 491  1146.277
 492  1305.221
 493  830.6022
 494  708.2386
 495  753.8346
 496  1092.084
 497  961.3232
 498  1189.343
 499  1217.119
 500  840.0074
 501  928.3343
 502  624.3875
 503  702.3956
 504  938.6151
 505  844.2394
 506  827.9378
 507  880.6641
 508  629.5708
 509  780.9363
 510  821.9537
 511  966.2009
