# Input file       =  1188278963.107433_cleaned.dat
# Candidate        =  PSR_0332+5434
# Telescope        =  AR
# Epoch_topo       =  57997.228959576772
# Epoch_bary       =  N/A
# T_sample         =  0.002
# Data Folded      =  7340032
# Data Avg         =  0.0358072539498347
# Data StdDev      =  3.26188128797679 
# Profile Bins     =  1024
# Profile Avg      =  256.709657197847 
# Profile StdDev   =  276.164054214453 
# Reduced chi-sqr  =  1.201
# Prob(Noise)      <  9.07e-06   (~4.3 sigma)
# P_topo (ms)      =  714.463811356324  +/- 0.000121
# P'_topo (s/s)    =  -0                +/- 6.38e-11
# P''_topo (s/s^2) =  0                 +/- 2.81e-14
# P_bary (ms)      =  N/A
# P'_bary (s/s)    =  N/A
# P''_bary (s/s^2) =  N/A
# P_orb (s)        =  N/A
# asin(i)/c (s)    =  N/A
# eccentricity     =  N/A
# w (rad)          =  N/A
# T_peri           =  N/A
######################################################
   0  460.3572
   1  313.2305
   2  276.0541
   3  159.4814
   4  170.9842
   5  187.8788
   6  275.9049
   7  299.6986
   8  371.671
   9  382.0643
  10  290.4805
  11  128.1575
  12  -67.65051
  13  -72.31091
  14  -67.50246
  15  92.59529
  16  213.2227
  17  287.6755
  18  179.1062
  19  141.2267
  20  149.1652
  21  205.9785
  22  154.481
  23  154.1822
  24  202.1023
  25  142.1565
  26  152.676
  27  196.6586
  28  102.7137
  29  -28.63316
  30  95.61748
  31  256.6642
  32  348.7129
  33  229.693
  34  154.2753
  35  106.8897
  36  92.93276
  37  180.1502
  38  195.9632
  39  258.0451
  40  202.5934
  41  72.51669
  42  45.13814
  43  75.34888
  44  49.96555
  45  -224.9904
  46  -287.7715
  47  -207.4457
  48  20.44729
  49  86.33541
  50  92.59503
  51  156.0306
  52  387.1241
  53  447.2104
  54  287.6637
  55  119.5009
  56  14.47051
  57  16.91812
  58  20.92999
  59  111.2145
  60  78.33822
  61  113.4782
  62  201.26
  63  370.7495
  64  355.2646
  65  380.1924
  66  377.1113
  67  281.4482
  68  129.255
  69  92.43006
  70  132.9282
  71  247.2225
  72  181.3533
  73  254.4338
  74  181.3804
  75  127.1681
  76  138.1801
  77  80.54327
  78  144.9229
  79  128.2341
  80  309.4393
  81  342.0953
  82  384.9124
  83  483.2958
  84  614.0692
  85  558.2089
  86  328.6674
  87  179.1621
  88  153.5272
  89  123.0562
  90  16.91128
  91  6.176716
  92  68.12367
  93  106.7295
  94  67.88654
  95  170.9404
  96  227.6264
  97  269.2525
  98  142.4765
  99  28.66674
 100  62.91382
 101  67.23344
 102  169.2456
 103  268.9897
 104  121.0062
 105  45.47737
 106  7.052678
 107  215.7755
 108  142.8187
 109  194.1029
 110  3.887468
 111  41.26441
 112  11.16322
 113  178.7729
 114  150.6029
 115  110.8422
 116  169.646
 117  232.3954
 118  302.2279
 119  178.4471
 120  364.2508
 121  414.0359
 122  520.1895
 123  473.0109
 124  310.6052
 125  141.0525
 126  -30.04491
 127  192.4064
 128  311.664
 129  426.3332
 130  490.505
 131  461.8641
 132  380.2722
 133  201.7864
 134  134.9979
 135  217.8432
 136  352.4716
 137  440.0507
 138  397.4524
 139  484.7157
 140  407.1576
 141  313.7496
 142  217.5283
 143  177.0695
 144  148.5528
 145  49.23454
 146  224.3287
 147  241.621
 148  381.4127
 149  316.6173
 150  394.2518
 151  389.6278
 152  395.6864
 153  338.6335
 154  258.0556
 155  81.22037
 156  39.0617
 157  -35.88132
 158  48.8454
 159  134.5745
 160  309.5345
 161  413.162
 162  483.6811
 163  462.2328
 164  403.1576
 165  427.1874
 166  338.1688
 167  354.2416
 168  369.6895
 169  544.758
 170  358.605
 171  269.0901
 172  220.0771
 173  254.7146
 174  193.4423
 175  147.3847
 176  219.3159
 177  256.291
 178  274.9793
 179  218.2289
 180  257.6302
 181  346.8676
 182  307.6991
 183  210.6212
 184  106.6424
 185  104.5866
 186  177.798
 187  178.7705
 188  231.3639
 189  344.3961
 190  345.9185
 191  266.7829
 192  38.97131
 193  -17.07642
 194  26.34634
 195  84.22446
 196  193.1164
 197  156.0531
 198  183.4531
 199  114.4059
 200  93.62413
 201  -8.974577
 202  78.62853
 203  92.94371
 204  315.7293
 205  264.2653
 206  270.2235
 207  342.5346
 208  507.2064
 209  423.6041
 210  68.5992
 211  -102.5976
 212  -159.1432
 213  -36.62049
 214  35.45115
 215  188.9706
 216  240.3691
 217  347.6206
 218  243.3239
 219  185.4747
 220  102.708
 221  127.9496
 222  113.1
 223  142.4663
 224  108.0585
 225  73.90263
 226  85.2531
 227  132.5262
 228  257.1617
 229  294.5587
 230  297.6035
 231  159.0075
 232  105.8488
 233  180.5174
 234  110.4232
 235  133.5456
 236  136.5893
 237  193.2203
 238  -13.54569
 239  -106.3175
 240  22.81992
 241  197.9199
 242  294.3401
 243  208.0802
 244  200.9474
 245  274.1819
 246  357.2212
 247  275.5024
 248  205.3331
 249  172.4658
 250  223.9016
 251  126.0732
 252  83.51853
 253  62.54787
 254  97.50671
 255  157.9258
 256  298.674
 257  370.8236
 258  354.9804
 259  187.3243
 260  192.0806
 261  236.872
 262  200.0707
 263  210.1403
 264  73.67851
 265  163.3813
 266  125.0438
 267  187.9832
 268  126.1641
 269  92.48666
 270  303.7193
 271  490.582
 272  657.1442
 273  600.9757
 274  513.1763
 275  471.9265
 276  353.7852
 277  401.8805
 278  413.7387
 279  450.6877
 280  360.0546
 281  342.6907
 282  372.073
 283  213.1179
 284  121.4961
 285  228.6396
 286  482.608
 287  434.7812
 288  256.6572
 289  125.7329
 290  255.581
 291  282.3108
 292  319.7773
 293  208.1567
 294  382.2353
 295  305.1722
 296  294.23
 297  174.1324
 298  360.0911
 299  452.3207
 300  597.087
 301  587.8409
 302  565.0237
 303  492.1458
 304  321.2015
 305  313.0089
 306  238.0645
 307  301.582
 308  274.3214
 309  351.2135
 310  328.4896
 311  192.5244
 312  170.4455
 313  135.5964
 314  260.5674
 315  343.4265
 316  255.8269
 317  252.7457
 318  291.9756
 319  485.5926
 320  570.7618
 321  371.597
 322  195.7497
 323  117.842
 324  151.0244
 325  129.0797
 326  159.2124
 327  264.7599
 328  400.5432
 329  371.1491
 330  324.8503
 331  430.1263
 332  432.5009
 333  446.4956
 334  299.9688
 335  330.7642
 336  263.6775
 337  149.4204
 338  125.2017
 339  199.9415
 340  270.3086
 341  215.3981
 342  176.1463
 343  213.1305
 344  362.5545
 345  438.5549
 346  390.2495
 347  362.8994
 348  387.2242
 349  364.391
 350  226.7364
 351  130.7216
 352  188.6295
 353  364.9093
 354  485.2862
 355  499.993
 356  299.1949
 357  64.06068
 358  -40.18715
 359  -14.53102
 360  84.71095
 361  65.43528
 362  120.04
 363  233.589
 364  538.7164
 365  589.0034
 366  585.3284
 367  323.203
 368  437.3164
 369  528.6734
 370  654.9658
 371  609.501
 372  528.2603
 373  359.5298
 374  224.7625
 375  157.7259
 376  252.0348
 377  241.4487
 378  308.5786
 379  318.9794
 380  340.612
 381  223.5383
 382  164.2902
 383  179.1846
 384  348.8662
 385  329.9251
 386  209.7657
 387  122.0699
 388  247.1274
 389  407.8343
 390  497.4448
 391  267.9694
 392  339.2298
 393  239.5769
 394  383.0245
 395  322.946
 396  534.7404
 397  419.3272
 398  446.978
 399  447.2665
 400  666.2305
 401  662.2529
 402  657.0952
 403  532.3915
 404  440.3942
 405  319.8401
 406  264.3568
 407  356.1776
 408  531.7269
 409  577.4154
 410  341.8877
 411  248.1919
 412  250.1025
 413  411.4201
 414  425.3492
 415  312.2252
 416  153.3496
 417  146.7013
 418  257.7656
 419  359.5319
 420  472.8099
 421  627.4167
 422  451.18
 423  229.8167
 424  228.6118
 425  289.4987
 426  406.3318
 427  475.1171
 428  490.0845
 429  315.7259
 430  250.9098
 431  211.3109
 432  209.338
 433  127.4051
 434  112.5381
 435  237.7901
 436  476.8835
 437  601.4882
 438  467.6689
 439  403.1372
 440  304.5321
 441  345.0697
 442  370.1731
 443  388.4373
 444  213.7846
 445  139.1473
 446  160.9082
 447  277.7258
 448  82.49404
 449  303.0861
 450  360.4575
 451  442.9408
 452  343.7588
 453  276.5029
 454  390.8863
 455  515.9422
 456  422.3133
 457  361.8066
 458  215.3759
 459  269.9347
 460  238.1014
 461  303.1198
 462  437.9601
 463  439.9057
 464  427.8082
 465  314.9086
 466  235.0471
 467  250.2961
 468  322.6519
 469  239.9751
 470  133.9241
 471  8.026156
 472  225.1855
 473  97.59399
 474  136.6487
 475  105.153
 476  403.7203
 477  463.1288
 478  556.9541
 479  397.3235
 480  323.9486
 481  62.92786
 482  123.128
 483  168.9647
 484  284.9005
 485  211.2495
 486  234.9263
 487  239.0978
 488  337.2395
 489  302.0337
 490  315.6398
 491  212.5075
 492  167.119
 493  223.9468
 494  309.9609
 495  310.7828
 496  251.8676
 497  200.3923
 498  329.8291
 499  374.4402
 500  375.1775
 501  331.4887
 502  366.7809
 503  414.5779
 504  406.6475
 505  347.4346
 506  326.431
 507  254.652
 508  287.2443
 509  302.1625
 510  334.0294
 511  270.7079
 512  357.3647
 513  274.1992
 514  241.9732
 515  44.35237
 516  -26.21926
 517  35.47852
 518  271.2479
 519  558.7094
 520  735.8661
 521  725.9365
 522  555.1374
 523  352.5505
 524  220.3904
 525  249.8633
 526  284.9442
 527  309.3231
 528  247.0329
 529  178.5179
 530  220.8886
 531  216.0256
 532  356.0024
 533  356.6874
 534  403.4725
 535  505.5555
 536  394.5249
 537  288.8274
 538  242.6558
 539  279.1463
 540  405.8031
 541  331.3312
 542  282.7177
 543  306.1046
 544  419.6276
 545  527.4226
 546  337.3716
 547  220.3605
 548  266.3048
 549  229.4022
 550  167.5989
 551  163.9332
 552  226.2739
 553  343.5431
 554  411.8158
 555  468.415
 556  247.1657
 557  56.93432
 558  -71.69203
 559  -46.04893
 560  18.51782
 561  282.184
 562  384.632
 563  380.5737
 564  319.1364
 565  200.0037
 566  259.1931
 567  435.1574
 568  659.3032
 569  676.0988
 570  671.9553
 571  472.2541
 572  359.5592
 573  179.3289
 574  305.2818
 575  322.7903
 576  377.0539
 577  313.4088
 578  353.0178
 579  378.44
 580  458.1199
 581  438.5381
 582  467.5396
 583  412.6328
 584  472.0711
 585  501.8586
 586  543.6237
 587  364.3316
 588  255.1502
 589  242.9901
 590  296.8062
 591  279.6319
 592  269.6384
 593  256.7358
 594  351.969
 595  352.3133
 596  363.2327
 597  415.0635
 598  543.8857
 599  572.677
 600  525.6071
 601  418.4526
 602  368.594
 603  371.5506
 604  544.1035
 605  666.364
 606  620.9238
 607  391.2007
 608  148.1779
 609  8.948031
 610  46.50476
 611  27.32218
 612  140.587
 613  235.9103
 614  329.7282
 615  259.2545
 616  299.7476
 617  273.4494
 618  248.3091
 619  128.0263
 620  145.9685
 621  221.8142
 622  295.7856
 623  305.535
 624  303.0571
 625  295.9417
 626  428.6458
 627  433.0019
 628  461.5191
 629  326.3644
 630  325.7228
 631  347.8267
 632  346.3796
 633  289.222
 634  181.5945
 635  142.5796
 636  182.6687
 637  217.6732
 638  221.1656
 639  339.5485
 640  552.4455
 641  755.3992
 642  929.4427
 643  902.7429
 644  828.4792
 645  815.2282
 646  913.0755
 647  1007.13
 648  926.2401
 649  789.736
 650  596.6573
 651  514.4791
 652  404.0894
 653  315.7118
 654  224.7777
 655  93.2405
 656  18.69066
 657  8.351373
 658  158.2984
 659  304.2833
 660  266.2808
 661  219.6634
 662  219.2775
 663  392.6336
 664  435.374
 665  383.5356
 666  385.9718
 667  343.6792
 668  340.7101
 669  312.1335
 670  304.5487
 671  414.1728
 672  485.0158
 673  380.9417
 674  214.8283
 675  243.1914
 676  432.6278
 677  460.907
 678  392.0188
 679  243.1667
 680  131.3363
 681  137.9419
 682  321.5758
 683  415.764
 684  437.9364
 685  407.2733
 686  391.0831
 687  312.6127
 688  269.1969
 689  188.9044
 690  194.4719
 691  160.3927
 692  188.634
 693  129.5552
 694  20.84275
 695  66.56178
 696  215.7673
 697  364.6542
 698  304.0043
 699  186.8012
 700  162.7666
 701  107.5376
 702  -36.17126
 703  35.91673
 704  145.8486
 705  298.9957
 706  317.5785
 707  297.9239
 708  195.329
 709  181.4238
 710  231.7914
 711  369.6883
 712  338.0716
 713  282.8895
 714  254.5676
 715  454.0621
 716  514.1497
 717  390.6864
 718  227.0042
 719  180.4874
 720  237.8596
 721  319.4704
 722  344.1556
 723  418.5096
 724  377.6257
 725  491.1545
 726  583.2557
 727  458.3821
 728  374.6281
 729  274.6881
 730  336.9709
 731  238.5665
 732  213.1459
 733  304.606
 734  422.6886
 735  388.0839
 736  326.5352
 737  202.5455
 738  248.2786
 739  258.7171
 740  289.6728
 741  167.416
 742  50.47342
 743  167.3649
 744  256.9516
 745  384.4944
 746  492.5613
 747  493.6702
 748  547.7828
 749  390.3935
 750  295.6266
 751  133.1478
 752  36.35563
 753  178.5339
 754  271.8398
 755  227.0028
 756  79.35828
 757  -25.1039
 758  97.45019
 759  170.2622
 760  105.3582
 761  91.61653
 762  132.2679
 763  248.6455
 764  160.7325
 765  11.24128
 766  -72.26952
 767  -8.578057
 768  -45.49017
 769  44.61681
 770  -53.47105
 771  60.11111
 772  112.6938
 773  147.7656
 774  75.12806
 775  -31.39402
 776  -76.5746
 777  -81.47211
 778  45.05477
 779  82.13055
 780  209.0173
 781  24.04633
 782  1.921248
 783  -127.5256
 784  -69.90804
 785  -13.93836
 786  249.5744
 787  418.0926
 788  377.7082
 789  121.6499
 790  146.8631
 791  271.8832
 792  434.3448
 793  367.7127
 794  333.0939
 795  275.7385
 796  218.8133
 797  140.2817
 798  82.99812
 799  136.0758
 800  150.0857
 801  248.3597
 802  243.5361
 803  218.0547
 804  119.5405
 805  129.5538
 806  255.2275
 807  325.5245
 808  173.7815
 809  -13.6993
 810  23.90044
 811  218.726
 812  196.7628
 813  -40.79388
 814  -133.2678
 815  -7.382689
 816  86.28437
 817  69.07163
 818  30.79981
 819  169.4034
 820  190.1306
 821  201.2076
 822  90.37543
 823  46.35173
 824  117.3006
 825  248.4941
 826  287.6357
 827  295.5269
 828  226.3645
 829  228.8087
 830  325.1374
 831  428.7065
 832  438.7979
 833  379.412
 834  293.6888
 835  373.8918
 836  363.4033
 837  291.2274
 838  82.43131
 839  29.36761
 840  62.57369
 841  251.4319
 842  384.1594
 843  299.5584
 844  255.6286
 845  263.3381
 846  254.1606
 847  236.5524
 848  116.8582
 849  54.6949
 850  -73.59359
 851  -10.89868
 852  155.2397
 853  246.9243
 854  272.1146
 855  249.2124
 856  347.1037
 857  395.647
 858  399.345
 859  260.4516
 860  160.5152
 861  119.598
 862  241.1195
 863  418.2351
 864  360.6625
 865  165.7026
 866  24.38989
 867  32.55379
 868  235.2536
 869  388.4301
 870  359.462
 871  417.1838
 872  397.2191
 873  358.932
 874  308.2137
 875  315.7427
 876  483.2585
 877  554.9445
 878  536.173
 879  478.1642
 880  478.7082
 881  432.701
 882  421.6265
 883  149.0896
 884  11.08141
 885  27.38755
 886  283.463
 887  525.9904
 888  472.4141
 889  435.8832
 890  233.048
 891  286.4685
 892  414.4602
 893  557.8204
 894  515.5245
 895  424.3535
 896  455.2413
 897  447.3004
 898  341.1402
 899  225.9302
 900  289.7413
 901  295.025
 902  296.2786
 903  256.3916
 904  191.5018
 905  55.20031
 906  -54.17494
 907  -15.04352
 908  116.1088
 909  158.6846
 910  153.769
 911  126.6445
 912  198.2677
 913  160.142
 914  83.332
 915  19.14079
 916  -88.20684
 917  -54.65358
 918  88.89267
 919  238.8078
 920  234.0493
 921  118.5315
 922  82.73948
 923  84.24277
 924  127.8209
 925  171.4279
 926  150.1449
 927  111.7564
 928  22.84396
 929  31.59857
 930  65.44308
 931  99.34445
 932  51.04345
 933  99.20342
 934  168.4389
 935  167.2524
 936  318.3035
 937  430.3301
 938  376.1621
 939  168.6805
 940  144.7568
 941  182.4318
 942  223.3905
 943  133.9044
 944  206.8639
 945  214.0551
 946  255.7167
 947  248.5652
 948  132.7955
 949  77.61007
 950  62.60579
 951  181.1084
 952  323.5203
 953  364.1043
 954  358.2716
 955  259.824
 956  141.0828
 957  232.6769
 958  174.9191
 959  245.2244
 960  157.5011
 961  -10.69568
 962  -42.85931
 963  -17.1168
 964  84.32371
 965  130.7985
 966  47.43499
 967  172.0193
 968  105.7911
 969  133.951
 970  116.8405
 971  67.3263
 972  -22.17247
 973  -117.3379
 974  -95.33479
 975  9.683781
 976  35.99189
 977  96.80759
 978  152.2136
 979  232.0042
 980  388.376
 981  227.0507
 982  217.3349
 983  114.7492
 984  195.719
 985  253.1378
 986  198.1655
 987  108.0166
 988  -59.12494
 989  16.92184
 990  183.7474
 991  236.8371
 992  136.4983
 993  147.38
 994  103.213
 995  218.7471
 996  265.1309
 997  343.0406
 998  294.8911
 999  246.8896
1000  127.9955
1001  62.68964
1002  276.8235
1003  554.0074
1004  661.2773
1005  461.6525
1006  401.7613
1007  432.7801
1008  244.3057
1009  125.978
1010  75.5999
1011  264.3109
1012  206.7718
1013  -10.74962
1014  -88.34639
1015  -16.32685
1016  229.3284
1017  311.4804
1018  329.4864
1019  338.6053
1020  224.8496
1021  311.436
1022  315.7975
1023  470.9241
