# Input file       =  1188163236.117847_cleaned.dat
# Candidate        =  PSR_0332+5434
# Telescope        =  AR
# Epoch_topo       =  57995.889526826933
# Epoch_bary       =  N/A
# T_sample         =  0.002
# Data Folded      =  7143424
# Data Avg         =  0.0455161002507313
# Data StdDev      =  3.29087760019144 
# Profile Bins     =  512
# Profile Avg      =  635.032174393297 
# Profile StdDev   =  388.713803837697 
# Reduced chi-sqr  =  0.819
# Prob(Noise)      <  0.999   (~0.0 sigma)
# P_topo (ms)      =  714.463389011239  +/- 5.46e-05
# P'_topo (s/s)    =  -0                +/- 2.96e-11
# P''_topo (s/s^2) =  0                 +/- 1.34e-14
# P_bary (ms)      =  N/A
# P'_bary (s/s)    =  N/A
# P''_bary (s/s^2) =  N/A
# P_orb (s)        =  N/A
# asin(i)/c (s)    =  N/A
# eccentricity     =  N/A
# w (rad)          =  N/A
# T_peri           =  N/A
######################################################
   0  942.5756
   1  1029.713
   2  527.4096
   3  436.3771
   4  891.7944
   5  902.4633
   6  618.6811
   7  706.2643
   8  660.6299
   9  605.825
  10  654.2903
  11  726.4848
  12  562.5995
  13  667.1395
  14  602.7156
  15  759.6301
  16  653.1935
  17  500.1988
  18  584.217
  19  588.094
  20  860.9
  21  809.0498
  22  413.7527
  23  622.1012
  24  813.4677
  25  957.0341
  26  800.3394
  27  556.5687
  28  272.5361
  29  239.6001
  30  525.564
  31  746.0566
  32  752.8546
  33  833.84
  34  890.7456
  35  834.58
  36  743.4356
  37  427.3528
  38  355.6725
  39  466.5031
  40  628.756
  41  660.5009
  42  663.1081
  43  654.5131
  44  311.8102
  45  133.3589
  46  202.1511
  47  519.9636
  48  584.0876
  49  816.6138
  50  986.0663
  51  650.4904
  52  401.2819
  53  178.0092
  54  205.8431
  55  126.6397
  56  687.0442
  57  852.2761
  58  663.4467
  59  524.1837
  60  451.5561
  61  281.8415
  62  175.25
  63  514.858
  64  975.118
  65  647.9579
  66  710.8357
  67  533.7529
  68  461.0511
  69  169.4345
  70  307.805
  71  268.365
  72  273.0641
  73  118.5524
  74  792.5174
  75  1013.024
  76  739.6345
  77  467.258
  78  683.0699
  79  584.6219
  80  517.9107
  81  724.548
  82  841.1242
  83  1236.504
  84  889.2978
  85  610.3361
  86  656.4933
  87  485.1884
  88  866.3436
  89  935.2816
  90  864.2376
  91  660.3514
  92  384.0448
  93  275.0346
  94  353.7277
  95  700.4874
  96  730.0097
  97  717.5854
  98  632.0916
  99  538.451
 100  733.6382
 101  731.8011
 102  678.4368
 103  568.0061
 104  197.6483
 105  537.3527
 106  383.2899
 107  426.0459
 108  607.9911
 109  551.4067
 110  448.4449
 111  170.8783
 112  359.5028
 113  791.2879
 114  1160.559
 115  932.5576
 116  664.5419
 117  656.9679
 118  262.7624
 119  394.0084
 120  258.8262
 121  398.8998
 122  493.7066
 123  533.0465
 124  435.7551
 125  199.1015
 126  91.69038
 127  244.7843
 128  415.1659
 129  436.8436
 130  448.4205
 131  699.7872
 132  924.4826
 133  876.8787
 134  587.2245
 135  481.2027
 136  300.7806
 137  108.3656
 138  583.2199
 139  705.6546
 140  659.7222
 141  598.7534
 142  350.7597
 143  284.881
 144  291.2198
 145  720.5288
 146  363.6685
 147  326.7698
 148  653.3186
 149  849.8898
 150  949.7952
 151  554.3166
 152  368.1461
 153  340.5767
 154  281.0977
 155  500.0193
 156  545.7644
 157  371.9815
 158  461.5165
 159  566.8787
 160  619.7343
 161  477.6618
 162  497.9106
 163  436.4711
 164  585.2587
 165  781.8007
 166  827.8696
 167  795.9789
 168  693.7811
 169  490.7768
 170  196.5929
 171  226.1838
 172  221.5959
 173  614.4226
 174  907.7048
 175  826.8741
 176  385.2683
 177  475.7268
 178  733.8123
 179  954.5476
 180  1000.462
 181  986.5367
 182  876.5094
 183  656.0404
 184  802.9071
 185  608.6287
 186  707.4035
 187  438.3383
 188  903.9008
 189  711.4227
 190  199.5736
 191  415.3457
 192  545.5989
 193  447.299
 194  366.4549
 195  165.3743
 196  657.0248
 197  1165.245
 198  1319.712
 199  1020.81
 200  663.1985
 201  563.7852
 202  373.8902
 203  493.3046
 204  799.7218
 205  874.9711
 206  790.6729
 207  891.3145
 208  643.0738
 209  281.9125
 210  391.7748
 211  383.4305
 212  142.5122
 213  511.9904
 214  751.3867
 215  817.032
 216  761.3443
 217  769.438
 218  233.5273
 219  192.8946
 220  487.3035
 221  534.5595
 222  657.8941
 223  514.3815
 224  436.5918
 225  700.6664
 226  574.7307
 227  512.0464
 228  514.5103
 229  618.9977
 230  752.2984
 231  802.6053
 232  923.1275
 233  391.7762
 234  308.7179
 235  485.0045
 236  598.7739
 237  852.5181
 238  914.5681
 239  746.566
 240  631.1906
 241  425.0247
 242  362.7806
 243  285.5309
 244  591.7622
 245  617.8344
 246  730.4664
 247  707.9213
 248  695.4
 249  815.0141
 250  793.4229
 251  571.2628
 252  837.0689
 253  695.0615
 254  535.0552
 255  550.2883
 256  813.7557
 257  933.0226
 258  821.78
 259  518.4593
 260  577.2192
 261  978.5465
 262  959.9745
 263  559.2264
 264  771.0312
 265  734.5673
 266  458.4641
 267  509.2292
 268  659.8651
 269  783.5629
 270  1164.914
 271  908.1123
 272  830.3952
 273  881.3333
 274  681.5187
 275  741.7244
 276  341.4941
 277  481.9938
 278  549.0359
 279  437.7401
 280  647.8226
 281  685.3692
 282  613.4225
 283  760.8797
 284  671.8549
 285  545.7928
 286  660.3857
 287  328.19
 288  369.7042
 289  531.1009
 290  528.7086
 291  692.3397
 292  619.2829
 293  523.9817
 294  528.0361
 295  563.7892
 296  780.1606
 297  743.6772
 298  469.8159
 299  628.1018
 300  739.1696
 301  832.2734
 302  509.2562
 303  746.7688
 304  779.4031
 305  1018.632
 306  1266.143
 307  842.6884
 308  320.7256
 309  464.5795
 310  764.5989
 311  749.785
 312  728.1952
 313  614.9631
 314  1028.398
 315  582.6166
 316  696.9985
 317  1180.921
 318  1019.284
 319  1146.87
 320  1253.327
 321  1789.469
 322  1915.574
 323  1848.276
 324  1675.449
 325  1095.687
 326  513.9341
 327  417.5468
 328  763.9062
 329  751.4633
 330  1003.771
 331  956.506
 332  550.2197
 333  592.3956
 334  834.5095
 335  1126.825
 336  914.2158
 337  602.9047
 338  698.8786
 339  511.0777
 340  687.5795
 341  531.8973
 342  521.574
 343  969.2479
 344  835.7418
 345  875.428
 346  756.6139
 347  846.5106
 348  867.8116
 349  851.5023
 350  812.5492
 351  339.5595
 352  522.731
 353  747.812
 354  861.0952
 355  843.7838
 356  589.9567
 357  535.6479
 358  469.654
 359  315.074
 360  685.2879
 361  799.5109
 362  579.3195
 363  719.4507
 364  790.0919
 365  538.9568
 366  550.2828
 367  559.6177
 368  715.9957
 369  812.1313
 370  397.1228
 371  427.4283
 372  462.6993
 373  687.4212
 374  357.6573
 375  331.4147
 376  583.1419
 377  416.3745
 378  559.5845
 379  975.3251
 380  814.0162
 381  969.3309
 382  652.9014
 383  367.5514
 384  268.7846
 385  703.3035
 386  992.9699
 387  780.8604
 388  746.4183
 389  689.4056
 390  563.4295
 391  642.9614
 392  278.3405
 393  472.9222
 394  805.7896
 395  584.4059
 396  820.4164
 397  904.6368
 398  986.4
 399  616.3478
 400  503.281
 401  676.8612
 402  790.624
 403  974.5327
 404  952.5443
 405  858.9386
 406  854.4084
 407  371.8707
 408  290.5971
 409  548.8272
 410  763.8345
 411  747.3842
 412  1002.166
 413  1037.631
 414  754.0258
 415  379.0793
 416  600.4985
 417  998.3772
 418  969.2118
 419  1071.62
 420  851.5836
 421  814.8749
 422  701.0625
 423  621.8324
 424  473.5513
 425  314.7348
 426  572.3539
 427  514.1702
 428  630.0849
 429  1098.926
 430  1308.679
 431  916.3038
 432  412.6629
 433  536.0728
 434  412.1412
 435  509.1932
 436  584.7001
 437  725.2864
 438  946.5789
 439  908.1002
 440  418.0454
 441  427.9249
 442  853.2011
 443  873.8127
 444  851.7874
 445  842.8297
 446  877.6459
 447  740.8071
 448  1051.434
 449  759.704
 450  720.6752
 451  867.6974
 452  306.7823
 453  545.6035
 454  574.7464
 455  271.2956
 456  432.7977
 457  336.8535
 458  434.507
 459  693.0774
 460  869.4861
 461  591.6422
 462  440.1251
 463  934.613
 464  768.5696
 465  353.7296
 466  430.4464
 467  474.8477
 468  654.163
 469  716.4014
 470  564.8916
 471  540.1263
 472  561.5389
 473  557.2969
 474  471.2785
 475  617.6161
 476  820.248
 477  785.4201
 478  794.1852
 479  729.3569
 480  581.3041
 481  407.6642
 482  214.0583
 483  215.4899
 484  516.9108
 485  516.0092
 486  724.6871
 487  792.9123
 488  594.2206
 489  831.3649
 490  866.0973
 491  250.2944
 492  155.7302
 493  357.6717
 494  668.3636
 495  985.9875
 496  760.1642
 497  485.5
 498  379.8105
 499  182.0605
 500  171.6399
 501  95.8594
 502  417.832
 503  346.4993
 504  486.259
 505  686.9
 506  584.137
 507  372.1409
 508  869.5776
 509  442.8979
 510  250.5711
 511  590.0342
