# Input file       =  1188882056.107708_cleaned.dat
# Candidate        =  PSR_0332+5434
# Telescope        =  AR
# Epoch_topo       =  58004.209202635509
# Epoch_bary       =  N/A
# T_sample         =  0.002
# Data Folded      =  7340032
# Data Avg         =  0.0222180070268223
# Data StdDev      =  2.93841278277806 
# Profile Bins     =  1024
# Profile Avg      =  159.290462350873 
# Profile StdDev   =  248.777903119488 
# Reduced chi-sqr  =  1.045
# Prob(Noise)      <  0.152   (~1.0 sigma)
# P_topo (ms)      =  714.464653217015  +/- 0.000103
# P'_topo (s/s)    =  -0                +/- 5.41e-11
# P''_topo (s/s^2) =  0                 +/- 2.39e-14
# P_bary (ms)      =  N/A
# P'_bary (s/s)    =  N/A
# P''_bary (s/s^2) =  N/A
# P_orb (s)        =  N/A
# asin(i)/c (s)    =  N/A
# eccentricity     =  N/A
# w (rad)          =  N/A
# T_peri           =  N/A
######################################################
   0  172.8364
   1  292.0846
   2  346.8672
   3  367.5424
   4  262.1652
   5  132.5069
   6  68.38142
   7  206.0068
   8  277.4821
   9  255.6239
  10  246.5036
  11  162.1893
  12  93.75597
  13  -31.07071
  14  9.566028
  15  15.10182
  16  66.56704
  17  161.9444
  18  203.1226
  19  196.7278
  20  249.3895
  21  383.289
  22  378.1759
  23  313.6512
  24  289.1143
  25  225.48
  26  139.7415
  27  13.74368
  28  138.6437
  29  212.3098
  30  188.2893
  31  107.0806
  32  21.93591
  33  -47.90548
  34  -66.631
  35  108.4432
  36  203.9003
  37  194.5871
  38  168.1743
  39  268.5029
  40  291.2697
  41  124.864
  42  19.73044
  43  91.50919
  44  149.8992
  45  152.3836
  46  148.2881
  47  219.8616
  48  297.6535
  49  201.9967
  50  123.0941
  51  -126.4607
  52  -97.86632
  53  -46.3984
  54  173.8119
  55  122.6791
  56  131.5719
  57  171.0999
  58  306.7665
  59  500.3912
  60  533.5341
  61  480.6837
  62  288.3506
  63  115.9337
  64  41.0178
  65  -49.90645
  66  -62.77975
  67  35.31908
  68  111.8166
  69  246.8463
  70  238.1073
  71  199.2321
  72  69.33447
  73  22.7648
  74  199.7373
  75  330.1764
  76  354.4305
  77  295.552
  78  222.2684
  79  209.5291
  80  40.57014
  81  16.24405
  82  71.72327
  83  200.4302
  84  131.1365
  85  83.95303
  86  171.0987
  87  441.3693
  88  476.4652
  89  369.516
  90  281.8808
  91  183.8294
  92  71.82516
  93  -9.941338
  94  93.56114
  95  357.1467
  96  397.4581
  97  436.3251
  98  259.0852
  99  232.8871
 100  109.5135
 101  26.64405
 102  -135.0495
 103  -104.4857
 104  5.177148
 105  53.2696
 106  62.2841
 107  54.04166
 108  201.692
 109  239.5195
 110  275.5066
 111  327.3412
 112  372.4768
 113  359.3766
 114  110.2706
 115  22.73558
 116  -7.226098
 117  164.7757
 118  198.1648
 119  249.2755
 120  141.3913
 121  175.0136
 122  190.4015
 123  205.3
 124  141.3515
 125  221.1853
 126  255.586
 127  176.1004
 128  183.2912
 129  220.3398
 130  242.4548
 131  206.0649
 132  134.3902
 133  100.9526
 134  61.60821
 135  33.11411
 136  90.81121
 137  118.3778
 138  176.1627
 139  123.9757
 140  8.90987
 141  -35.4165
 142  -51.40269
 143  126.2999
 144  300.0634
 145  404.5257
 146  460.3759
 147  494.617
 148  406.0146
 149  209.4556
 150  43.64041
 151  -4.609549
 152  51.06919
 153  158.1156
 154  300.3143
 155  335.7012
 156  267.7965
 157  266.2307
 158  176.7611
 159  328.5526
 160  293.9183
 161  310.1286
 162  107.4526
 163  -16.25886
 164  45.14851
 165  137.482
 166  248.3071
 167  204.5809
 168  119.6954
 169  -15.92121
 170  -129.7055
 171  -75.68723
 172  60.51328
 173  191.4693
 174  159.802
 175  126.2804
 176  -5.888888
 177  -11.27338
 178  -48.67717
 179  71.8873
 180  236.7533
 181  268.8099
 182  205.9577
 183  230.293
 184  220.2278
 185  107.714
 186  102.2475
 187  167.1951
 188  181.3216
 189  82.70242
 190  195.2578
 191  295.4748
 192  356.2737
 193  376.1206
 194  381.4733
 195  345.5665
 196  212.5403
 197  138.1892
 198  -11.82437
 199  4.570566
 200  56.21803
 201  184.097
 202  290.5346
 203  335.3477
 204  290.4453
 205  143.5204
 206  1.34263
 207  126.9477
 208  327.6426
 209  401.5281
 210  297.1816
 211  212.1847
 212  239.6021
 213  141.8274
 214  17.08327
 215  -9.798264
 216  94.35703
 217  117.3355
 218  136.8765
 219  227.8815
 220  198.2859
 221  112.4343
 222  54.51212
 223  106.5238
 224  11.67042
 225  -99.97589
 226  -102.6469
 227  110.0588
 228  243.3289
 229  305.415
 230  386.5197
 231  389.3424
 232  308.6077
 233  196.1296
 234  186.5162
 235  242.1387
 236  352.3433
 237  294.1301
 238  376.1915
 239  347.4217
 240  430.7094
 241  265.4995
 242  161.6589
 243  50.28504
 244  23.30348
 245  -32.45908
 246  96.21935
 247  177.023
 248  319.8158
 249  181.4756
 250  133.7668
 251  123.0671
 252  155.3054
 253  194.6273
 254  141.1605
 255  136.1959
 256  104.7656
 257  70.28401
 258  147.9164
 259  168.631
 260  195.8361
 261  82.41122
 262  45.60254
 263  -73.94921
 264  103.6696
 265  36.06004
 266  73.60418
 267  8.307506
 268  59.6841
 269  136.9863
 270  206.7476
 271  319.1097
 272  431.1979
 273  477.3959
 274  519.7122
 275  362.4273
 276  320.2973
 277  311.9753
 278  288.8078
 279  148.0828
 280  26.6881
 281  126.0587
 282  158.1048
 283  268.4905
 284  189.1363
 285  114.1902
 286  -13.54522
 287  97.5882
 288  286.3751
 289  351.9261
 290  285.854
 291  155.5471
 292  215.4301
 293  171.8109
 294  157.3107
 295  167.0328
 296  212.0455
 297  249.1076
 298  210.596
 299  134.8755
 300  127.2208
 301  180.9047
 302  200.1184
 303  237.1567
 304  202.2424
 305  281.0187
 306  253.7458
 307  350.4214
 308  342.5797
 309  377.951
 310  262.2286
 311  101.6268
 312  16.22
 313  -41.7324
 314  0.7399684
 315  -97.31033
 316  -80.59805
 317  15.66861
 318  124.4676
 319  198.7864
 320  127.856
 321  200.0084
 322  295.0199
 323  333.5403
 324  317.4191
 325  214.7662
 326  256.2749
 327  191.7277
 328  145.151
 329  194.5359
 330  314.2294
 331  313.5752
 332  207.5126
 333  68.25726
 334  78.26202
 335  134.8733
 336  221.4321
 337  243.8191
 338  123.5766
 339  68.82877
 340  120.0822
 341  230.6559
 342  261.4518
 343  268.946
 344  191.6227
 345  -25.9098
 346  -48.57892
 347  -34.33331
 348  114.9901
 349  168.3305
 350  164.6441
 351  31.75654
 352  -82.04596
 353  -91.29625
 354  -39.57269
 355  -89.62547
 356  -89.22601
 357  52.65765
 358  157.2653
 359  213.4782
 360  173.2642
 361  231.3395
 362  190.6686
 363  235.6561
 364  193.1122
 365  295.5212
 366  323.7377
 367  298.5472
 368  169.7284
 369  75.38247
 370  43.88485
 371  -74.73938
 372  -3.587624
 373  -86.43981
 374  -91.13402
 375  -123.4409
 376  3.605011
 377  101.4602
 378  50.9806
 379  -7.955326
 380  -14.47425
 381  193.3578
 382  252.5877
 383  260.3564
 384  157.8862
 385  158.8402
 386  194.7827
 387  138.8287
 388  145.5699
 389  172.2148
 390  189.3444
 391  195.4107
 392  218.6092
 393  320.2692
 394  447.5461
 395  380.5085
 396  119.1024
 397  -109.735
 398  -86.11138
 399  -1.882337
 400  33.66025
 401  80.0914
 402  156.7105
 403  193.0038
 404  129.8245
 405  194.3027
 406  213.2756
 407  239.5429
 408  306.1154
 409  294.4988
 410  187.8817
 411  -9.733479
 412  -27.17555
 413  72.68198
 414  196.9114
 415  274.5348
 416  201.5233
 417  83.708
 418  -37.77795
 419  3.476308
 420  100.0478
 421  161.0834
 422  106.1029
 423  -15.75145
 424  -14.54362
 425  122.4805
 426  275.8318
 427  295.6551
 428  352.9582
 429  320.7715
 430  252.832
 431  162.0233
 432  185.9279
 433  153.792
 434  47.42475
 435  59.05364
 436  132.2768
 437  211.0609
 438  194.824
 439  207.3236
 440  181.1693
 441  201.0843
 442  138.8758
 443  109.5328
 444  49.39777
 445  -21.15214
 446  32.69097
 447  42.01367
 448  263.7267
 449  300.762
 450  328.4414
 451  160.1087
 452  116.1271
 453  62.28495
 454  83.64304
 455  155.5079
 456  72.48566
 457  111.7602
 458  77.44554
 459  237.005
 460  231.3316
 461  240.0717
 462  268.3901
 463  199.1048
 464  243.2013
 465  84.05048
 466  -18.68904
 467  -78.38306
 468  74.35278
 469  187.9758
 470  262.4008
 471  136.8598
 472  94.87054
 473  106.072
 474  199.0076
 475  204.5783
 476  175.4485
 477  180.637
 478  118.092
 479  60.80114
 480  107.7947
 481  119.6819
 482  80.17432
 483  -58.91331
 484  -52.18985
 485  -80.52986
 486  38.21473
 487  163.1424
 488  244.2416
 489  138.3384
 490  -39.7259
 491  47.88104
 492  93.14117
 493  58.52769
 494  2.638851
 495  110.7518
 496  126.3747
 497  101.374
 498  185.934
 499  180.1537
 500  98.48617
 501  6.14656
 502  11.56804
 503  -12.5569
 504  -41.54994
 505  130.772
 506  244.0443
 507  174.2047
 508  64.99698
 509  6.489569
 510  -65.03744
 511  -73.17754
 512  -47.54176
 513  21.68689
 514  29.08552
 515  11.94159
 516  30.35658
 517  23.00154
 518  63.33358
 519  120.0301
 520  105.7278
 521  135.4826
 522  184.4128
 523  187.19
 524  197.6237
 525  82.59963
 526  46.13889
 527  -26.68499
 528  -28.91074
 529  -18.23386
 530  -12.174
 531  2.72506
 532  -91.60471
 533  -128.7281
 534  74.56654
 535  248.0596
 536  231.0098
 537  61.43094
 538  72.62421
 539  157.6526
 540  158.5408
 541  103.5792
 542  91.8396
 543  79.55527
 544  175.1302
 545  277.8151
 546  263.4675
 547  158.2076
 548  126.6522
 549  80.22707
 550  11.67567
 551  -37.87209
 552  0.5140206
 553  165.2147
 554  184.8256
 555  162.511
 556  101.7136
 557  128.3436
 558  197.3454
 559  67.39345
 560  -8.830941
 561  -49.20481
 562  108.8465
 563  288.8318
 564  324.5956
 565  218.3991
 566  118.2325
 567  124.9807
 568  170.8237
 569  92.4894
 570  117.2633
 571  167.2264
 572  173.4628
 573  117.1754
 574  49.14309
 575  69.71854
 576  128.2751
 577  94.66803
 578  -1.563402
 579  -148.0567
 580  -131.5377
 581  -16.70218
 582  210.0918
 583  347.0374
 584  240.6172
 585  191.7572
 586  179.7556
 587  263.1933
 588  266.644
 589  233.6947
 590  258.2302
 591  219.2234
 592  204.2802
 593  146.8064
 594  183.2462
 595  231.726
 596  438.0431
 597  386.6121
 598  329.3744
 599  137.7178
 600  88.47562
 601  135.9551
 602  58.92592
 603  127.1616
 604  26.05161
 605  79.34624
 606  -137.6781
 607  -206.702
 608  -270.7764
 609  -112.7492
 610  51.66974
 611  61.35688
 612  41.84733
 613  63.31031
 614  214.8817
 615  296.6988
 616  184.7372
 617  124.143
 618  154.6655
 619  300.5228
 620  382.1405
 621  297.94
 622  160.2957
 623  156.5025
 624  223.8811
 625  254.0332
 626  127.2753
 627  83.82264
 628  92.03954
 629  165.2184
 630  249.274
 631  267.2285
 632  255.3216
 633  242.0322
 634  244.3789
 635  252.4443
 636  163.6372
 637  168.9779
 638  177.7794
 639  267.4887
 640  361.0946
 641  528.9908
 642  785.425
 643  872.5283
 644  932.7812
 645  850.5946
 646  838.2034
 647  732.1342
 648  547.9105
 649  453.6746
 650  359.3213
 651  401.447
 652  192.2031
 653  77.12199
 654  135.3307
 655  263.0822
 656  304.8767
 657  256.3076
 658  257.485
 659  371.6106
 660  537.5932
 661  494.5283
 662  288.6172
 663  103.5572
 664  80.80789
 665  183.821
 666  3.334602
 667  26.48415
 668  57.95524
 669  200.7335
 670  243.3435
 671  181.7287
 672  228.8801
 673  246.3706
 674  207.214
 675  147.6726
 676  200.592
 677  266.2249
 678  357.0962
 679  184.6872
 680  193.0516
 681  196.5842
 682  275.4078
 683  291.8741
 684  206.8161
 685  216.3138
 686  246.6896
 687  234.9087
 688  170.797
 689  93.1728
 690  42.16359
 691  290.3528
 692  402.5335
 693  250.8758
 694  137.1307
 695  247.1767
 696  284.3783
 697  136.4371
 698  62.61796
 699  239.7124
 700  319.2318
 701  341.7051
 702  246.8893
 703  124.1648
 704  90.31001
 705  97.03425
 706  283.1858
 707  364.3573
 708  425.2617
 709  353.9845
 710  246.2616
 711  254.6162
 712  282.0812
 713  444.6302
 714  445.5388
 715  365.2903
 716  311.7765
 717  388.8239
 718  456.9081
 719  333.6295
 720  215.0201
 721  317.8171
 722  283.0973
 723  70.86485
 724  -34.44837
 725  94.67432
 726  267.8252
 727  289.4388
 728  217.8751
 729  183.2274
 730  143.6948
 731  145.2994
 732  154.741
 733  148.2716
 734  181.8184
 735  246.7338
 736  326.0856
 737  379.4882
 738  409.1288
 739  511.4553
 740  466.7288
 741  449.9388
 742  348.2285
 743  426.6308
 744  330.0836
 745  232.0385
 746  162.3835
 747  301.4964
 748  393.4291
 749  427.4693
 750  285.2385
 751  250.7438
 752  328.8798
 753  456.3636
 754  428.4339
 755  300.5632
 756  293.0885
 757  389.6607
 758  335.8354
 759  144.4627
 760  5.85246
 761  0.1842943
 762  51.59304
 763  32.25697
 764  26.56755
 765  46.58593
 766  29.66095
 767  117.9438
 768  16.70002
 769  70.70247
 770  92.19965
 771  303.0285
 772  191.9478
 773  109.9058
 774  -16.22606
 775  94.0797
 776  190.0802
 777  343.9521
 778  356.7385
 779  341.8795
 780  289.626
 781  262.1665
 782  218.2262
 783  194.7699
 784  274.799
 785  227.3877
 786  139.6788
 787  118.553
 788  145.5027
 789  143.7967
 790  143.3041
 791  215.4844
 792  279.1009
 793  181.6285
 794  154.6065
 795  120.5836
 796  146.9651
 797  198.7841
 798  173.2603
 799  159.33
 800  97.28494
 801  130.4735
 802  187.9755
 803  87.27107
 804  -11.68405
 805  -38.52716
 806  32.97032
 807  192.4076
 808  326.7588
 809  477.6908
 810  327.9648
 811  216.9104
 812  160.7685
 813  200.5722
 814  109.7876
 815  17.55071
 816  42.45168
 817  170.8856
 818  178.1422
 819  107.3201
 820  3.440746
 821  197.7679
 822  276.8857
 823  297.5503
 824  182.7621
 825  146.734
 826  74.5544
 827  48.57318
 828  71.69048
 829  117.5305
 830  44.95105
 831  95.25691
 832  226.0924
 833  281.6969
 834  268.2638
 835  190.2354
 836  281.6831
 837  236.6511
 838  163.9946
 839  82.14231
 840  86.50577
 841  168.0942
 842  175.6093
 843  21.69805
 844  -43.92779
 845  -70.40205
 846  65.35276
 847  146.0688
 848  69.61842
 849  4.345356
 850  -56.11144
 851  40.71734
 852  103.2084
 853  200.9188
 854  129.7248
 855  150.1844
 856  167.1954
 857  235.8155
 858  64.8849
 859  -133.5801
 860  -139.6761
 861  -63.8525
 862  220.1712
 863  361.0819
 864  364.6152
 865  285.3807
 866  202.3096
 867  133.4608
 868  52.87072
 869  106.7585
 870  209.4072
 871  259.3212
 872  251.0847
 873  282.1014
 874  254.1061
 875  243.9074
 876  248.4001
 877  268.8365
 878  296.7354
 879  212.7167
 880  96.81102
 881  20.98713
 882  46.3116
 883  59.22823
 884  87.2168
 885  80.64341
 886  83.88811
 887  35.61612
 888  3.664439
 889  -8.906145
 890  82.0903
 891  95.7999
 892  132.3209
 893  90.06128
 894  258.2233
 895  369.3788
 896  337.9424
 897  186.434
 898  -0.2125001
 899  86.18294
 900  80.57083
 901  35.21806
 902  -55.45113
 903  81.49213
 904  176.6271
 905  121.0549
 906  129.6857
 907  175.2935
 908  277.1474
 909  244.8815
 910  208.6761
 911  49.67284
 912  85.71896
 913  50.16114
 914  24.99439
 915  -4.593215
 916  36.96188
 917  -28.6303
 918  -67.00601
 919  16.57169
 920  89.53659
 921  176.7985
 922  141.9516
 923  157.8451
 924  34.451
 925  -32.9408
 926  -80.07908
 927  44.45533
 928  79.01253
 929  130.9435
 930  5.711904
 931  -6.825655
 932  94.89224
 933  237.0885
 934  282.2786
 935  76.80296
 936  -17.34126
 937  -26.02075
 938  115.9033
 939  87.87836
 940  -8.359739
 941  -139.3841
 942  -220.252
 943  -171.9755
 944  -152.1989
 945  -93.65153
 946  -19.2013
 947  53.13503
 948  173.4422
 949  211.8532
 950  283.5665
 951  240.5057
 952  233.772
 953  205.4947
 954  187.1701
 955  51.20173
 956  73.63925
 957  98.4017
 958  145.3446
 959  137.5247
 960  195.6788
 961  106.6394
 962  -25.32365
 963  -83.63258
 964  131.9961
 965  170.356
 966  57.47454
 967  17.0333
 968  125.7303
 969  160.2659
 970  155.4296
 971  161.5844
 972  246.0886
 973  208.2503
 974  32.84393
 975  -73.14446
 976  -42.31612
 977  87.70374
 978  45.5379
 979  22.09772
 980  58.00444
 981  126.1592
 982  132.0871
 983  13.92197
 984  23.10971
 985  2.890859
 986  86.75732
 987  15.24757
 988  -20.48886
 989  32.67235
 990  151.8393
 991  119.7736
 992  87.90597
 993  23.00112
 994  21.4873
 995  -3.741981
 996  34.95563
 997  130.2435
 998  173.2233
 999  148.4503
1000  143.3821
1001  116.0977
1002  155.903
1003  152.3638
1004  284.0231
1005  324.7345
1006  443.2666
1007  341.1807
1008  215.8141
1009  66.27067
1010  10.82435
1011  79.14511
1012  181.3479
1013  225.5639
1014  125.7751
1015  -35.11909
1016  -81.85732
1017  -1.446401
1018  61.18165
1019  215.8107
1020  249.2395
1021  156.1831
1022  -4.434639
1023  57.38492
