# Input file       =  1188249402.122966_cleaned.dat
# Candidate        =  PSR_0332+5434
# Telescope        =  AR
# Epoch_topo       =  57996.886818552848
# Epoch_bary       =  N/A
# T_sample         =  0.002
# Data Folded      =  7208960
# Data Avg         =  0.0875522719389252
# Data StdDev      =  3.4573203498532  
# Profile Bins     =  512
# Profile Avg      =  1232.74671959939 
# Profile StdDev   =  410.242783167781 
# Reduced chi-sqr  =  0.681
# Prob(Noise)      <  1   (~0.0 sigma)
# P_topo (ms)      =  714.463440574997  +/- 5.25e-05
# P'_topo (s/s)    =  -0                +/- 2.82e-11
# P''_topo (s/s^2) =  0                 +/- 1.27e-14
# P_bary (ms)      =  N/A
# P'_bary (s/s)    =  N/A
# P''_bary (s/s^2) =  N/A
# P_orb (s)        =  N/A
# asin(i)/c (s)    =  N/A
# eccentricity     =  N/A
# w (rad)          =  N/A
# T_peri           =  N/A
######################################################
   0  1177.556
   1  1313.775
   2  1484.071
   3  1282.298
   4  886.3103
   5  1210.441
   6  1621.601
   7  1461.133
   8  1162.979
   9  1025.206
  10  1570.029
  11  1337.028
  12  706.0009
  13  862.5128
  14  1192.812
  15  1701.004
  16  1227.358
  17  971.924
  18  1022.102
  19  873.839
  20  1044.857
  21  882.659
  22  1220.191
  23  1441.104
  24  1206.418
  25  1404.799
  26  1197.398
  27  1542.064
  28  1455.819
  29  1034.403
  30  1439.349
  31  1573.74
  32  1516.379
  33  1150.999
  34  1213.132
  35  1176.247
  36  1292.651
  37  1266.36
  38  986.2347
  39  1274.37
  40  1180.414
  41  1235.748
  42  1092.702
  43  959.4951
  44  1198.618
  45  1359.69
  46  1405.899
  47  1187.095
  48  1016.306
  49  1025.478
  50  954.8538
  51  1365.915
  52  1215.167
  53  1360.404
  54  1481.5
  55  1398.776
  56  1469.846
  57  1398.284
  58  1148.964
  59  1099.994
  60  1513.988
  61  1330.416
  62  1103.08
  63  1398.094
  64  1223.568
  65  1364.177
  66  1312.821
  67  1013.117
  68  1172.644
  69  1309.89
  70  1439.565
  71  1090.488
  72  1313.311
  73  1147.782
  74  774.4263
  75  996.3269
  76  1325.574
  77  1279.408
  78  1076.419
  79  890.0654
  80  1019.562
  81  798.1433
  82  1215.705
  83  1184.227
  84  743.8057
  85  1004.107
  86  989.945
  87  983.9434
  88  729.2848
  89  1247.898
  90  1222.652
  91  875.8036
  92  1294.742
  93  1051.508
  94  1128.896
  95  1169.155
  96  1005.386
  97  1092.193
  98  1283.649
  99  1387.61
 100  1231.725
 101  1497.075
 102  1446.533
 103  965.9717
 104  1049.539
 105  898.3029
 106  1323.797
 107  1211.624
 108  927.7788
 109  1019.853
 110  1123.453
 111  1089.437
 112  906.4153
 113  1253.996
 114  1308.384
 115  1260.188
 116  1351.141
 117  1256.556
 118  1638.112
 119  1757.231
 120  1616.116
 121  1271.957
 122  1080.582
 123  1467.737
 124  1363.705
 125  1304.209
 126  1192.851
 127  1193.681
 128  1666.101
 129  1261.326
 130  1188.475
 131  1103.721
 132  1074.449
 133  1074.168
 134  776.0659
 135  718.7598
 136  1215.146
 137  1480.571
 138  1348.252
 139  1099.599
 140  1200.229
 141  1032.405
 142  889.5254
 143  1283.431
 144  1336.778
 145  1345.473
 146  1246.991
 147  1132.059
 148  925.7651
 149  743.08
 150  932.5785
 151  1232.265
 152  1493.278
 153  1070.994
 154  1299.899
 155  1327.034
 156  1285.297
 157  1314.094
 158  1263.092
 159  1268.548
 160  895.3022
 161  1053.74
 162  1180.395
 163  1445.933
 164  1454.737
 165  1221.126
 166  1098.512
 167  1300.739
 168  1315.322
 169  1171.398
 170  1023.037
 171  1012.629
 172  986.1661
 173  835.5098
 174  1029.536
 175  1308.023
 176  1369.69
 177  1078.632
 178  970.9481
 179  855.4835
 180  818.1174
 181  1347.624
 182  907.1509
 183  910.5443
 184  990.8008
 185  1033.584
 186  792.3753
 187  934.7785
 188  1646.228
 189  1610.662
 190  1639.31
 191  1545.757
 192  1163.721
 193  1281.595
 194  947.8605
 195  1101.647
 196  1096.171
 197  1176.471
 198  1265.19
 199  1426.502
 200  1424.215
 201  1322.866
 202  984.3866
 203  1099.161
 204  1154.997
 205  960.4776
 206  1140.181
 207  1427.24
 208  1058.086
 209  1094.824
 210  1122.831
 211  928.5376
 212  983.5924
 213  1085.718
 214  1357.248
 215  1139.094
 216  1048.616
 217  1188.249
 218  1119.134
 219  1089.474
 220  1033.33
 221  1369.855
 222  1515.953
 223  1076.669
 224  934.1917
 225  1397.139
 226  1165.845
 227  1016.06
 228  1118.635
 229  1441.943
 230  1474.401
 231  1421.463
 232  1268.767
 233  1147.149
 234  984.0171
 235  881.6751
 236  1375.624
 237  1416.385
 238  1156.636
 239  1429.082
 240  1239.26
 241  1520.421
 242  1042.495
 243  963.4266
 244  1034.194
 245  1013.113
 246  1461.927
 247  1222.285
 248  1208.445
 249  965.9506
 250  1117.722
 251  1427.933
 252  1231.229
 253  1285.565
 254  1348.812
 255  1129.441
 256  1069.74
 257  1515.499
 258  1348.731
 259  1287.26
 260  1348.405
 261  1251.732
 262  1317.035
 263  1195.768
 264  939.3444
 265  1272.942
 266  1271.616
 267  1010.121
 268  1200.14
 269  1440.177
 270  1404.876
 271  1251.643
 272  1186.248
 273  967.6752
 274  1073.496
 275  1163.074
 276  977.6608
 277  1150.881
 278  1342.969
 279  1181.136
 280  989.738
 281  1146.441
 282  1569.107
 283  1648.457
 284  1495.298
 285  1125.76
 286  1194.898
 287  1475.207
 288  1381.778
 289  1654.334
 290  1445.921
 291  1259.354
 292  1076.913
 293  1061.471
 294  1017.895
 295  1153.833
 296  1369.619
 297  1459.958
 298  1047.916
 299  1426.131
 300  1388.677
 301  1452.351
 302  1638.996
 303  1735.249
 304  1607.554
 305  1238.223
 306  1441.548
 307  1462.658
 308  1449.997
 309  1011.004
 310  623.5438
 311  974.7479
 312  827.6124
 313  1356.832
 314  1570.743
 315  1467.515
 316  1857.742
 317  1724.225
 318  1476.715
 319  1472.604
 320  1858.963
 321  2351.133
 322  2574.343
 323  2509.758
 324  2501.653
 325  2034.536
 326  1716.646
 327  1083.729
 328  1157.388
 329  1021.876
 330  1204.168
 331  832.4761
 332  1227.613
 333  1670.586
 334  1287.682
 335  1194.28
 336  1146.807
 337  1281.138
 338  1519.029
 339  1661.335
 340  1177.38
 341  1023.713
 342  1362.538
 343  1155.695
 344  1424.669
 345  1282.362
 346  1301.948
 347  1186.805
 348  1270.001
 349  1156.627
 350  733.4557
 351  704.9656
 352  1003.727
 353  1357.167
 354  1310.342
 355  1342.911
 356  1405.297
 357  1018.586
 358  1370.993
 359  1438.592
 360  995.9713
 361  935.2686
 362  1182.144
 363  1257.562
 364  1025.776
 365  970.5958
 366  1462.149
 367  1281.672
 368  1025.212
 369  1258.166
 370  1138.104
 371  1078.073
 372  954.7252
 373  1245.334
 374  1133.668
 375  971.1094
 376  1258.034
 377  1307.133
 378  1377.215
 379  1384.119
 380  1371.911
 381  1276.676
 382  1495.349
 383  1264.785
 384  765.4792
 385  989.7188
 386  1418.383
 387  1272.663
 388  1244.139
 389  1047.564
 390  1040.319
 391  1179.031
 392  1127.455
 393  1321.799
 394  1000.412
 395  1133.636
 396  1021.832
 397  1320.153
 398  1305.551
 399  1162.388
 400  938.3105
 401  656.6928
 402  1149.59
 403  1034.793
 404  1321.729
 405  1383.548
 406  1290.002
 407  1191.966
 408  1168.728
 409  1271.963
 410  1316.71
 411  1208.851
 412  1220.455
 413  1058.747
 414  1376.665
 415  1390.3
 416  1135.094
 417  1272.909
 418  1536.516
 419  1500.054
 420  947.0624
 421  1187.781
 422  1411.455
 423  1322.46
 424  1598.456
 425  1247.553
 426  1077.724
 427  1215.792
 428  1407.006
 429  1229.331
 430  1250.179
 431  1625.758
 432  1432.618
 433  1236.872
 434  1105.726
 435  977.1099
 436  871.2738
 437  950.2933
 438  993.8302
 439  966.9447
 440  1417.263
 441  1418.308
 442  1153.249
 443  1802.089
 444  1516.493
 445  1443.288
 446  1463.698
 447  1311.162
 448  1303.236
 449  946.8816
 450  1098.69
 451  1164.201
 452  1233.78
 453  1523.202
 454  1395.047
 455  1188.815
 456  1111.989
 457  872.1486
 458  1012.658
 459  849.4586
 460  1348.035
 461  1141.734
 462  1222.734
 463  1295.821
 464  1261.812
 465  1272.264
 466  1092.538
 467  1265.415
 468  1298.979
 469  849.8334
 470  645.7145
 471  913.5256
 472  1265.25
 473  1271.683
 474  1456.136
 475  1410.881
 476  1225.408
 477  1373.9
 478  1170.496
 479  1454.191
 480  1212.26
 481  1306.945
 482  1712.243
 483  1288.405
 484  1283.905
 485  1262.72
 486  1629.726
 487  1455.779
 488  1356.46
 489  1715.74
 490  1285.852
 491  1366.255
 492  1216.685
 493  1312.016
 494  1225.598
 495  1179.237
 496  1284.33
 497  1227.726
 498  957.8677
 499  827.8967
 500  1313.05
 501  1663.116
 502  1372.789
 503  1481.532
 504  1204.666
 505  1355.067
 506  1514.785
 507  1501.821
 508  1364.901
 509  1145.979
 510  1219.96
 511  1255.232
