# Input file       =  1188335615.117973_cleaned.dat
# Candidate        =  PSR_0332+5434
# Telescope        =  AR
# Epoch_topo       =  57997.884654143207
# Epoch_bary       =  N/A
# T_sample         =  0.002
# Data Folded      =  7208960
# Data Avg         =  0.0671744268017142
# Data StdDev      =  3.30339286869445 
# Profile Bins     =  1024
# Profile Avg      =  472.921314948072 
# Profile StdDev   =  277.170213573514 
# Reduced chi-sqr  =  0.797
# Prob(Noise)      <  1   (~0.0 sigma)
# P_topo (ms)      =  714.463507827718  +/- 8.82e-05
# P'_topo (s/s)    =  -0                +/- 4.74e-11
# P''_topo (s/s^2) =  0                 +/- 2.13e-14
# P_bary (ms)      =  N/A
# P'_bary (s/s)    =  N/A
# P''_bary (s/s^2) =  N/A
# P_orb (s)        =  N/A
# asin(i)/c (s)    =  N/A
# eccentricity     =  N/A
# w (rad)          =  N/A
# T_peri           =  N/A
######################################################
   0  480.6925
   1  471.1021
   2  426.834
   3  593.4396
   4  752.1356
   5  738.3009
   6  602.5178
   7  433.4757
   8  291.9119
   9  197.0297
  10  276.7875
  11  436.4298
  12  300.6168
  13  189.7789
  14  193.2919
  15  471.1926
  16  496.2233
  17  494.8572
  18  336.6871
  19  331.1707
  20  284.5928
  21  405.5587
  22  404.0637
  23  369.6696
  24  320.9695
  25  379.1758
  26  414.9924
  27  469.1656
  28  432.7759
  29  462.6982
  30  379.7278
  31  382.4137
  32  439.0384
  33  441.0152
  34  500.8491
  35  491.3132
  36  510.6393
  37  502.6537
  38  492.0638
  39  500.5751
  40  423.815
  41  441.3562
  42  364.4659
  43  223.3944
  44  239.316
  45  288.3569
  46  328.8759
  47  337.0687
  48  510.9718
  49  677.4676
  50  658.8271
  51  547.2437
  52  459.3902
  53  438.1285
  54  485.9972
  55  580.2972
  56  583.544
  57  486.0752
  58  386.1059
  59  404.1011
  60  353.9544
  61  403.5941
  62  436.2772
  63  310.3322
  64  352.1968
  65  477.4768
  66  684.1037
  67  623.6675
  68  504.54
  69  561.963
  70  464.5802
  71  385.7559
  72  367.5239
  73  378.234
  74  391.8802
  75  415.8488
  76  523.9883
  77  437.3303
  78  185.2181
  79  149.1444
  80  125.6933
  81  232.6382
  82  215.7717
  83  360.3087
  84  409.2159
  85  451.4514
  86  502.5416
  87  486.062
  88  398.8863
  89  334.6468
  90  367.5181
  91  390.2894
  92  417.9092
  93  424.5434
  94  492.7328
  95  379.1635
  96  251.5958
  97  332.3959
  98  478.2364
  99  587.7905
 100  681.317
 101  657.3827
 102  610.0988
 103  441.6972
 104  464.5714
 105  471.655
 106  583.6445
 107  527.3489
 108  499.0416
 109  416.2824
 110  435.492
 111  345.929
 112  308.6575
 113  323.803
 114  417.2711
 115  397.5509
 116  376.7367
 117  373.1732
 118  413.6112
 119  520.9329
 120  499.4877
 121  484.8243
 122  364.549
 123  449.5297
 124  428.7263
 125  406.9211
 126  323.6667
 127  289.326
 128  337.8463
 129  297.0802
 130  320.5146
 131  425.9925
 132  390.4278
 133  303.3978
 134  261.9757
 135  444.3697
 136  579.4236
 137  663.089
 138  697.447
 139  620.7064
 140  477.4808
 141  404.472
 142  377.7571
 143  333.7004
 144  408.1428
 145  495.8563
 146  472.8603
 147  389.7847
 148  323.3051
 149  337.8174
 150  286.571
 151  285.1753
 152  376.2548
 153  379.1422
 154  428.7745
 155  419.7859
 156  469.7502
 157  378.7245
 158  328.8066
 159  310.7425
 160  234.2259
 161  256.7339
 162  303.6687
 163  426.5036
 164  505.8465
 165  483.1812
 166  402.4305
 167  436.9221
 168  485.7051
 169  503.2404
 170  337.7015
 171  428.1059
 172  488.0481
 173  497.5961
 174  384.3751
 175  411.3893
 176  502.9736
 177  597.5699
 178  574.1366
 179  435.2246
 180  356.0665
 181  324.4395
 182  456.3658
 183  483.3923
 184  421.407
 185  473.9247
 186  339.1017
 187  269.0803
 188  167.5121
 189  268.9064
 190  295.8167
 191  198.9043
 192  197.5069
 193  265.8738
 194  343.4187
 195  388.6003
 196  456.1037
 197  441.8945
 198  363.4514
 199  351.1744
 200  316.9856
 201  303.6875
 202  406.3199
 203  540.7748
 204  641.0604
 205  700.4929
 206  635.6265
 207  397.5679
 208  163.4785
 209  207.5529
 210  388.9081
 211  452.409
 212  453.2167
 213  512.1779
 214  435.4586
 215  434.0757
 216  452.173
 217  582.1423
 218  526.0928
 219  442.2462
 220  394.2834
 221  387.3055
 222  482.9249
 223  591.8673
 224  689.3285
 225  602.6642
 226  549.87
 227  435.4123
 228  446.8376
 229  480.6543
 230  624.0777
 231  675.8945
 232  575.1827
 233  573.1976
 234  463.4498
 235  474.4314
 236  459.5435
 237  499.5736
 238  406.5508
 239  327.7741
 240  460.0263
 241  519.0739
 242  403.6628
 243  403.0008
 244  402.0234
 245  296.1184
 246  197.9206
 247  362.6251
 248  434.7675
 249  389.0092
 250  498.3165
 251  648.8317
 252  664.3938
 253  583.1368
 254  584.987
 255  532.2277
 256  514.5515
 257  553.4901
 258  612.141
 259  479.657
 260  473.4328
 261  517.8787
 262  529.7583
 263  467.1636
 264  573.7025
 265  674.6645
 266  646.2993
 267  589.8014
 268  584.3685
 269  564.3669
 270  521.7275
 271  570.1166
 272  500.0765
 273  493.2091
 274  373.8039
 275  395.2664
 276  343.465
 277  351.4142
 278  430.5026
 279  569.2396
 280  645.1435
 281  603.2635
 282  506.2103
 283  554.5005
 284  600.4839
 285  705.9694
 286  541.6667
 287  484.0742
 288  365.2319
 289  389.2776
 290  446.523
 291  565.8295
 292  479.5767
 293  334.0849
 294  316.0369
 295  515.7806
 296  602.7249
 297  598.8549
 298  693.4368
 299  732.0433
 300  625.8487
 301  553.1376
 302  429.7578
 303  375.0296
 304  299.8579
 305  439.7338
 306  584.7797
 307  534.0884
 308  586.4648
 309  654.0245
 310  636.7775
 311  522.0718
 312  409.6771
 313  411.9978
 314  324.0683
 315  303.0066
 316  421.6755
 317  447.606
 318  467.314
 319  366.1372
 320  356.4859
 321  422.4523
 322  456.6898
 323  529.746
 324  437.5182
 325  442.1677
 326  553.4621
 327  615.4585
 328  666.9509
 329  677.8613
 330  553.2703
 331  495.6537
 332  280.9049
 333  405.4968
 334  448.6102
 335  550.9117
 336  451.7273
 337  469.7282
 338  470.7659
 339  441.5342
 340  338.8598
 341  419.6806
 342  486.8802
 343  544.0478
 344  509.2028
 345  524.9674
 346  426.1235
 347  507.6196
 348  551.4132
 349  666.6462
 350  660.5964
 351  687.046
 352  690.4683
 353  621.7819
 354  423.9339
 355  340.0395
 356  352.482
 357  513.9403
 358  501.7447
 359  425.1641
 360  400.063
 361  359.9331
 362  363.5755
 363  360.5741
 364  411.9333
 365  373.2062
 366  388.114
 367  586.6055
 368  650.9592
 369  507.6039
 370  338.392
 371  327.6913
 372  347.0843
 373  383.8811
 374  405.2125
 375  302.0913
 376  191.6581
 377  123.4702
 378  149.2219
 379  171.4869
 380  170.1456
 381  321.5565
 382  306.5387
 383  467.7914
 384  563.2725
 385  677.9885
 386  539.3526
 387  436.0276
 388  390.5323
 389  340.1527
 390  402.2354
 391  518.7916
 392  593.7213
 393  499.776
 394  385.7672
 395  407.5214
 396  391.8355
 397  433.1396
 398  463.2596
 399  497.0295
 400  454.9886
 401  380.7409
 402  374.5849
 403  347.4916
 404  503.0958
 405  490.6039
 406  480.5515
 407  346.3714
 408  372.5372
 409  380.9729
 410  414.3854
 411  454.5164
 412  482.699
 413  468.1801
 414  423.2026
 415  501.3032
 416  432.0749
 417  453.9329
 418  454.5941
 419  476.4405
 420  404.8834
 421  400.7062
 422  473.4432
 423  339.0411
 424  267.7456
 425  318.0276
 426  520.4274
 427  572.9066
 428  621.7275
 429  545.4143
 430  458.2943
 431  447.2026
 432  616.9869
 433  690.8059
 434  546.0497
 435  599.9323
 436  731.6297
 437  668.2344
 438  589.0433
 439  537.2977
 440  478.1791
 441  418.6898
 442  326.7521
 443  308.1696
 444  167.291
 445  270.6354
 446  430.7022
 447  503.0351
 448  511.986
 449  548.2481
 450  600.2759
 451  525.0806
 452  478.2416
 453  510.7344
 454  500.674
 455  443.1007
 456  375.5359
 457  471.3971
 458  560.7838
 459  544.4161
 460  493.6799
 461  543.1747
 462  574.1265
 463  542.5662
 464  554.9113
 465  582.6931
 466  663.7522
 467  594.0828
 468  584.4995
 469  524.9572
 470  428.3268
 471  412.242
 472  404.2849
 473  470.8426
 474  463.2062
 475  485.7418
 476  577.0857
 477  535.3835
 478  448.1012
 479  442.6482
 480  510.6493
 481  590.7971
 482  487.245
 483  527.3902
 484  548.5228
 485  502.7359
 486  517.7466
 487  532.7875
 488  490.8138
 489  431.954
 490  464.4389
 491  446.2036
 492  399.1686
 493  398.2045
 494  437.4836
 495  390.3123
 496  314.7141
 497  433.0475
 498  430.2084
 499  488.0002
 500  552.1785
 501  685.9405
 502  643.4655
 503  554.9277
 504  468.7151
 505  437.8117
 506  330.9842
 507  353.1967
 508  417.4677
 509  422.5838
 510  486.5272
 511  515.9031
 512  419.2738
 513  270.9885
 514  265.0621
 515  442.9081
 516  573.9455
 517  615.8557
 518  536.0399
 519  435.292
 520  363.117
 521  366.903
 522  340.5808
 523  456.3939
 524  496.9513
 525  440.1799
 526  446.6122
 527  364.0173
 528  378.1393
 529  242.6037
 530  295.6302
 531  411.3983
 532  374.6638
 533  306.539
 534  295.4547
 535  339.412
 536  243.5311
 537  394.2013
 538  542.3998
 539  598.134
 540  355.0504
 541  412.2822
 542  425.6306
 543  323.4845
 544  117.728
 545  175.8549
 546  206.6173
 547  267.6582
 548  279.9945
 549  346.2292
 550  297.2141
 551  379.6051
 552  494.1737
 553  493.86
 554  298.6705
 555  308.5653
 556  372.8814
 557  472.4573
 558  508.3864
 559  524.5116
 560  492.9868
 561  415.1349
 562  366.2712
 563  391.1247
 564  495.941
 565  609.3896
 566  641.2447
 567  581.3602
 568  653.7991
 569  762.1745
 570  660.1085
 571  367.5247
 572  305.2943
 573  349.3699
 574  451.4998
 575  396.2586
 576  388.6937
 577  282.2927
 578  166.4495
 579  280.7827
 580  550.7151
 581  658.5654
 582  633.3447
 583  458.9722
 584  451.0986
 585  431.8609
 586  439.0249
 587  364.3207
 588  266.6111
 589  242.8935
 590  300.5787
 591  392.0521
 592  460.6496
 593  493.272
 594  443.8372
 595  458.7171
 596  566.1759
 597  578.5875
 598  536.6201
 599  556.5236
 600  567.7907
 601  567.1019
 602  367.2155
 603  373.1443
 604  379.8217
 605  469.3771
 606  559.4659
 607  556.2415
 608  449.0703
 609  466.4125
 610  663.0432
 611  795.832
 612  768.111
 613  690.485
 614  661.8144
 615  581.5856
 616  517.4409
 617  589.9915
 618  601.5493
 619  644.9138
 620  609.4383
 621  592.248
 622  404.0607
 623  402.2257
 624  528.2915
 625  668.9846
 626  573.2917
 627  544.6311
 628  604.4562
 629  679.1132
 630  661.9027
 631  606.9261
 632  571.1733
 633  549.2961
 634  636.9316
 635  607.4123
 636  682.6865
 637  755.4614
 638  868.9153
 639  823.4777
 640  889.2847
 641  916.2616
 642  1010.198
 643  1094.999
 644  1271.795
 645  1347.645
 646  1232.356
 647  1121.382
 648  1051.11
 649  1014.081
 650  912.9066
 651  791.9785
 652  682.305
 653  631.2975
 654  586.2224
 655  538.5701
 656  385.5232
 657  460.8786
 658  562.3554
 659  695.9782
 660  592.0812
 661  567.8943
 662  490.8502
 663  475.2847
 664  573.0106
 665  620.2504
 666  666.8057
 667  699.96
 668  801.9758
 669  710.185
 670  516.8737
 671  425.7556
 672  513.7305
 673  446.5672
 674  448.9195
 675  443.1847
 676  470.9784
 677  472.062
 678  523.5568
 679  641.7431
 680  555.1769
 681  517.913
 682  610.0046
 683  557.2334
 684  522.2279
 685  491.2148
 686  594.8625
 687  532.0134
 688  532.5666
 689  540.2906
 690  462.7298
 691  312.8956
 692  335.9161
 693  439.6378
 694  527.0126
 695  513.5472
 696  551.5683
 697  523.806
 698  545.8811
 699  528.9167
 700  574.3386
 701  477.9564
 702  465.5572
 703  366.437
 704  241.6643
 705  240.8405
 706  274.7723
 707  359.9628
 708  435.1557
 709  407.2016
 710  390.6986
 711  303.4462
 712  337.5863
 713  438.8857
 714  448.2292
 715  505.1644
 716  495.3104
 717  518.1496
 718  557.0028
 719  544.8948
 720  519.5641
 721  496.8143
 722  453.2989
 723  517.3424
 724  510.5377
 725  493.0629
 726  546.4572
 727  636.6702
 728  675.0433
 729  655.4356
 730  656.5044
 731  624.1844
 732  553.4926
 733  557.0195
 734  479.8035
 735  365.752
 736  429.9943
 737  510.1952
 738  595.6227
 739  447.3101
 740  421.9778
 741  335.5982
 742  301.7666
 743  283.4117
 744  321.685
 745  307.7238
 746  314.6974
 747  419.132
 748  574.2232
 749  564.9974
 750  492.3143
 751  486.0087
 752  510.4736
 753  537.7
 754  551.8025
 755  537.9974
 756  592.0804
 757  473.2827
 758  474.2156
 759  442.511
 760  538.4301
 761  589.8243
 762  645.9653
 763  567.1105
 764  499.8966
 765  409.0786
 766  445.7906
 767  457.8694
 768  399.0143
 769  410.71
 770  331.6489
 771  431.7113
 772  385.6365
 773  340.6036
 774  411.7302
 775  504.3603
 776  544.845
 777  462.6814
 778  517.0513
 779  475.3657
 780  575.4559
 781  617.7476
 782  558.5641
 783  384.7144
 784  354.1314
 785  493.1504
 786  500.4051
 787  442.8822
 788  467.1636
 789  338.1801
 790  401.3697
 791  414.4904
 792  504.55
 793  431.7355
 794  474.7815
 795  557.6873
 796  578.9895
 797  523.9075
 798  593.0001
 799  589.7228
 800  480.3615
 801  405.495
 802  440.9165
 803  429.1961
 804  517.214
 805  590.7319
 806  706.8162
 807  589.3256
 808  492.9474
 809  416.5107
 810  452.2493
 811  527.6115
 812  582.7061
 813  683.519
 814  752.4062
 815  712.8951
 816  642.3356
 817  538.5397
 818  492.6075
 819  559.3016
 820  662.2782
 821  747.5317
 822  693.3862
 823  622.3944
 824  509.6911
 825  530.9436
 826  507.377
 827  644.2631
 828  729.9472
 829  800.3338
 830  611.61
 831  479.7118
 832  445.2747
 833  482.84
 834  430.203
 835  460.5662
 836  462.0451
 837  356.1835
 838  245.6939
 839  324.8816
 840  457.329
 841  429.8854
 842  425.1568
 843  502.5189
 844  513.7828
 845  412.955
 846  378.2861
 847  542.1896
 848  601.9477
 849  603.1348
 850  562.8491
 851  531.428
 852  489.2542
 853  494.0392
 854  474.495
 855  264.5668
 856  151.3673
 857  277.507
 858  444.596
 859  437.0204
 860  371.6033
 861  405.5858
 862  386.3694
 863  406.9117
 864  508.6387
 865  597.723
 866  578.6393
 867  520.8667
 868  532.0281
 869  494.6119
 870  334.0851
 871  308.5957
 872  195.4501
 873  207.5844
 874  293.2216
 875  417.3527
 876  474.6751
 877  413.2334
 878  453.0986
 879  470.1067
 880  474.4651
 881  571.4301
 882  699.7514
 883  673.4518
 884  611.7675
 885  469.4223
 886  438.1069
 887  423.386
 888  489.9113
 889  487.9185
 890  475.0724
 891  376.5952
 892  177.8443
 893  103.557
 894  292.8623
 895  423.6057
 896  426.9951
 897  463.2219
 898  508.0949
 899  512.7773
 900  428.3675
 901  431.0863
 902  432.7629
 903  383.0266
 904  487.327
 905  445.3682
 906  450.146
 907  338.1682
 908  459.5598
 909  512.1755
 910  576.8116
 911  557.4612
 912  534.2243
 913  421.0936
 914  355.0494
 915  369.232
 916  378.4105
 917  389.7039
 918  411.348
 919  428.1013
 920  371.873
 921  431.4214
 922  474.8162
 923  451.1945
 924  431.0978
 925  433.678
 926  558.3687
 927  559.2757
 928  635.9866
 929  717.1713
 930  794.8893
 931  606.4317
 932  528.6124
 933  499.527
 934  506.413
 935  497.7094
 936  446.7456
 937  374.087
 938  284.8975
 939  270.3743
 940  229.6124
 941  204.406
 942  181.161
 943  328.0396
 944  431.4834
 945  545.9119
 946  567.6228
 947  695.1665
 948  781.5607
 949  699.0169
 950  504.6701
 951  473.5119
 952  563.7695
 953  555.2014
 954  478.1652
 955  398.2122
 956  475.7211
 957  508.4687
 958  474.891
 959  572.2153
 960  635.0447
 961  731.2804
 962  704.7437
 963  678.0401
 964  588.2639
 965  517.3575
 966  578.2045
 967  564.2784
 968  456.4575
 969  477.885
 970  489.3939
 971  376.381
 972  422.7374
 973  478.0622
 974  478.4985
 975  336.1729
 976  419.5263
 977  533.427
 978  429.8024
 979  440.9795
 980  406.0864
 981  538.9473
 982  551.6073
 983  628.6453
 984  687.2699
 985  566.4263
 986  417.0394
 987  364.5826
 988  350.9498
 989  305.2717
 990  360.4543
 991  520.5739
 992  566.0875
 993  490.2324
 994  503.2537
 995  503.9337
 996  580.7333
 997  637.0705
 998  624.2433
 999  487.4872
1000  408.8423
1001  449.0355
1002  475.8195
1003  428.2388
1004  278.3193
1005  250.5181
1006  352.6699
1007  506.7212
1008  469.3366
1009  417.7339
1010  408.2958
1011  446.4243
1012  377.314
1013  432.2496
1014  468.5406
1015  376.4376
1016  300.4389
1017  330.3997
1018  419.4442
1019  385.4289
1020  407.2447
1021  435.5406
1022  486.8661
1023  504.8409
