# Input file       =  1188020427.116889_cleaned.dat
# Candidate        =  PSR_0332+5434
# Telescope        =  AR
# Epoch_topo       =  57994.236644871402
# Epoch_bary       =  N/A
# T_sample         =  0.002
# Data Folded      =  7340032
# Data Avg         =  0.0372590259503341
# Data StdDev      =  3.05188720905531 
# Profile Bins     =  1024
# Profile Avg      =  267.076952646886 
# Profile StdDev   =  258.385106706539 
# Reduced chi-sqr  =  1.077
# Prob(Noise)      <  0.0433   (~1.7 sigma)
# P_topo (ms)      =  714.463687308994  +/- 3.8e-05
# P'_topo (s/s)    =  -0                +/- 2e-11
# P''_topo (s/s^2) =  0                 +/- 8.85e-15
# P_bary (ms)      =  N/A
# P'_bary (s/s)    =  N/A
# P''_bary (s/s^2) =  N/A
# P_orb (s)        =  N/A
# asin(i)/c (s)    =  N/A
# eccentricity     =  N/A
# w (rad)          =  N/A
# T_peri           =  N/A
######################################################
   0  349.7432
   1  226.3669
   2  35.2689
   3  13.63894
   4  50.05532
   5  -0.6860005
   6  17.21017
   7  126.6837
   8  274.9131
   9  148.8426
  10  100.3681
  11  107.4368
  12  294.0758
  13  380.2909
  14  301.987
  15  288.1417
  16  279.754
  17  328.297
  18  361.9023
  19  415.831
  20  310.1068
  21  157.7481
  22  203.658
  23  339.3834
  24  338.0174
  25  254.0231
  26  328.2514
  27  452.9983
  28  515.1836
  29  435.7149
  30  348.1052
  31  218.027
  32  263.5646
  33  277.357
  34  285.4776
  35  269.2512
  36  353.0597
  37  354.3212
  38  230.7056
  39  232.5926
  40  236.7424
  41  207.3992
  42  12.24021
  43  144.3372
  44  354.9918
  45  486.3868
  46  308.1036
  47  150.4038
  48  191.0595
  49  300.1957
  50  357.4956
  51  246.0868
  52  376.2472
  53  428.4014
  54  561.7518
  55  516.9185
  56  500.3842
  57  428.5013
  58  411.7601
  59  495.0009
  60  524.8959
  61  576.9137
  62  550.746
  63  602.5063
  64  588.945
  65  608.0973
  66  423.1502
  67  284.2941
  68  195.9989
  69  169.6711
  70  227.5862
  71  219.1992
  72  334.5818
  73  323.6489
  74  206.8884
  75  162.502
  76  261.9216
  77  379.831
  78  346.6808
  79  236.0417
  80  198.0247
  81  202.3292
  82  92.54604
  83  68.80504
  84  -30.19513
  85  82.72639
  86  102.6943
  87  119.7102
  88  119.6347
  89  158.7197
  90  274.6086
  91  235.9263
  92  286.0098
  93  164.0982
  94  88.78492
  95  -29.83209
  96  44.10619
  97  199.6101
  98  204.213
  99  173.696
 100  164.8589
 101  213.9448
 102  237.651
 103  212.8349
 104  97.95926
 105  156.1742
 106  277.2526
 107  381.8235
 108  262.0729
 109  164.5484
 110  25.49033
 111  44.21303
 112  -20.54087
 113  54.6678
 114  119.859
 115  215.5812
 116  270.2311
 117  219.3667
 118  306.2814
 119  291.08
 120  222.2153
 121  102.7071
 122  57.55145
 123  131.5146
 124  49.53246
 125  115.4999
 126  82.26416
 127  198.0312
 128  80.01319
 129  54.07856
 130  54.15398
 131  27.08552
 132  -25.61952
 133  57.53758
 134  308.9229
 135  390.364
 136  242.2275
 137  59.32996
 138  179.6649
 139  263.5708
 140  316.5007
 141  190.7118
 142  287.6916
 143  319.5168
 144  281.8208
 145  262.2341
 146  286.5033
 147  328.6722
 148  179.7441
 149  133.7979
 150  183.8024
 151  208.3425
 152  61.1104
 153  -37.47515
 154  -110.5163
 155  -54.91899
 156  82.87337
 157  124.5463
 158  340.5302
 159  331.486
 160  378.6142
 161  229.9958
 162  254.269
 163  229.394
 164  189.4592
 165  62.74815
 166  170.212
 167  239.5587
 168  350.861
 169  258.1286
 170  119.7349
 171  284.8914
 172  249.6567
 173  260.9309
 174  141.7347
 175  406.3162
 176  418.8893
 177  386.0168
 178  334.3588
 179  444.0515
 180  432.549
 181  315.6798
 182  342.7453
 183  407.3136
 184  539.1439
 185  510.4409
 186  563.7587
 187  510.4647
 188  489.5733
 189  280.9743
 190  142.3231
 191  101.5165
 192  229.3728
 193  309.9358
 194  448.0604
 195  629.2798
 196  603.0901
 197  487.8457
 198  381.9207
 199  363.1209
 200  432.3567
 201  417.767
 202  410.4023
 203  225.006
 204  257.5365
 205  271.8519
 206  157.1987
 207  -34.29707
 208  48.91773
 209  134.78
 210  141.2647
 211  81.76258
 212  132.05
 213  276.2733
 214  298.3348
 215  529.8243
 216  538.6047
 217  449.9931
 218  123.6385
 219  96.61658
 220  140.9619
 221  137.6034
 222  66.86556
 223  140.4121
 224  327.2302
 225  417.148
 226  405.7657
 227  225.9999
 228  248.1693
 229  187.6823
 230  171.9065
 231  162.7966
 232  223.6577
 233  369.6522
 234  334.5461
 235  325.8489
 236  370.4827
 237  351.4769
 238  170.4264
 239  42.17466
 240  123.0739
 241  286.2964
 242  370.1203
 243  377.7961
 244  398.5555
 245  203.6466
 246  9.485928
 247  34.00931
 248  244.6283
 249  315.9339
 250  265.9916
 251  295.1347
 252  381.4981
 253  479.0073
 254  310.5979
 255  206.9023
 256  137.2318
 257  199.552
 258  283.6129
 259  305.1989
 260  266.3716
 261  233.9605
 262  139.0433
 263  177.8498
 264  119.2102
 265  217.2643
 266  161.0184
 267  171.8449
 268  210.0425
 269  195.7536
 270  357.1571
 271  380.2252
 272  407.0321
 273  238.612
 274  229.8984
 275  220.5328
 276  167.3882
 277  275.2789
 278  388.5951
 279  450.2339
 280  269.3863
 281  252.7616
 282  169.1781
 283  352.5036
 284  310.8203
 285  229.0428
 286  127.4546
 287  156.1937
 288  180.3815
 289  163.1927
 290  203.5869
 291  209.317
 292  379.4212
 293  412.0204
 294  427.7812
 295  208.3654
 296  208.2011
 297  181.9697
 298  257.0209
 299  266.5529
 300  347.9246
 301  333.1895
 302  308.784
 303  384.5168
 304  367.8915
 305  252.5904
 306  66.28857
 307  127.595
 308  223.1928
 309  345.2538
 310  326.9077
 311  386.7484
 312  277.4064
 313  219.9404
 314  346.1014
 315  476.0543
 316  493.925
 317  334.3499
 318  300.9283
 319  328.2611
 320  313.6484
 321  334.4338
 322  446.5362
 323  475.8817
 324  261.651
 325  78.82173
 326  14.94291
 327  171.4968
 328  198.4799
 329  271.0691
 330  356.132
 331  439.8501
 332  332.8392
 333  225.3578
 334  87.83526
 335  160.3236
 336  160.0915
 337  236.9209
 338  161.1708
 339  134.3773
 340  132.6689
 341  282.8539
 342  396.0896
 343  410.1723
 344  326.6322
 345  421.1662
 346  498.3088
 347  577.9058
 348  518.8904
 349  382.2461
 350  255.9271
 351  274.5317
 352  457.1717
 353  464.2012
 354  398.8812
 355  378.7458
 356  476.8612
 357  367.798
 358  150.6116
 359  67.51392
 360  118.5831
 361  103.9553
 362  115.8191
 363  185.3012
 364  281.552
 365  264.0778
 366  159.9107
 367  198.3068
 368  214.7885
 369  241.9905
 370  240.148
 371  288.0328
 372  337.9763
 373  256.1021
 374  81.19565
 375  55.94802
 376  162.9891
 377  260.0402
 378  265.0373
 379  274.6003
 380  517.428
 381  500.4547
 382  298.7742
 383  168.0227
 384  244.4831
 385  341.7744
 386  424.9765
 387  384.5993
 388  346.8935
 389  282.3776
 390  287.8279
 391  258.5478
 392  113.3452
 393  37.88764
 394  -42.82673
 395  -6.932621
 396  18.73521
 397  112.0379
 398  184.6138
 399  227.4797
 400  201.0285
 401  145.5172
 402  237.1218
 403  300.1503
 404  352.2553
 405  377.4435
 406  288.5724
 407  104.5048
 408  18.7632
 409  185.2397
 410  197.5294
 411  321.4571
 412  313.2902
 413  353.8105
 414  236.707
 415  224.2361
 416  438.3028
 417  490.7132
 418  415.5702
 419  184.921
 420  194.3676
 421  169.9193
 422  141.0191
 423  103.3576
 424  212.101
 425  271.62
 426  219.1745
 427  124.9001
 428  153.2083
 429  181.5052
 430  172.0419
 431  178.0854
 432  214.6294
 433  189.076
 434  196.732
 435  160.6018
 436  264.8853
 437  375.2918
 438  192.5342
 439  48.73158
 440  103.3692
 441  384.269
 442  484.2854
 443  311.0251
 444  214.0014
 445  144.0384
 446  169.9208
 447  140.2613
 448  194.3388
 449  350.4759
 450  430.3748
 451  276.2633
 452  167.1927
 453  190.432
 454  235.267
 455  122.7916
 456  57.25542
 457  84.58464
 458  28.83328
 459  -49.57556
 460  -70.44791
 461  118.9982
 462  196.4516
 463  285.5325
 464  215.9323
 465  238.6458
 466  224.5668
 467  236.0744
 468  323.4178
 469  354.6462
 470  447.9739
 471  446.8691
 472  349.6507
 473  309.0226
 474  207.7661
 475  217.7773
 476  202.8628
 477  244.6749
 478  278.6822
 479  265.0995
 480  167.5444
 481  91.55166
 482  -2.057767
 483  72.67127
 484  172.8245
 485  242.4257
 486  208.9123
 487  157.9565
 488  121.1539
 489  128.517
 490  271.8601
 491  437.3126
 492  283.9528
 493  96.72261
 494  124.6612
 495  378.3544
 496  551.1313
 497  346.1909
 498  236.4241
 499  133.406
 500  188.6658
 501  62.82892
 502  195.4166
 503  425.8216
 504  486.2263
 505  430.7133
 506  248.3776
 507  265.4751
 508  188.4696
 509  166.2223
 510  199.2893
 511  240.4152
 512  279.1288
 513  236.4792
 514  323.5028
 515  344.1108
 516  358.0322
 517  217.9128
 518  94.01627
 519  77.82307
 520  104.559
 521  72.15168
 522  59.21114
 523  144.5318
 524  280.0339
 525  308.1495
 526  187.0481
 527  216.5124
 528  74.47841
 529  102.4203
 530  22.7381
 531  100.1197
 532  146.0451
 533  108.0375
 534  100.4384
 535  126.7034
 536  192.5068
 537  146.6745
 538  119.1425
 539  67.70974
 540  203.8308
 541  269.4012
 542  306.0358
 543  253.2438
 544  95.3006
 545  164.4449
 546  186.2067
 547  370.3748
 548  454.1567
 549  576.215
 550  325.8874
 551  258.0275
 552  120.8849
 553  333.522
 554  302.7539
 555  352.8563
 556  412.9346
 557  339.2306
 558  213.5859
 559  73.54955
 560  200.3633
 561  196.7837
 562  284.8167
 563  274.4511
 564  330.676
 565  332.0524
 566  318.0753
 567  241.0407
 568  132.2601
 569  183.6488
 570  156.1024
 571  98.67564
 572  113.2552
 573  301.7593
 574  314.6475
 575  272.9952
 576  256.1927
 577  295.6684
 578  299.2901
 579  145.8059
 580  301.6078
 581  313.8145
 582  371.3361
 583  302.5491
 584  457.5629
 585  502.8648
 586  493.2659
 587  257.443
 588  180.2145
 589  122.1867
 590  186.7346
 591  214.3241
 592  266.5557
 593  317.8964
 594  312.2895
 595  298.073
 596  281.2141
 597  240.1258
 598  290.9779
 599  199.1687
 600  119.2167
 601  210.7404
 602  315.8173
 603  357.4676
 604  186.546
 605  48.10415
 606  65.70564
 607  54.67218
 608  112.1226
 609  83.03811
 610  250.5013
 611  364.0202
 612  326.9674
 613  381.2735
 614  483.5513
 615  580.1509
 616  508.3689
 617  325.4849
 618  280.04
 619  271.1052
 620  266.1934
 621  258.1316
 622  285.7897
 623  419.9119
 624  314.2508
 625  187.0131
 626  188.4959
 627  316.226
 628  387.2354
 629  471.9137
 630  465.8955
 631  457.9001
 632  230.2357
 633  127.1019
 634  145.3372
 635  259.5106
 636  367.0171
 637  330.2254
 638  514.7571
 639  538.0058
 640  544.2047
 641  546.0591
 642  674.2761
 643  902.0261
 644  921.6223
 645  916.8002
 646  911.5966
 647  919.6041
 648  823.804
 649  745.5821
 650  683.6791
 651  686.4718
 652  613.2526
 653  520.7338
 654  590.3885
 655  459.9199
 656  435.9673
 657  406.8803
 658  604.4484
 659  675.7399
 660  709.2164
 661  548.3717
 662  450.1765
 663  376.4679
 664  266.0166
 665  314.2859
 666  489.4616
 667  685.5991
 668  630.7813
 669  460.2917
 670  486.8372
 671  520.1378
 672  625.879
 673  592.1813
 674  671.9835
 675  492.9078
 676  360.3028
 677  297.062
 678  375.7371
 679  522.5127
 680  547.5198
 681  480.2582
 682  428.7638
 683  468.4909
 684  490.1796
 685  425.3329
 686  400.0456
 687  400.3858
 688  338.8205
 689  266.2197
 690  207.3894
 691  119.4219
 692  246.8211
 693  417.4954
 694  469.6107
 695  398.0974
 696  354.7513
 697  219.9461
 698  135.045
 699  46.40625
 700  129.8424
 701  79.3465
 702  129.4937
 703  203.9931
 704  382.9723
 705  358.0125
 706  239.7562
 707  178.9244
 708  299.2302
 709  280.577
 710  190.7889
 711  247.0348
 712  298.6596
 713  376.2142
 714  247.6578
 715  222.312
 716  292.6274
 717  268.6513
 718  166.687
 719  75.38673
 720  230.7797
 721  269.9799
 722  148.556
 723  35.01128
 724  137.9709
 725  194.9599
 726  295.377
 727  334.7287
 728  447.0557
 729  547.3332
 730  534.4603
 731  443.2238
 732  300.6483
 733  196.8009
 734  206.4289
 735  205.2505
 736  265.9581
 737  220.0542
 738  212.3359
 739  151.144
 740  325.5218
 741  482.9254
 742  618.4869
 743  384.6115
 744  268.4955
 745  304.2533
 746  388.0139
 747  338.3552
 748  222.1939
 749  353.7971
 750  353.1149
 751  363.0417
 752  284.4668
 753  387.1204
 754  381.4982
 755  196.2721
 756  35.34
 757  166.2881
 758  384.9879
 759  385.7494
 760  444.5724
 761  447.8176
 762  584.7778
 763  382.6701
 764  229.4174
 765  155.7139
 766  283.5199
 767  306.5685
 768  191.7766
 769  148.3646
 770  161.9404
 771  224.5192
 772  168.1661
 773  165.6429
 774  193.1687
 775  201.0243
 776  229.1241
 777  235.515
 778  248.1718
 779  185.3146
 780  172.5111
 781  237.7936
 782  284.645
 783  201.2414
 784  248.7886
 785  433.4459
 786  610.941
 787  641.3584
 788  454.54
 789  531.627
 790  447.4426
 791  369.4733
 792  8.803561
 793  24.52144
 794  144.1752
 795  261.5673
 796  215.0652
 797  362.765
 798  407.0963
 799  384.9738
 800  156.6994
 801  97.83946
 802  128.1326
 803  207.8646
 804  266.3405
 805  229.5195
 806  208.3204
 807  216.2505
 808  325.874
 809  357.3654
 810  333.1529
 811  210.3468
 812  227.7857
 813  330.173
 814  255.0933
 815  189.7815
 816  31.10666
 817  101.2585
 818  105.8068
 819  158.0032
 820  172.9507
 821  209.1306
 822  285.7105
 823  306.4101
 824  175.0348
 825  37.29663
 826  94.34673
 827  236.7574
 828  393.9828
 829  319.6361
 830  339.1499
 831  362.3289
 832  404.709
 833  271.5647
 834  202.3129
 835  227.6985
 836  232.2419
 837  150.4336
 838  130.6238
 839  241.9293
 840  252.2232
 841  203.5606
 842  168.1759
 843  198.4106
 844  127.2559
 845  108.6816
 846  282.8344
 847  388.1163
 848  229.5397
 849  19.05811
 850  85.14029
 851  265.7242
 852  326.4486
 853  238.6686
 854  190.4745
 855  208.0598
 856  290.4069
 857  304.6072
 858  233.0208
 859  257.994
 860  244.9277
 861  343.0156
 862  205.8488
 863  182.9516
 864  55.08886
 865  55.07349
 866  12.19096
 867  145.875
 868  283.2865
 869  341.9613
 870  227.3722
 871  111.0202
 872  245.4446
 873  172.6099
 874  212.4749
 875  226.423
 876  401.3881
 877  478.9826
 878  411.5676
 879  395.2614
 880  282.4158
 881  256.4276
 882  91.08636
 883  112.1197
 884  147.2298
 885  240.0759
 886  92.37649
 887  131.4828
 888  218.0975
 889  389.909
 890  413.7963
 891  340.7127
 892  254.5654
 893  93.65816
 894  157.949
 895  269.5301
 896  461.511
 897  415.7329
 898  345.7925
 899  295.268
 900  351.174
 901  333.9515
 902  148.613
 903  84.30325
 904  131.7803
 905  244.8661
 906  244.8525
 907  220.1096
 908  190.1143
 909  139.2234
 910  84.32349
 911  86.92439
 912  4.244333
 913  -3.808351
 914  -36.32759
 915  111.4437
 916  255.2234
 917  351.2083
 918  339.0717
 919  393.0079
 920  390.8741
 921  311.4128
 922  12.57562
 923  -68.41135
 924  39.32926
 925  291.1962
 926  236.6509
 927  167.2365
 928  106.9742
 929  228.5047
 930  212.6415
 931  111.8113
 932  145.8529
 933  238.7339
 934  417.6902
 935  405.5801
 936  385.6328
 937  277.2044
 938  317.3997
 939  278.3539
 940  297.9798
 941  159.521
 942  139.81
 943  135.4956
 944  186.2456
 945  303.773
 946  295.4276
 947  247.1594
 948  129.4572
 949  109.4427
 950  4.738013
 951  107.3699
 952  197.4962
 953  419.0478
 954  415.4423
 955  435.2188
 956  362.3795
 957  259.3192
 958  243.7766
 959  265.6988
 960  420.8095
 961  458.026
 962  330.093
 963  121.8748
 964  -6.857497
 965  18.49381
 966  224.0904
 967  341.4024
 968  347.8607
 969  267.8068
 970  301.1268
 971  223.5332
 972  98.74661
 973  182.6887
 974  429.9285
 975  574.054
 976  439.3167
 977  292.9593
 978  355.0584
 979  478.4819
 980  486.0579
 981  292.9457
 982  186.8306
 983  202.0035
 984  316.2393
 985  277.6945
 986  219.7275
 987  158.1875
 988  176.8912
 989  324.3419
 990  410.2114
 991  368.8119
 992  139.2478
 993  191.0813
 994  343.42
 995  423.7336
 996  242.4273
 997  243.3795
 998  341.6645
 999  439.222
1000  256.0486
1001  139.8069
1002  142.8715
1003  153.5644
1004  177.3085
1005  284.4758
1006  469.8994
1007  236.6129
1008  50.85895
1009  -34.10772
1010  392.1064
1011  544.0347
1012  443.4517
1013  164.2415
1014  54.21974
1015  108.2535
1016  171.9044
1017  273.6498
1018  221.0792
1019  301.031
1020  394.9676
1021  482.3571
1022  391.9422
1023  359.9254
