# Input file       =  1188694860.115103_cleaned.dat
# Candidate        =  PSR_0332+5434
# Telescope        =  AR
# Epoch_topo       =  58002.042582350732
# Epoch_bary       =  N/A
# T_sample         =  0.002
# Data Folded      =  7340032
# Data Avg         =  0.0253280952310888
# Data StdDev      =  2.45549965437606 
# Profile Bins     =  1024
# Profile Avg      =  181.418461950445 
# Profile StdDev   =  207.892525756291 
# Reduced chi-sqr  =  1.038
# Prob(Noise)      <  0.191   (~0.9 sigma)
# P_topo (ms)      =  714.463976124762  +/- 0.000151
# P'_topo (s/s)    =  -0                +/- 7.97e-11
# P''_topo (s/s^2) =  0                 +/- 3.52e-14
# P_bary (ms)      =  N/A
# P'_bary (s/s)    =  N/A
# P''_bary (s/s^2) =  N/A
# P_orb (s)        =  N/A
# asin(i)/c (s)    =  N/A
# eccentricity     =  N/A
# w (rad)          =  N/A
# T_peri           =  N/A
######################################################
   0  2.277177
   1  135.0809
   2  96.77725
   3  13.19933
   4  75.59226
   5  139.2781
   6  185.3772
   7  209.7806
   8  276.3583
   9  318.5685
  10  161.9084
  11  259.0076
  12  222.5503
  13  319.1978
  14  267.9655
  15  353.1204
  16  370.1373
  17  273.1991
  18  147.9965
  19  156.1021
  20  282.304
  21  421.975
  22  397.1145
  23  247.0725
  24  145.8938
  25  134.373
  26  229.4898
  27  288.5555
  28  257.395
  29  184.3412
  30  98.61642
  31  165.4275
  32  152.0678
  33  201.8557
  34  216.0802
  35  257.9782
  36  206.2695
  37  199.3916
  38  69.82378
  39  62.69558
  40  -3.468428
  41  87.33818
  42  75.3621
  43  130.3535
  44  136.2095
  45  103.2789
  46  -9.050238
  47  -111.2344
  48  -137.4549
  49  -1.708277
  50  75.12276
  51  106.2451
  52  170.2171
  53  238.8867
  54  181.0342
  55  89.4072
  56  66.32397
  57  24.88712
  58  24.95305
  59  22.15193
  60  10.92895
  61  37.84269
  62  134.8278
  63  200.2224
  64  195.2335
  65  205.5706
  66  273.1395
  67  169.1572
  68  79.23227
  69  117.7842
  70  282.0489
  71  322.9631
  72  354.9692
  73  250.5305
  74  293.1223
  75  255.7521
  76  202.088
  77  126.6457
  78  75.30213
  79  115.8626
  80  160.6031
  81  151.1002
  82  100.1624
  83  140.1184
  84  96.9724
  85  50.97151
  86  19.90006
  87  138.1759
  88  210.7181
  89  132.8038
  90  86.43779
  91  95.71178
  92  186.518
  93  128.238
  94  63.89546
  95  -16.44334
  96  34.74512
  97  27.82913
  98  2.717523
  99  14.38658
 100  92.37344
 101  177.5805
 102  219.1095
 103  211.2759
 104  249.3636
 105  200.0529
 106  214.3599
 107  182.4279
 108  180.765
 109  184.9228
 110  198.8876
 111  193.4988
 112  112.6503
 113  52.37389
 114  -4.695061
 115  132.2843
 116  161.0022
 117  369.5194
 118  363.6767
 119  330.9981
 120  165.2315
 121  102.2854
 122  86.66673
 123  144.1054
 124  73.55651
 125  -7.100649
 126  -54.24883
 127  41.13842
 128  90.97105
 129  102.1695
 130  51.42082
 131  88.31953
 132  85.86156
 133  128.5298
 134  39.30547
 135  131.5693
 136  174.7215
 137  229.5882
 138  180.0437
 139  172.1671
 140  149.1036
 141  16.02787
 142  6.276769
 143  63.88837
 144  89.6634
 145  90.86952
 146  144.6243
 147  172.7701
 148  218.4766
 149  216.4143
 150  293.7853
 151  150.9938
 152  59.93012
 153  99.22968
 154  242.2541
 155  243.1417
 156  282.4383
 157  360.9935
 158  381.7134
 159  206.5384
 160  124.5478
 161  155.6775
 162  187.1559
 163  176.1459
 164  248.6729
 165  369.6281
 166  426.8815
 167  490.6653
 168  344.7258
 169  126.1692
 170  -45.57724
 171  -35.7073
 172  -59.80985
 173  -31.91257
 174  158.0225
 175  296.828
 176  292.1849
 177  234.4783
 178  194.752
 179  189.4547
 180  185.5717
 181  128.6925
 182  126.6505
 183  125.7274
 184  302.9396
 185  356.7065
 186  250.4615
 187  193.1716
 188  184.6466
 189  245.4472
 190  133.3434
 191  83.78149
 192  51.12926
 193  84.53889
 194  215.1461
 195  279.3442
 196  359.471
 197  252.2429
 198  243.5331
 199  100.0541
 200  183.1985
 201  312.9487
 202  361.9517
 203  250.3112
 204  67.39384
 205  129.0393
 206  173.5616
 207  289.1964
 208  195.7938
 209  221.1673
 210  203.0553
 211  274.1758
 212  214.3124
 213  176.4908
 214  216.5384
 215  309.5475
 216  316.666
 217  246.0174
 218  169.9168
 219  240.877
 220  228.8449
 221  221.0415
 222  185.6829
 223  224.8607
 224  282.4364
 225  319.4901
 226  376.7245
 227  352.7443
 228  217.292
 229  162.9697
 230  105.3715
 231  117.803
 232  77.38361
 233  145.8994
 234  221.8626
 235  217.3878
 236  181.8383
 237  245.5315
 238  261.4488
 239  259.0165
 240  221.3484
 241  303.9635
 242  316.1473
 243  282.9768
 244  289.2552
 245  358.3665
 246  311.8257
 247  205.0727
 248  55.08078
 249  91.41148
 250  86.81638
 251  172.4884
 252  71.76144
 253  85.2453
 254  119.2021
 255  270.9117
 256  274.9372
 257  111.1153
 258  66.53667
 259  86.34537
 260  103.2577
 261  70.79669
 262  96.85729
 263  84.6478
 264  25.22628
 265  -69.06337
 266  122.6951
 267  196.1306
 268  287.6414
 269  155.0722
 270  152.9102
 271  189.4061
 272  157.9145
 273  85.76215
 274  20.61515
 275  24.60126
 276  88.00259
 277  145.4642
 278  162.5928
 279  72.15368
 280  6.876969
 281  9.473458
 282  161.5064
 283  214.6226
 284  284.0682
 285  138.8696
 286  92.23671
 287  78.52769
 288  196.3558
 289  151.5031
 290  97.52548
 291  88.6886
 292  206.4566
 293  163.6303
 294  87.07119
 295  98.96947
 296  167.24
 297  214.8564
 298  112.4251
 299  78.63389
 300  34.78569
 301  71.54559
 302  41.26244
 303  76.39012
 304  172.1255
 305  245.0454
 306  177.0859
 307  119.3603
 308  156.1926
 309  174.6568
 310  87.9866
 311  37.38235
 312  47.52632
 313  152.8606
 314  277.7575
 315  377.1987
 316  336.2009
 317  340.3118
 318  350.1925
 319  320.8178
 320  209.4883
 321  129.7554
 322  137.4865
 323  79.39223
 324  56.00949
 325  -58.12885
 326  -37.61864
 327  3.471229
 328  145.312
 329  182.9595
 330  166.5377
 331  117.7914
 332  160.7602
 333  284.0301
 334  310.7086
 335  393.7497
 336  291.2802
 337  230.7067
 338  171.507
 339  142.8968
 340  39.96701
 341  -77.63025
 342  -46.15226
 343  54.20342
 344  86.83231
 345  37.78015
 346  22.94202
 347  62.09401
 348  149.675
 349  147.3316
 350  180.6493
 351  283.5238
 352  332.2802
 353  173.6107
 354  107.5275
 355  7.037072
 356  142.0167
 357  88.70576
 358  173.3127
 359  174.5529
 360  159.5796
 361  107.8499
 362  37.53588
 363  -2.95311
 364  79.46886
 365  110.3416
 366  173.1309
 367  200.8152
 368  276.6135
 369  257.002
 370  262.2624
 371  171.9782
 372  19.34697
 373  -14.61341
 374  49.18607
 375  205.6747
 376  264.1056
 377  239.1868
 378  161.5346
 379  91.90552
 380  203.5632
 381  181.7971
 382  173.3147
 383  140.7249
 384  255.7558
 385  332.0465
 386  331.7229
 387  249.0648
 388  192.2062
 389  130.9834
 390  133.9071
 391  176.0344
 392  219.165
 393  157.8127
 394  129.5584
 395  139.5243
 396  185.4094
 397  82.03341
 398  31.94641
 399  23.76796
 400  140.8138
 401  177.981
 402  198.5193
 403  198.9176
 404  223.4093
 405  214.3057
 406  173.9595
 407  199.8764
 408  172.5787
 409  161.3846
 410  169.1903
 411  261.7519
 412  334.5911
 413  315.4365
 414  194.3347
 415  140.2709
 416  153.6735
 417  71.56707
 418  35.07522
 419  34.14355
 420  99.99772
 421  125.6682
 422  131.7668
 423  244.8854
 424  248.41
 425  190.597
 426  30.26475
 427  -14.3808
 428  6.154705
 429  26.33349
 430  9.208991
 431  106.1331
 432  192.8543
 433  226.1881
 434  281.6941
 435  273.8975
 436  236.6946
 437  160.5165
 438  243.2943
 439  234.1506
 440  154.8086
 441  -82.9016
 442  -58.51923
 443  -30.35196
 444  126.8409
 445  308.1888
 446  466.952
 447  473.7083
 448  393.4887
 449  282.1609
 450  353.4012
 451  291.2758
 452  350.9071
 453  327.474
 454  416.4438
 455  287.0842
 456  144.0165
 457  83.50591
 458  150.2378
 459  183.0905
 460  132.8332
 461  70.82269
 462  125.5365
 463  211.6016
 464  307.6418
 465  286.4011
 466  263.434
 467  201.564
 468  220.7823
 469  206.5001
 470  298.9572
 471  256.5511
 472  231.5394
 473  136.2783
 474  127.284
 475  247.0644
 476  230.9839
 477  178.0384
 478  10.90662
 479  -19.32553
 480  14.97934
 481  151.5894
 482  181.2612
 483  215.8168
 484  243.4515
 485  281.7529
 486  286.6117
 487  184.6624
 488  143.4701
 489  91.51483
 490  171.2861
 491  141.4943
 492  153.9004
 493  21.93457
 494  31.51805
 495  79.11279
 496  301.8132
 497  358.8422
 498  347.9462
 499  229.6602
 500  179.6051
 501  104.4937
 502  13.91164
 503  24.08597
 504  84.34936
 505  116.4667
 506  146.1424
 507  58.34648
 508  8.133997
 509  -42.70761
 510  78.64645
 511  201.8372
 512  232.5339
 513  94.88982
 514  -24.58445
 515  24.29902
 516  135.8462
 517  221.2484
 518  246.8293
 519  288.3811
 520  220.4111
 521  234.9185
 522  280.8973
 523  315.7887
 524  188.223
 525  79.91035
 526  164.5537
 527  242.1571
 528  228.2818
 529  246.187
 530  258.2144
 531  214.927
 532  54.14305
 533  -24.2112
 534  74.68415
 535  157.2176
 536  170.0094
 537  174.5236
 538  190.0293
 539  165.7343
 540  141.0997
 541  19.75509
 542  20.02103
 543  33.7102
 544  216.7537
 545  387.768
 546  406.3669
 547  191.8894
 548  42.12393
 549  57.75831
 550  203.266
 551  285.4705
 552  340.4849
 553  253.5216
 554  273.0322
 555  204.6738
 556  193.8385
 557  166.4055
 558  231.4545
 559  165.6722
 560  -28.26207
 561  -87.65279
 562  11.08182
 563  62.1269
 564  79.26109
 565  74.17909
 566  45.41357
 567  85.27274
 568  245.2371
 569  367.4542
 570  374.2041
 571  280.661
 572  271.3346
 573  197.616
 574  166.3632
 575  190.6224
 576  179.6637
 577  111.3975
 578  233.8316
 579  283.7538
 580  342.0014
 581  242.8493
 582  302.3391
 583  311.7852
 584  265.044
 585  285.2726
 586  184.8577
 587  97.96628
 588  46.67506
 589  258.3649
 590  281.5472
 591  205.1718
 592  181.1725
 593  181.0918
 594  185.7746
 595  123.8577
 596  270.9339
 597  331.4413
 598  256.8175
 599  106.6307
 600  41.00138
 601  -10.22643
 602  26.91717
 603  -55.69862
 604  117.7189
 605  151.2028
 606  243.5908
 607  231.5493
 608  228.9322
 609  251.3327
 610  252.4708
 611  349.5252
 612  297.4828
 613  273.9215
 614  263.2966
 615  347.9114
 616  309.9077
 617  232.8045
 618  162.844
 619  137.9992
 620  176.1385
 621  207.9619
 622  275.7585
 623  271.9703
 624  116.3702
 625  63.1926
 626  190.2362
 627  394.5412
 628  374.4234
 629  219.3044
 630  175.7072
 631  257.5891
 632  341.2422
 633  338.4904
 634  359.1038
 635  383.6427
 636  398.0368
 637  307.0131
 638  277.8162
 639  332.6964
 640  475.9134
 641  667.7149
 642  688.3117
 643  766.4976
 644  744.0645
 645  921.9734
 646  865.7817
 647  697.9077
 648  587.1312
 649  520.6805
 650  443.371
 651  296.3468
 652  266.079
 653  238.4937
 654  186.3941
 655  52.07595
 656  51.60496
 657  69.09775
 658  138.5276
 659  253.7588
 660  360.8146
 661  353.7552
 662  242.0783
 663  157.8298
 664  174.1774
 665  292.831
 666  271.5504
 667  381.1242
 668  258.7453
 669  222.8029
 670  174.2466
 671  288.8984
 672  268.0902
 673  217.3699
 674  287.9379
 675  354.8431
 676  280.2395
 677  135.991
 678  168.1475
 679  180.8307
 680  132.6116
 681  86.92294
 682  194.2272
 683  307.3924
 684  222.6137
 685  119.3367
 686  40.55389
 687  99.25098
 688  195.7896
 689  317.8368
 690  347.4592
 691  242.9077
 692  173.486
 693  235.3508
 694  238.9239
 695  283.3347
 696  289.4238
 697  421.0585
 698  346.514
 699  288.109
 700  146.2877
 701  163.032
 702  134.4873
 703  223.484
 704  110.4472
 705  55.90208
 706  28.09862
 707  74.7998
 708  130.7926
 709  128.1509
 710  109.2051
 711  124.9735
 712  286.2456
 713  370.431
 714  293.4872
 715  67.21375
 716  68.05714
 717  67.31149
 718  158.7768
 719  138.3785
 720  167.0824
 721  135.5985
 722  147.5889
 723  165.0249
 724  282.1077
 725  182.7963
 726  155.6956
 727  116.7758
 728  195.9313
 729  175.4559
 730  184.7538
 731  118.1663
 732  126.6661
 733  115.5788
 734  131.0106
 735  64.36015
 736  29.1516
 737  93.24303
 738  155.2872
 739  170.8918
 740  175.6042
 741  155.4572
 742  307.6918
 743  401.9751
 744  428.6543
 745  279.5338
 746  234.3307
 747  282.3311
 748  349.4341
 749  203.2628
 750  196.598
 751  214.2781
 752  310.1564
 753  213.5173
 754  311.2668
 755  429.9519
 756  446.7122
 757  377.5127
 758  263.8829
 759  372.8862
 760  296.6986
 761  264.0922
 762  184.8257
 763  216.9697
 764  129.067
 765  -31.30176
 766  -75.45752
 767  81.6218
 768  159.6171
 769  97.90008
 770  54.9476
 771  94.51023
 772  237.7359
 773  294.3495
 774  361.5596
 775  174.6752
 776  59.7304
 777  56.48016
 778  223.1105
 779  281.5959
 780  297.0481
 781  311.1086
 782  273.8467
 783  234.3593
 784  176.3184
 785  259.9978
 786  199.1105
 787  195.8232
 788  135.1568
 789  184.4541
 790  123.4253
 791  210.0344
 792  241.1296
 793  254.0291
 794  207.8944
 795  204.364
 796  287.6082
 797  324.4425
 798  360.8118
 799  270.9233
 800  246.4225
 801  187.3347
 802  206.4283
 803  178.4407
 804  236.9924
 805  107.1967
 806  45.77759
 807  74.81577
 808  134.0461
 809  260.8701
 810  229.6555
 811  233.5852
 812  71.86004
 813  45.14213
 814  28.65079
 815  24.49291
 816  129.7377
 817  194.6831
 818  213.0709
 819  136.6726
 820  138.669
 821  153.5317
 822  166.4567
 823  228.552
 824  263.4516
 825  274.6945
 826  207.128
 827  129.9697
 828  144.6258
 829  146.5216
 830  309.8653
 831  266.7189
 832  256.0064
 833  191.3465
 834  138.7411
 835  63.46261
 836  14.02267
 837  52.91326
 838  126.4167
 839  223.474
 840  239.6337
 841  251.9285
 842  160.0838
 843  170.4825
 844  138.4602
 845  218.5667
 846  235.5363
 847  196.3295
 848  96.16873
 849  59.87041
 850  110.7155
 851  207.9716
 852  349.9919
 853  378.8049
 854  309.7317
 855  133.1228
 856  56.00466
 857  109.5079
 858  223.8775
 859  339.6573
 860  338.9099
 861  313.0564
 862  338.2598
 863  309.9584
 864  197.855
 865  148.6597
 866  109.6466
 867  190.95
 868  156.4173
 869  170.2616
 870  165.5127
 871  273.7587
 872  147.9084
 873  -15.61862
 874  -76.50764
 875  169.7486
 876  341.3777
 877  351.3141
 878  219.1122
 879  212.9831
 880  134.1606
 881  140.9652
 882  93.61738
 883  78.96001
 884  153.3087
 885  117.3568
 886  184.5213
 887  149.0092
 888  197.1634
 889  180.5179
 890  100.037
 891  -43.88216
 892  -76.06494
 893  -155.5745
 894  -58.64756
 895  40.73839
 896  115.2363
 897  108.3173
 898  109.8177
 899  167.3484
 900  227.5089
 901  240.7118
 902  312.0292
 903  318.9496
 904  181.5883
 905  111.586
 906  113.2262
 907  269.8579
 908  301.2752
 909  278.9529
 910  208.2569
 911  112.5579
 912  150.6986
 913  193.3732
 914  140.6866
 915  39.60618
 916  18.62695
 917  59.55372
 918  57.92083
 919  129.8325
 920  117.181
 921  55.22021
 922  50.50275
 923  117.5293
 924  175.9648
 925  72.73139
 926  42.23198
 927  202.0583
 928  286.9963
 929  248.3145
 930  168.4028
 931  78.91059
 932  40.69765
 933  171.9984
 934  262.6564
 935  324.4311
 936  196.4349
 937  184.9477
 938  86.13599
 939  16.99826
 940  56.2553
 941  237.0101
 942  274.2973
 943  192.7311
 944  -2.84221
 945  -94.91982
 946  -11.76811
 947  105.0879
 948  195.0313
 949  174.1816
 950  173.5152
 951  253.8758
 952  225.5228
 953  268.7517
 954  302.6843
 955  289.7281
 956  296.9136
 957  270.6705
 958  254.8582
 959  215.3803
 960  160.9371
 961  186.36
 962  284.4868
 963  330.0862
 964  356.0306
 965  287.2146
 966  202.4741
 967  187.5904
 968  257.9975
 969  289.2868
 970  187.9221
 971  165.6913
 972  176.5747
 973  160.0434
 974  66.73174
 975  138.8766
 976  271.9012
 977  309.5453
 978  197.7041
 979  111.2158
 980  175.8423
 981  318.2875
 982  324.792
 983  283.3042
 984  85.11349
 985  87.58181
 986  74.19389
 987  123.7212
 988  120.1151
 989  86.85051
 990  136.6657
 991  96.79169
 992  48.26667
 993  164.7569
 994  250.8984
 995  405.8043
 996  245.1056
 997  238.3685
 998  158.9675
 999  163.1684
1000  136.3413
1001  151.9645
1002  171.9583
1003  212.246
1004  183.1167
1005  171.5717
1006  209.4502
1007  280.0287
1008  184.3
1009  162.0892
1010  192.3241
1011  250.4866
1012  240.1536
1013  183.2333
1014  195.2691
1015  21.42463
1016  8.763023
1017  -92.69915
1018  33.95623
1019  16.62207
1020  119.7774
1021  170.8501
1022  81.45591
1023  -3.089579
