# Input file       =  1188077051.109435_cleaned.dat
# Candidate        =  PSR_0332+5434
# Telescope        =  AR
# Epoch_topo       =  57994.892015155499
# Epoch_bary       =  N/A
# T_sample         =  0.002
# Data Folded      =  7208960
# Data Avg         =  0.0753874053458935
# Data StdDev      =  3.52675660007477 
# Profile Bins     =  512
# Profile Avg      =  1061.44629361636 
# Profile StdDev   =  418.482031389266 
# Reduced chi-sqr  =  0.752
# Prob(Noise)      <  1   (~0.0 sigma)
# P_topo (ms)      =  714.463353866857  +/- 0.000107
# P'_topo (s/s)    =  -0                +/- 5.76e-11
# P''_topo (s/s^2) =  0                 +/- 2.59e-14
# P_bary (ms)      =  N/A
# P'_bary (s/s)    =  N/A
# P''_bary (s/s^2) =  N/A
# P_orb (s)        =  N/A
# asin(i)/c (s)    =  N/A
# eccentricity     =  N/A
# w (rad)          =  N/A
# T_peri           =  N/A
######################################################
   0  770.3136
   1  828.7202
   2  808.0178
   3  1076.452
   4  1159.329
   5  1186.226
   6  1221.811
   7  1445.711
   8  1224.853
   9  1276.731
  10  1186.343
  11  1165.062
  12  1181.314
  13  933.7094
  14  1114.003
  15  1278.229
  16  1280.433
  17  1089.551
  18  1025.826
  19  1420.606
  20  1277.617
  21  1451.537
  22  1116.021
  23  908.4916
  24  891.7926
  25  909.6827
  26  1227.922
  27  1383.388
  28  1458.725
  29  1427.001
  30  1307.278
  31  1268.679
  32  1230.259
  33  916.6752
  34  824.8022
  35  1146.582
  36  1472.063
  37  1427.465
  38  1354.789
  39  1215.719
  40  1259.144
  41  1002.888
  42  1204.558
  43  1077.092
  44  1166.775
  45  1341.782
  46  1027.133
  47  1115.465
  48  1300.862
  49  1206.416
  50  1591.445
  51  1405.983
  52  1204.302
  53  1084.558
  54  1148.344
  55  1253.688
  56  869.7514
  57  922.6247
  58  1436.24
  59  1045.453
  60  921.9819
  61  1051.478
  62  912.2561
  63  1164.267
  64  941.2993
  65  833.5926
  66  948.2203
  67  663.2869
  68  1258.606
  69  1148.373
  70  911.8163
  71  1069.974
  72  1321.141
  73  1108.186
  74  1031.648
  75  930.3537
  76  1142.057
  77  854.0806
  78  1221.562
  79  1470.585
  80  1186.123
  81  732.9325
  82  757.0168
  83  972.4637
  84  1471.487
  85  1529.337
  86  1374.492
  87  1500.076
  88  1418.51
  89  1246.91
  90  934.2814
  91  664.1591
  92  782.1691
  93  1121.355
  94  1181.759
  95  1292.436
  96  1039.063
  97  1042.746
  98  1070.953
  99  686.7968
 100  825.6744
 101  968.5134
 102  827.1723
 103  1236.696
 104  1293.903
 105  1000.091
 106  962.3015
 107  808.1679
 108  920.7053
 109  1088.288
 110  1010.03
 111  1118.719
 112  1245.609
 113  1307.768
 114  1460.224
 115  1119.605
 116  897.4252
 117  809.5507
 118  1246.135
 119  1657.724
 120  1592.699
 121  1623.725
 122  1556.51
 123  1088.152
 124  792.2711
 125  770.697
 126  982.9341
 127  1003.668
 128  1522.759
 129  1498.604
 130  1269.857
 131  1022.993
 132  1053.134
 133  999.3718
 134  1254.307
 135  955.1058
 136  931.528
 137  732.7991
 138  1071.572
 139  1313.869
 140  1154.881
 141  1099.725
 142  1078.322
 143  1083.125
 144  963.2031
 145  947.5311
 146  535.8721
 147  1069.73
 148  1038.878
 149  548.039
 150  971.3546
 151  978.6478
 152  1086.052
 153  1083.263
 154  1003.74
 155  903.2415
 156  773.0602
 157  644.0266
 158  935.1629
 159  1052.467
 160  997.4338
 161  671.8923
 162  693.2359
 163  931.7338
 164  1058.999
 165  1147.362
 166  708.5168
 167  771.139
 168  1180.106
 169  963.0031
 170  622.6806
 171  584.537
 172  997.4916
 173  917.2051
 174  849.884
 175  984.4368
 176  1492.227
 177  1636.383
 178  1351.565
 179  1386.258
 180  1005.599
 181  889.7995
 182  638.8838
 183  983.4751
 184  1293.783
 185  1341.619
 186  1784.869
 187  1707.39
 188  1416.443
 189  712.4791
 190  765.6636
 191  686.9973
 192  892.7264
 193  1075.5
 194  1242.111
 195  1387.455
 196  1102.806
 197  1006.574
 198  1002.904
 199  884.3656
 200  732.9882
 201  1027.232
 202  1224.617
 203  1132.149
 204  992.475
 205  448.0616
 206  629.2114
 207  965.5437
 208  901.2919
 209  1114.221
 210  1145.817
 211  1261.891
 212  937.5081
 213  728.5071
 214  731.7786
 215  886.4316
 216  1325.522
 217  1307.292
 218  1270.255
 219  1075.917
 220  883.7106
 221  884.1774
 222  1251.838
 223  1078.804
 224  493.1645
 225  785.2039
 226  936.3868
 227  931.1851
 228  639.9986
 229  885.1671
 230  1027.448
 231  916.1454
 232  1027.231
 233  583.7238
 234  842.4852
 235  1295.323
 236  1055.635
 237  974.8557
 238  865.83
 239  890.8251
 240  1009.073
 241  741.0517
 242  813.94
 243  1076.64
 244  1060.691
 245  1197.928
 246  1029.164
 247  753.2045
 248  841.187
 249  862.8477
 250  1138.8
 251  1331.067
 252  1530.956
 253  1235.34
 254  810.2132
 255  906.3781
 256  894.5512
 257  826.114
 258  1095.578
 259  1226.964
 260  1530.91
 261  1242.141
 262  1071.106
 263  718.8887
 264  1036.64
 265  813.5585
 266  586.9955
 267  771.2271
 268  1012.192
 269  784.3225
 270  903.8114
 271  1070.984
 272  643.1216
 273  765.6523
 274  1120.663
 275  1389.644
 276  947.4478
 277  841.0248
 278  618.7486
 279  861.3157
 280  1028.862
 281  859.8825
 282  574.5726
 283  486.7839
 284  603.6642
 285  977.6939
 286  900.0602
 287  784.6929
 288  828.8899
 289  643.5552
 290  1096.427
 291  1079.515
 292  1226.941
 293  1037.534
 294  1303.039
 295  972.8679
 296  972.8357
 297  1382.661
 298  826.6891
 299  1125.467
 300  1068.727
 301  1363.191
 302  822.1682
 303  597.4692
 304  973.0515
 305  758.1102
 306  823.9001
 307  889.308
 308  1012.009
 309  963.9438
 310  891.7128
 311  1323.065
 312  1272.632
 313  688.6733
 314  782.6237
 315  981.5667
 316  1010.379
 317  1057.75
 318  1514.444
 319  1551.612
 320  1534.607
 321  1690.681
 322  1851.423
 323  1996.59
 324  2123.023
 325  1920.364
 326  1830.519
 327  1245.162
 328  734.5936
 329  744.2358
 330  702.3187
 331  316.7841
 332  1054.269
 333  1037.213
 334  1098.192
 335  1116.625
 336  702.6257
 337  1124.618
 338  1174.039
 339  1044.574
 340  1082.021
 341  1064.099
 342  1218.228
 343  711.2261
 344  495.6481
 345  348.9643
 346  866.3492
 347  996.0216
 348  1079.892
 349  926.0294
 350  1264.531
 351  1362.931
 352  1366.715
 353  1163.722
 354  1271.505
 355  916.0529
 356  915.7226
 357  1055.747
 358  965.5485
 359  1170.461
 360  800.5522
 361  713.9569
 362  695.1194
 363  615.5831
 364  630.961
 365  409.0331
 366  868.5228
 367  1192.12
 368  1524.794
 369  1600.91
 370  1430.401
 371  732.9109
 372  866.5914
 373  884.5944
 374  1462.89
 375  1222.82
 376  1066.639
 377  996.4454
 378  1278.945
 379  841.8334
 380  621.8461
 381  799.3415
 382  742.0989
 383  1074.59
 384  1017.476
 385  1325.763
 386  1248.447
 387  750.8177
 388  1045.07
 389  813.8954
 390  1101.315
 391  1148.87
 392  861.4142
 393  919.2333
 394  687.9362
 395  975.6689
 396  1306.86
 397  1270.411
 398  1355.844
 399  1152.809
 400  984.3185
 401  1213.562
 402  958.4804
 403  1112.121
 404  1191.853
 405  1011.415
 406  1335.901
 407  1380.884
 408  1213.984
 409  1163.426
 410  1367.315
 411  1184.044
 412  1193.037
 413  1151.511
 414  1030.193
 415  1013.647
 416  924.5471
 417  937.5629
 418  985.6044
 419  1430.553
 420  1677.442
 421  1533.288
 422  1158.473
 423  1290.079
 424  1522.447
 425  1456.754
 426  1151.457
 427  945.1055
 428  1088.32
 429  867.2956
 430  985.2116
 431  1304.003
 432  811.7691
 433  882.0556
 434  798.3318
 435  774.8582
 436  977.5648
 437  837.0536
 438  904.4175
 439  838.7726
 440  821.9769
 441  980.4168
 442  845.0515
 443  756.2039
 444  925.73
 445  892.1318
 446  1316.587
 447  930.996
 448  1099.27
 449  1110.033
 450  954.6426
 451  1167.384
 452  1133.665
 453  852.2441
 454  1034.446
 455  1118.588
 456  1302.712
 457  1196.472
 458  1099.306
 459  1154.557
 460  1282.619
 461  958.667
 462  873.33
 463  1100.325
 464  1225.983
 465  1207
 466  1211.773
 467  1092.355
 468  689.8897
 469  839.9037
 470  1158.559
 471  1408.456
 472  1196.093
 473  1299.678
 474  1297.231
 475  1553.665
 476  1428.171
 477  1386.284
 478  1418.001
 479  1177.726
 480  962.7998
 481  941.0183
 482  873.7426
 483  932.9182
 484  827.8164
 485  936.8102
 486  1362.751
 487  1344.613
 488  1367.1
 489  1338.042
 490  1057.508
 491  901.627
 492  1098.089
 493  1536.287
 494  1135.743
 495  757.0399
 496  1003.672
 497  1258.101
 498  900.7286
 499  1024.296
 500  892.7405
 501  752.5093
 502  1092.559
 503  1161.998
 504  1347.384
 505  945.3659
 506  794.8057
 507  950.0197
 508  1271.925
 509  1054.886
 510  1064.471
 511  863.468
