# Input file       =  1188953313.119366_cleaned.dat
# Candidate        =  PSR_0332+5434
# Telescope        =  AR
# Epoch_topo       =  58005.033936566739
# Epoch_bary       =  N/A
# T_sample         =  0.002
# Data Folded      =  7340032
# Data Avg         =  0.0330505404459212
# Data StdDev      =  2.52427035511585 
# Profile Bins     =  1024
# Profile Avg      =  236.974762720597 
# Profile StdDev   =  213.714931248936 
# Reduced chi-sqr  =  1.078
# Prob(Noise)      <  0.0415   (~1.7 sigma)
# P_topo (ms)      =  714.464468556259  +/- 8.95e-05
# P'_topo (s/s)    =  -0                +/- 4.72e-11
# P''_topo (s/s^2) =  0                 +/- 2.08e-14
# P_bary (ms)      =  N/A
# P'_bary (s/s)    =  N/A
# P''_bary (s/s^2) =  N/A
# P_orb (s)        =  N/A
# asin(i)/c (s)    =  N/A
# eccentricity     =  N/A
# w (rad)          =  N/A
# T_peri           =  N/A
######################################################
   0  351.1865
   1  271.9381
   2  253.5487
   3  242.1615
   4  285.7448
   5  318.3449
   6  353.5364
   7  351.074
   8  330.7762
   9  285.2466
  10  377.8585
  11  365.5759
  12  378.2242
  13  336.0749
  14  396.5711
  15  532.2382
  16  465.8781
  17  411.2809
  18  271.5622
  19  341.3979
  20  302.7602
  21  324.8024
  22  315.2846
  23  384.5962
  24  278.9276
  25  236.8589
  26  182.6316
  27  288.5435
  28  311.4048
  29  184.1949
  30  128.1573
  31  132.5963
  32  249.3252
  33  127.4757
  34  55.67046
  35  29.01343
  36  39.16395
  37  49.07874
  38  120.865
  39  310.2948
  40  400.428
  41  350.8659
  42  190.7622
  43  193.9433
  44  223.2119
  45  204.4813
  46  178.2909
  47  102.0595
  48  204.1919
  49  263.1946
  50  363.3462
  51  235.0742
  52  224.6096
  53  290.9355
  54  374.0955
  55  216.8284
  56  159.9827
  57  143.1605
  58  199.6481
  59  145.5108
  60  144.2032
  61  163.7524
  62  203.7958
  63  128.9982
  64  164.3158
  65  290.3532
  66  362.6153
  67  353.7627
  68  274.9235
  69  273.5571
  70  191.5981
  71  170.7077
  72  147.9055
  73  178.5738
  74  212.8035
  75  241.4575
  76  258.8907
  77  253.6784
  78  259.0815
  79  224.2617
  80  96.09358
  81  181.5942
  82  308.3307
  83  431.5676
  84  304.3303
  85  222.7883
  86  83.94382
  87  61.71866
  88  172.2042
  89  232.459
  90  358.0114
  91  288.0843
  92  336.5117
  93  350.8329
  94  481.9986
  95  588.7345
  96  529.9491
  97  413.5431
  98  315.5023
  99  316.6592
 100  224.2077
 101  128.6661
 102  21.20568
 103  103.3968
 104  195.1103
 105  244.2491
 106  180.1668
 107  243.7626
 108  210.8182
 109  177.7359
 110  180.3566
 111  269.7472
 112  268.9971
 113  202.4786
 114  199.2013
 115  202.5596
 116  280.6709
 117  303.5064
 118  304.2859
 119  101.0705
 120  121.8942
 121  123.596
 122  289.5674
 123  276.5866
 124  378.8825
 125  403.445
 126  317.8015
 127  121.5995
 128  40.04685
 129  22.5539
 130  138.838
 131  190.6734
 132  378.0733
 133  381.9707
 134  367.7566
 135  175.3229
 136  116.0113
 137  159.0952
 138  249.6474
 139  327.179
 140  261.3459
 141  242.8682
 142  278.3779
 143  404.9537
 144  394.0954
 145  365.9907
 146  297.1262
 147  215.7475
 148  216.4733
 149  284.0074
 150  400.8405
 151  295.9066
 152  188.0603
 153  123.5904
 154  64.55858
 155  139.2815
 156  138.9968
 157  252.3487
 158  208.9694
 159  158.9791
 160  133.8975
 161  179.8866
 162  262.204
 163  255.0361
 164  261.7641
 165  237.7575
 166  174.8361
 167  154.8724
 168  72.01398
 169  31.9168
 170  105.2829
 171  98.61185
 172  129.0554
 173  123.7534
 174  248.3929
 175  199.2426
 176  162.1534
 177  170.0653
 178  254.2236
 179  300.874
 180  304.7039
 181  396.9328
 182  477.1287
 183  550.106
 184  500.806
 185  231.7382
 186  -69.4291
 187  -126.2411
 188  37.84126
 189  228.1007
 190  341.674
 191  380.4199
 192  272.9984
 193  97.06867
 194  10.73475
 195  136.2119
 196  186.408
 197  235.4169
 198  253.8793
 199  204.3149
 200  40.55753
 201  -19.32568
 202  67.42805
 203  121.8316
 204  176.4678
 205  213.6514
 206  278.1651
 207  298.0691
 208  342.0972
 209  285.6931
 210  269.4261
 211  289.986
 212  303.624
 213  204.8066
 214  229.9814
 215  272.8644
 216  269.5203
 217  78.76871
 218  -1.966454
 219  145.6557
 220  348.7134
 221  435.0751
 222  372.7653
 223  338.6025
 224  266.7559
 225  240.0803
 226  199.5415
 227  221.9969
 228  265.912
 229  348.0538
 230  407.7857
 231  423.9896
 232  360.5836
 233  342.8844
 234  121.9594
 235  151.3151
 236  171.5504
 237  390.7669
 238  355.5434
 239  256.144
 240  132.6934
 241  163.3446
 242  234.4068
 243  238.4767
 244  166.8368
 245  215.3552
 246  317.3144
 247  329.0746
 248  250.1097
 249  222.6601
 250  338.3368
 251  344.2833
 252  309.4592
 253  233.1725
 254  147.05
 255  87.87292
 256  162.8623
 257  290.6085
 258  375.2005
 259  396.2166
 260  454.7869
 261  381.7704
 262  278.1006
 263  280.6052
 264  281.3264
 265  351.5614
 266  239.1104
 267  297.9336
 268  235.1535
 269  264.8427
 270  254.1119
 271  296.6004
 272  332.0905
 273  264.9166
 274  238.0686
 275  125.5376
 276  -28.13994
 277  42.67603
 278  143.9986
 279  266.7836
 280  231.5152
 281  286.79
 282  283.1393
 283  278.0498
 284  249.3454
 285  279.2325
 286  308.0915
 287  418.3937
 288  375.4723
 289  226.6465
 290  147.0293
 291  156.058
 292  203.9994
 293  253.2562
 294  216.7397
 295  223.3339
 296  161.7037
 297  174.843
 298  201.6984
 299  67.93332
 300  30.38168
 301  29.09825
 302  187.6099
 303  95.41479
 304  92.66309
 305  112.9627
 306  248.3419
 307  400.5376
 308  371.3257
 309  300.8939
 310  226.225
 311  199.5918
 312  227.7016
 313  114.4214
 314  112.3119
 315  89.25974
 316  168.1023
 317  167.3476
 318  320.8199
 319  394.2453
 320  387.5708
 321  256.841
 322  330.0623
 323  510.3097
 324  602.7192
 325  474.9883
 326  355.8364
 327  165.7071
 328  141.7386
 329  48.35065
 330  163.8985
 331  161.2131
 332  233.7446
 333  281.4646
 334  377.3465
 335  354.9151
 336  335.8174
 337  322.6385
 338  299.7533
 339  254.3834
 340  230.7973
 341  311.1479
 342  321.939
 343  280.0431
 344  188.6795
 345  115.6639
 346  166.4507
 347  171.8759
 348  239.6099
 349  115.8878
 350  59.82346
 351  57.7135
 352  69.96604
 353  56.74501
 354  60.34972
 355  74.1981
 356  138.7374
 357  191.1709
 358  257.4057
 359  80.50562
 360  104.9371
 361  132.83
 362  206.7181
 363  151.5523
 364  185.4478
 365  195.9082
 366  239.2776
 367  180.9127
 368  201.3772
 369  197.0744
 370  210.5394
 371  220.8087
 372  322.502
 373  412.2314
 374  324.176
 375  95.67075
 376  263.5381
 377  470.5486
 378  580.3572
 379  455.9453
 380  341.1312
 381  299.1764
 382  222.9201
 383  272.8918
 384  304.9582
 385  282.4823
 386  245.3918
 387  185.0922
 388  137.3661
 389  95.41045
 390  11.82697
 391  89.50498
 392  196.2073
 393  371.5011
 394  404.7683
 395  345.1273
 396  310.5867
 397  190.3067
 398  159.7337
 399  177.8161
 400  200.6089
 401  238.5452
 402  288.9324
 403  352.2224
 404  308.3856
 405  227.9244
 406  266.2581
 407  276.539
 408  265.0968
 409  146.5612
 410  107.2528
 411  146.0842
 412  84.66444
 413  -38.40751
 414  -208.5062
 415  -157.0689
 416  -41.97538
 417  165.2502
 418  228.5802
 419  297.9414
 420  271.7205
 421  337.1564
 422  257.1624
 423  303.7205
 424  323.4513
 425  336.6502
 426  281.9115
 427  265.9882
 428  246.4128
 429  143.3995
 430  77.45346
 431  86.57685
 432  255.2083
 433  283.028
 434  249.2334
 435  185.4712
 436  163.7398
 437  269.7112
 438  320.8846
 439  415.8256
 440  290.3682
 441  253.5637
 442  192.3982
 443  184.8496
 444  158.7104
 445  151.3535
 446  146.5791
 447  249.7223
 448  307.5734
 449  410.0718
 450  272.6272
 451  229.9377
 452  153.9097
 453  294.9444
 454  300.7002
 455  195.2104
 456  142.282
 457  313.5613
 458  391.524
 459  357.076
 460  284.1843
 461  270.4769
 462  169.4548
 463  133.1319
 464  141.9354
 465  336.1297
 466  390.1516
 467  324.2552
 468  174.1171
 469  144.0033
 470  117.6045
 471  232.056
 472  253.2868
 473  274.7407
 474  221.0517
 475  207.1454
 476  190.4397
 477  165.0002
 478  290.2136
 479  481.5154
 480  532.5455
 481  379.9147
 482  288.889
 483  205.9569
 484  305.9713
 485  302.459
 486  293.0188
 487  208.2977
 488  277.1513
 489  371.6598
 490  404.1907
 491  327.1679
 492  287.8022
 493  220.1299
 494  203.43
 495  134.3118
 496  102.4776
 497  250.5762
 498  432.5744
 499  485.4981
 500  376.3817
 501  245.2815
 502  220.8203
 503  135.878
 504  168.9775
 505  218.5391
 506  300.1005
 507  264.2168
 508  297.7048
 509  241.5628
 510  419.048
 511  410.2843
 512  316.6909
 513  233.6095
 514  186.379
 515  261.2926
 516  160.5703
 517  207.1028
 518  213.6583
 519  314.487
 520  364.4774
 521  349.2181
 522  266.8669
 523  198.4412
 524  109.7503
 525  -6.57711
 526  -14.55589
 527  78.90102
 528  163.8355
 529  150.866
 530  157.9064
 531  197.078
 532  175.7884
 533  163.2082
 534  215.2789
 535  311.9518
 536  368.4153
 537  286.2201
 538  281.192
 539  382.4315
 540  392.9283
 541  376.4131
 542  310.2081
 543  185.8031
 544  94.34226
 545  159.6393
 546  256.5452
 547  299.647
 548  233.9656
 549  243.6032
 550  250.8098
 551  272.8437
 552  285.621
 553  268.5902
 554  205.8002
 555  241.6578
 556  238.5828
 557  259.7756
 558  155.0299
 559  208.9005
 560  280.2571
 561  336.5517
 562  300.0784
 563  283.0624
 564  257.9873
 565  238.8286
 566  268.4102
 567  209.3225
 568  154.2715
 569  30.44889
 570  130.589
 571  186.2061
 572  223.6962
 573  182.6811
 574  148.9189
 575  96.25333
 576  102.4377
 577  215.9337
 578  298.2648
 579  298.7443
 580  245.5246
 581  186.9904
 582  50.14827
 583  -24.9215
 584  132.2304
 585  378.0749
 586  467.5649
 587  378.088
 588  296.3924
 589  255.7808
 590  144.2053
 591  110.8899
 592  29.70006
 593  74.50884
 594  157.2228
 595  286.9515
 596  427.8288
 597  535.9655
 598  570.7866
 599  369.1668
 600  186.4312
 601  104.4183
 602  144.0978
 603  147.733
 604  217.0203
 605  283.9078
 606  318.6941
 607  450.9966
 608  461.2882
 609  397.6022
 610  310.278
 611  284.999
 612  364.5763
 613  259.2383
 614  276.0758
 615  204.014
 616  206.7146
 617  185.7532
 618  264.7282
 619  349.9345
 620  427.6133
 621  432.9333
 622  319.8905
 623  207.1594
 624  132.2178
 625  137.8591
 626  148.763
 627  299.6109
 628  485.5324
 629  502.6011
 630  402.3429
 631  322.6047
 632  305.6159
 633  406.209
 634  375.7391
 635  398.1533
 636  309.4908
 637  432.1852
 638  489.7127
 639  508.6801
 640  491.4753
 641  644.55
 642  833.1285
 643  920.4558
 644  985.7288
 645  995.2702
 646  817.1765
 647  564.5792
 648  385.3779
 649  364.9692
 650  307.3636
 651  139.6155
 652  37.89643
 653  92.19994
 654  293.0361
 655  399.1479
 656  415.2731
 657  302.2304
 658  334.3873
 659  269.5331
 660  289.3262
 661  143.083
 662  129.1379
 663  207.7607
 664  220.7471
 665  68.74037
 666  -65.09598
 667  -16.28175
 668  171.8523
 669  222.6282
 670  264.9134
 671  292.1858
 672  385.111
 673  413.7392
 674  347.1586
 675  273.6415
 676  305.4878
 677  315.1956
 678  354.1025
 679  288.7106
 680  215.5278
 681  112.8085
 682  70.67506
 683  127.9646
 684  179.3468
 685  265.8888
 686  187.9873
 687  162.0212
 688  177.2832
 689  289.0447
 690  290.6994
 691  129.5849
 692  11.75756
 693  87.13217
 694  76.99933
 695  63.88647
 696  44.15911
 697  256.0194
 698  299.1287
 699  160.6804
 700  24.78462
 701  97.96038
 702  278.5803
 703  354.9146
 704  345.6542
 705  246.0263
 706  220.3546
 707  154.0735
 708  219.4052
 709  310.5877
 710  279.0092
 711  206.3165
 712  103.7505
 713  190.4329
 714  324.3842
 715  316.2888
 716  303.994
 717  258.3738
 718  338.3246
 719  332.8242
 720  219.6053
 721  117.8463
 722  148.2069
 723  170.9028
 724  162.023
 725  88.60605
 726  197.6005
 727  295.5096
 728  447.5875
 729  460.7
 730  412.3772
 731  321.8561
 732  283.1628
 733  280.9637
 734  192.2776
 735  274.7898
 736  227.9671
 737  161.4144
 738  33.42927
 739  149.7864
 740  221.3633
 741  241.3927
 742  269.6748
 743  362.4809
 744  327.3661
 745  350.3242
 746  375.7793
 747  279.634
 748  118.7662
 749  26.41493
 750  65.05554
 751  81.22459
 752  229.3285
 753  235.723
 754  195.246
 755  153.7428
 756  183.5656
 757  205.2581
 758  187.8308
 759  202.9633
 760  293.8398
 761  327.7824
 762  251.1416
 763  95.71709
 764  89.78468
 765  59.62579
 766  98.97581
 767  131.8581
 768  317.0563
 769  356.719
 770  312.0722
 771  382.3176
 772  280.1056
 773  204.6625
 774  102.7859
 775  65.48582
 776  32.30671
 777  81.37277
 778  180.2174
 779  255.0331
 780  204.6623
 781  204.261
 782  176.7658
 783  216.1007
 784  327.8845
 785  389.7858
 786  362.0407
 787  362.4654
 788  382.3651
 789  352.8933
 790  239.4151
 791  239.0657
 792  241.4721
 793  329.2543
 794  256.5104
 795  180.3422
 796  75.62606
 797  106.2653
 798  209.4499
 799  388.6544
 800  279.8859
 801  163.5285
 802  119.3765
 803  338.918
 804  543.5452
 805  544.3264
 806  376.7033
 807  132.0133
 808  157.7977
 809  272.7598
 810  324.0039
 811  291.6641
 812  398.8122
 813  443.384
 814  336.6797
 815  251.4205
 816  238.8114
 817  252.2158
 818  219.7262
 819  197.0226
 820  208.9638
 821  224.6441
 822  196.3528
 823  284.272
 824  284.2318
 825  282.4802
 826  139.5717
 827  94.8578
 828  177.1638
 829  260.5158
 830  324.9935
 831  254.8429
 832  204.5845
 833  139.6146
 834  259.7953
 835  352.5458
 836  491.0951
 837  415.2958
 838  368.6373
 839  241.4012
 840  158.5128
 841  74.48869
 842  115.7038
 843  208.3024
 844  350.2346
 845  284.3014
 846  205.2299
 847  87.56085
 848  186.1062
 849  165.2664
 850  256.704
 851  241.203
 852  345.0226
 853  291.0507
 854  242.5044
 855  275.4577
 856  386.8241
 857  449.3382
 858  385.9004
 859  205.4955
 860  115.3712
 861  6.384797
 862  -26.54148
 863  -110.7633
 864  -70.62755
 865  56.441
 866  180.343
 867  240.0388
 868  223.9886
 869  286.9522
 870  281.5637
 871  334.7445
 872  268.9453
 873  281.6411
 874  280.7934
 875  133.645
 876  -42.14225
 877  -62.86025
 878  107.4209
 879  212.1768
 880  206.4735
 881  160.07
 882  218.3777
 883  253.9718
 884  202.5643
 885  170.2548
 886  146.6998
 887  212.5276
 888  131.4882
 889  167.4257
 890  108.5668
 891  155.8761
 892  155.0489
 893  274.1858
 894  254.5941
 895  218.4542
 896  205.1214
 897  237.9536
 898  259.5311
 899  203.4218
 900  222.8542
 901  227.1936
 902  198.7312
 903  145.2915
 904  166.4996
 905  191.0999
 906  198.3992
 907  52.46848
 908  -2.835366
 909  86.7625
 910  275.9558
 911  322.5273
 912  279.9768
 913  151.6392
 914  124.0024
 915  40.89441
 916  -12.93178
 917  123.0241
 918  211.8186
 919  333.3487
 920  333.9895
 921  290.5291
 922  140.0402
 923  161.9896
 924  276.5991
 925  255.7231
 926  243.7078
 927  187.2081
 928  253.5495
 929  116.2334
 930  7.885628
 931  -35.93169
 932  47.00872
 933  154.9539
 934  150.8495
 935  151.3967
 936  192.6875
 937  220.7857
 938  225.8075
 939  232.8557
 940  203.6782
 941  192.0589
 942  261.6207
 943  322.9501
 944  269.3936
 945  171.9637
 946  118.8049
 947  90.3191
 948  94.89341
 949  119.2456
 950  143.5728
 951  86.36214
 952  57.5122
 953  109.7483
 954  206.4822
 955  235.4975
 956  194.4891
 957  243.1488
 958  284.0758
 959  290.8032
 960  255.999
 961  215.5648
 962  227.4614
 963  261.1126
 964  323.1463
 965  312.2565
 966  250.8465
 967  240.5183
 968  237.7148
 969  145.6365
 970  80.63654
 971  86.63853
 972  217.6834
 973  166.7161
 974  97.09113
 975  35.40042
 976  204.2997
 977  244.4537
 978  327.6708
 979  309.9547
 980  393.1263
 981  325.4871
 982  343.5952
 983  236.3204
 984  270.6775
 985  246.1696
 986  341.1226
 987  295.8785
 988  195.636
 989  111.8149
 990  127.2479
 991  64.86298
 992  98.59458
 993  111.6952
 994  172.6778
 995  171.2367
 996  116.4235
 997  99.77315
 998  132.1664
 999  144.87
1000  197.8772
1001  115.5139
1002  203.0518
1003  116.8
1004  182.1214
1005  147.267
1006  200.6129
1007  215.0053
1008  182.8638
1009  187.8083
1010  173.0921
1011  194.9201
1012  253.1587
1013  267.0256
1014  227.5696
1015  191.6778
1016  186.8687
1017  179.4495
1018  194.7296
1019  204.8981
1020  239.2096
1021  275.9009
1022  353.864
1023  352.6514
