# Input file       =  1188421806.120907_cleaned.dat
# Candidate        =  PSR_0332+5434
# Telescope        =  AR
# Epoch_topo       =  57998.882235195684
# Epoch_bary       =  N/A
# T_sample         =  0.002
# Data Folded      =  7143424
# Data Avg         =  0.0132440030759907
# Data StdDev      =  1.00007613929866 
# Profile Bins     =  512
# Profile Avg      =  184.843063617855 
# Profile StdDev   =  118.127577948048 
# Reduced chi-sqr  =  1.350
# Prob(Noise)      <  1.94e-07   (~5.1 sigma)
# P_topo (ms)      =  714.463590769232  +/- 0.000167
# P'_topo (s/s)    =  -0                +/- 9.06e-11
# P''_topo (s/s^2) =  0                 +/- 4.11e-14
# P_bary (ms)      =  N/A
# P'_bary (s/s)    =  N/A
# P''_bary (s/s^2) =  N/A
# P_orb (s)        =  N/A
# asin(i)/c (s)    =  N/A
# eccentricity     =  N/A
# w (rad)          =  N/A
# T_peri           =  N/A
######################################################
   0  762.9152
   1  648.4799
   2  624.8886
   3  454.7491
   4  235.0085
   5  177.3226
   6  92.88237
   7  50.33183
   8  0.1250597
   9  130.8241
  10  275.6523
  11  294.9174
  12  350.931
  13  362.9263
  14  385.2585
  15  347.9181
  16  397.3876
  17  308.9679
  18  212.3994
  19  124.6733
  20  172.4717
  21  116.4891
  22  126.0813
  23  186.2628
  24  201.4837
  25  179.4311
  26  167.4464
  27  160.9506
  28  183.18
  29  98.32974
  30  38.73274
  31  174.0592
  32  232.8022
  33  94.6741
  34  163.0866
  35  254.5815
  36  338.6242
  37  365.3203
  38  384.7214
  39  155.513
  40  326.1919
  41  268.2679
  42  211.1191
  43  186.5076
  44  73.97171
  45  173.6075
  46  132.6247
  47  164.8988
  48  158.1222
  49  90.88314
  50  208.5973
  51  303.5997
  52  335.169
  53  212.3514
  54  194.7592
  55  173.5896
  56  131.2705
  57  171.4971
  58  236.119
  59  242.979
  60  155.2813
  61  313.3481
  62  266.4372
  63  234.6962
  64  309.4073
  65  378.6204
  66  267.6791
  67  44.986
  68  127.4246
  69  94.2177
  70  133.3851
  71  287.157
  72  308.9156
  73  56.63821
  74  271.9433
  75  300.3783
  76  364.0598
  77  261.184
  78  274.0746
  79  277.8269
  80  114.0001
  81  140.3179
  82  216.7585
  83  332.8035
  84  262.0077
  85  110.343
  86  124.34
  87  233.9948
  88  315.3046
  89  371.0523
  90  145.0162
  91  82.0246
  92  92.15997
  93  138.2851
  94  184.0469
  95  91.67252
  96  84.62994
  97  142.043
  98  254.0222
  99  421.2115
 100  181.4586
 101  86.32517
 102  120.1793
 103  145.9354
 104  147.1553
 105  179.2719
 106  76.46441
 107  78.32164
 108  196.0963
 109  294.3326
 110  201.7125
 111  140.3536
 112  137.4188
 113  195.0048
 114  144.6923
 115  140.1129
 116  124.0683
 117  143.1107
 118  188.7783
 119  237.0555
 120  279.0367
 121  121.8918
 122  119.2425
 123  172.9042
 124  111.8745
 125  176.0334
 126  172.5322
 127  53.45581
 128  71.57596
 129  281.0173
 130  184.9895
 131  147.1402
 132  169.2923
 133  191.2081
 134  212.2989
 135  240.0418
 136  229.9868
 137  62.17531
 138  111.1215
 139  152.1911
 140  126.6252
 141  81.51698
 142  68.74302
 143  118.5268
 144  226.6819
 145  293.0004
 146  266.8685
 147  6.648285
 148  59.73027
 149  -107.5897
 150  -7.98562
 151  93.17729
 152  243.0225
 153  187.8107
 154  228.3232
 155  115.5419
 156  144.4718
 157  273.9763
 158  166.5375
 159  111.1019
 160  86.14838
 161  129.7191
 162  131.2179
 163  -81.41368
 164  13.05609
 165  178.8256
 166  49.64954
 167  19.30362
 168  106.909
 169  230.983
 170  295.4205
 171  211.2789
 172  199.1458
 173  -29.3357
 174  97.64687
 175  219.1729
 176  354.3607
 177  185.3412
 178  170.8358
 179  235.4149
 180  122.5081
 181  -28.19856
 182  -4.561273
 183  208.9178
 184  217.848
 185  243.7178
 186  139.089
 187  23.09539
 188  60.02549
 189  254.6889
 190  315.2984
 191  143.6889
 192  62.5576
 193  286.6835
 194  257.6805
 195  91.35729
 196  129.5448
 197  102.5421
 198  137.2801
 199  238.9081
 200  290.3342
 201  238.2721
 202  242.2597
 203  182.0425
 204  111.4553
 205  107.3889
 206  70.8633
 207  132.9566
 208  288.1125
 209  121.5148
 210  213.6521
 211  278.2788
 212  187.3791
 213  82.32385
 214  35.14936
 215  125.4986
 216  222.0249
 217  116.4148
 218  13.34704
 219  96.95922
 220  239.002
 221  235.3918
 222  147.2842
 223  206.0378
 224  335.047
 225  217.4788
 226  148.0241
 227  266.6208
 228  151.8799
 229  196.1492
 230  35.66881
 231  84.27017
 232  185.6147
 233  205.4427
 234  323.9466
 235  310.2634
 236  266.0189
 237  150.6457
 238  22.63359
 239  146.7298
 240  66.78204
 241  63.00089
 242  146.5847
 243  253.5078
 244  253.1429
 245  78.90773
 246  85.15926
 247  126.5771
 248  39.29305
 249  58.67062
 250  73.4278
 251  263.6565
 252  240.7061
 253  251.3945
 254  147.3578
 255  132.7315
 256  138.3907
 257  248.2562
 258  362.6714
 259  243.6989
 260  311.7549
 261  293.9002
 262  190.4729
 263  203.2813
 264  180.9479
 265  136.8551
 266  207.384
 267  316.0579
 268  240.7417
 269  197.9767
 270  284.8754
 271  267.2902
 272  194.723
 273  126.1705
 274  148.6822
 275  198.4601
 276  224.4203
 277  309.9663
 278  287.7477
 279  316.5775
 280  226.0693
 281  72.43814
 282  85.85957
 283  194.0318
 284  189.9746
 285  315.1958
 286  275.3572
 287  115.9564
 288  126.1985
 289  223.6821
 290  205.8914
 291  206.712
 292  168.2351
 293  195.9756
 294  115.6537
 295  181.9453
 296  136.5538
 297  11.5179
 298  117.821
 299  195.6914
 300  172.7573
 301  109.8908
 302  274.0152
 303  211.8255
 304  182.1438
 305  283.0553
 306  197.9726
 307  212.1196
 308  247.3407
 309  330.6203
 310  206.214
 311  208.3458
 312  30.59825
 313  102.6254
 314  132.8652
 315  182.68
 316  211.3183
 317  148.0393
 318  110.3282
 319  115.586
 320  131.4055
 321  79.15788
 322  242.5036
 323  185.4475
 324  168.1453
 325  244.3222
 326  203.6423
 327  233.0957
 328  225.1512
 329  62.93123
 330  93.98966
 331  111.7755
 332  139.7604
 333  256.6806
 334  227.8864
 335  221.7395
 336  136.6271
 337  201.5338
 338  163.0973
 339  29.12563
 340  18.03088
 341  208.4717
 342  149.1682
 343  92.34866
 344  79.19788
 345  134.8538
 346  175.4252
 347  13.3499
 348  32.54199
 349  -5.273242
 350  58.09546
 351  122.973
 352  160.9353
 353  273.152
 354  111.5741
 355  58.08634
 356  118.0556
 357  183.3732
 358  113.9139
 359  178.0307
 360  208.2123
 361  129.0564
 362  125.555
 363  156.9865
 364  223.5913
 365  143.8094
 366  64.47758
 367  165.8617
 368  249.6703
 369  186.4421
 370  169.3621
 371  213.6412
 372  174.2878
 373  162.0249
 374  123.9467
 375  52.13365
 376  111.4509
 377  293.2589
 378  385.3103
 379  160.2865
 380  49.77272
 381  141.5918
 382  162.023
 383  109.7681
 384  260.9226
 385  224.4829
 386  160.7984
 387  228.4856
 388  330.2273
 389  326.7502
 390  208.9357
 391  169.8996
 392  138.8946
 393  156.4361
 394  162.9897
 395  255.0497
 396  90.48099
 397  104.8767
 398  35.23434
 399  174.9886
 400  232.6918
 401  292.0199
 402  251.5962
 403  143.8947
 404  245.6325
 405  171.319
 406  130.9299
 407  129.7955
 408  60.47848
 409  95.14132
 410  195.2916
 411  235.8378
 412  263.8074
 413  104.4115
 414  149.5983
 415  307.5161
 416  226.5751
 417  167.0698
 418  136.1217
 419  105.3625
 420  167.2258
 421  151.5365
 422  288.2823
 423  259.0342
 424  180.5439
 425  160.6575
 426  210.7868
 427  95.77457
 428  197.6846
 429  278.986
 430  185.1116
 431  190.1803
 432  153.6488
 433  197.1382
 434  246.4501
 435  86.28777
 436  134.5961
 437  98.51574
 438  64.72161
 439  167.4924
 440  203.2149
 441  183.4001
 442  208.8858
 443  257.9587
 444  247.4297
 445  291.8803
 446  285.4825
 447  81.19255
 448  216.6751
 449  220.6996
 450  188.36
 451  11.74673
 452  -10.81973
 453  159.0781
 454  117.0875
 455  227.2403
 456  186.2875
 457  250.2057
 458  193.6541
 459  105.4076
 460  131.9226
 461  139.6411
 462  82.5848
 463  217.764
 464  157.8676
 465  135.2012
 466  171.0007
 467  254.9335
 468  174.9356
 469  107.6125
 470  269.351
 471  294.2342
 472  253.6363
 473  258.6406
 474  315.6855
 475  242.8716
 476  194.8008
 477  217.0364
 478  169.5138
 479  126.4953
 480  106.7226
 481  188.4278
 482  377.2228
 483  242.7329
 484  160.3196
 485  258.7179
 486  259.9671
 487  208.9683
 488  231.7778
 489  229.8083
 490  155.4989
 491  192.6863
 492  223.1027
 493  294.9176
 494  179.8304
 495  142.984
 496  112.0718
 497  102.8748
 498  90.30955
 499  165.7241
 500  212.403
 501  140.1474
 502  153.8327
 503  271.127
 504  216.6961
 505  195.7641
 506  271.8054
 507  230.5045
 508  391.604
 509  436.1465
 510  602.5925
 511  758.277
