# Input file       =  1188537430.114192_cleaned.dat
# Candidate        =  PSR_0332+5434
# Telescope        =  AR
# Epoch_topo       =  58000.220475858703
# Epoch_bary       =  N/A
# T_sample         =  0.002
# Data Folded      =  7340032
# Data Avg         =  0.0454589822745349
# Data StdDev      =  3.39504815411621 
# Profile Bins     =  512
# Profile Avg      =  651.663188346075 
# Profile StdDev   =  406.499424137669 
# Reduced chi-sqr  =  1.162
# Prob(Noise)      <  0.00665   (~2.5 sigma)
# P_topo (ms)      =  714.464078601356  +/- 0.000183
# P'_topo (s/s)    =  -0                +/- 9.65e-11
# P''_topo (s/s^2) =  0                 +/- 4.26e-14
# P_bary (ms)      =  N/A
# P'_bary (s/s)    =  N/A
# P''_bary (s/s^2) =  N/A
# P_orb (s)        =  N/A
# asin(i)/c (s)    =  N/A
# eccentricity     =  N/A
# w (rad)          =  N/A
# T_peri           =  N/A
######################################################
   0  371.941
   1  320.5802
   2  629.9056
   3  1102.488
   4  687.871
   5  324.8665
   6  1074.527
   7  1148.242
   8  958.1548
   9  893.6932
  10  945.8187
  11  936.5148
  12  806.9031
  13  1204.046
  14  1425.374
  15  1194.091
  16  1041.603
  17  1271.09
  18  613.0201
  19  294.3639
  20  667.2338
  21  538.189
  22  914.5203
  23  946.9571
  24  588.627
  25  243.0067
  26  262.93
  27  95.96111
  28  26.78085
  29  464.0075
  30  703.8767
  31  882.6101
  32  903.8586
  33  1215.138
  34  839.825
  35  511.7508
  36  421.4581
  37  606.0206
  38  1156.697
  39  1046.257
  40  927.6102
  41  556.6461
  42  338.4944
  43  509.8641
  44  40.91619
  45  -43.46574
  46  563.6094
  47  478.5509
  48  501.8238
  49  402.7397
  50  468.2653
  51  864.5273
  52  968.1977
  53  580.4898
  54  713.5542
  55  525.8687
  56  697.0984
  57  370.692
  58  533.1044
  59  483.3507
  60  385.6739
  61  532.9118
  62  402.8795
  63  643.1261
  64  1020.19
  65  1127.326
  66  807.5551
  67  166.8524
  68  369.4289
  69  502.0443
  70  420.9537
  71  260.1602
  72  729.7051
  73  928.886
  74  644.3707
  75  405.6069
  76  1014.602
  77  1049.416
  78  853.4907
  79  612.3637
  80  545.3005
  81  784.2433
  82  874.6271
  83  333.8482
  84  739.4176
  85  1139.686
  86  629.6434
  87  916.4254
  88  651.0886
  89  951.3713
  90  668.0909
  91  821.1297
  92  195.9428
  93  600.9661
  94  909.4076
  95  833.8414
  96  909.6063
  97  837.8834
  98  662.6352
  99  349.4993
 100  458.4093
 101  630.8008
 102  268.337
 103  573.9752
 104  553.0057
 105  686.7327
 106  266.2497
 107  374.4781
 108  187.5696
 109  459.8163
 110  392.7363
 111  506.5436
 112  356.2925
 113  483.9826
 114  673.7313
 115  899.0507
 116  599.2596
 117  178.5486
 118  395.4221
 119  517.0517
 120  832.2314
 121  453.32
 122  78.73723
 123  670.3282
 124  695.981
 125  464.4275
 126  552.7263
 127  292.2069
 128  366.036
 129  325.6438
 130  -53.85671
 131  51.53125
 132  358.1812
 133  737.4474
 134  943.6521
 135  305.8936
 136  285.2927
 137  738.9656
 138  600.5717
 139  317.5984
 140  356.9086
 141  710.9788
 142  796.1041
 143  867.1099
 144  699.322
 145  76.56424
 146  273.6514
 147  503.0496
 148  809.0663
 149  837.8579
 150  1210.239
 151  576.8541
 152  850.423
 153  1053.31
 154  1257.175
 155  1055.697
 156  635.9406
 157  460.0682
 158  904.5969
 159  802.5989
 160  903.0791
 161  906.6839
 162  976.1413
 163  702.3818
 164  554.8132
 165  580.2067
 166  355.8648
 167  983.5416
 168  728.8923
 169  706.4065
 170  244.4597
 171  581.7184
 172  718.008
 173  821.7272
 174  714.1919
 175  1035.298
 176  1254.268
 177  1359.264
 178  978.3932
 179  587.273
 180  560.771
 181  666.1486
 182  725.2378
 183  245.8497
 184  146.8146
 185  234.4191
 186  603.3624
 187  976.3537
 188  624.5535
 189  700.1695
 190  774.2089
 191  774.5907
 192  520.9057
 193  580.866
 194  799.6655
 195  750.8915
 196  743.821
 197  707.1077
 198  994.4732
 199  727.3403
 200  557.9824
 201  682.2203
 202  680.9227
 203  831.7526
 204  751.9291
 205  750.7911
 206  209.9373
 207  350.2843
 208  280.8059
 209  935.3369
 210  944.4642
 211  793.1054
 212  384.6415
 213  307.6801
 214  454.4567
 215  901.5533
 216  898.2478
 217  619.4764
 218  760.3895
 219  529.9272
 220  885.075
 221  1138.973
 222  1059.522
 223  882.2352
 224  843.7256
 225  1064.084
 226  1045.097
 227  1156.928
 228  1227.87
 229  568.4341
 230  748.0446
 231  889.5359
 232  989.8102
 233  1042.735
 234  585.9083
 235  543.1157
 236  975.1086
 237  1076.022
 238  877.2137
 239  635.9457
 240  575.2888
 241  346.2095
 242  721.8002
 243  443.1697
 244  394.9073
 245  437.4698
 246  953.0887
 247  1166.198
 248  688.9437
 249  395.879
 250  354.4936
 251  157.5571
 252  6.226894
 253  869.7143
 254  452.6734
 255  202.1418
 256  -334.1417
 257  267.961
 258  744.3738
 259  221.6204
 260  727.74
 261  847.1085
 262  823.7549
 263  899.6948
 264  686.009
 265  783.8013
 266  771.9717
 267  827.8401
 268  679.7819
 269  761.6725
 270  362.4547
 271  -93.255
 272  167.359
 273  337.7214
 274  795.8218
 275  955.55
 276  583.8613
 277  218.1876
 278  333.0604
 279  411.7457
 280  664.5189
 281  650.7512
 282  872.3052
 283  1082.467
 284  592.9108
 285  297.6933
 286  664.5027
 287  862.5385
 288  638.2195
 289  446.018
 290  733.6466
 291  468.8962
 292  186.3948
 293  653.5099
 294  1168.932
 295  815.3616
 296  529.0831
 297  635.4987
 298  264.9147
 299  119.1232
 300  540.5353
 301  378.3172
 302  769.632
 303  1091.742
 304  670.0748
 305  483.5368
 306  516.0264
 307  402.2941
 308  635.6366
 309  773.1592
 310  850.6324
 311  877.6316
 312  299.9683
 313  473.0302
 314  558.8442
 315  654.9416
 316  1045.228
 317  960.4731
 318  906.1573
 319  1365.977
 320  1933.521
 321  1971.106
 322  1554.198
 323  1572.367
 324  1747.947
 325  1354.353
 326  806.0306
 327  986.5623
 328  469.8279
 329  597.9404
 330  712.7308
 331  1184.097
 332  672.5284
 333  817.3052
 334  931.1407
 335  687.6548
 336  520.0009
 337  345.7214
 338  494.9575
 339  735.2789
 340  502.5837
 341  604.8606
 342  302.3795
 343  766.9232
 344  599.2332
 345  328.2509
 346  358.7985
 347  714.3549
 348  356.2418
 349  359.4781
 350  802.5055
 351  607.6679
 352  516.0013
 353  481.4752
 354  650.0544
 355  829.4916
 356  440.6991
 357  748.5216
 358  1114.104
 359  967.5355
 360  606.1581
 361  977.7354
 362  578.0136
 363  502.0723
 364  971.3412
 365  867.9819
 366  722.0032
 367  952.8856
 368  936.7733
 369  832.6124
 370  745.1213
 371  888.3339
 372  785.0086
 373  660.6299
 374  1055.628
 375  1270.145
 376  962.2917
 377  1310.922
 378  815.9074
 379  717.8666
 380  700.7911
 381  905.5386
 382  1218.889
 383  796.2504
 384  661.9338
 385  460.7149
 386  497.9723
 387  376.5139
 388  393.8705
 389  608.15
 390  417.1933
 391  721.4792
 392  1376.971
 393  1251.417
 394  373.4589
 395  188.3903
 396  925.1876
 397  538.6068
 398  408.657
 399  408.3825
 400  585.8503
 401  546.5437
 402  835.1505
 403  872.9647
 404  189.9987
 405  363.3796
 406  469.4013
 407  -64.9818
 408  273.4186
 409  282.3255
 410  424.503
 411  352.2791
 412  124.7814
 413  230.3999
 414  482.2512
 415  529.3761
 416  618.4504
 417  440.8659
 418  420.7903
 419  -263.7689
 420  -36.89231
 421  479.2257
 422  422.0787
 423  301.5654
 424  16.51547
 425  245.19
 426  1001.049
 427  1148.24
 428  976.236
 429  1132.953
 430  1187.029
 431  765.9423
 432  462.7728
 433  548.5674
 434  874.2119
 435  585.7532
 436  787.8955
 437  845.0648
 438  854.2543
 439  754.3126
 440  964.8137
 441  970.9681
 442  706.5776
 443  849.5656
 444  707.8364
 445  844.5249
 446  633.3578
 447  509.1106
 448  1153.678
 449  898.6087
 450  701.4991
 451  655.8469
 452  950.0731
 453  485.6982
 454  463.1984
 455  799.6917
 456  723.0817
 457  576.4545
 458  1170.519
 459  955.1053
 460  544.8757
 461  808.9205
 462  768.9737
 463  548.908
 464  539.321
 465  744.0724
 466  832.2596
 467  411.4592
 468  230.6256
 469  403.734
 470  42.1339
 471  289.5776
 472  396.5578
 473  623.7111
 474  1075.556
 475  1225.629
 476  255.5762
 477  -256.3083
 478  191.1682
 479  358.8042
 480  823.9772
 481  646.0577
 482  589.7095
 483  335.9275
 484  -171.7621
 485  313.3893
 486  671.0114
 487  733.9266
 488  569.4421
 489  519.6901
 490  294.3164
 491  249.1917
 492  581.8813
 493  432.3579
 494  427.7218
 495  247.0232
 496  493.1175
 497  499.1797
 498  344.5335
 499  388.5712
 500  591.729
 501  922.3445
 502  503.9697
 503  519.6379
 504  235.7508
 505  472.5977
 506  295.7962
 507  611.9128
 508  760.2587
 509  765.0212
 510  943.9407
 511  510.0023
