# Input file       =  1188077051.109435_cleaned.dat
# Candidate        =  PSR_0332+5434
# Telescope        =  AR
# Epoch_topo       =  57994.892015155499
# Epoch_bary       =  N/A
# T_sample         =  0.002
# Data Folded      =  7208960
# Data Avg         =  0.0753874053458935
# Data StdDev      =  3.52675660007477 
# Profile Bins     =  512
# Profile Avg      =  1061.44629344712 
# Profile StdDev   =  418.482031389266 
# Reduced chi-sqr  =  0.755
# Prob(Noise)      <  1   (~0.0 sigma)
# P_topo (ms)      =  714.463353818498  +/- 0.000105
# P'_topo (s/s)    =  -0                +/- 5.66e-11
# P''_topo (s/s^2) =  0                 +/- 2.54e-14
# P_bary (ms)      =  N/A
# P'_bary (s/s)    =  N/A
# P''_bary (s/s^2) =  N/A
# P_orb (s)        =  N/A
# asin(i)/c (s)    =  N/A
# eccentricity     =  N/A
# w (rad)          =  N/A
# T_peri           =  N/A
######################################################
   0  1076.506
   1  1036.084
   2  1198.005
   3  814.2531
   4  908.2541
   5  1228.346
   6  1091.793
   7  1037.048
   8  1079.921
   9  1162.515
  10  963.4813
  11  542.0228
  12  384.1255
  13  640.8637
  14  987.5394
  15  1023.644
  16  955.7003
  17  1131.466
  18  1299.137
  19  1479.322
  20  1114.759
  21  1370.478
  22  986.1716
  23  918.6268
  24  1008.324
  25  976.2912
  26  1135.902
  27  942.254
  28  744.8008
  29  674.2111
  30  708.2034
  31  572.1649
  32  514.3396
  33  545.3184
  34  1152.388
  35  1419.786
  36  1558.996
  37  1610.42
  38  915.5093
  39  840.9398
  40  776.0398
  41  1319.275
  42  1298.836
  43  1176.505
  44  904.0863
  45  1198.267
  46  1145.715
  47  567.6749
  48  842.2554
  49  655.6062
  50  1007.621
  51  1003.829
  52  1227.02
  53  1378.406
  54  853.1589
  55  903.5752
  56  907.6442
  57  981.3532
  58  1202.287
  59  957.1432
  60  816.3752
  61  886.4418
  62  739.8083
  63  1290.88
  64  1188.683
  65  1332.736
  66  1306.419
  67  1018.26
  68  1159.137
  69  991.7924
  70  1039.257
  71  1175.069
  72  1112.234
  73  1125.326
  74  1464.692
  75  1275.295
  76  1155.108
  77  1330.355
  78  1266.172
  79  1137.027
  80  1191.799
  81  1052.101
  82  1003.648
  83  982.9036
  84  884.1047
  85  995.5834
  86  1206.986
  87  1656.339
  88  1642.363
  89  1246.395
  90  1177.058
  91  1477.093
  92  1512.592
  93  1271.652
  94  968.2775
  95  1087.481
  96  1000.186
  97  839.2717
  98  1247.349
  99  1033.231
 100  769.6761
 101  955.7127
 102  658.226
 103  940.1049
 104  866.5482
 105  850.2326
 106  966.0006
 107  742.0452
 108  973.4593
 109  859.7266
 110  813.8304
 111  858.7603
 112  910.8538
 113  1135.87
 114  1124.829
 115  936.7504
 116  1175.604
 117  1000.685
 118  987.9731
 119  1266.948
 120  911.9278
 121  973.5458
 122  1100.192
 123  1201.745
 124  1294.589
 125  1092.315
 126  1159.252
 127  1210.296
 128  1155.369
 129  773.8553
 130  1078.617
 131  1181.399
 132  1248.06
 133  1157.992
 134  1189.829
 135  864.5243
 136  701.5023
 137  1086.264
 138  1248.083
 139  1353.227
 140  1194.018
 141  1315.979
 142  1458.172
 143  1503.946
 144  1391.12
 145  1365.462
 146  1375.762
 147  927.9388
 148  1031.567
 149  808.2584
 150  994.9489
 151  873.4996
 152  851.5353
 153  1158.797
 154  1467.351
 155  1267.207
 156  1410.032
 157  1165.682
 158  921.788
 159  975.3127
 160  1398.889
 161  1380.045
 162  870.6812
 163  810.4911
 164  1254.468
 165  1002.347
 166  997.8214
 167  951.8875
 168  764.0411
 169  918.7418
 170  1156.668
 171  1353.567
 172  1119.996
 173  801.5798
 174  823.2993
 175  1228.371
 176  1108.045
 177  1092.978
 178  899.0034
 179  821.2817
 180  782.9102
 181  823.9065
 182  959.5342
 183  1165.499
 184  1193.936
 185  1148.168
 186  1406.712
 187  1288.295
 188  1268.88
 189  1210.24
 190  1174.419
 191  1206
 192  1008.353
 193  1024.27
 194  1180.575
 195  1380.339
 196  1149.827
 197  990.5262
 198  1282.252
 199  1341.219
 200  1389.39
 201  1280.527
 202  941.5654
 203  870.4457
 204  931.6509
 205  1045.336
 206  1396.399
 207  1339.643
 208  1553.417
 209  1325.142
 210  1337.052
 211  1205.312
 212  1052.609
 213  768.2858
 214  1022.358
 215  1390.707
 216  1416.882
 217  1456.329
 218  1170.064
 219  1411.548
 220  981.5784
 221  1161.538
 222  1102.299
 223  1123.303
 224  1305.687
 225  1171.828
 226  1033.41
 227  1277.006
 228  1209.947
 229  1389.874
 230  1558.731
 231  1266.83
 232  1109.924
 233  1132.272
 234  1206.843
 235  1138.445
 236  711.1708
 237  1347.673
 238  1216.19
 239  884.6785
 240  1031.523
 241  955.4785
 242  1057.917
 243  1114.65
 244  817.0279
 245  932.8305
 246  781.9528
 247  922.0487
 248  1343.569
 249  868.9742
 250  1045.844
 251  1194.091
 252  1258.827
 253  1070.746
 254  916.2651
 255  1111.76
 256  873.2662
 257  1063.331
 258  1411.086
 259  1419.605
 260  861.9573
 261  720.5891
 262  854.9245
 263  1195.55
 264  1654.348
 265  1319.033
 266  1506.005
 267  1423.248
 268  1378.2
 269  1067.515
 270  735.6769
 271  686.6896
 272  948.6082
 273  1219.084
 274  1227.337
 275  1253.971
 276  926.431
 277  1160.693
 278  823.811
 279  712.9549
 280  1016.857
 281  779.8975
 282  1091.705
 283  1231.783
 284  1237.237
 285  863.4413
 286  1005.42
 287  662.9405
 288  1191.56
 289  906.1688
 290  1145.98
 291  1169.929
 292  1261.807
 293  1492.573
 294  1194.275
 295  1062.841
 296  723.633
 297  1111.247
 298  1490.69
 299  1628.335
 300  1612.839
 301  1618.814
 302  1373.13
 303  807.8019
 304  752.378
 305  861.7305
 306  994.4507
 307  1315.146
 308  1589.057
 309  1370.296
 310  1124.225
 311  1013.277
 312  1038.705
 313  1093.732
 314  1127.367
 315  938.6791
 316  799.8012
 317  898.4401
 318  1181.189
 319  1316.666
 320  1075.884
 321  1113.181
 322  1095.102
 323  916.7841
 324  1097.512
 325  582.715
 326  853.08
 327  1143.66
 328  676.3518
 329  777.4765
 330  1034.048
 331  1014.901
 332  1063.479
 333  1075.522
 334  937.6619
 335  868.7096
 336  651.4555
 337  789.327
 338  1048.866
 339  1000.211
 340  891.4805
 341  557.6241
 342  855.1271
 343  983.6829
 344  1183.368
 345  919.2316
 346  635.7233
 347  1039.816
 348  1092.37
 349  774.2434
 350  524.6385
 351  851.7551
 352  973.007
 353  890.1569
 354  836.1909
 355  1354.312
 356  1581.778
 357  1555.563
 358  1335.072
 359  1206.705
 360  861.1407
 361  738.7896
 362  736.5666
 363  1263.084
 364  1306.772
 365  1576.292
 366  1845.734
 367  1540.545
 368  1006.616
 369  631.2789
 370  820.0725
 371  716.5019
 372  1069.588
 373  1093.332
 374  1416.391
 375  1210.672
 376  1019.792
 377  992.0276
 378  957.9622
 379  762.273
 380  860.4556
 381  1193.038
 382  1199.634
 383  1027.963
 384  759.8341
 385  362.4705
 386  973.6584
 387  826.2579
 388  1085.247
 389  1110.052
 390  1216.634
 391  1134.908
 392  721.1294
 393  831.1956
 394  698.2321
 395  1215.599
 396  1258.161
 397  1373.804
 398  1124.072
 399  1013.98
 400  806.7501
 401  1057.946
 402  1331.847
 403  614.1871
 404  670.4315
 405  874.0742
 406  957.6884
 407  712.311
 408  715.7553
 409  1114.66
 410  884.1319
 411  1065.136
 412  716.554
 413  628.6435
 414  1212.507
 415  1192.569
 416  968.142
 417  884.6205
 418  887.8582
 419  974.7825
 420  932.3227
 421  616.199
 422  1110.424
 423  977.8142
 424  1194.533
 425  1106.189
 426  867.9618
 427  791.8165
 428  811.8498
 429  1008.021
 430  1270.946
 431  1435.522
 432  1490.393
 433  901.2434
 434  852.5997
 435  906.7312
 436  816.2566
 437  994.7541
 438  1170.793
 439  1443.079
 440  1380.827
 441  1166.929
 442  830.4245
 443  824.222
 444  1093.854
 445  516.8613
 446  744.6907
 447  896.5665
 448  931.0383
 449  777.9337
 450  1033.019
 451  849.4559
 452  596.7149
 453  1038.683
 454  1329.863
 455  1144.573
 456  819.8903
 457  729.4684
 458  712.0126
 459  988.0126
 460  998.7578
 461  634.0715
 462  575.2358
 463  472.7913
 464  855.5811
 465  916.9974
 466  831.6827
 467  802.9636
 468  723.3671
 469  845.6714
 470  1116.016
 471  1253.832
 472  1067.436
 473  1254.188
 474  1091.234
 475  903.2806
 476  1238.2
 477  1122.792
 478  903.1809
 479  1143.695
 480  1255.736
 481  1149.557
 482  557.2372
 483  830.5361
 484  899.1318
 485  759.047
 486  896.1765
 487  928.364
 488  1024.506
 489  864.296
 490  1120.744
 491  1418.698
 492  865.6387
 493  656.5325
 494  924.675
 495  1055.745
 496  961.5858
 497  1354.953
 498  1583.465
 499  1523.317
 500  1635.172
 501  1740.845
 502  1983.421
 503  2040.351
 504  2095.244
 505  1770.597
 506  1651.715
 507  812.8382
 508  671.9504
 509  879.2422
 510  279.212
 511  818.4776
