# Input file       =  1188709785.114631_cleaned.dat
# Candidate        =  PSR_0332+5434
# Telescope        =  AR
# Epoch_topo       =  58002.215325400823
# Epoch_bary       =  N/A
# T_sample         =  0.002
# Data Folded      =  7340032
# Data Avg         =  0.0344121136336721
# Data StdDev      =  3.02149430334401 
# Profile Bins     =  512
# Profile Avg      =  493.396268646834 
# Profile StdDev   =  361.77268733448  
# Reduced chi-sqr  =  1.123
# Prob(Noise)      <  0.0276   (~1.9 sigma)
# P_topo (ms)      =  714.464336186516  +/- 0.00031
# P'_topo (s/s)    =  -0                +/- 1.64e-10
# P''_topo (s/s^2) =  0                 +/- 7.23e-14
# P_bary (ms)      =  N/A
# P'_bary (s/s)    =  N/A
# P''_bary (s/s^2) =  N/A
# P_orb (s)        =  N/A
# asin(i)/c (s)    =  N/A
# eccentricity     =  N/A
# w (rad)          =  N/A
# T_peri           =  N/A
######################################################
   0  552.6237
   1  353.8265
   2  509.479
   3  779.6467
   4  461.0486
   5  459.8712
   6  167.1188
   7  466.9953
   8  632.7746
   9  531.4139
  10  683.9651
  11  215.951
  12  116.0093
  13  342.6583
  14  346.4229
  15  560.7298
  16  638.7025
  17  782.6475
  18  390.8912
  19  438.1343
  20  463.4431
  21  573.2863
  22  663.8158
  23  492.5529
  24  369.3885
  25  247.0445
  26  -25.20544
  27  164.539
  28  611.0975
  29  633.624
  30  472.3835
  31  291.8069
  32  49.40958
  33  425.1821
  34  584.8589
  35  391.8837
  36  900.7434
  37  851.3043
  38  431.0437
  39  -130.158
  40  619.2971
  41  327.2272
  42  502.6401
  43  775.512
  44  983.3955
  45  646.6914
  46  500.5396
  47  462.9823
  48  742.2771
  49  1278.003
  50  1000.973
  51  656.119
  52  604.0978
  53  797.2065
  54  667.0013
  55  447.5555
  56  819.0543
  57  727.9463
  58  483.5556
  59  258.4508
  60  538.306
  61  566.7167
  62  664.2115
  63  548.9393
  64  448.407
  65  447.8904
  66  830.9609
  67  568.7495
  68  256.9282
  69  303.405
  70  685.0826
  71  601.4192
  72  556.0844
  73  445.2156
  74  231.9509
  75  221.455
  76  810.7227
  77  1044.712
  78  970.8677
  79  501.1325
  80  455.3163
  81  613.1947
  82  306.4669
  83  297.7051
  84  -18.31905
  85  249.676
  86  196.2589
  87  156.6316
  88  204.869
  89  512.3539
  90  110.1668
  91  544.9596
  92  493.1476
  93  560.1951
  94  246.4687
  95  435.13
  96  727.477
  97  476.1937
  98  86.71618
  99  367.6896
 100  735.1008
 101  679.0366
 102  441.3749
 103  362.9089
 104  777.5878
 105  773.1398
 106  929.4674
 107  666.1738
 108  319.4129
 109  77.54424
 110  526.8012
 111  896.0421
 112  983.0251
 113  340.1712
 114  481.4702
 115  630.0183
 116  654.2784
 117  389.9015
 118  487.0048
 119  377.5726
 120  542.2412
 121  417.5251
 122  253.2742
 123  424.6137
 124  241.2963
 125  773.2952
 126  536.7391
 127  524.5426
 128  661.5771
 129  331.9346
 130  372.5497
 131  763.174
 132  970.1525
 133  472.4554
 134  267.9509
 135  432.5647
 136  438.1092
 137  241.3327
 138  490.893
 139  264.124
 140  232.5969
 141  597.5184
 142  689.6321
 143  376.1144
 144  585.3767
 145  897.8587
 146  757.7004
 147  384.5044
 148  611.1392
 149  818.7291
 150  180.0928
 151  351.7095
 152  354.6545
 153  129.6383
 154  323.4696
 155  213.2716
 156  506.9626
 157  520.4115
 158  469.8735
 159  770.5433
 160  248.0437
 161  104.9873
 162  203.6875
 163  430.0195
 164  560.5817
 165  485.4616
 166  349.8418
 167  283.6853
 168  435.0642
 169  746.3573
 170  691.6094
 171  1106.118
 172  647.3554
 173  383.2243
 174  749.6823
 175  937.597
 176  905.5655
 177  598.6649
 178  540.6755
 179  532.5507
 180  929.9479
 181  1000.2
 182  400.4203
 183  117.1599
 184  303.0909
 185  730.2927
 186  765.4194
 187  557.1596
 188  493.9733
 189  562.9444
 190  566.0292
 191  590.3152
 192  349.9409
 193  421.7984
 194  731.915
 195  880.114
 196  564.3778
 197  332.6651
 198  443.3911
 199  601.6314
 200  382.8257
 201  385.5643
 202  219.9527
 203  -153.8362
 204  -25.91107
 205  671.3276
 206  600.0677
 207  447.158
 208  795.8177
 209  323.7643
 210  188.6872
 211  441.0049
 212  690.304
 213  688.9867
 214  741.8891
 215  465.4222
 216  204.0535
 217  484.4293
 218  716.4095
 219  462.9631
 220  423.2684
 221  635.4872
 222  711.0004
 223  595.3036
 224  739.9669
 225  608.4135
 226  863.58
 227  457.9687
 228  306.5434
 229  706.2433
 230  762.7369
 231  43.0662
 232  -51.91888
 233  588.6373
 234  665.8771
 235  898.4966
 236  434.8428
 237  321.0284
 238  181.73
 239  187.7086
 240  260.8175
 241  511.3182
 242  297.4911
 243  346.2151
 244  166.5105
 245  142.9519
 246  418.1905
 247  447.8204
 248  542.8619
 249  425.1824
 250  391.7926
 251  282.167
 252  230.4364
 253  730.8149
 254  234.1466
 255  58.00858
 256  912.9509
 257  960.1446
 258  564.1391
 259  531.7072
 260  471.0825
 261  559.7191
 262  382.1429
 263  254.572
 264  447.5172
 265  596.0795
 266  671.6178
 267  487.0812
 268  255.8871
 269  439.8207
 270  1124.545
 271  588.4927
 272  182.5296
 273  563.1653
 274  505.8012
 275  442.541
 276  597.8269
 277  820.9029
 278  896.2048
 279  516.0009
 280  528.3735
 281  497.2083
 282  587.4844
 283  695.3318
 284  482.7646
 285  450.9981
 286  676.6744
 287  665.1038
 288  596.5064
 289  525.2845
 290  447.3268
 291  657.7368
 292  629.062
 293  508.5519
 294  528.9808
 295  394.4293
 296  412.1678
 297  665.6255
 298  838.2397
 299  473.935
 300  666.7096
 301  293.8686
 302  336.0854
 303  726.9318
 304  602.367
 305  385.0717
 306  339.6368
 307  55.9999
 308  349.6357
 309  360.0031
 310  615.4996
 311  584.8478
 312  667.7193
 313  715.2811
 314  675.6965
 315  630.6777
 316  772.5764
 317  538.4482
 318  420.7891
 319  739.8033
 320  1228.786
 321  1867.798
 322  2076.469
 323  2143.858
 324  1943.915
 325  1391.122
 326  614.9771
 327  381.5408
 328  859.7615
 329  709.9197
 330  695.4411
 331  471.4163
 332  537.0085
 333  235.5381
 334  778.9917
 335  1371.697
 336  912.5278
 337  600.1241
 338  833.6121
 339  955.5398
 340  940.5053
 341  763.2631
 342  580.1188
 343  364.3925
 344  500.3275
 345  503.0713
 346  637.7655
 347  629.9459
 348  496.2707
 349  815.2005
 350  443.0522
 351  498.4178
 352  448.2147
 353  646.7765
 354  420.688
 355  211.0295
 356  319.3621
 357  330.4164
 358  297.5847
 359  509.3306
 360  310.0598
 361  106.053
 362  420.3894
 363  475.5327
 364  392.4358
 365  590.6772
 366  214.4326
 367  535.4832
 368  657.8144
 369  372.146
 370  93.7325
 371  605.7847
 372  599.1946
 373  369.6618
 374  538.6084
 375  807.4279
 376  50.55037
 377  294.4036
 378  544.848
 379  602.4691
 380  370.1223
 381  220.3577
 382  449.8266
 383  346.9418
 384  179.8544
 385  -135.3058
 386  130.6936
 387  367.9076
 388  -15.99352
 389  203.327
 390  624.5799
 391  540.985
 392  575.8099
 393  389.8184
 394  169.1785
 395  169.4217
 396  415.7554
 397  194.6513
 398  159.7279
 399  364.1326
 400  262.1129
 401  55.84508
 402  458.039
 403  803.8541
 404  477.6443
 405  320.3486
 406  474.6321
 407  575.395
 408  344.5606
 409  80.31178
 410  447.1902
 411  75.51445
 412  310.5443
 413  196.745
 414  306.3449
 415  409.8719
 416  362.8712
 417  525.4136
 418  645.5743
 419  346.7445
 420  456.8198
 421  137.7961
 422  313.951
 423  552.2172
 424  418.5067
 425  215.1245
 426  113.5734
 427  81.04206
 428  28.96373
 429  221.2571
 430  522.1205
 431  456.6614
 432  232.8356
 433  377.8261
 434  412.4092
 435  285.1836
 436  182.1251
 437  207.4728
 438  87.61925
 439  -255.611
 440  327.6961
 441  733.6656
 442  428.558
 443  441.2494
 444  111.358
 445  593.8124
 446  496.0112
 447  590.457
 448  267.6556
 449  578.6618
 450  123.8109
 451  175.3752
 452  -40.98973
 453  149.2488
 454  289.543
 455  299.6223
 456  439.8489
 457  295.3924
 458  242.8531
 459  356.4221
 460  300.8584
 461  478.4108
 462  381.488
 463  208.6938
 464  61.0762
 465  761.3185
 466  384.1351
 467  227.5972
 468  738.5706
 469  505.036
 470  318.4498
 471  227.5067
 472  489.0028
 473  1002.066
 474  907.6678
 475  585.0235
 476  544.2354
 477  613.6984
 478  887.683
 479  529.6581
 480  354.0217
 481  519.6656
 482  896.8839
 483  620.9503
 484  904.2232
 485  390.5085
 486  313.2925
 487  493.2747
 488  210.0802
 489  509.2647
 490  572.2686
 491  704.0356
 492  501.8424
 493  588.0862
 494  837.6309
 495  849.7195
 496  864.9243
 497  715.6306
 498  368.7671
 499  200.4775
 500  81.76448
 501  110.3851
 502  670.9376
 503  733.9869
 504  242.7783
 505  218.8061
 506  71.37849
 507  492.7066
 508  215.1434
 509  322.796
 510  330.0742
 511  591.2676
