# Input file       =  1188451331.12315_cleaned.dat
# Candidate        =  PSR_0332+5434
# Telescope        =  AR
# Epoch_topo       =  57999.223959758681
# Epoch_bary       =  N/A
# T_sample         =  0.002
# Data Folded      =  7340032
# Data Avg         =  0.0108513745389284
# Data StdDev      =  1.0000173546811  
# Profile Bins     =  512
# Profile Avg      =  155.317041212689 
# Profile StdDev   =  119.73511430543  
# Reduced chi-sqr  =  1.274
# Prob(Noise)      <  2.54e-05   (~4.1 sigma)
# P_topo (ms)      =  714.463974202336  +/- 0.00019
# P'_topo (s/s)    =  -0                +/- 1e-10
# P''_topo (s/s^2) =  0                 +/- 4.44e-14
# P_bary (ms)      =  N/A
# P'_bary (s/s)    =  N/A
# P''_bary (s/s^2) =  N/A
# P_orb (s)        =  N/A
# asin(i)/c (s)    =  N/A
# eccentricity     =  N/A
# w (rad)          =  N/A
# T_peri           =  N/A
######################################################
   0  518.8939
   1  586.5136
   2  638.7059
   3  361.9337
   4  235.8609
   5  244.1577
   6  21.94357
   7  143.1766
   8  114.1795
   9  11.26847
  10  162.6618
  11  220.9031
  12  324.8167
  13  443.7521
  14  368.9837
  15  383.3087
  16  330.7537
  17  232.3407
  18  200.7493
  19  89.60866
  20  244.221
  21  195.5603
  22  68.07546
  23  73.40942
  24  51.27759
  25  74.83597
  26  318.9711
  27  219.3
  28  238.6447
  29  214.2952
  30  344.8641
  31  379.061
  32  180.5988
  33  53.31169
  34  159.0894
  35  238.6575
  36  300.3492
  37  194.5145
  38  141.7908
  39  -7.534141
  40  64.23122
  41  149.7212
  42  114.1489
  43  289.6074
  44  288.4149
  45  233.9659
  46  123.0532
  47  188.4723
  48  58.14649
  49  28.4424
  50  57.94565
  51  237.6883
  52  248.0344
  53  263.5592
  54  242.7863
  55  213.0179
  56  63.81531
  57  -33.32509
  58  21.11066
  59  55.4128
  60  66.75703
  61  120.1718
  62  -27.80005
  63  19.45521
  64  40.94355
  65  109.454
  66  157.2202
  67  119.7347
  68  26.81647
  69  -73.55535
  70  47.90269
  71  102.8575
  72  0.4564713
  73  74.01365
  74  72.98963
  75  177.5728
  76  -41.50675
  77  -0.7036635
  78  176.9788
  79  310.9981
  80  291.8019
  81  184.0848
  82  228.8131
  83  189.3596
  84  194.9816
  85  164.4768
  86  287.8095
  87  231.3158
  88  309.3127
  89  204.7705
  90  200.5456
  91  133.454
  92  171.0844
  93  191.193
  94  178.2137
  95  136.9228
  96  98.35188
  97  230.653
  98  204.55
  99  155.1881
 100  128.4013
 101  188.2209
 102  178.5781
 103  59.68595
 104  33.01446
 105  52.42127
 106  73.43139
 107  33.87489
 108  30.34864
 109  265.9238
 110  378.4996
 111  211.1475
 112  218.0102
 113  167.2607
 114  146.4895
 115  266.6717
 116  143.4258
 117  188.941
 118  114.0192
 119  122.1873
 120  119.3667
 121  138.6954
 122  152.6686
 123  205.9137
 124  271.5837
 125  182.1838
 126  30.58035
 127  -10.38932
 128  113.1544
 129  146.2013
 130  97.84113
 131  167.832
 132  60.09882
 133  231.4107
 134  203.972
 135  123.3467
 136  112.6776
 137  200.7911
 138  188.7092
 139  83.32597
 140  58.61877
 141  155.9962
 142  146.3906
 143  149.3739
 144  161.8736
 145  15.90439
 146  49.1118
 147  142.4543
 148  103.6719
 149  194.2788
 150  366.5802
 151  197.59
 152  136.0649
 153  306.2075
 154  269.3517
 155  72.91365
 156  280.1338
 157  253.8622
 158  161.0216
 159  106.7796
 160  271.7663
 161  255.126
 162  198.6388
 163  228.8326
 164  108.4998
 165  125.7979
 166  231.2555
 167  212.5736
 168  90.66909
 169  116.3199
 170  165.6336
 171  199.8721
 172  136.4521
 173  116.4937
 174  68.68777
 175  85.00926
 176  24.10864
 177  99.9198
 178  243.544
 179  265.7899
 180  157.7355
 181  110.2075
 182  91.25928
 183  94.13156
 184  169.4697
 185  165.1888
 186  116.0912
 187  149.2879
 188  77.61654
 189  62.22163
 190  134.0013
 191  118.7269
 192  80.18206
 193  128.7484
 194  170.9368
 195  159.1953
 196  12.1536
 197  51.65317
 198  -82.23908
 199  -65.66108
 200  19.51636
 201  155.6445
 202  75.01736
 203  19.64937
 204  14.37202
 205  128.3032
 206  151.0025
 207  101.9708
 208  29.07104
 209  -75.15397
 210  99.90215
 211  28.61369
 212  133.0202
 213  138.0023
 214  77.44708
 215  144.184
 216  220.3669
 217  146.7658
 218  58.754
 219  92.65724
 220  41.05262
 221  137.9736
 222  188.306
 223  210.5123
 224  171.8189
 225  310.637
 226  279.1224
 227  103.6789
 228  183.3032
 229  121.4154
 230  131.6221
 231  154.9172
 232  129.674
 233  196.1262
 234  18.23526
 235  60.14116
 236  148.3494
 237  139.4169
 238  79.89073
 239  90.57205
 240  137.6662
 241  167.1893
 242  85.61388
 243  38.58797
 244  143.7893
 245  93.58463
 246  188.3863
 247  32.99261
 248  26.79216
 249  181.3426
 250  217.6763
 251  100.2623
 252  68.55744
 253  90.72181
 254  143.5808
 255  36.50852
 256  99.87105
 257  111.9644
 258  149.6706
 259  54.52534
 260  120.9293
 261  117.1703
 262  115.7181
 263  -28.95208
 264  17.76524
 265  -21.3187
 266  28.46304
 267  221.5543
 268  166.6365
 269  193.7885
 270  264.2065
 271  155.4583
 272  105.9805
 273  91.33659
 274  117.0002
 275  38.26781
 276  34.66544
 277  89.02756
 278  232.9962
 279  -24.81509
 280  8.621351
 281  110.2165
 282  -58.17848
 283  46.3106
 284  239.1358
 285  218.5222
 286  183.7504
 287  143.0409
 288  109.1595
 289  253.1539
 290  178.017
 291  195.9336
 292  266.6479
 293  159.5467
 294  145.9805
 295  299.227
 296  218.7484
 297  208.4198
 298  250.8806
 299  377.8274
 300  306.9066
 301  145.0796
 302  18.72261
 303  191.54
 304  190.9162
 305  278.025
 306  259.4067
 307  218.5508
 308  217.2508
 309  185.9609
 310  77.08887
 311  251.9347
 312  298.0147
 313  244.2075
 314  138.0802
 315  192.4534
 316  269.385
 317  197.689
 318  46.17094
 319  111.2695
 320  163.0004
 321  164.1361
 322  156.5991
 323  79.15762
 324  66.8652
 325  165.3309
 326  72.29023
 327  63.64117
 328  66.57661
 329  160.1064
 330  182.8799
 331  189.0462
 332  201.326
 333  189.1774
 334  -20.99299
 335  18.69824
 336  137.8697
 337  275.3853
 338  242.2691
 339  198.4487
 340  129.6508
 341  49.27449
 342  145.5486
 343  177.9148
 344  160.3623
 345  232.9536
 346  208.913
 347  145.9638
 348  319.753
 349  344.8915
 350  215.835
 351  132.1558
 352  234.1423
 353  201.5781
 354  276.9697
 355  255.8043
 356  187.9123
 357  134.9588
 358  245.4734
 359  275.9548
 360  194.5729
 361  148.2438
 362  158.7394
 363  30.95597
 364  50.60653
 365  158.5588
 366  147.2311
 367  137.963
 368  236.8178
 369  177.0962
 370  131.7553
 371  111.8627
 372  182.249
 373  228.4604
 374  265.3108
 375  130.1814
 376  124.9103
 377  199.209
 378  162.2296
 379  114.003
 380  105.3118
 381  226.2957
 382  216.457
 383  162.3017
 384  179.4655
 385  218.743
 386  290.0186
 387  242.6437
 388  182.5871
 389  257.1045
 390  230.5328
 391  127.9752
 392  319.7708
 393  386.4873
 394  346.6673
 395  190.328
 396  174.6216
 397  273.1623
 398  110.8399
 399  161.4487
 400  151.2499
 401  161.1601
 402  258.3326
 403  94.3634
 404  -45.98164
 405  41.11435
 406  101.4436
 407  46.61161
 408  144.0565
 409  185.1616
 410  148.252
 411  105.9114
 412  177.211
 413  245.8871
 414  156.2691
 415  75.81968
 416  97.80872
 417  200.3615
 418  232.2876
 419  103.2342
 420  14.82233
 421  -32.26913
 422  179.245
 423  175.0979
 424  68.58902
 425  73.42697
 426  68.71907
 427  79.74772
 428  57.31281
 429  -3.761697
 430  -35.11392
 431  95.2999
 432  283.8068
 433  240.7088
 434  7.861357
 435  -55.66393
 436  -58.97637
 437  128.9555
 438  315.3172
 439  254.4723
 440  158.149
 441  77.0431
 442  138.8474
 443  62.64154
 444  149.6913
 445  168.361
 446  105.4112
 447  134.9469
 448  185.3563
 449  250.3949
 450  332.3397
 451  167.0912
 452  205.7058
 453  148.0913
 454  176.1983
 455  197.3369
 456  155.2233
 457  118.5768
 458  189.5654
 459  224.5882
 460  191.3691
 461  -39.71193
 462  -0.3304036
 463  175.2662
 464  142.3286
 465  199.047
 466  296.4873
 467  218.6551
 468  116.7571
 469  204.51
 470  219.5609
 471  145.4199
 472  104.7162
 473  155.8593
 474  171.8085
 475  148.3279
 476  50.92219
 477  76.48647
 478  204.392
 479  134.9671
 480  33.25327
 481  111.9949
 482  99.78717
 483  23.38447
 484  -26.44228
 485  155.7513
 486  247.7567
 487  236.9911
 488  254.5137
 489  134.77
 490  142.5619
 491  146.6801
 492  158.3287
 493  187.3225
 494  252.1586
 495  189.4817
 496  266.5978
 497  192.2264
 498  134.4992
 499  119.4284
 500  99.45727
 501  193.0204
 502  169.2576
 503  192.3658
 504  270.1592
 505  227.2598
 506  123.8245
 507  191.2492
 508  282.5672
 509  329.7851
 510  445.8744
 511  551.4307
