# Input file       =  1188192762.121225_cleaned.dat
# Candidate        =  PSR_0332+5434
# Telescope        =  AR
# Epoch_topo       =  57996.231262977140
# Epoch_bary       =  N/A
# T_sample         =  0.002
# Data Folded      =  7340032
# Data Avg         =  0.0304068874122874
# Data StdDev      =  3.20258841008043 
# Profile Bins     =  512
# Profile Avg      =  435.893337406002 
# Profile StdDev   =  383.45563460397  
# Reduced chi-sqr  =  1.405
# Prob(Noise)      <  3.64e-09   (~5.8 sigma)
# P_topo (ms)      =  714.463753095235  +/- 0.000184
# P'_topo (s/s)    =  -0                +/- 9.73e-11
# P''_topo (s/s^2) =  0                 +/- 4.3e-14
# P_bary (ms)      =  N/A
# P'_bary (s/s)    =  N/A
# P''_bary (s/s^2) =  N/A
# P_orb (s)        =  N/A
# asin(i)/c (s)    =  N/A
# eccentricity     =  N/A
# w (rad)          =  N/A
# T_peri           =  N/A
######################################################
   0  779.0051
   1  454.3466
   2  631.3334
   3  529.6962
   4  318.2821
   5  452.3619
   6  506.2648
   7  863.0607
   8  519.7813
   9  310.5932
  10  852.3709
  11  822.3045
  12  288.3062
  13  -124.6219
  14  95.87859
  15  565.2553
  16  728.0859
  17  447.1078
  18  30.49776
  19  466.3277
  20  38.44898
  21  -54.17622
  22  -292.6074
  23  234.3675
  24  192.2646
  25  409.1319
  26  552.3057
  27  481.9102
  28  351.0323
  29  233.5669
  30  303.7883
  31  -9.498054
  32  -222.2255
  33  348.6121
  34  270.3891
  35  333.1125
  36  523.9305
  37  155.9762
  38  122.4134
  39  422.4608
  40  923.1528
  41  785.301
  42  689.8368
  43  708.5733
  44  606.861
  45  617.9608
  46  459.0957
  47  663.41
  48  749.4532
  49  870.5327
  50  503.8275
  51  539.8705
  52  862.8247
  53  640.4258
  54  908.3054
  55  435.5506
  56  616.451
  57  728.5844
  58  978.0188
  59  1082.249
  60  892.5792
  61  920.5701
  62  1099
  63  1005.216
  64  747.8839
  65  574.7674
  66  566.2367
  67  474.147
  68  784.0784
  69  830.8544
  70  483.1865
  71  733.7767
  72  675.5641
  73  1003.062
  74  698.5181
  75  554.4875
  76  476.9749
  77  328.6051
  78  446.2193
  79  629.1555
  80  406.5665
  81  352.3624
  82  483.618
  83  45.92036
  84  257.5572
  85  508.2079
  86  265.3052
  87  511.0292
  88  561.7498
  89  313.9692
  90  357.189
  91  567.5848
  92  573.3082
  93  409.4263
  94  530.3201
  95  451.3548
  96  303.4698
  97  425.9331
  98  444.4793
  99  411.0888
 100  575.5725
 101  637.1816
 102  518.4911
 103  159.1816
 104  2.220075
 105  91.19845
 106  510.2569
 107  494.5205
 108  468.8784
 109  698.0001
 110  3.166815
 111  197.0134
 112  225.1747
 113  280.8981
 114  63.77602
 115  148.7383
 116  716.5104
 117  497.027
 118  -113.3531
 119  570.288
 120  855.5208
 121  810.6112
 122  368.2335
 123  644.0084
 124  741.4869
 125  440.9395
 126  271.9059
 127  667.4844
 128  482.5256
 129  266.0608
 130  320.1758
 131  482.5342
 132  597.3454
 133  366.7755
 134  612.1954
 135  1094.891
 136  962.983
 137  786.1888
 138  703.764
 139  1116.624
 140  1343.101
 141  836.0819
 142  587.7607
 143  818.7614
 144  756.073
 145  561.8232
 146  765.5779
 147  529.7642
 148  203.8776
 149  460.796
 150  983.991
 151  548.5292
 152  383.7919
 153  692.231
 154  507.2619
 155  19.52946
 156  262.656
 157  122.4597
 158  144.6247
 159  -370.8893
 160  -6.491084
 161  222.9427
 162  142.9944
 163  61.8144
 164  -195.3253
 165  -195.5169
 166  125.1597
 167  185.1432
 168  238.449
 169  175.8484
 170  1.035308
 171  -71.85789
 172  307.9504
 173  92.55529
 174  226.7792
 175  377.2482
 176  420.7191
 177  315.0067
 178  59.64712
 179  684.129
 180  588.2223
 181  343.4794
 182  459.9848
 183  580.9189
 184  669.0848
 185  361.8243
 186  159.6851
 187  619.0394
 188  187.8616
 189  294.1878
 190  479.6949
 191  309.6622
 192  69.97491
 193  -10.23418
 194  181.6483
 195  297.6899
 196  75.40749
 197  290.85
 198  252.5055
 199  257.1029
 200  526.2448
 201  255.0862
 202  554.1684
 203  829.9056
 204  991.3986
 205  614.285
 206  714.69
 207  901.2596
 208  761.7234
 209  488.5003
 210  615.2445
 211  1161.49
 212  1163.957
 213  777.0609
 214  851.5433
 215  560.2456
 216  697.3462
 217  879.3773
 218  761.5139
 219  747.3989
 220  462.4393
 221  391.472
 222  326.6182
 223  663.7006
 224  716.3006
 225  504.1959
 226  60.40692
 227  341.8666
 228  -112.4649
 229  -165.5589
 230  103.1727
 231  108.8699
 232  239.7575
 233  214.3524
 234  101.005
 235  -81.37283
 236  -35.9861
 237  -240.5517
 238  46.15576
 239  -158.443
 240  -221.395
 241  28.67122
 242  -69.67944
 243  71.71995
 244  52.46535
 245  -94.77821
 246  -1.489263
 247  -69.12265
 248  82.92582
 249  404.8091
 250  512.514
 251  113.4211
 252  42.50388
 253  318.0587
 254  17.58422
 255  250.3528
 256  362.8887
 257  31.42234
 258  -201.6247
 259  -111.674
 260  414.7617
 261  124.3643
 262  131.0004
 263  354.3493
 264  498.1362
 265  461.1281
 266  309.6387
 267  260.8921
 268  -49.62189
 269  -35.87722
 270  -126.5429
 271  424.298
 272  851.9209
 273  404.0844
 274  40.52396
 275  421.3296
 276  452.7701
 277  265.5203
 278  585.6797
 279  655.7104
 280  650.3382
 281  957.723
 282  668.92
 283  763.3506
 284  825.7524
 285  633.6956
 286  385.1233
 287  657.5406
 288  866.2057
 289  810.5255
 290  659.4393
 291  697.9992
 292  657.5605
 293  297.3665
 294  36.66137
 295  106.8008
 296  442.773
 297  670.8615
 298  781.9755
 299  622.627
 300  213.65
 301  386.4091
 302  120.3326
 303  -8.120172
 304  37.83402
 305  429.4252
 306  153.9362
 307  144.6146
 308  248.731
 309  355.749
 310  229.2524
 311  80.29536
 312  418.7092
 313  594.9194
 314  61.77332
 315  498.2575
 316  632.1814
 317  404.333
 318  258.1742
 319  18.33356
 320  62.3469
 321  387.6174
 322  168.3726
 323  246.0736
 324  157.9585
 325  149.5052
 326  243.6881
 327  -69.93085
 328  521.2896
 329  261.1578
 330  68.9981
 331  -307.288
 332  -120.7
 333  272.5721
 334  400.0475
 335  287.0497
 336  -65.9329
 337  662.5239
 338  990.096
 339  700.3271
 340  403.7506
 341  62.48763
 342  169.6645
 343  608.0712
 344  761.7422
 345  748.4565
 346  586.4958
 347  744.3298
 348  629.0039
 349  89.61958
 350  439.2395
 351  169.8019
 352  161.3189
 353  565.3898
 354  670.9384
 355  1048.151
 356  133.2501
 357  306.883
 358  465.2015
 359  834.6099
 360  664.7697
 361  222.5567
 362  357.904
 363  265.6027
 364  343.0277
 365  407.7433
 366  205.8368
 367  587.5321
 368  101.6868
 369  16.61798
 370  353.4147
 371  405.9123
 372  431.6781
 373  196.5818
 374  -195.4411
 375  134.8584
 376  331.8377
 377  302.4166
 378  296.0602
 379  51.54287
 380  -95.38789
 381  82.46644
 382  289.2295
 383  569.6562
 384  190.7795
 385  245.9162
 386  507.68
 387  299.2524
 388  418.9759
 389  288.2877
 390  -325.8666
 391  48.26951
 392  105.0934
 393  124.0029
 394  -188.8161
 395  -250.642
 396  147.6134
 397  294.3965
 398  339.3307
 399  100.8172
 400  13.93143
 401  181.3106
 402  346.3414
 403  200.559
 404  363.9598
 405  346.5269
 406  389.1504
 407  505.0055
 408  551.7783
 409  369.6994
 410  343.5593
 411  -287.271
 412  509.7562
 413  852.6661
 414  666.5815
 415  331.8207
 416  814.3905
 417  836.4492
 418  465.2563
 419  432.6192
 420  568.4679
 421  609.5605
 422  767.93
 423  367.5122
 424  566.6639
 425  788.3643
 426  322.8931
 427  487.3479
 428  863.115
 429  848.6412
 430  625.2975
 431  778.056
 432  776.1245
 433  928.2445
 434  577.7041
 435  407.1411
 436  656.9518
 437  1077.85
 438  774.6841
 439  736.8113
 440  708.4074
 441  360.55
 442  375.5856
 443  465.6441
 444  213.5292
 445  114.5535
 446  769.5495
 447  1102.352
 448  1008.035
 449  383.1911
 450  606.6048
 451  660.4355
 452  390.1577
 453  275.536
 454  366.6523
 455  555.3121
 456  748.4659
 457  581.9505
 458  673.5541
 459  348.0851
 460  620.3672
 461  950.2885
 462  1614.641
 463  1657.543
 464  1428.996
 465  1652.997
 466  1061.421
 467  517.0389
 468  52.21484
 469  -140.0451
 470  75.59337
 471  140.649
 472  550.185
 473  687.8246
 474  263.6678
 475  -148.9825
 476  209.4096
 477  212.116
 478  185.7512
 479  370.321
 480  803.007
 481  683.3499
 482  400.2193
 483  345.8693
 484  524.8343
 485  416.9661
 486  356.36
 487  661.0002
 488  763.3497
 489  462.3513
 490  472.443
 491  824.642
 492  664.5793
 493  262.7045
 494  582.2303
 495  1043.626
 496  867.475
 497  402.6331
 498  807.5435
 499  779.1337
 500  507.1459
 501  372.5845
 502  688.0255
 503  994.754
 504  1358.595
 505  1579.834
 506  1002.589
 507  932.5372
 508  737.5555
 509  616.0653
 510  611.5795
 511  618.1155
