# Input file       =  1189815021.115329_cleaned.dat
# Candidate        =  PSR_0332+5434
# Telescope        =  AR
# Epoch_topo       =  58015.007408742233
# Epoch_bary       =  N/A
# T_sample         =  0.002
# Data Folded      =  7340032
# Data Avg         =  0.0152525887803807
# Data StdDev      =  2.49572493151702 
# Profile Bins     =  1024
# Profile Avg      =  109.033254990991 
# Profile StdDev   =  211.298160307768 
# Reduced chi-sqr  =  1.375
# Prob(Noise)      <  1.2e-14   (~7.6 sigma)
# P_topo (ms)      =  714.467165661963  +/- 0.000295
# P'_topo (s/s)    =  -0                +/- 1.56e-10
# P''_topo (s/s^2) =  0                 +/- 6.88e-14
# P_bary (ms)      =  N/A
# P'_bary (s/s)    =  N/A
# P''_bary (s/s^2) =  N/A
# P_orb (s)        =  N/A
# asin(i)/c (s)    =  N/A
# eccentricity     =  N/A
# w (rad)          =  N/A
# T_peri           =  N/A
######################################################
   0  198.8169
   1  138.8184
   2  207.9218
   3  234.8719
   4  166.1249
   5  122.4512
   6  204.5621
   7  351.2147
   8  269.0152
   9  113.827
  10  35.49614
  11  34.08098
  12  2.891991
  13  -25.35367
  14  61.82121
  15  217.7657
  16  301.6513
  17  247.0603
  18  226.901
  19  199.9765
  20  101.5011
  21  100.8941
  22  211.6389
  23  332.3957
  24  185.1672
  25  132.9456
  26  92.38083
  27  179.6292
  28  80.62259
  29  79.55107
  30  -22.38591
  31  22.0898
  32  -14.51488
  33  -18.48384
  34  -33.82837
  35  -39.66594
  36  1.481338
  37  3.934147
  38  -29.57334
  39  -38.73367
  40  -106.4176
  41  -23.01109
  42  -50.0255
  43  46.59327
  44  93.80389
  45  104.0315
  46  96.65578
  47  -27.02523
  48  10.54149
  49  -41.66962
  50  79.23071
  51  105.6243
  52  194.0219
  53  127.4973
  54  11.89237
  55  2.415852
  56  7.083762
  57  88.64449
  58  111.8035
  59  244.9985
  60  230.939
  61  140.937
  62  62.18367
  63  -30.30837
  64  -68.27206
  65  -176.997
  66  -173.5421
  67  -127.3385
  68  60.45253
  69  115.3966
  70  118.3387
  71  129.7358
  72  122.8384
  73  69.6305
  74  68.59307
  75  124.9746
  76  159.8554
  77  17.77301
  78  -34.94069
  79  -5.319417
  80  60.81687
  81  50.82761
  82  -0.7172197
  83  25.72775
  84  149.9389
  85  167.4735
  86  101.5923
  87  10.95658
  88  32.94815
  89  87.65461
  90  90.90322
  91  119.0993
  92  203.5371
  93  199.3901
  94  194.0399
  95  66.72556
  96  75.9888
  97  88.87225
  98  94.43436
  99  138.1924
 100  127.905
 101  85.58711
 102  -17.59167
 103  -40.32607
 104  -41.51023
 105  -32.27369
 106  76.47965
 107  174.9007
 108  170.4986
 109  64.83354
 110  -38.69651
 111  -76.49688
 112  -39.39272
 113  91.24682
 114  216.4935
 115  168.2774
 116  94.23864
 117  49.255
 118  142.6223
 119  245.5474
 120  261.1772
 121  188.4756
 122  44.54163
 123  -85.99772
 124  -44.73288
 125  13.22323
 126  79.09228
 127  47.23752
 128  174.4278
 129  76.31586
 130  74.83482
 131  15.88501
 132  93.35822
 133  113.6939
 134  167.8843
 135  175.2406
 136  144.8874
 137  67.20363
 138  57.36386
 139  98.88404
 140  131.4385
 141  174.7814
 142  125.3508
 143  7.276609
 144  -74.67749
 145  -8.169181
 146  171.8933
 147  251.7008
 148  341.4478
 149  354.5023
 150  371.2394
 151  290.8043
 152  241.4195
 153  163.055
 154  31.16822
 155  -16.70419
 156  13.89407
 157  137.5804
 158  36.21238
 159  -57.11516
 160  -164.9879
 161  -120.1532
 162  -1.612288
 163  138.8876
 164  91.06491
 165  -8.233818
 166  -44.13707
 167  66.99269
 168  132.626
 169  100.2911
 170  52.28842
 171  -33.27787
 172  -60.12012
 173  5.071902
 174  81.88387
 175  132.786
 176  95.90028
 177  160.3095
 178  146.8025
 179  104.9839
 180  56.28848
 181  101.4829
 182  87.9577
 183  136.9898
 184  164.5462
 185  177.2512
 186  119.6053
 187  40.41465
 188  150.3161
 189  140.2364
 190  185.6444
 191  82.54343
 192  -4.6734
 193  -155.461
 194  -81.9352
 195  120.5012
 196  224.2161
 197  19.02496
 198  -201.4372
 199  -207.1663
 200  -24.18228
 201  53.75881
 202  157.0493
 203  250.3463
 204  321.2597
 205  220.6095
 206  162.9194
 207  178.7915
 208  123.2663
 209  117.973
 210  66.09177
 211  105.625
 212  62.42154
 213  100.5725
 214  82.05743
 215  122.1695
 216  95.46593
 217  13.07305
 218  -139.552
 219  -111.512
 220  69.21587
 221  202.8072
 222  111.8507
 223  46.42403
 224  -3.363537
 225  -22.11466
 226  52.34335
 227  57.12529
 228  108.6161
 229  9.686002
 230  -39.6285
 231  -67.46429
 232  -12.71224
 233  119.9822
 234  183.0405
 235  152.6639
 236  45.06446
 237  -8.526065
 238  55.3133
 239  138.6341
 240  66.81612
 241  -41.99669
 242  -18.0931
 243  10.05808
 244  18.11518
 245  24.26969
 246  57.41664
 247  98.09847
 248  49.81393
 249  -27.49588
 250  3.903332
 251  34.81493
 252  52.45578
 253  90.89153
 254  136.8279
 255  72.95683
 256  40.76564
 257  185.5132
 258  212.1948
 259  186.2636
 260  78.19464
 261  204.8369
 262  205.2157
 263  155.7382
 264  70.80723
 265  136.2622
 266  217.3583
 267  130.776
 268  32.69145
 269  11.60328
 270  90.20885
 271  92.18793
 272  66.67474
 273  74.31545
 274  103.6237
 275  205.1444
 276  200.7285
 277  180.8422
 278  149.3522
 279  143.3444
 280  88.40654
 281  43.36354
 282  117.6004
 283  199.0504
 284  123.9264
 285  48.17628
 286  0.2366067
 287  -6.599882
 288  -15.8037
 289  -56.05698
 290  27.20303
 291  21.84122
 292  91.85996
 293  43.25079
 294  -21.91005
 295  -199.3224
 296  -83.99689
 297  63.94492
 298  281.5594
 299  162.5544
 300  62.91528
 301  -24.90502
 302  -6.633309
 303  -40.56398
 304  -29.82601
 305  12.37436
 306  75.47262
 307  85.34965
 308  158.9433
 309  163.9664
 310  117.8456
 311  109.5724
 312  186.0731
 313  184.7733
 314  141.5252
 315  115.5108
 316  157.1171
 317  128.9353
 318  164.024
 319  91.31071
 320  169.4714
 321  236.4097
 322  332.0327
 323  239.4838
 324  222.1456
 325  241.771
 326  276.5375
 327  228.3991
 328  183.7131
 329  134.343
 330  132.2237
 331  89.4999
 332  53.32294
 333  88.25682
 334  136.4421
 335  198.2007
 336  192.7523
 337  212.0117
 338  137.3297
 339  82.5536
 340  62.45074
 341  151.4353
 342  236.4727
 343  320.3792
 344  234.5058
 345  292.5455
 346  286.6159
 347  412.0655
 348  299.6006
 349  188.6784
 350  49.51972
 351  54.62829
 352  166.0205
 353  230.5758
 354  236.8358
 355  173.5744
 356  216.1836
 357  248.4526
 358  312.6391
 359  302.374
 360  278.4667
 361  160.805
 362  88.62834
 363  82.10621
 364  12.74229
 365  23.80231
 366  0.9406282
 367  8.565672
 368  -98.69101
 369  37.66866
 370  173.6038
 371  135.667
 372  -60.52303
 373  -53.44692
 374  22.37642
 375  32.76641
 376  13.16249
 377  34.93259
 378  92.86172
 379  171.0375
 380  111.4063
 381  113.6132
 382  -19.0239
 383  94.3294
 384  194.3456
 385  281.4673
 386  258.599
 387  126.4783
 388  21.25575
 389  -20.50332
 390  19.90178
 391  96.8181
 392  126.0098
 393  249.4775
 394  264.8556
 395  258.8215
 396  172.8089
 397  152.1107
 398  153.6594
 399  206.8223
 400  157.5411
 401  177.648
 402  158.9067
 403  164.9534
 404  155.2603
 405  166.1932
 406  175.041
 407  95.6156
 408  71.11346
 409  177.8392
 410  191.2005
 411  124.0728
 412  -6.027669
 413  -36.25038
 414  23.00182
 415  107.2553
 416  151.1314
 417  149.5653
 418  78.51231
 419  90.98066
 420  -28.48982
 421  16.7294
 422  -31.90688
 423  43.9101
 424  -53.21678
 425  5.986861
 426  -24.53212
 427  52.70068
 428  61.94757
 429  26.77041
 430  -70.00208
 431  -159.8252
 432  -95.03318
 433  -106.5568
 434  44.60493
 435  102.7012
 436  203.5491
 437  150.6654
 438  148.013
 439  43.07076
 440  103.8558
 441  42.19772
 442  -0.6559912
 443  -74.0595
 444  12.30964
 445  166.7927
 446  210.624
 447  223.9389
 448  164.2375
 449  141.6667
 450  110.4187
 451  73.43951
 452  46.7641
 453  111.6721
 454  91.03081
 455  57.75713
 456  -105.3621
 457  -62.21399
 458  49.22361
 459  179.1815
 460  72.73859
 461  17.42097
 462  105.3642
 463  181.8383
 464  269.2198
 465  194.9716
 466  233.2501
 467  312.1118
 468  384.6157
 469  304.076
 470  100.6766
 471  91.77171
 472  150.8537
 473  170.1946
 474  63.62615
 475  74.77768
 476  127.1492
 477  274.7466
 478  409.8036
 479  250.6321
 480  123.1055
 481  100.1575
 482  266.8818
 483  205.1778
 484  -29.96932
 485  44.00533
 486  90.09394
 487  163.1148
 488  96.04014
 489  104.1931
 490  120.3977
 491  95.16618
 492  35.65608
 493  9.73922
 494  11.2972
 495  81.64136
 496  185.4337
 497  181.1584
 498  214.4226
 499  136.7613
 500  75.28841
 501  -15.98762
 502  -39.70165
 503  79.95675
 504  191.5869
 505  260.4846
 506  220.858
 507  173.5405
 508  127.6618
 509  53.53546
 510  41.28875
 511  -38.53931
 512  -49.25421
 513  -32.12594
 514  60.4642
 515  190.2823
 516  205.1088
 517  225.0119
 518  177.8932
 519  119.6937
 520  195.1893
 521  203.1389
 522  176.0505
 523  -19.81329
 524  -105.4252
 525  -69.8967
 526  -105.5639
 527  -123.5223
 528  -33.54484
 529  73.70356
 530  127.53
 531  58.16523
 532  75.51442
 533  83.57866
 534  181.7771
 535  295.4061
 536  397.4299
 537  450.2659
 538  306.6073
 539  149.9138
 540  136.0946
 541  96.81491
 542  141.2064
 543  156.8366
 544  249.839
 545  220.998
 546  170.721
 547  122.4763
 548  83.49043
 549  -47.75655
 550  -60.46619
 551  -18.90602
 552  84.35437
 553  98.62096
 554  143.6616
 555  167.7494
 556  61.48174
 557  23.84866
 558  84.00626
 559  166.845
 560  116.3139
 561  54.12238
 562  21.73759
 563  -13.46242
 564  -29.81131
 565  34.19588
 566  -5.165081
 567  -29.31229
 568  -2.193352
 569  138.5664
 570  199.8766
 571  76.40096
 572  78.39093
 573  49.4794
 574  151.0703
 575  90.26141
 576  117.5569
 577  27.46883
 578  0.253307
 579  33.5076
 580  134.2382
 581  130.6279
 582  54.18382
 583  82.74072
 584  110.5887
 585  184.6113
 586  177.2964
 587  150.6933
 588  68.71756
 589  84.05167
 590  114.7419
 591  193.5972
 592  227.8419
 593  174.0075
 594  54.2576
 595  25.98437
 596  7.893683
 597  34.22384
 598  -25.09958
 599  -46.27332
 600  54.69448
 601  175.0426
 602  221.3112
 603  168.6558
 604  138.1743
 605  164.514
 606  64.27014
 607  37.01672
 608  43.69554
 609  125.7935
 610  46.47342
 611  2.542908
 612  -2.071614
 613  72.21127
 614  151.1442
 615  158.6592
 616  186.3799
 617  200.9517
 618  178.1522
 619  37.64901
 620  60.55429
 621  135.7649
 622  317.0947
 623  359.3664
 624  347.9419
 625  257.8965
 626  252.1867
 627  373.8307
 628  405.6817
 629  404.2147
 630  400.2813
 631  296.3783
 632  251.1721
 633  249.9306
 634  384.2842
 635  477.2315
 636  687.537
 637  885.7531
 638  927.3794
 639  840.1332
 640  874.2559
 641  910.459
 642  915.9612
 643  907.4571
 644  995.0981
 645  921.3865
 646  771.6475
 647  553.1131
 648  504.8298
 649  446.3427
 650  305.6471
 651  305.7944
 652  293.9246
 653  314.3445
 654  157.9884
 655  85.79855
 656  15.56728
 657  15.71009
 658  -108.5103
 659  -80.67606
 660  -32.27761
 661  105.0106
 662  221.0158
 663  207.3317
 664  169.6945
 665  58.67603
 666  49.41466
 667  56.52325
 668  170.2447
 669  243.3843
 670  222.5979
 671  172.145
 672  172.1315
 673  185.9607
 674  157.7371
 675  71.77052
 676  -17.32341
 677  -22.39539
 678  69.36432
 679  87.11488
 680  73.11269
 681  108.89
 682  274.2994
 683  374.2818
 684  395.3673
 685  284.0832
 686  163.2882
 687  149.3036
 688  185.202
 689  165.3414
 690  165.8818
 691  157.9882
 692  196.6489
 693  127.0409
 694  90.21344
 695  114.1427
 696  193.7266
 697  207.7125
 698  252.682
 699  210.8241
 700  214.0588
 701  67.47774
 702  39.47482
 703  84.38685
 704  139.0264
 705  143.5776
 706  2.783516
 707  -24.85855
 708  -101.8183
 709  -48.45994
 710  19.118
 711  104.8466
 712  188.7472
 713  137.5982
 714  124.7501
 715  64.14413
 716  54.73177
 717  8.880898
 718  -1.734478
 719  -10.90745
 720  13.85375
 721  -28.03825
 722  -113.0633
 723  -83.93352
 724  17.91136
 725  175.8502
 726  221.2659
 727  246.6675
 728  155.0206
 729  125.2603
 730  142.1422
 731  146.9581
 732  39.89956
 733  -22.38576
 734  37.8188
 735  79.11086
 736  129.4097
 737  180.2886
 738  246.8918
 739  137.2059
 740  -47.26543
 741  -144.8019
 742  -72.7253
 743  84.4912
 744  71.30981
 745  150.2175
 746  216.8945
 747  349.3726
 748  162.91
 749  73.88571
 750  105.2224
 751  303.316
 752  343.303
 753  239.6334
 754  38.08493
 755  -88.91201
 756  -79.01226
 757  -55.33303
 758  -31.22378
 759  -56.12513
 760  172.0867
 761  196.1093
 762  259.9664
 763  222.1047
 764  259.1476
 765  153.7532
 766  84.973
 767  -133.9623
 768  -179.7208
 769  -166.572
 770  115.0295
 771  310.9102
 772  296.2852
 773  222.1958
 774  87.12601
 775  79.90187
 776  42.19213
 777  32.8577
 778  16.81684
 779  72.41357
 780  186.5883
 781  231.9931
 782  148.5093
 783  19.48719
 784  -15.61083
 785  26.93693
 786  97.60252
 787  65.33456
 788  67.40217
 789  153.5683
 790  175.3035
 791  198.6024
 792  155.1279
 793  127.072
 794  79.06351
 795  103.9665
 796  174.3748
 797  218.9821
 798  136.7706
 799  47.23803
 800  -7.948026
 801  23.02246
 802  30.94895
 803  67.91814
 804  160.1958
 805  205.0286
 806  207.3926
 807  74.94313
 808  76.1115
 809  51.07206
 810  169.0661
 811  164.2978
 812  183.3126
 813  175.4316
 814  199.206
 815  116.2353
 816  88.39112
 817  133.1737
 818  190.7659
 819  187.0783
 820  92.12758
 821  95.62543
 822  110.9906
 823  132.2
 824  87.47716
 825  29.42706
 826  40.40544
 827  82.83554
 828  150.843
 829  123.2059
 830  81.36626
 831  -3.450723
 832  -46.04578
 833  -111.8191
 834  -23.54104
 835  105.6559
 836  190.363
 837  217.1972
 838  245.6845
 839  260.666
 840  167.0201
 841  48.43917
 842  6.346904
 843  110.0095
 844  225.5061
 845  199.3962
 846  188.9294
 847  179.0227
 848  287.3641
 849  194.6558
 850  31.17748
 851  -159.593
 852  -168.5031
 853  -139.8433
 854  -103.262
 855  -13.31566
 856  104.1097
 857  114.7074
 858  100.1082
 859  1.019848
 860  -53.59259
 861  -150.1444
 862  -110.1258
 863  -15.88983
 864  114.9545
 865  144.1399
 866  81.06258
 867  -3.386801
 868  116.2937
 869  193.4158
 870  135.4448
 871  16.23734
 872  -125.7328
 873  -125.6315
 874  -100.7853
 875  83.98715
 876  279.7172
 877  251.2203
 878  210.7875
 879  154.1295
 880  158.9396
 881  109.3981
 882  72.69346
 883  155.9668
 884  144.8484
 885  230.3529
 886  141.6888
 887  92.47792
 888  6.567327
 889  69.72599
 890  -4.176484
 891  -34.26267
 892  -98.51469
 893  -124.7107
 894  -46.26404
 895  32.01774
 896  68.67487
 897  11.81414
 898  -44.22953
 899  7.776206
 900  -36.38658
 901  -57.47248
 902  -64.19392
 903  38.05607
 904  156.4266
 905  118.5277
 906  -55.55933
 907  -82.74071
 908  4.448508
 909  170.4083
 910  161.3365
 911  166.1979
 912  146.9581
 913  129.6708
 914  45.99664
 915  46.58196
 916  86.30472
 917  49.88057
 918  -30.34652
 919  0.8106067
 920  190.7395
 921  174.1371
 922  185.0537
 923  134.449
 924  326.4266
 925  424.991
 926  326.258
 927  147.4247
 928  8.864731
 929  0.9901263
 930  -65.60267
 931  42.97055
 932  96.05207
 933  92.44345
 934  42.0522
 935  64.95516
 936  136.7242
 937  39.35652
 938  -6.076297
 939  -62.95269
 940  16.23095
 941  97.9129
 942  142.8103
 943  89.25953
 944  70.56032
 945  103.0595
 946  116.451
 947  137.3701
 948  101.7143
 949  193.3987
 950  313.847
 951  192.2317
 952  13.38913
 953  -218.0811
 954  -127.295
 955  -94.70698
 956  48.65086
 957  62.22574
 958  143.6046
 959  151.0266
 960  205.553
 961  167.4394
 962  210.0801
 963  90.69598
 964  39.54943
 965  71.58693
 966  245.7157
 967  306.3438
 968  238.9311
 969  192.9574
 970  199.505
 971  222.7393
 972  162.5947
 973  38.25593
 974  -45.00069
 975  -50.65836
 976  88.8907
 977  130.457
 978  169.8867
 979  178.2244
 980  280.7137
 981  277.6518
 982  166.3923
 983  -44.44707
 984  -142.6899
 985  -23.72811
 986  121.0711
 987  118.3038
 988  67.79336
 989  106.8237
 990  169.7754
 991  149.7234
 992  10.67371
 993  -30.31478
 994  3.817004
 995  182.7677
 996  166.8651
 997  103.4977
 998  -2.604539
 999  -62.06203
1000  -88.17714
1001  -23.12105
1002  25.19699
1003  99.8952
1004  117.9615
1005  100.133
1006  2.796834
1007  -7.188707
1008  25.24302
1009  118.5007
1010  134.6709
1011  187.0091
1012  73.17525
1013  -72.73587
1014  -117.1704
1015  18.60134
1016  156.3229
1017  211.6761
1018  147.2885
1019  140.3688
1020  26.40348
1021  34.23745
1022  50.58794
1023  181.7384
