# Input file       =  1189283375.118279_cleaned.dat
# Candidate        =  PSR_0332+5434
# Telescope        =  AR
# Epoch_topo       =  58008.854098591190
# Epoch_bary       =  N/A
# T_sample         =  0.002
# Data Folded      =  7208960
# Data Avg         =  0.206089302138637
# Data StdDev      =  4.25721306615343 
# Profile Bins     =  1024
# Profile Avg      =  1450.8719378081  
# Profile StdDev   =  357.200218586184 
# Reduced chi-sqr  =  0.584
# Prob(Noise)      <  1   (~0.0 sigma)
# P_topo (ms)      =  714.465289912423  +/- 1.91e-05
# P'_topo (s/s)    =  -0                +/- 1.02e-11
# P''_topo (s/s^2) =  0                 +/- 4.61e-15
# P_bary (ms)      =  N/A
# P'_bary (s/s)    =  N/A
# P''_bary (s/s^2) =  N/A
# P_orb (s)        =  N/A
# asin(i)/c (s)    =  N/A
# eccentricity     =  N/A
# w (rad)          =  N/A
# T_peri           =  N/A
######################################################
   0  1394.154
   1  1284.887
   2  1392.892
   3  1487.624
   4  1422.691
   5  1521.636
   6  1599.359
   7  1436.836
   8  1303.762
   9  1373.589
  10  1387.63
  11  1379.651
  12  1423.171
  13  1416.563
  14  1289.563
  15  1284.74
  16  1461.191
  17  1411.177
  18  1351.3
  19  1474.74
  20  1479.105
  21  1256.497
  22  1123.966
  23  1316.488
  24  1543.059
  25  1499.698
  26  1508.701
  27  1481.63
  28  1490.124
  29  1494.476
  30  1551.478
  31  1308.596
  32  1277.838
  33  1376.873
  34  1527.504
  35  1294.796
  36  1179.023
  37  1217.663
  38  1432.354
  39  1519.422
  40  1556.258
  41  1386.314
  42  1396.052
  43  1402.954
  44  1414.269
  45  1341.589
  46  1467.87
  47  1641.506
  48  1549.914
  49  1430.089
  50  1340.876
  51  1272.06
  52  1268.96
  53  1535.522
  54  1554.87
  55  1397.882
  56  1490.591
  57  1681.959
  58  1600.84
  59  1327.311
  60  1348.411
  61  1499.225
  62  1358.746
  63  1340.812
  64  1418.555
  65  1414.723
  66  1353.33
  67  1470.565
  68  1536.836
  69  1349.971
  70  1343.386
  71  1492.791
  72  1548.376
  73  1328.152
  74  1369.221
  75  1400.982
  76  1489.963
  77  1533.647
  78  1645.372
  79  1497.463
  80  1311.286
  81  1397.179
  82  1357.792
  83  1291.063
  84  1291.647
  85  1489.532
  86  1581.228
  87  1657.186
  88  1861.969
  89  1874.099
  90  1794.278
  91  1755.375
  92  1664.517
  93  1435.703
  94  1347.278
  95  1498.38
  96  1503.316
  97  1444.049
  98  1367.482
  99  1403.93
 100  1413.886
 101  1395.503
 102  1375.687
 103  1217.042
 104  1352.028
 105  1402.648
 106  1352.842
 107  1374.905
 108  1554.681
 109  1556.887
 110  1512.509
 111  1560.741
 112  1682.095
 113  1573.889
 114  1482.539
 115  1497.165
 116  1468.819
 117  1399.592
 118  1491.524
 119  1465.294
 120  1244.165
 121  1240.277
 122  1431.22
 123  1492.88
 124  1436.007
 125  1440.169
 126  1515.038
 127  1395.339
 128  1546.518
 129  1727.398
 130  1706.191
 131  1488.691
 132  1341.086
 133  1173.775
 134  1067.887
 135  1153.598
 136  1453.546
 137  1487.185
 138  1443.35
 139  1546.971
 140  1644.512
 141  1492.32
 142  1474.651
 143  1535.904
 144  1461.17
 145  1348.858
 146  1358.418
 147  1374.288
 148  1255.885
 149  1298.913
 150  1326.391
 151  1301.882
 152  1252.84
 153  1438.437
 154  1530.788
 155  1613.708
 156  1605.042
 157  1579.946
 158  1457.816
 159  1500.142
 160  1584.026
 161  1568.44
 162  1467.257
 163  1386.344
 164  1213.045
 165  1106.639
 166  1250.577
 167  1392.189
 168  1434.444
 169  1377.096
 170  1523.118
 171  1573.126
 172  1574.012
 173  1460.648
 174  1378.727
 175  1364.339
 176  1509.071
 177  1628.209
 178  1527.181
 179  1364.294
 180  1489.728
 181  1399.089
 182  1308.508
 183  1229.891
 184  1381.747
 185  1393.31
 186  1491.364
 187  1516.428
 188  1560.458
 189  1409.912
 190  1578.161
 191  1571.696
 192  1449.696
 193  1427.331
 194  1595.312
 195  1611.825
 196  1558.402
 197  1679.92
 198  1745.849
 199  1476.133
 200  1369.255
 201  1444.23
 202  1471.676
 203  1362.775
 204  1326.357
 205  1323.526
 206  1315.493
 207  1467.874
 208  1595.083
 209  1668.448
 210  1603.312
 211  1644.955
 212  1514.294
 213  1359.893
 214  1386.554
 215  1512.04
 216  1504.74
 217  1596.17
 218  1745.508
 219  1687.996
 220  1542.611
 221  1488.992
 222  1529.669
 223  1488.609
 224  1475.295
 225  1500.46
 226  1438.751
 227  1395.892
 228  1499.272
 229  1484.457
 230  1419.175
 231  1469.068
 232  1505.597
 233  1407.938
 234  1272.568
 235  1319.286
 236  1408.518
 237  1425.018
 238  1546.872
 239  1629.051
 240  1617.519
 241  1569.584
 242  1487.908
 243  1226.585
 244  1230.627
 245  1465.606
 246  1587.817
 247  1403.741
 248  1219.513
 249  1236.238
 250  1137.816
 251  1059.913
 252  1180.295
 253  1170.344
 254  1334.289
 255  1493.529
 256  1654.621
 257  1483.326
 258  1409.839
 259  1438.96
 260  1486.081
 261  1459.082
 262  1498.685
 263  1507.382
 264  1298.842
 265  1277.547
 266  1557.551
 267  1662.305
 268  1567.401
 269  1583.473
 270  1566.838
 271  1488.541
 272  1383.703
 273  1426.912
 274  1386.148
 275  1302.287
 276  1501.658
 277  1443.415
 278  1509.685
 279  1446.817
 280  1574.003
 281  1497.94
 282  1462.047
 283  1552.463
 284  1584.139
 285  1655.698
 286  1644.706
 287  1592.568
 288  1395.794
 289  1341.62
 290  1492.552
 291  1520.346
 292  1551.282
 293  1548.567
 294  1543.097
 295  1304.266
 296  1371.01
 297  1427.417
 298  1563.992
 299  1472.648
 300  1439.372
 301  1243.165
 302  1000.685
 303  1213.953
 304  1318.27
 305  1446.986
 306  1439.097
 307  1466.583
 308  1342.932
 309  1236.332
 310  1415.156
 311  1476.991
 312  1377.844
 313  1351.622
 314  1481.166
 315  1474.274
 316  1365.528
 317  1476.09
 318  1423.979
 319  1341.141
 320  1367.778
 321  1579.287
 322  1512.661
 323  1416.017
 324  1530.478
 325  1540.083
 326  1287.632
 327  1201.741
 328  1373.266
 329  1471.448
 330  1459.625
 331  1401.284
 332  1138.849
 333  1080.719
 334  1365.234
 335  1793.584
 336  1814.006
 337  1522.627
 338  1369.058
 339  1260.978
 340  1296.081
 341  1374.342
 342  1432.986
 343  1380.586
 344  1304.932
 345  1281.136
 346  1296.529
 347  1328.592
 348  1407.497
 349  1336.457
 350  1416.814
 351  1543.809
 352  1520.971
 353  1254.071
 354  1177.369
 355  1249.415
 356  1308.006
 357  1411.04
 358  1576.874
 359  1635.044
 360  1488.06
 361  1477.437
 362  1561.417
 363  1423.016
 364  1377.05
 365  1444.931
 366  1342.249
 367  1193.833
 368  1295.263
 369  1439.22
 370  1376.784
 371  1352.258
 372  1493.365
 373  1497.282
 374  1294.512
 375  1309.222
 376  1395.596
 377  1430.513
 378  1332.282
 379  1515.532
 380  1508.688
 381  1416.101
 382  1359.134
 383  1462.871
 384  1482.499
 385  1488.871
 386  1507.328
 387  1564.579
 388  1588.739
 389  1565.385
 390  1446.946
 391  1389.117
 392  1469.032
 393  1460.83
 394  1425.808
 395  1430.762
 396  1460.347
 397  1206.29
 398  1097.299
 399  1270.66
 400  1489.923
 401  1538.422
 402  1517.705
 403  1403.747
 404  1278.783
 405  1270.588
 406  1452.016
 407  1360.482
 408  1339.038
 409  1444.229
 410  1556.664
 411  1402.05
 412  1218.783
 413  1335.457
 414  1346.779
 415  1278.588
 416  1326.62
 417  1366.89
 418  1311.181
 419  1342.616
 420  1542.737
 421  1544.178
 422  1337.695
 423  1358.521
 424  1608.344
 425  1678.264
 426  1631.504
 427  1681.784
 428  1629.685
 429  1566.211
 430  1536.081
 431  1527.987
 432  1179.326
 433  1062.043
 434  1102.334
 435  1234.292
 436  1313.315
 437  1478.017
 438  1492.824
 439  1316.556
 440  1303.595
 441  1371.479
 442  1391.84
 443  1412.367
 444  1577.463
 445  1543.438
 446  1415.085
 447  1335.985
 448  1298.157
 449  1281.127
 450  1419.203
 451  1489.837
 452  1453.526
 453  1230.594
 454  1479.991
 455  1474.795
 456  1446.019
 457  1413.119
 458  1417.47
 459  1464.275
 460  1595.868
 461  1742.787
 462  1719.157
 463  1485.278
 464  1498.044
 465  1470.02
 466  1495.201
 467  1596.618
 468  1600.405
 469  1475.749
 470  1264.194
 471  1284.571
 472  1218.306
 473  1193.959
 474  1354.368
 475  1552.971
 476  1390.85
 477  1297.818
 478  1355.479
 479  1482.858
 480  1398.474
 481  1504.487
 482  1579.476
 483  1512.993
 484  1566.63
 485  1734.552
 486  1689.393
 487  1444.773
 488  1447.224
 489  1621.714
 490  1451.006
 491  1428.318
 492  1410.071
 493  1335.832
 494  1275.639
 495  1362.204
 496  1585.216
 497  1449.693
 498  1522.595
 499  1687.273
 500  1738.272
 501  1592.163
 502  1627.352
 503  1630.056
 504  1453.066
 505  1318.762
 506  1292.264
 507  1291.152
 508  1359.492
 509  1427.296
 510  1353.925
 511  1223.297
 512  1433.878
 513  1450.21
 514  1455.474
 515  1424.953
 516  1548.517
 517  1566.646
 518  1573.954
 519  1625.038
 520  1556.666
 521  1488.395
 522  1437.196
 523  1464.457
 524  1352.54
 525  1439.116
 526  1604.154
 527  1533.622
 528  1391.715
 529  1400.39
 530  1452.688
 531  1361
 532  1405.026
 533  1642.761
 534  1697.217
 535  1665.978
 536  1620.015
 537  1613.636
 538  1476.179
 539  1446.773
 540  1475.111
 541  1407.617
 542  1351.724
 543  1530.412
 544  1538.496
 545  1442.136
 546  1399.921
 547  1425.001
 548  1310.081
 549  1237.755
 550  1419.411
 551  1575.058
 552  1477.292
 553  1485.517
 554  1528.538
 555  1506.865
 556  1419.894
 557  1609.38
 558  1653.713
 559  1581.909
 560  1495.968
 561  1501.145
 562  1507.479
 563  1430.892
 564  1517.066
 565  1407.252
 566  1253.895
 567  1386.689
 568  1554.76
 569  1670.609
 570  1692.356
 571  1636.789
 572  1510.475
 573  1455.93
 574  1611.094
 575  1623.445
 576  1435.244
 577  1476.117
 578  1560.946
 579  1543.715
 580  1548.819
 581  1529.058
 582  1409.712
 583  1348.906
 584  1453.167
 585  1435.046
 586  1225.935
 587  1261.142
 588  1370.166
 589  1254.682
 590  1085.956
 591  1188.905
 592  1203.387
 593  1334.692
 594  1484.416
 595  1607.554
 596  1279.153
 597  1187.627
 598  1368.916
 599  1447.611
 600  1325.593
 601  1359.687
 602  1399.718
 603  1332.368
 604  1339.762
 605  1542.654
 606  1617.115
 607  1511.264
 608  1537.941
 609  1528.826
 610  1398.603
 611  1308.931
 612  1422.788
 613  1391.161
 614  1368.442
 615  1496.392
 616  1480.565
 617  1289.343
 618  1314.279
 619  1523.739
 620  1473.139
 621  1391.414
 622  1349.534
 623  1432.885
 624  1320.718
 625  1452.897
 626  1657.117
 627  1615.1
 628  1604.741
 629  1619.104
 630  1716.393
 631  1710.859
 632  1738.561
 633  1630.391
 634  1573.702
 635  1542.641
 636  1750.634
 637  1800.504
 638  1886.6
 639  2040.631
 640  2105.616
 641  2107.6
 642  2226.587
 643  2369.844
 644  2350.454
 645  2260.814
 646  2233.694
 647  2154.557
 648  2038.955
 649  2005.903
 650  1985.35
 651  1784.467
 652  1640.014
 653  1603.914
 654  1439.127
 655  1419.191
 656  1433.695
 657  1467.85
 658  1395.947
 659  1538.113
 660  1651.932
 661  1550.756
 662  1356.284
 663  1384.596
 664  1364.824
 665  1263.881
 666  1418.886
 667  1528.32
 668  1502.393
 669  1397.257
 670  1466.056
 671  1506.42
 672  1487.415
 673  1623.879
 674  1748.813
 675  1548.792
 676  1397.971
 677  1406.492
 678  1409.984
 679  1376.076
 680  1414.443
 681  1331.459
 682  1241.268
 683  1306.842
 684  1569.935
 685  1580.426
 686  1581.906
 687  1551.657
 688  1561.977
 689  1402.223
 690  1460.853
 691  1624.728
 692  1529.832
 693  1380.653
 694  1368.141
 695  1370.955
 696  1383.245
 697  1396.71
 698  1550.853
 699  1459.344
 700  1384.349
 701  1359.946
 702  1337.634
 703  1368.228
 704  1471.195
 705  1392.544
 706  1264.892
 707  1308.726
 708  1467.413
 709  1409.519
 710  1414.574
 711  1479.135
 712  1430.72
 713  1364.514
 714  1432.468
 715  1376.546
 716  1222.907
 717  1205.696
 718  1413.736
 719  1350.18
 720  1289.649
 721  1391.523
 722  1587.521
 723  1421.518
 724  1430.328
 725  1556.253
 726  1573.234
 727  1402.446
 728  1563.901
 729  1592.465
 730  1537.342
 731  1369.027
 732  1383.356
 733  1415.487
 734  1380.386
 735  1559.954
 736  1540.142
 737  1451.796
 738  1429.154
 739  1455.173
 740  1318.171
 741  1259.079
 742  1367.582
 743  1394.451
 744  1242.445
 745  1272.605
 746  1426.32
 747  1499.453
 748  1433.877
 749  1403.392
 750  1369.603
 751  1492.927
 752  1499.808
 753  1517.14
 754  1400.58
 755  1537.586
 756  1570.296
 757  1593.613
 758  1434.267
 759  1474.976
 760  1295.435
 761  1355.211
 762  1366.085
 763  1511.665
 764  1469.842
 765  1548.054
 766  1616.11
 767  1461.743
 768  1400.854
 769  1449.24
 770  1440.225
 771  1311.696
 772  1312.813
 773  1399.53
 774  1434.214
 775  1420.502
 776  1435.15
 777  1279.108
 778  1212.663
 779  1412.553
 780  1604.594
 781  1497.007
 782  1408.999
 783  1466.482
 784  1487.421
 785  1340.866
 786  1377.252
 787  1490.912
 788  1414.474
 789  1406.075
 790  1406.329
 791  1368.255
 792  1445.863
 793  1629.822
 794  1675.352
 795  1284.455
 796  1224.399
 797  1323.133
 798  1565.835
 799  1658.629
 800  1634.506
 801  1521.434
 802  1352.396
 803  1445.46
 804  1500.556
 805  1443.187
 806  1393.024
 807  1495.971
 808  1415.591
 809  1273.744
 810  1283.823
 811  1423.838
 812  1440.095
 813  1434.519
 814  1526.336
 815  1565.054
 816  1549.57
 817  1513.688
 818  1450.793
 819  1470.096
 820  1543.03
 821  1534.578
 822  1311.034
 823  1291.527
 824  1435.723
 825  1500.15
 826  1497.699
 827  1582.882
 828  1564.248
 829  1378.97
 830  1315.739
 831  1365.403
 832  1299.828
 833  1269.636
 834  1436.815
 835  1628.102
 836  1586.139
 837  1604.651
 838  1653.446
 839  1547.139
 840  1465.391
 841  1569.4
 842  1534.761
 843  1376.09
 844  1259.805
 845  1302.081
 846  1209.82
 847  1285.626
 848  1449.486
 849  1481.544
 850  1431.555
 851  1545.783
 852  1772.533
 853  1575.683
 854  1511.04
 855  1500.925
 856  1616.235
 857  1679.492
 858  1804.005
 859  1763.275
 860  1438.105
 861  1360.554
 862  1453.905
 863  1468.682
 864  1317.464
 865  1339.831
 866  1283.656
 867  1284.373
 868  1282.175
 869  1416.362
 870  1412.401
 871  1412.178
 872  1543.311
 873  1459.09
 874  1451.68
 875  1495.38
 876  1511.63
 877  1328.136
 878  1267.408
 879  1345.793
 880  1344.5
 881  1335.964
 882  1404.741
 883  1317.196
 884  1261.238
 885  1264.182
 886  1271.5
 887  1158.663
 888  1319.316
 889  1601.826
 890  1617.721
 891  1339.997
 892  1369.153
 893  1246.017
 894  1200.054
 895  1181.714
 896  1386.181
 897  1362.357
 898  1305.155
 899  1453.455
 900  1641.55
 901  1661.016
 902  1740.875
 903  1840.785
 904  1669.706
 905  1469.56
 906  1459.857
 907  1488.899
 908  1350.25
 909  1275.276
 910  1295.661
 911  1241.087
 912  1181.19
 913  1419.368
 914  1419.134
 915  1439.072
 916  1412.41
 917  1570.297
 918  1538.589
 919  1501.616
 920  1544.927
 921  1530.241
 922  1387.731
 923  1349.002
 924  1340.52
 925  1303.588
 926  1262.513
 927  1500.01
 928  1462.286
 929  1383.778
 930  1369.672
 931  1424.142
 932  1365.437
 933  1325.388
 934  1349.467
 935  1311.241
 936  1272.521
 937  1439.916
 938  1496.038
 939  1447.548
 940  1330.279
 941  1278.277
 942  1236.017
 943  1268.21
 944  1462.263
 945  1476.568
 946  1541.719
 947  1585.27
 948  1649.324
 949  1522.017
 950  1397.474
 951  1417.078
 952  1342.282
 953  1394.831
 954  1422.682
 955  1372.194
 956  1151.8
 957  1233.818
 958  1389.809
 959  1392.955
 960  1338.34
 961  1543.185
 962  1595.766
 963  1488.196
 964  1503.85
 965  1474.078
 966  1406.321
 967  1429.28
 968  1679.236
 969  1577.196
 970  1464.184
 971  1416.179
 972  1489.359
 973  1321.556
 974  1292.093
 975  1461.082
 976  1517.035
 977  1465.538
 978  1652.898
 979  1721.263
 980  1632.781
 981  1611.986
 982  1711.596
 983  1585.386
 984  1508.383
 985  1614.772
 986  1663.414
 987  1561.932
 988  1475.901
 989  1462.602
 990  1391.95
 991  1281.522
 992  1398.364
 993  1336.72
 994  1388.98
 995  1507.108
 996  1621.347
 997  1535.345
 998  1353.468
 999  1333.629
1000  1345.463
1001  1312.779
1002  1402.958
1003  1379.229
1004  1416.118
1005  1443.281
1006  1417.209
1007  1376.592
1008  1429.251
1009  1437.785
1010  1374.345
1011  1307.529
1012  1419.858
1013  1453.926
1014  1320.731
1015  1285.613
1016  1292.652
1017  1237.922
1018  1282.909
1019  1399.359
1020  1460.558
1021  1373.289
1022  1449.327
1023  1584.302
