# Input file       =  1189829930.117989_cleaned.dat
# Candidate        =  PSR_0332+5434
# Telescope        =  AR
# Epoch_topo       =  58015.179966643394
# Epoch_bary       =  N/A
# T_sample         =  0.002
# Data Folded      =  7340032
# Data Avg         =  0.0284420602526683
# Data StdDev      =  3.08460501981225 
# Profile Bins     =  1024
# Profile Avg      =  203.852608062089 
# Profile StdDev   =  261.15512880911  
# Reduced chi-sqr  =  0.964
# Prob(Noise)      <  0.789   (~0.0 sigma)
# P_topo (ms)      =  714.467562598487  +/- 0.000161
# P'_topo (s/s)    =  -0                +/- 8.52e-11
# P''_topo (s/s^2) =  0                 +/- 3.76e-14
# P_bary (ms)      =  N/A
# P'_bary (s/s)    =  N/A
# P''_bary (s/s^2) =  N/A
# P_orb (s)        =  N/A
# asin(i)/c (s)    =  N/A
# eccentricity     =  N/A
# w (rad)          =  N/A
# T_peri           =  N/A
######################################################
   0  170.119
   1  152.557
   2  119.0073
   3  166.9049
   4  166.8976
   5  282.3256
   6  334.2192
   7  331.8422
   8  241.4845
   9  159.8069
  10  74.07903
  11  100.5435
  12  179.4943
  13  176.4644
  14  73.5303
  15  92.95908
  16  246.5465
  17  396.07
  18  308.6538
  19  172.8041
  20  111.0276
  21  171.4233
  22  116.188
  23  129.778
  24  48.62024
  25  123.4558
  26  186.8749
  27  279.2774
  28  255.6991
  29  253.9514
  30  280.8492
  31  303.2035
  32  239.7083
  33  301.8837
  34  169.2435
  35  162.3972
  36  132.2153
  37  195.2451
  38  127.9644
  39  110.3921
  40  156.0879
  41  315.9334
  42  305.08
  43  454.3321
  44  495.3605
  45  472.3607
  46  283.5459
  47  195.5888
  48  266.766
  49  172.9298
  50  -16.08167
  51  88.10467
  52  129.6685
  53  190.5152
  54  90.72694
  55  209.0743
  56  354.611
  57  362.2238
  58  315.9439
  59  236.2028
  60  251.6819
  61  112.7135
  62  167.6252
  63  279.4075
  64  357.2987
  65  239.7818
  66  50.68929
  67  -7.209208
  68  6.456203
  69  24.02128
  70  99.52121
  71  243.1684
  72  327.818
  73  356.0825
  74  439.8035
  75  532.9288
  76  475.0375
  77  390.4674
  78  318.4056
  79  195.6037
  80  50.20427
  81  123.688
  82  260.095
  83  336.8078
  84  250.7042
  85  319.5364
  86  304.531
  87  385.2317
  88  362.3338
  89  211.3654
  90  121.8008
  91  192.8881
  92  293.1595
  93  204.5419
  94  96.67091
  95  25.11488
  96  56.02013
  97  164.9709
  98  301.8215
  99  214.7418
 100  214.9895
 101  233.0783
 102  258.5871
 103  219.1175
 104  187.3006
 105  298.5759
 106  327.5161
 107  233.963
 108  130.9251
 109  112.7876
 110  351.3814
 111  404.1454
 112  290.1616
 113  177.5455
 114  146.8441
 115  195.1689
 116  129.5031
 117  55.9862
 118  86.46363
 119  154.6532
 120  262.801
 121  125.4972
 122  0.3439399
 123  12.36141
 124  167.6826
 125  197.9267
 126  291.6431
 127  384.1667
 128  353.0436
 129  226.7643
 130  253.2629
 131  140.5676
 132  164.8411
 133  129.1203
 134  408.2456
 135  447.7568
 136  302.482
 137  141.8345
 138  49.56076
 139  175.3295
 140  306.2921
 141  287.5534
 142  244.5782
 143  160.7455
 144  170.6583
 145  103.0217
 146  96.62064
 147  179.3943
 148  277.7033
 149  330.5909
 150  258.6327
 151  247.7212
 152  243.3036
 153  213.6091
 154  304.4248
 155  261.8007
 156  235.6275
 157  223.2025
 158  243.7744
 159  240.4683
 160  179.5998
 161  187.7707
 162  156.4239
 163  159.2725
 164  120.1581
 165  196.8904
 166  212.9691
 167  192.1769
 168  189.5005
 169  215.8256
 170  245.1093
 171  292.4079
 172  255.341
 173  380.9385
 174  427.7066
 175  481.7788
 176  391.3163
 177  378.9062
 178  265.6274
 179  243.5715
 180  194.5689
 181  158.3492
 182  197.3732
 183  168.9725
 184  365.832
 185  264.8531
 186  282.2961
 187  249.0485
 188  318.5944
 189  323.4495
 190  355.5552
 191  359.868
 192  417.3615
 193  281.0459
 194  252.0901
 195  297.9264
 196  333.4693
 197  384.0218
 198  213.1263
 199  223.6305
 200  24.45021
 201  -12.12286
 202  9.679243
 203  113.3856
 204  86.39314
 205  127.5394
 206  238.5323
 207  218.7801
 208  155.7482
 209  117.2607
 210  243.0984
 211  346.1464
 212  253.9601
 213  139.5339
 214  79.57068
 215  184.361
 216  244.1138
 217  159.8107
 218  126.21
 219  25.91126
 220  174.2462
 221  218.674
 222  278.4858
 223  154.7869
 224  114.3797
 225  73.83298
 226  -4.52188
 227  -93.29298
 228  -13.06623
 229  312.3627
 230  328.4821
 231  131.7106
 232  -153.6326
 233  -94.74038
 234  70.87417
 235  284.0366
 236  329.2404
 237  210.2735
 238  115.5746
 239  168.084
 240  76.92656
 241  39.01369
 242  18.79645
 243  28.06763
 244  91.3156
 245  170.8237
 246  314.7819
 247  267.7885
 248  246.2645
 249  167.9093
 250  63.32755
 251  44.4381
 252  99.48306
 253  199.2747
 254  307.8992
 255  401.3179
 256  327.4108
 257  228.559
 258  100.2014
 259  203.9752
 260  221.4809
 261  250.8999
 262  117.8161
 263  95.62989
 264  39.62283
 265  63.67237
 266  24.25917
 267  176.8565
 268  229.7589
 269  306.8665
 270  341.7606
 271  358.0542
 272  323.2651
 273  320.7045
 274  242.7663
 275  255.5761
 276  126.6311
 277  155.0892
 278  178.8492
 279  297.7564
 280  304.25
 281  224.0378
 282  229.097
 283  273.8676
 284  270.4538
 285  183.7227
 286  107.4839
 287  -41.60793
 288  -82.2683
 289  34.59534
 290  344.2838
 291  441.0556
 292  324.3513
 293  303.734
 294  330.8555
 295  323.7019
 296  191.8565
 297  167.8497
 298  290.8657
 299  332.524
 300  358.2202
 301  236.7645
 302  188.7445
 303  80.80737
 304  145.3756
 305  243.575
 306  402.474
 307  311.0079
 308  184.656
 309  18.39472
 310  -17.61255
 311  -71.1889
 312  -73.17345
 313  67.92949
 314  86.90995
 315  275.8069
 316  328.1452
 317  346.0583
 318  187.4563
 319  169.3085
 320  280.5969
 321  414.4254
 322  357.918
 323  269.4166
 324  255.5142
 325  245.5243
 326  171.3843
 327  128.6743
 328  125.2155
 329  133.423
 330  156.8847
 331  201.8394
 332  290.3219
 333  359.6685
 334  292.0316
 335  359.3347
 336  316.9245
 337  377.7299
 338  360.7648
 339  251.1361
 340  172.6195
 341  192.8526
 342  312.7437
 343  270.8003
 344  171.6288
 345  65.76446
 346  65.21442
 347  34.28378
 348  86.92361
 349  151.0628
 350  200.8205
 351  135.3105
 352  75.25143
 353  202.1707
 354  191.0811
 355  122.2345
 356  21.54045
 357  91.73932
 358  177.8325
 359  235.7399
 360  165.573
 361  343.5761
 362  408.7211
 363  348.2953
 364  93.43556
 365  -37.5192
 366  133.7587
 367  124.5126
 368  269.8944
 369  251.121
 370  191.8302
 371  67.28406
 372  132.7426
 373  212.0842
 374  163.8116
 375  -89.78992
 376  -188.7201
 377  -66.54847
 378  86.1911
 379  195.2938
 380  192.6782
 381  174.8713
 382  267.5183
 383  291.5612
 384  317.8501
 385  286.2805
 386  269.9557
 387  294.6526
 388  210.2921
 389  204.7459
 390  227.7946
 391  387.1105
 392  343.0653
 393  280.8271
 394  67.18116
 395  65.38242
 396  154.4224
 397  302.7793
 398  409.2357
 399  356.833
 400  364.5315
 401  248.8697
 402  225.7019
 403  76.92437
 404  202.7282
 405  326.9435
 406  374.2997
 407  144.2264
 408  -31.98151
 409  39.12611
 410  73.92671
 411  180.9249
 412  168.6341
 413  133.5957
 414  78.73706
 415  -59.66686
 416  -17.66179
 417  14.71011
 418  92.90834
 419  124.3121
 420  77.61459
 421  272.2008
 422  511.6932
 423  678.1523
 424  589.3858
 425  407.9233
 426  333.859
 427  323.7365
 428  204.8218
 429  139.3128
 430  90.68866
 431  290.0504
 432  532.2719
 433  614.4656
 434  608.1126
 435  435.5493
 436  354.1855
 437  275.7799
 438  254.5749
 439  230.0128
 440  150.9206
 441  245.4433
 442  250.7839
 443  254.3143
 444  124.9634
 445  231.0919
 446  280.9948
 447  365.9904
 448  317.1348
 449  267.0322
 450  205.679
 451  183.503
 452  200.0197
 453  122.5492
 454  180.2115
 455  105.5544
 456  142.2775
 457  123.7264
 458  325.9508
 459  370.1467
 460  342.6457
 461  257.8585
 462  284.2265
 463  276.7968
 464  190.0609
 465  224.0471
 466  318.735
 467  217.7032
 468  72.28892
 469  187.0318
 470  263.5276
 471  269.6503
 472  167.1838
 473  308.4997
 474  409.9427
 475  237.9618
 476  31.5514
 477  -133.7269
 478  -64.21084
 479  -59.12156
 480  -33.83765
 481  89.82619
 482  229.873
 483  290.5797
 484  232.9677
 485  111.0145
 486  95.29845
 487  149.5252
 488  168.9339
 489  196.6698
 490  152.9176
 491  185.3863
 492  126.376
 493  256.1013
 494  243.8805
 495  284.5524
 496  134.8971
 497  259.7318
 498  194.2076
 499  238.4391
 500  127.2416
 501  234.5506
 502  325.6466
 503  291.4549
 504  225.9809
 505  179.83
 506  448.0912
 507  532.9688
 508  316.2735
 509  -4.376022
 510  56.69972
 511  187.7795
 512  144.3331
 513  -68.59468
 514  -168.017
 515  -39.80245
 516  78.73753
 517  80.60484
 518  12.28558
 519  -96.69327
 520  91.84364
 521  199.8808
 522  314.4245
 523  318.9622
 524  258.808
 525  194.8229
 526  235.3276
 527  155.9797
 528  177.5793
 529  -7.956819
 530  14.32896
 531  9.309903
 532  103.0065
 533  170.1478
 534  232.3843
 535  363.5891
 536  384.8092
 537  282.9275
 538  145.6787
 539  150.4614
 540  249.1303
 541  304.1151
 542  297.1072
 543  287.4755
 544  160.0326
 545  20.77664
 546  47.57853
 547  126.4744
 548  113.852
 549  182.4064
 550  216.4829
 551  110.0248
 552  52.44742
 553  55.45908
 554  84.2243
 555  -115.6724
 556  -62.7599
 557  75.12189
 558  149.3231
 559  220.2619
 560  176.3532
 561  123.647
 562  117.6698
 563  133.9919
 564  177.2855
 565  182.9715
 566  61.59597
 567  28.86143
 568  -47.91306
 569  60.73993
 570  109.305
 571  35.57325
 572  -30.27302
 573  -26.59126
 574  84.87114
 575  189.4282
 576  244.5258
 577  156.5448
 578  125.3414
 579  184.3007
 580  310.4161
 581  425.5755
 582  316.1655
 583  305.354
 584  242.1761
 585  316.4729
 586  355.7599
 587  363.8912
 588  375.4919
 589  318.3522
 590  313.1354
 591  348.0469
 592  444.7982
 593  479.9543
 594  415.4737
 595  441.3235
 596  324.6481
 597  198.6383
 598  90.818
 599  127.9841
 600  83.1647
 601  102.4437
 602  167.1057
 603  185.4922
 604  167.2059
 605  331.6049
 606  416.1495
 607  342.7108
 608  155.5662
 609  173.32
 610  134.7505
 611  -11.12557
 612  11.23804
 613  -20.89667
 614  111.2252
 615  152.1568
 616  266.8253
 617  280.695
 618  210.492
 619  220.3194
 620  223.6283
 621  259.9223
 622  136.9646
 623  169.3708
 624  215.9871
 625  152.3475
 626  110.8927
 627  141.6962
 628  299.7513
 629  436.9166
 630  367.329
 631  306.8539
 632  116.1696
 633  170.1721
 634  328.0679
 635  693.1825
 636  823.7361
 637  763.4006
 638  631.8953
 639  693.1568
 640  756.8866
 641  736.9754
 642  718.0051
 643  835.9828
 644  896.6085
 645  945.5151
 646  846.7524
 647  697.8394
 648  495.3193
 649  286.7861
 650  209.142
 651  198.7625
 652  277.4378
 653  329.2005
 654  498.7616
 655  407.5163
 656  263.2133
 657  146.9826
 658  268.4225
 659  359.6002
 660  240.2045
 661  93.59717
 662  98.68571
 663  166.8091
 664  166.0509
 665  134.9206
 666  234.7717
 667  300.0911
 668  330.4736
 669  258.2673
 670  316.8362
 671  348.4266
 672  471.1383
 673  371.8958
 674  291.8688
 675  248.3943
 676  271.3152
 677  201.7612
 678  41.62755
 679  16.89022
 680  46.50323
 681  129.6378
 682  218.4435
 683  214.4429
 684  172.8793
 685  71.53794
 686  136.6741
 687  43.53758
 688  -66.6389
 689  -136.5956
 690  -40.663
 691  -8.702872
 692  27.69942
 693  190.0397
 694  353.6176
 695  419.0196
 696  332.8321
 697  258.1402
 698  201.2576
 699  215.103
 700  132.2235
 701  143.9716
 702  187.4847
 703  191.4633
 704  62.68867
 705  -2.112409
 706  61.56173
 707  173.2935
 708  290.1928
 709  220.9519
 710  330.4441
 711  79.73007
 712  -58.00137
 713  -241.5206
 714  -104.0571
 715  116.4852
 716  209.6682
 717  205.8219
 718  146.662
 719  249.2594
 720  317.5084
 721  338.1379
 722  302.4518
 723  231.965
 724  171.6269
 725  10.87298
 726  23.775
 727  49.78257
 728  235.5829
 729  303.8762
 730  255.7262
 731  155.6787
 732  138.1484
 733  -31.6487
 734  -165.3214
 735  -62.304
 736  103.2065
 737  308.634
 738  126.3892
 739  80.12094
 740  59.6743
 741  141.856
 742  171.1495
 743  291.3325
 744  253.64
 745  190.9564
 746  117.5247
 747  155.4901
 748  217.7441
 749  242.075
 750  162.8852
 751  0.1983194
 752  -51.18211
 753  141.222
 754  195.2617
 755  193.6212
 756  171.3087
 757  259.2227
 758  281.8246
 759  263.358
 760  129.7279
 761  119.1549
 762  192.9187
 763  278.9777
 764  221.6722
 765  193.8982
 766  180.3636
 767  59.97004
 768  20.9122
 769  110.9761
 770  176.4233
 771  92.31654
 772  114.5474
 773  122.5409
 774  151.5146
 775  97.136
 776  289.2355
 777  261.261
 778  245.564
 779  111.1873
 780  110.3861
 781  -80.38078
 782  -152.144
 783  -140.5303
 784  -19.3194
 785  40.58251
 786  165.1895
 787  217.9133
 788  254.9111
 789  227.8008
 790  190.3406
 791  116.4796
 792  68.95346
 793  77.72528
 794  75.48917
 795  102.697
 796  251.6598
 797  232.9498
 798  241.2361
 799  122.9489
 800  167.3433
 801  177.0806
 802  200.7359
 803  76.63521
 804  20.53482
 805  95.3671
 806  127.2961
 807  197.1093
 808  249.3634
 809  350.1262
 810  368.8752
 811  330.0433
 812  308.2666
 813  195.157
 814  141.6593
 815  140.306
 816  222.8186
 817  227.5055
 818  217.2731
 819  227.4145
 820  248.3018
 821  312.6665
 822  345.1287
 823  370.9247
 824  260.4673
 825  184.1579
 826  111.7785
 827  213.8652
 828  311.7804
 829  330.2009
 830  138.3748
 831  58.75003
 832  99.86094
 833  197.7112
 834  322.5639
 835  370.7486
 836  209.3204
 837  -109.5892
 838  -213.514
 839  -183.5929
 840  110.1886
 841  199.8805
 842  292.4829
 843  221.5891
 844  239.2433
 845  329.673
 846  354.9995
 847  286.9284
 848  252.464
 849  255.0245
 850  301.627
 851  301.773
 852  282.1546
 853  174.6681
 854  118.1864
 855  117.9215
 856  92.18118
 857  124.2144
 858  202.2169
 859  492.9254
 860  478.6642
 861  350.3835
 862  241.7102
 863  217.3137
 864  219.4125
 865  175.3279
 866  263.7272
 867  316.7833
 868  309.9344
 869  209.8802
 870  195.1458
 871  288.95
 872  247.0494
 873  308.1732
 874  367.7435
 875  413.0705
 876  207.9309
 877  54.5587
 878  87.0509
 879  154.9666
 880  206.0474
 881  169.712
 882  151.6943
 883  246.8825
 884  282.0758
 885  362.2564
 886  258.1302
 887  243.5552
 888  105.9823
 889  19.74607
 890  -51.7045
 891  -34.94624
 892  39.58472
 893  207.5766
 894  173.937
 895  156.1627
 896  235.1419
 897  245.6433
 898  241.8329
 899  87.05039
 900  48.72046
 901  -42.76811
 902  -19.97747
 903  94.31264
 904  218.6491
 905  143.7139
 906  254.9461
 907  284.9198
 908  470.1029
 909  262.4919
 910  127.6112
 911  29.34864
 912  99.59367
 913  108.7896
 914  216.3892
 915  217.1404
 916  286.7139
 917  290.5878
 918  301.8602
 919  274.1735
 920  227.2465
 921  196.5863
 922  238.9967
 923  237.4188
 924  134.8465
 925  29.08135
 926  90.41492
 927  289.1582
 928  324.4956
 929  174.9553
 930  63.7751
 931  106.0323
 932  166.6056
 933  177.4707
 934  136.0597
 935  206.8237
 936  220.9739
 937  337.0096
 938  384.2052
 939  458.1724
 940  490.4096
 941  364.1844
 942  371.3265
 943  254.6551
 944  245.2817
 945  199.2253
 946  116.8299
 947  44.83497
 948  68.51953
 949  108.8535
 950  70.52985
 951  20.11517
 952  41.08327
 953  168.1243
 954  107.024
 955  106.8408
 956  19.79678
 957  -61.18031
 958  -14.04473
 959  158.8703
 960  335.0055
 961  333.5339
 962  187.0744
 963  43.86592
 964  -30.21326
 965  170.3709
 966  247.4096
 967  160.3955
 968  35.14084
 969  138.5625
 970  246.3926
 971  275.4877
 972  257.8388
 973  314.0327
 974  267.2255
 975  133.4625
 976  -18.38669
 977  7.157131
 978  150.715
 979  272.5211
 980  250.6311
 981  158.0748
 982  172.3441
 983  262.4532
 984  257.1045
 985  301.3821
 986  277.5844
 987  406.2491
 988  440.7457
 989  491.0298
 990  358.9443
 991  192.3936
 992  149.4627
 993  261.9894
 994  390.2455
 995  330.0685
 996  202.4654
 997  131.3047
 998  186.8308
 999  162.3403
1000  134.2039
1001  73.06609
1002  201.7005
1003  268.9561
1004  286.788
1005  36.90157
1006  -65.53674
1007  57.32236
1008  261.3213
1009  237.4738
1010  199.3322
1011  235.4041
1012  221.9217
1013  74.19267
1014  23.35149
1015  90.10418
1016  217.3251
1017  253.0446
1018  252.6171
1019  94.50725
1020  -4.915879
1021  -4.362402
1022  120.1666
1023  182.3033
