# Input file       =  1189312948.110782_cleaned.dat
# Candidate        =  PSR_0332+5434
# Telescope        =  AR
# Epoch_topo       =  58009.196378597015
# Epoch_bary       =  N/A
# T_sample         =  0.002
# Data Folded      =  7340032
# Data Avg         =  0.0289055477156321
# Data StdDev      =  3.22897582316692 
# Profile Bins     =  1024
# Profile Avg      =  207.258296646092 
# Profile StdDev   =  273.378144561272 
# Reduced chi-sqr  =  1.314
# Prob(Noise)      <  4.64e-11   (~6.5 sigma)
# P_topo (ms)      =  714.465725916905  +/- 0.000139
# P'_topo (s/s)    =  -0                +/- 7.34e-11
# P''_topo (s/s^2) =  0                 +/- 3.24e-14
# P_bary (ms)      =  N/A
# P'_bary (s/s)    =  N/A
# P''_bary (s/s^2) =  N/A
# P_orb (s)        =  N/A
# asin(i)/c (s)    =  N/A
# eccentricity     =  N/A
# w (rad)          =  N/A
# T_peri           =  N/A
######################################################
   0  -93.93301
   1  -85.05475
   2  55.99731
   3  256.0454
   4  440.0357
   5  390.3864
   6  312.7227
   7  128.1915
   8  149.7092
   9  54.69936
  10  19.5325
  11  -48.69524
  12  121.3397
  13  352.295
  14  480.7796
  15  470.1616
  16  308.974
  17  300.0255
  18  234.18
  19  197.6447
  20  -36.17126
  21  169.2379
  22  315.5453
  23  429.0588
  24  343.9167
  25  296.7505
  26  143.0307
  27  66.55386
  28  63.48361
  29  205.9591
  30  204.1563
  31  114.3099
  32  1.142138
  33  -54.84989
  34  -35.99739
  35  -50.15199
  36  84.57891
  37  309.9572
  38  217.49
  39  150.3867
  40  42.63347
  41  162.9971
  42  360.0514
  43  565.6205
  44  642.0255
  45  383.105
  46  187.4428
  47  30.72293
  48  -30.1578
  49  32.19762
  50  80.43839
  51  283.6088
  52  289.3465
  53  272.9443
  54  110.6285
  55  4.748345
  56  -15.42948
  57  154.3339
  58  326.5754
  59  299.9531
  60  267.041
  61  329.6994
  62  315.9641
  63  258.1043
  64  209.3904
  65  361.0494
  66  527.6909
  67  485.6379
  68  350.8388
  69  265.8779
  70  263.3532
  71  230.0656
  72  101.3068
  73  140.8831
  74  234.8599
  75  330.3956
  76  272.3114
  77  370.0565
  78  336.4003
  79  360.4146
  80  220.8619
  81  288.1344
  82  150.873
  83  99.57716
  84  6.010616
  85  29.37893
  86  50.39938
  87  140.3425
  88  295.0668
  89  448.6677
  90  348.5555
  91  254.2537
  92  157.6158
  93  152.2347
  94  80.15107
  95  209.4787
  96  511.5526
  97  649.3909
  98  515.503
  99  232.2324
 100  111.7527
 101  152.1306
 102  275.3274
 103  415.9539
 104  311.1119
 105  286.5565
 106  137.0458
 107  321.683
 108  331.6048
 109  291.5417
 110  142.8638
 111  193.4378
 112  237.8184
 113  211.1343
 114  20.18503
 115  -17.4376
 116  135.1069
 117  404.3721
 118  445.1583
 119  402.3801
 120  241.3953
 121  222.6175
 122  239.6117
 123  174.7801
 124  150.4236
 125  124.1457
 126  358.3069
 127  529.5904
 128  602.7257
 129  455.9997
 130  256.0545
 131  190.545
 132  242.7488
 133  334.384
 134  155.2554
 135  105.4707
 136  21.02984
 137  -47.96992
 138  -334.003
 139  -270.6318
 140  -93.16165
 141  196.7254
 142  268.4605
 143  238.0358
 144  156.5752
 145  130.6413
 146  195.6334
 147  212.2457
 148  162.9195
 149  91.32472
 150  32.40193
 151  100.5548
 152  297.5721
 153  433.91
 154  387.9474
 155  292.649
 156  324.8829
 157  428.033
 158  425.5474
 159  478.167
 160  415.1999
 161  372.3401
 162  238.6736
 163  62.79565
 164  102.0054
 165  221.5824
 166  271.6389
 167  249.8599
 168  112.7202
 169  60.07867
 170  -12.67886
 171  34.0348
 172  295.8317
 173  409.6766
 174  452.527
 175  307.5711
 176  324.8589
 177  295.8253
 178  67.01324
 179  -133.1471
 180  -72.01326
 181  127.4853
 182  226.1477
 183  202.7162
 184  92.82584
 185  48.71245
 186  127.3989
 187  126.4388
 188  48.81194
 189  -99.56947
 190  -15.19175
 191  152.2417
 192  321.2374
 193  381.7318
 194  334.3698
 195  417.391
 196  566.4446
 197  457.02
 198  198.7942
 199  -103.331
 200  -77.63741
 201  28.33983
 202  306.1486
 203  427.8226
 204  465.1969
 205  383.5753
 206  180.1187
 207  219.5646
 208  268.5297
 209  242.0608
 210  71.7331
 211  19.80203
 212  112.303
 213  218.6557
 214  230.5313
 215  224.8496
 216  190.0229
 217  186.4369
 218  36.5919
 219  -10.92018
 220  -4.963321
 221  123.1134
 222  125.5454
 223  101.8819
 224  171.9175
 225  218.405
 226  224.8608
 227  99.18492
 228  158.5169
 229  309.8401
 230  437.5442
 231  391.2548
 232  297.1378
 233  265.5928
 234  255.5365
 235  322.6847
 236  304.9513
 237  235.6824
 238  19.90069
 239  0.3385571
 240  197.5728
 241  312.3918
 242  314.8783
 243  333.1693
 244  457.8894
 245  485.6589
 246  405.219
 247  406.6474
 248  380.2852
 249  214.05
 250  236.6214
 251  235.7636
 252  319.2307
 253  278.8394
 254  233.0145
 255  231.8873
 256  168.0321
 257  151.9487
 258  109.3071
 259  226.913
 260  330.0515
 261  325.9865
 262  270.2531
 263  195.0165
 264  37.59246
 265  -158.2007
 266  -108.6704
 267  49.33533
 268  80.90987
 269  65.73835
 270  165.1501
 271  377.2058
 272  345.1661
 273  312.7746
 274  397.77
 275  431.4039
 276  376.6784
 277  123.5316
 278  86.95249
 279  162.2403
 280  346.0081
 281  252.3066
 282  57.91315
 283  10.02017
 284  141.0852
 285  295.9672
 286  340.9478
 287  516.2195
 288  493.7698
 289  382.754
 290  156.8307
 291  28.64709
 292  92.05921
 293  206.1707
 294  297.735
 295  169.8288
 296  27.92125
 297  16.24759
 298  156.0464
 299  128.8105
 300  187.0233
 301  181.1488
 302  231.0715
 303  38.35263
 304  58.37867
 305  57.51023
 306  68.0913
 307  23.1855
 308  50.28857
 309  62.03854
 310  71.53989
 311  26.7717
 312  101.3358
 313  -9.683195
 314  -63.52763
 315  -26.5596
 316  60.75592
 317  80.41731
 318  152.8908
 319  247.736
 320  340.6028
 321  287.5009
 322  260.5228
 323  324.229
 324  314.1518
 325  222.4511
 326  48.27105
 327  24.37397
 328  157.9032
 329  239.7202
 330  321.359
 331  185.2538
 332  195.0676
 333  247.0249
 334  397.1361
 335  235.0977
 336  194.0858
 337  63.90397
 338  89.04903
 339  103.9453
 340  260.9719
 341  244.6523
 342  62.88031
 343  97.95323
 344  179.1666
 345  222.5564
 346  63.56247
 347  38.82608
 348  53.93026
 349  128.6191
 350  60.8586
 351  -2.664627
 352  30.38133
 353  252.7297
 354  282.9958
 355  316.6167
 356  374.2879
 357  468.2725
 358  396.2966
 359  260.7176
 360  243.5664
 361  175.9493
 362  156.2813
 363  130.7259
 364  157.8812
 365  156.2946
 366  121.7644
 367  227.0634
 368  342.4104
 369  356.0981
 370  277.1354
 371  243.8084
 372  279.1584
 373  352.6558
 374  304.6985
 375  308.5439
 376  271.9615
 377  375.7774
 378  456.4174
 379  435.8637
 380  435.6617
 381  260.1052
 382  264.7786
 383  187.8842
 384  145.4602
 385  287.4325
 386  306.683
 387  246.642
 388  183.0442
 389  126.2691
 390  160.5319
 391  38.65634
 392  -20.46959
 393  -28.47826
 394  31.13589
 395  165.4726
 396  273.3082
 397  246.4732
 398  308.8011
 399  317.3707
 400  287.1021
 401  136.3248
 402  204.1604
 403  277.7126
 404  261.6861
 405  193.733
 406  190.9439
 407  293.0617
 408  206.8363
 409  167.1958
 410  155.8556
 411  174.653
 412  224.985
 413  215.775
 414  251.0149
 415  323.1837
 416  393.4512
 417  362.7397
 418  172.1802
 419  51.2547
 420  -103.8514
 421  -100.5899
 422  -90.98321
 423  -63.89907
 424  -69.22377
 425  21.68025
 426  57.07193
 427  197.9221
 428  415.4325
 429  382.1848
 430  313.2425
 431  122.0688
 432  359.5692
 433  215.635
 434  218.8588
 435  200.9253
 436  123.7447
 437  -27.07176
 438  -174.9515
 439  38.51265
 440  34.94816
 441  -23.28668
 442  -110.8716
 443  -246.6378
 444  -287.7469
 445  -243.1919
 446  -183.8263
 447  -122.2273
 448  -0.2278555
 449  -15.65122
 450  -104.7723
 451  -188.583
 452  -64.45552
 453  4.908555
 454  -71.88295
 455  -47.33646
 456  86.46368
 457  112.8933
 458  172.3011
 459  248.4214
 460  410.1609
 461  292.3686
 462  137.3632
 463  192.3341
 464  250.0623
 465  106.028
 466  84.80003
 467  -9.058914
 468  148.3782
 469  95.76562
 470  219.969
 471  181.2096
 472  162.9866
 473  234.1302
 474  136.4386
 475  86.48418
 476  -39.0816
 477  3.882137
 478  -54.34107
 479  -57.11927
 480  22.95285
 481  247.5929
 482  375.3905
 483  308.1372
 484  239.7839
 485  297.2906
 486  327.4627
 487  321.6531
 488  340.4248
 489  373.0334
 490  240.615
 491  104.9673
 492  151.0614
 493  213.1541
 494  166.2091
 495  43.97351
 496  -9.923625
 497  107.0043
 498  124.7962
 499  181.8881
 500  103.7608
 501  -29.20125
 502  -95.02416
 503  104.5304
 504  327.2578
 505  333.287
 506  260.3815
 507  175.8557
 508  222.6531
 509  78.82653
 510  170.2852
 511  240.3036
 512  300.7885
 513  208.2299
 514  208.5851
 515  195.4504
 516  272.2835
 517  258.8444
 518  221.4667
 519  178.213
 520  155.2683
 521  179.4255
 522  77.43428
 523  -124.7627
 524  -136.7539
 525  16.85208
 526  103.7557
 527  162.2475
 528  59.73275
 529  -51.12943
 530  18.24706
 531  213.8083
 532  405.0739
 533  416.2958
 534  304.27
 535  178.466
 536  70.98878
 537  127.3769
 538  134.1478
 539  200.6747
 540  281.2992
 541  318.0942
 542  237.5265
 543  90.67282
 544  62.85505
 545  183.2699
 546  228.4635
 547  234.0892
 548  224.169
 549  145.3742
 550  170.6178
 551  47.72243
 552  218.5106
 553  85.56155
 554  106.1538
 555  -33.04902
 556  60.40257
 557  335.1392
 558  424.5626
 559  413.3319
 560  283.1466
 561  371.1992
 562  390.5601
 563  411.6827
 564  385.843
 565  413.3632
 566  262.9374
 567  104.7
 568  25.59267
 569  253.1613
 570  388.2056
 571  308.3842
 572  90.40528
 573  85.67572
 574  11.49101
 575  -19.37914
 576  62.29761
 577  253.6875
 578  415.4382
 579  305.9309
 580  401.6548
 581  307.9787
 582  342.9288
 583  39.31765
 584  -27.62047
 585  -73.11981
 586  -87.92635
 587  73.74662
 588  112.9259
 589  406.9072
 590  323.6319
 591  411.0998
 592  200.0735
 593  164.4721
 594  28.31415
 595  20.97657
 596  -17.38086
 597  44.99639
 598  119.3965
 599  272.2562
 600  384.3517
 601  247.1191
 602  159.8078
 603  159.4947
 604  454.7138
 605  584.2596
 606  560.1469
 607  447.3075
 608  414.6109
 609  488.6389
 610  439.4561
 611  203.3658
 612  -23.88118
 613  -84.5296
 614  -68.45818
 615  -25.40941
 616  68.92728
 617  287.6055
 618  343.5172
 619  235.8221
 620  158.9578
 621  105.2801
 622  160.8828
 623  284.3764
 624  494.3671
 625  510.0747
 626  449.43
 627  323.3477
 628  378.6501
 629  291.2358
 630  281.9103
 631  289.6842
 632  301.6058
 633  414.6178
 634  375.5434
 635  381.4002
 636  478.7456
 637  696.2814
 638  929.1183
 639  1115.375
 640  1226.722
 641  1149.404
 642  1011.077
 643  1008.349
 644  1051.409
 645  1052.007
 646  930.996
 647  857.313
 648  716.5577
 649  587.7532
 650  479.186
 651  344.2929
 652  267.6619
 653  204.4815
 654  358.2622
 655  211.7868
 656  95.46926
 657  33.61636
 658  73.85046
 659  307.8258
 660  215.9269
 661  359.8884
 662  358.2337
 663  382.0565
 664  397.9515
 665  276.134
 666  235.3591
 667  119.8955
 668  202.3899
 669  316.889
 670  413.391
 671  547.2917
 672  663.227
 673  670.3226
 674  626.5941
 675  628.6458
 676  565.5312
 677  457.0903
 678  210.0565
 679  114.078
 680  116.5452
 681  69.10454
 682  6.105506
 683  -72.45547
 684  45.36384
 685  116.4058
 686  189.4649
 687  146.9094
 688  2.432839
 689  147.1662
 690  279.2859
 691  522.5169
 692  456.0166
 693  511.9544
 694  359.2554
 695  310.123
 696  223.6123
 697  223.9123
 698  147.5721
 699  159.9084
 700  191.3042
 701  138.8667
 702  217.0692
 703  316.0183
 704  456.5645
 705  362.0523
 706  166.3592
 707  86.98899
 708  30.53346
 709  5.001158
 710  -94.87267
 711  17.60081
 712  149.9216
 713  228.1544
 714  57.18431
 715  39.21569
 716  177.5764
 717  258.7266
 718  330.0591
 719  254.4597
 720  289.4713
 721  199.4507
 722  204.6059
 723  63.20149
 724  161.6245
 725  136.6184
 726  214.0655
 727  96.30254
 728  -5.158328
 729  -28.32342
 730  -14.49788
 731  52.39487
 732  97.15229
 733  115.6092
 734  199.6277
 735  175.8322
 736  133.5808
 737  -11.0759
 738  -10.68385
 739  43.5099
 740  158.7328
 741  101.9762
 742  92.07001
 743  -66.17802
 744  -95.06178
 745  -14.29297
 746  195.0741
 747  227.6346
 748  238.6892
 749  208.7138
 750  311.7578
 751  190.5485
 752  282.1052
 753  356.3942
 754  373.0183
 755  292.5591
 756  149.2324
 757  41.07896
 758  -80.30344
 759  -49.6858
 760  -6.949673
 761  17.00516
 762  128.8695
 763  324.7165
 764  444.8175
 765  270.944
 766  218.682
 767  204.9517
 768  228.5967
 769  249.7154
 770  238.0021
 771  115.6449
 772  132.9139
 773  85.51763
 774  25.11342
 775  -25.01803
 776  57.87212
 777  218.4357
 778  109.2181
 779  149.1596
 780  280.9729
 781  412.4372
 782  550.499
 783  561.8948
 784  468.4371
 785  222.9508
 786  178.2833
 787  205.7686
 788  172.3862
 789  95.21272
 790  128.2873
 791  109.1959
 792  158.1201
 793  268.7332
 794  358.9957
 795  323.8441
 796  231.4432
 797  287.1743
 798  220.706
 799  170.0727
 800  -12.87164
 801  -102.2484
 802  -107.4865
 803  22.99074
 804  164.7579
 805  121.4281
 806  0.7826979
 807  -102.6461
 808  42.17658
 809  220.4718
 810  367.1538
 811  332.8128
 812  192.9641
 813  214.3839
 814  90.34984
 815  187.7294
 816  89.65328
 817  238.9908
 818  215.1417
 819  324.3868
 820  326.4796
 821  286.9277
 822  140.8978
 823  19.03844
 824  137.8253
 825  188.7766
 826  218.7846
 827  260.2941
 828  298.4215
 829  196.5017
 830  78.61356
 831  194.7794
 832  382.4933
 833  377.0488
 834  306.3104
 835  297.5375
 836  345.5659
 837  281.6733
 838  156.9085
 839  84.40155
 840  6.391415
 841  49.00461
 842  -26.88917
 843  -35.64055
 844  -39.80833
 845  129.5037
 846  273.0503
 847  406.107
 848  316.8515
 849  219.2402
 850  239.6454
 851  299.5619
 852  391.339
 853  138.0492
 854  188.1609
 855  190.5878
 856  282.6358
 857  237.3066
 858  320.3514
 859  299.0427
 860  218.4392
 861  256.8246
 862  131.2711
 863  98.48927
 864  -30.71012
 865  216.118
 866  366.4385
 867  320.3683
 868  140.2743
 869  80.90824
 870  73.53329
 871  43.34952
 872  53.03308
 873  189.9774
 874  287.4361
 875  210.2797
 876  136.4793
 877  169.9628
 878  279.6873
 879  300.0371
 880  187.1212
 881  173.7299
 882  119.2586
 883  232.1167
 884  271.1739
 885  277.8677
 886  299.6763
 887  159.0505
 888  208.7336
 889  52.59095
 890  111.8432
 891  114.2335
 892  196.4454
 893  71.46272
 894  60.64499
 895  116.1368
 896  260.8349
 897  261.0733
 898  347.6641
 899  363.7868
 900  463.9694
 901  414.5094
 902  397.2854
 903  288.2482
 904  251.2275
 905  194.8991
 906  31.49141
 907  148.7941
 908  191.537
 909  213.5881
 910  145.7642
 911  21.5385
 912  90.5773
 913  174.8278
 914  173.0226
 915  48.40683
 916  -43.84756
 917  34.85695
 918  131.118
 919  229.8772
 920  352.7286
 921  320.977
 922  293.2962
 923  302.2299
 924  313.6226
 925  312.1732
 926  191.6321
 927  218.3277
 928  142.3204
 929  161.358
 930  182.0832
 931  258.2971
 932  306.08
 933  318.9698
 934  183.2169
 935  59.54166
 936  113.4367
 937  290.8421
 938  360.0535
 939  346.0089
 940  369.0042
 941  404.1581
 942  201.1436
 943  98.09965
 944  80.53817
 945  120.315
 946  158.3727
 947  201.5395
 948  278.4286
 949  343.8919
 950  223.9177
 951  152.5227
 952  225.8386
 953  296.0073
 954  271.1258
 955  233.4035
 956  268.6894
 957  264.4099
 958  78.08125
 959  66.40325
 960  86.76706
 961  158.6244
 962  138.7145
 963  99.47299
 964  118.8628
 965  207.9709
 966  329.7983
 967  369.3706
 968  282.2155
 969  199.9476
 970  45.58102
 971  4.929986
 972  8.298734
 973  172.7753
 974  194.2363
 975  233.0695
 976  203.2076
 977  361.9851
 978  303.3855
 979  173.7512
 980  28.50261
 981  34.39891
 982  102.6769
 983  28.80228
 984  203.3626
 985  225.3375
 986  331.7302
 987  154.7779
 988  211.6446
 989  212.7004
 990  302.5946
 991  292.9002
 992  316.4599
 993  244.931
 994  303.4426
 995  314.6297
 996  410.9905
 997  366.1612
 998  428.1054
 999  374.5939
1000  259.2391
1001  111.2983
1002  105.4347
1003  155.8195
1004  91.83783
1005  -34.27884
1006  -66.58839
1007  -53.98566
1008  85.26254
1009  282.3513
1010  404.4384
1011  332.6212
1012  243.0792
1013  260.0893
1014  394.7514
1015  288.823
1016  156.7184
1017  127.7911
1018  207.4051
1019  261.4675
1020  229.9618
1021  222.8213
1022  145.535
1023  -8.599516
