# Input file       =  1189298030.121802_cleaned.dat
# Candidate        =  PSR_0332+5434
# Telescope        =  AR
# Epoch_topo       =  58009.023716687523
# Epoch_bary       =  N/A
# T_sample         =  0.002
# Data Folded      =  7340032
# Data Avg         =  0.0291376933050092
# Data StdDev      =  2.39524774438996 
# Profile Bins     =  1024
# Profile Avg      =  208.518915814645 
# Profile StdDev   =  202.791355521416 
# Reduced chi-sqr  =  1.455
# Prob(Noise)      <  6.65e-20   (~9.1 sigma)
# P_topo (ms)      =  714.465346757425  +/- 0.000179
# P'_topo (s/s)    =  -0                +/- 9.46e-11
# P''_topo (s/s^2) =  0                 +/- 4.18e-14
# P_bary (ms)      =  N/A
# P'_bary (s/s)    =  N/A
# P''_bary (s/s^2) =  N/A
# P_orb (s)        =  N/A
# asin(i)/c (s)    =  N/A
# eccentricity     =  N/A
# w (rad)          =  N/A
# T_peri           =  N/A
######################################################
   0  161.5601
   1  131.8645
   2  78.16148
   3  136.4653
   4  149.1698
   5  212.9853
   6  164.1539
   7  154.7538
   8  163.942
   9  225.1932
  10  134.0331
  11  124.3679
  12  193.6754
  13  231.6591
  14  231.9427
  15  203.8041
  16  120.9377
  17  -8.060304
  18  -44.44534
  19  42.32494
  20  165.0706
  21  271.7482
  22  275.8481
  23  273.6337
  24  291.6814
  25  252.3871
  26  207.7803
  27  203.9822
  28  286.1588
  29  221.0333
  30  128.0152
  31  175.3085
  32  121.5597
  33  56.15553
  34  39.97601
  35  209.2382
  36  244.3456
  37  141.1757
  38  -1.91307
  39  115.992
  40  134.9636
  41  235.0604
  42  186.5664
  43  250.7056
  44  207.6404
  45  125.0601
  46  19.59062
  47  51.84052
  48  61.77367
  49  93.00143
  50  52.44672
  51  78.67739
  52  190
  53  201.5209
  54  182.8069
  55  24.57522
  56  68.86354
  57  96.81042
  58  127.8242
  59  156.4231
  60  143.6224
  61  169.8069
  62  116.7428
  63  175.5331
  64  151.5478
  65  115.3583
  66  30.02942
  67  50.25901
  68  96.01872
  69  73.68774
  70  -8.294144
  71  115.7212
  72  187.1278
  73  254.1182
  74  198.953
  75  262.2204
  76  242.9787
  77  220.9946
  78  122.2307
  79  106.7337
  80  57.40545
  81  131.1127
  82  100.1105
  83  167.1168
  84  132.0451
  85  49.20357
  86  -28.17054
  87  15.7249
  88  187.6426
  89  248.8302
  90  293.6158
  91  253.3758
  92  241.7129
  93  252.3206
  94  237.7735
  95  277.9783
  96  246.5581
  97  321.1107
  98  323.5238
  99  295.3815
 100  137.834
 101  91.47659
 102  97.12984
 103  162.0745
 104  211.3144
 105  234.8626
 106  263.9093
 107  226.9448
 108  287.6795
 109  269.4953
 110  197.3642
 111  66.059
 112  77.84837
 113  222.2389
 114  310.9497
 115  244.3855
 116  120.1243
 117  1.071705
 118  80.56997
 119  124.0594
 120  246.3589
 121  182.5606
 122  276.881
 123  202.1657
 124  161.7096
 125  37.92267
 126  75.11546
 127  140.1191
 128  199.8454
 129  226.0596
 130  194.75
 131  168.8737
 132  116.5855
 133  112.0233
 134  104.5604
 135  85.48459
 136  172.2021
 137  256.6602
 138  374.0148
 139  294.3661
 140  254.9493
 141  114.114
 142  182.0893
 143  229.4769
 144  256.2652
 145  215.8695
 146  155.9912
 147  150.1488
 148  207.7262
 149  162.1392
 150  184.2686
 151  166.8925
 152  227.0549
 153  292.2768
 154  231.097
 155  102.541
 156  74.18877
 157  199.5448
 158  273.5379
 159  267.2035
 160  244.9852
 161  275.1517
 162  222.063
 163  204.8252
 164  175.2769
 165  132.1136
 166  73.36067
 167  112.476
 168  351.603
 169  435.9252
 170  441.5753
 171  326.82
 172  327.2389
 173  226.1643
 174  143.5124
 175  146.8223
 176  195.1971
 177  192.4868
 178  79.2618
 179  43.74253
 180  75.5284
 181  197.6835
 182  351.9874
 183  449.1061
 184  475.0722
 185  469.0425
 186  409.7278
 187  359.6898
 188  332.8998
 189  334.6226
 190  334.1791
 191  262.509
 192  179.6393
 193  118.939
 194  64.94294
 195  170.6319
 196  251.7569
 197  331.6869
 198  291.6344
 199  212.172
 200  213.0372
 201  197.017
 202  298.642
 203  327.0721
 204  354.6283
 205  327.4339
 206  376.02
 207  378.3308
 208  408.8061
 209  352.8134
 210  236.5459
 211  183.1593
 212  195.4555
 213  271.9516
 214  264.3129
 215  304.2053
 216  278.5465
 217  361.5331
 218  366.5352
 219  283.8697
 220  85.34048
 221  7.632908
 222  107.4127
 223  160.7252
 224  173.7871
 225  160.9961
 226  99.44413
 227  67.18329
 228  24.47308
 229  90.02411
 230  130.8365
 231  198.028
 232  184.6333
 233  192.1239
 234  85.53547
 235  65.8686
 236  59.17909
 237  169.6925
 238  183.9506
 239  110.2261
 240  69.63717
 241  109.0566
 242  70.29082
 243  150.184
 244  211.6392
 245  238.6816
 246  198.0441
 247  172.547
 248  201.7148
 249  148.2439
 250  74.92547
 251  29.64106
 252  83.50834
 253  257.4368
 254  214.8725
 255  176.3045
 256  96.94678
 257  199.3902
 258  215.3273
 259  240.459
 260  238.403
 261  208.8782
 262  234.3671
 263  251.7136
 264  199.0169
 265  150.418
 266  181.036
 267  265.1629
 268  201.6135
 269  194.5458
 270  160.5566
 271  177.2017
 272  173.6619
 273  120.699
 274  65.81758
 275  -3.967379
 276  21.21882
 277  133.1859
 278  281.0051
 279  360.2805
 280  220.6397
 281  165.3515
 282  232.4135
 283  260.0896
 284  211.6289
 285  143.7682
 286  253.0757
 287  328.6944
 288  329.6232
 289  322.0481
 290  256.9198
 291  187.1751
 292  143.1546
 293  176.3414
 294  160.0803
 295  131.2289
 296  138.0587
 297  239.1958
 298  245.2249
 299  284.1966
 300  290.423
 301  305.8266
 302  285.1462
 303  239.4358
 304  224.8462
 305  251.1269
 306  183.607
 307  91.23569
 308  53.11147
 309  31.5216
 310  -3.926899
 311  60.21691
 312  236.0988
 313  361.7139
 314  288.1298
 315  139.8158
 316  88.80254
 317  74.68034
 318  104.0765
 319  59.57074
 320  25.22575
 321  78.23409
 322  62.14711
 323  46.96975
 324  39.07401
 325  72.62339
 326  107.2577
 327  168.0158
 328  118.6765
 329  119.7637
 330  284.824
 331  451.0709
 332  370.118
 333  284.4894
 334  293.251
 335  344.2694
 336  271.7122
 337  272.6677
 338  354.7583
 339  374.5241
 340  284.635
 341  144.9168
 342  56.84465
 343  45.25805
 344  189.2565
 345  238.9095
 346  162.0938
 347  101.202
 348  98.7306
 349  144.4658
 350  178.2688
 351  173.1088
 352  134.1238
 353  60.06456
 354  103.2541
 355  201.5702
 356  283.1688
 357  361.1804
 358  209.4213
 359  174.8572
 360  99.58056
 361  220.6976
 362  184.3541
 363  180.0063
 364  154.6294
 365  201.3937
 366  175.879
 367  177.5399
 368  195.7006
 369  320.5933
 370  227.6569
 371  177.9433
 372  165.652
 373  282.1476
 374  259.5618
 375  213.11
 376  212.4878
 377  315.024
 378  202.3343
 379  170.7461
 380  182.7257
 381  227.0513
 382  158.9661
 383  143.2717
 384  271.0314
 385  392.7802
 386  360.2374
 387  323.0421
 388  304.8576
 389  273.0787
 390  285.4668
 391  244.5628
 392  158.1155
 393  188.1478
 394  250.5172
 395  328.9508
 396  165.1421
 397  148.6073
 398  194.5376
 399  252.8104
 400  176.9447
 401  126.3256
 402  96.21903
 403  97.87389
 404  182.7658
 405  291.5857
 406  327.2206
 407  241.8078
 408  5.803208
 409  -55.58548
 410  -56.01044
 411  -2.645149
 412  -116.0135
 413  -58.22627
 414  19.71572
 415  138.5714
 416  114.2312
 417  127.3919
 418  127.1645
 419  161.229
 420  151.3189
 421  100.1456
 422  196.4256
 423  227.6811
 424  204.5235
 425  196.8012
 426  261.8327
 427  279.1651
 428  150.2342
 429  53.0924
 430  117.1639
 431  165.9813
 432  133.2751
 433  103.0636
 434  98.42062
 435  85.50172
 436  46.32589
 437  75.03038
 438  181.718
 439  231.0509
 440  193.9463
 441  174.4387
 442  176.5463
 443  198.3387
 444  268.0253
 445  304.0403
 446  226.9277
 447  227.3543
 448  189.0048
 449  249.5655
 450  39.15787
 451  -2.753829
 452  -41.78685
 453  71.70709
 454  85.48023
 455  61.61903
 456  27.65811
 457  -57.05219
 458  -24.37398
 459  81.31322
 460  142.4919
 461  164.6346
 462  177.4235
 463  216.9971
 464  267.0081
 465  291.8097
 466  326.824
 467  217.7834
 468  125.9889
 469  173.4832
 470  272.7892
 471  408.4972
 472  388.4846
 473  306.1633
 474  171.7196
 475  138.2791
 476  182.6653
 477  271.4821
 478  227.3468
 479  188.0828
 480  218.9751
 481  296.5397
 482  327.8732
 483  212.0608
 484  136.8965
 485  171.3642
 486  202.1121
 487  281.0449
 488  128.502
 489  108.7375
 490  66.53289
 491  197.3517
 492  205.593
 493  151.8141
 494  130.738
 495  173.1896
 496  160.1062
 497  5.610378
 498  -96.99036
 499  25.14475
 500  181.7984
 501  273.3723
 502  271.0018
 503  316.0304
 504  245.5585
 505  148.2812
 506  106.2666
 507  158.8941
 508  210.7133
 509  107.6806
 510  111.3889
 511  163.1846
 512  266.0035
 513  200.6377
 514  173.5438
 515  142.8545
 516  289.5677
 517  348.7477
 518  379.6463
 519  270.7773
 520  301.6443
 521  262.5835
 522  265.3719
 523  257.1356
 524  331.5423
 525  406.0662
 526  312.6494
 527  179.5987
 528  132.8314
 529  137.8056
 530  188.3018
 531  266.6352
 532  390.9541
 533  408.1053
 534  403.8738
 535  371.7582
 536  351.0894
 537  253.9967
 538  152.5949
 539  78.99197
 540  58.30664
 541  63.87335
 542  163.078
 543  291.4469
 544  354.588
 545  231.077
 546  136.5612
 547  81.61904
 548  69.96671
 549  124.7765
 550  235.9755
 551  280.4697
 552  173.9769
 553  188.4046
 554  184.3459
 555  182.3966
 556  204.3952
 557  158.5053
 558  216.6355
 559  206.7096
 560  293.9111
 561  311.492
 562  293.1095
 563  363.1074
 564  329.7133
 565  338.1209
 566  243.7879
 567  213.8247
 568  133.0065
 569  195.6309
 570  294.6716
 571  310.2567
 572  301.5385
 573  227.6634
 574  256.7258
 575  236.8468
 576  301.0163
 577  211.078
 578  204.0647
 579  139.931
 580  184.4187
 581  151.8232
 582  108.3661
 583  84.85728
 584  0.8285094
 585  45.69921
 586  54.03343
 587  206.4206
 588  173.4349
 589  148.3651
 590  157.0922
 591  61.7396
 592  62.50613
 593  25.29721
 594  228.8257
 595  279.0581
 596  277.4613
 597  188.6781
 598  102.4186
 599  95.8248
 600  132.0494
 601  154.3859
 602  245.1781
 603  194.9548
 604  229.8476
 605  269.9868
 606  342.5333
 607  229.4162
 608  163.2353
 609  232.2297
 610  263.032
 611  187.22
 612  126.0785
 613  214.2404
 614  254.9346
 615  280.201
 616  265.4673
 617  215.3458
 618  143.6712
 619  64.77018
 620  6.387232
 621  -11.0233
 622  40.62936
 623  107.1568
 624  159.2015
 625  186.8539
 626  242.7273
 627  257.4948
 628  234.3903
 629  298.1114
 630  293.8333
 631  349.2682
 632  377.7444
 633  445.5383
 634  461.8894
 635  470.4713
 636  499.1986
 637  500.8105
 638  634.1386
 639  811.946
 640  920.2534
 641  919.0527
 642  923.5247
 643  1018.259
 644  1103.124
 645  1188.789
 646  1235.859
 647  1150.594
 648  876.1939
 649  719.2625
 650  635.4125
 651  547.8721
 652  406.2451
 653  231.0114
 654  111.1891
 655  92.63958
 656  41.92905
 657  31.81301
 658  5.372007
 659  167.142
 660  224.9212
 661  309.7963
 662  393.1186
 663  396.9833
 664  349.7459
 665  232.9754
 666  331.4955
 667  319.3386
 668  285.6232
 669  143.2031
 670  222.4351
 671  163.3815
 672  131.3539
 673  20.92891
 674  79.21667
 675  193.8923
 676  391.6953
 677  529.4056
 678  445.4697
 679  347.1567
 680  256.9082
 681  275.56
 682  228.8257
 683  217.8237
 684  246.8225
 685  276.5023
 686  192.1676
 687  114.4708
 688  68.21996
 689  63.81451
 690  90.23536
 691  274.9626
 692  399.1762
 693  295.3944
 694  130.851
 695  150.2423
 696  203.6571
 697  107.5303
 698  95.57005
 699  91.64643
 700  179.7939
 701  133.5044
 702  191.4989
 703  180.9992
 704  202.6439
 705  247.9834
 706  223.4843
 707  209.8401
 708  70.2357
 709  187.81
 710  253.1728
 711  276.2591
 712  57.22419
 713  86.40456
 714  272.2651
 715  353.533
 716  280.3763
 717  243.1292
 718  209.3525
 719  142.7176
 720  59.08378
 721  39.73421
 722  210.7184
 723  370.436
 724  456.2455
 725  380.3085
 726  328.5898
 727  365.7877
 728  405.9757
 729  348.1306
 730  334.0773
 731  314.9185
 732  335.9897
 733  377.7522
 734  330.0491
 735  333.724
 736  297.0293
 737  166.7904
 738  35.7085
 739  38.00194
 740  174.5526
 741  42.63645
 742  131.5708
 743  187.1463
 744  476.6845
 745  498.6314
 746  485.9924
 747  484.3927
 748  344.2359
 749  308.0279
 750  248.5801
 751  369.5952
 752  367.2103
 753  238.1051
 754  171.8176
 755  218.6234
 756  265.2209
 757  256.6063
 758  220.4963
 759  318.0975
 760  328.5275
 761  362.2056
 762  298.6777
 763  248.0498
 764  190.001
 765  169.0177
 766  236.369
 767  286.4324
 768  262.1083
 769  220.7583
 770  193.3097
 771  229.8031
 772  268.6381
 773  258.7614
 774  240.1895
 775  262.96
 776  299.6937
 777  374.7983
 778  444.4103
 779  479.6438
 780  253.7473
 781  77.70605
 782  55.80085
 783  305.5445
 784  346.1348
 785  322.9497
 786  298.0737
 787  236.5408
 788  193.5161
 789  173.698
 790  280.7087
 791  305.69
 792  196.7154
 793  205.7589
 794  218.1551
 795  159.1483
 796  166.1402
 797  236.3978
 798  260.6807
 799  224.0208
 800  142.8808
 801  161.8505
 802  112.9652
 803  143.8482
 804  201.175
 805  167.6755
 806  61.90181
 807  48.92833
 808  100.815
 809  265.1054
 810  168.5794
 811  137.747
 812  19.14433
 813  115.2618
 814  96.09604
 815  -3.375649
 816  4.69362
 817  -1.972033
 818  131.9431
 819  185.0596
 820  307.487
 821  404.0056
 822  415.8437
 823  360.7096
 824  217.3889
 825  184.9928
 826  251.794
 827  306.1873
 828  266.6991
 829  264.3051
 830  249.4385
 831  263.5884
 832  281.8175
 833  292.7287
 834  325.6573
 835  380.6382
 836  349.8254
 837  298.9729
 838  237.5016
 839  145.4698
 840  20.66517
 841  0.403542
 842  43.61733
 843  179.502
 844  190.1668
 845  234.8302
 846  211.3009
 847  140.9042
 848  150.5801
 849  100.1909
 850  120.6871
 851  103.1849
 852  150.1264
 853  134.8311
 854  164.0325
 855  156.9309
 856  153.2735
 857  100.3895
 858  62.89579
 859  -3.527247
 860  -13.78181
 861  77.56522
 862  179.7532
 863  323.7344
 864  320.3593
 865  240.0634
 866  152.1314
 867  134.5237
 868  104.0802
 869  88.93362
 870  67.46859
 871  72.27509
 872  46.26126
 873  19.95195
 874  100.5022
 875  40.52609
 876  168.1088
 877  215.294
 878  298.8924
 879  231.9686
 880  218.41
 881  131.5725
 882  82.11133
 883  81.212
 884  106.7199
 885  51.39544
 886  4.420114
 887  50.92675
 888  128.3256
 889  160.0526
 890  171.5247
 891  129.6102
 892  111.1004
 893  91.89813
 894  159.4641
 895  180.7648
 896  146.6844
 897  56.87294
 898  93.66652
 899  214.4717
 900  248.0928
 901  209.3448
 902  224.5589
 903  271.3876
 904  227.9769
 905  111.9273
 906  129.9328
 907  190.3358
 908  142.8197
 909  55.08112
 910  108.3553
 911  150.4877
 912  251.4098
 913  352.0164
 914  360.7274
 915  277.8606
 916  161.2155
 917  380.7548
 918  431.782
 919  351.5033
 920  191.0966
 921  130.8244
 922  155.6867
 923  167.0559
 924  211.6853
 925  285.8937
 926  248.4496
 927  265.0026
 928  200.1354
 929  194.4696
 930  178.5518
 931  266.9959
 932  287.5553
 933  266.9142
 934  214.2204
 935  271.7534
 936  267.7283
 937  268.768
 938  224.5988
 939  213.7178
 940  195.1466
 941  184.5034
 942  107.3225
 943  68.59402
 944  213.5617
 945  349.4929
 946  337.2533
 947  248.3701
 948  183.9751
 949  314.6886
 950  313.7695
 951  306.0176
 952  134.6781
 953  107.1603
 954  121.9994
 955  139.5599
 956  179.3867
 957  181.0455
 958  206.023
 959  196.9561
 960  180.7241
 961  254.5346
 962  319.7808
 963  443.1139
 964  433.3698
 965  272.5955
 966  62.31206
 967  79.36184
 968  242.9706
 969  334.2018
 970  278.366
 971  230.776
 972  203.3336
 973  149.3684
 974  25.32984
 975  25.0435
 976  16.50592
 977  48.8853
 978  -20.25133
 979  46.75725
 980  190.5528
 981  305.6181
 982  365.6465
 983  220.5983
 984  230.0562
 985  248.6081
 986  375.0705
 987  239.8635
 988  63.83475
 989  56.02166
 990  220.8979
 991  342.4988
 992  245.4536
 993  291.1826
 994  302.2441
 995  326.8222
 996  297.5296
 997  184.5358
 998  175.8578
 999  187.0685
1000  418.7798
1001  413.4031
1002  351.7866
1003  272.7279
1004  355.6058
1005  309.732
1006  412.493
1007  479.6491
1008  416.4626
1009  182.4964
1010  176.9585
1011  263.2703
1012  265.3817
1013  110.3914
1014  87.6318
1015  93.46868
1016  102.461
1017  140.6657
1018  192.4145
1019  217.6139
1020  115.2046
1021  82.46668
1022  153.5396
1023  196.4778
