# Input file       =  1189916087.11515_cleaned.dat
# Candidate        =  PSR_0332+5434
# Telescope        =  AR
# Epoch_topo       =  58016.177154110534
# Epoch_bary       =  N/A
# T_sample         =  0.002
# Data Folded      =  7340032
# Data Avg         =  0.025014488814382
# Data StdDev      =  3.0090997999518  
# Profile Bins     =  1024
# Profile Avg      =  179.281532028032 
# Profile StdDev   =  254.762551707093 
# Reduced chi-sqr  =  1.041
# Prob(Noise)      <  0.174   (~0.9 sigma)
# P_topo (ms)      =  714.467929271989  +/- 0.000179
# P'_topo (s/s)    =  -0                +/- 9.42e-11
# P''_topo (s/s^2) =  0                 +/- 4.16e-14
# P_bary (ms)      =  N/A
# P'_bary (s/s)    =  N/A
# P''_bary (s/s^2) =  N/A
# P_orb (s)        =  N/A
# asin(i)/c (s)    =  N/A
# eccentricity     =  N/A
# w (rad)          =  N/A
# T_peri           =  N/A
######################################################
   0  191.4861
   1  83.63453
   2  21.90524
   3  -125.7549
   4  -143.7322
   5  -59.73119
   6  81.59764
   7  206.5117
   8  204.6171
   9  196.6015
  10  139.2683
  11  220.5854
  12  62.69567
  13  62.75106
  14  7.232365
  15  209.8271
  16  256.2636
  17  230.8975
  18  135.0334
  19  131.6776
  20  212.5534
  21  224.7268
  22  250.2586
  23  220.3728
  24  234.8374
  25  178.1671
  26  193.1556
  27  264.9798
  28  290.6783
  29  258.4321
  30  355.4516
  31  459.1964
  32  322.602
  33  136.2106
  34  68.53867
  35  160.624
  36  253.4827
  37  332.7219
  38  282.4688
  39  197.0775
  40  172.7495
  41  223.6622
  42  127.0556
  43  89.24257
  44  114.6762
  45  169.5811
  46  196.3736
  47  145.4773
  48  162.247
  49  176.9119
  50  306.0944
  51  187.9423
  52  177.5123
  53  135.7718
  54  209.9966
  55  194.7492
  56  165.2815
  57  188.4061
  58  122.7035
  59  110.0663
  60  73.95351
  61  110.7122
  62  77.62775
  63  109.8149
  64  197.9433
  65  264.3056
  66  144.005
  67  -1.744128
  68  96.33892
  69  168.784
  70  256.2924
  71  187.626
  72  182.6615
  73  -9.043102
  74  60.46309
  75  119.4729
  76  202.1662
  77  66.68609
  78  100.2434
  79  209.125
  80  249.253
  81  262.3843
  82  200.5375
  83  179.7348
  84  242.1108
  85  357.5669
  86  332.5684
  87  135.7051
  88  -53.39441
  89  -72.93212
  90  56.09597
  91  190.5025
  92  202.2498
  93  37.38253
  94  -16.3056
  95  -10.60744
  96  21.62717
  97  -17.16003
  98  71.68658
  99  102.3177
 100  146.5802
 101  52.57006
 102  111.8324
 103  102.7781
 104  294.0107
 105  207.0782
 106  173.7901
 107  63.8909
 108  201.0426
 109  205.4845
 110  166.359
 111  189.5439
 112  144.7242
 113  18.09163
 114  -67.05515
 115  23.70811
 116  69.10499
 117  121.933
 118  69.2007
 119  138.9468
 120  128.5903
 121  268.5647
 122  237.1275
 123  215.0363
 124  186.561
 125  274.8836
 126  185.2144
 127  163.569
 128  145.032
 129  164.5404
 130  312.8254
 131  358.7414
 132  409.8206
 133  403.2714
 134  352.6301
 135  387.5124
 136  251.9271
 137  153.2006
 138  72.63306
 139  161.6029
 140  197.5836
 141  120.6904
 142  43.54036
 143  4.992494
 144  14.45012
 145  49.02203
 146  -0.9088876
 147  -88.71104
 148  -183.9094
 149  -47.70222
 150  100.562
 151  227.7781
 152  272.1813
 153  320.5799
 154  329.3093
 155  270.5146
 156  147.5237
 157  250.1779
 158  235.4209
 159  207.4774
 160  176.4778
 161  240.9004
 162  305.824
 163  282.4758
 164  265.3455
 165  238.5887
 166  212.7096
 167  281.1565
 168  239.335
 169  133.3579
 170  -5.723046
 171  114.0171
 172  309.5267
 173  301.944
 174  271.5187
 175  291.754
 176  359.0114
 177  291.3021
 178  191.3848
 179  184.255
 180  216.7084
 181  213.5174
 182  192.5172
 183  212.546
 184  110.8668
 185  39.05593
 186  86.63148
 187  172.3161
 188  128.5862
 189  3.581358
 190  -34.08592
 191  40.92892
 192  106.0435
 193  74.29742
 194  215.2868
 195  267.3804
 196  340.7675
 197  195.5187
 198  180.8468
 199  247.3297
 200  373.4989
 201  316.0104
 202  185.9883
 203  47.10029
 204  33.71653
 205  45.64418
 206  105.2617
 207  168.209
 208  291.7214
 209  322.7803
 210  276.6005
 211  0.4647747
 212  -156.1574
 213  -37.26748
 214  77.46582
 215  213.924
 216  197.536
 217  374.5175
 218  327.915
 219  231.4529
 220  99.28726
 221  99.58432
 222  313.3594
 223  397.6617
 224  403.6938
 225  189.7027
 226  -8.064093
 227  73.62791
 228  181.4867
 229  345.2993
 230  144.2271
 231  220.2222
 232  82.36738
 233  2.511053
 234  -13.06826
 235  24.34954
 236  29.2463
 237  -30.40429
 238  40.35727
 239  164.284
 240  102.7998
 241  -29.22967
 242  -40.05685
 243  135.9823
 244  215.1398
 245  203.0008
 246  68.24031
 247  130.2727
 248  105.4026
 249  183.6396
 250  137.1024
 251  249.7059
 252  272.7717
 253  376.836
 254  337.6725
 255  200.6893
 256  111.5002
 257  89.00881
 258  254.6088
 259  209.633
 260  250.5301
 261  241.1302
 262  330.5657
 263  326.2007
 264  486.9528
 265  421.6435
 266  293.2879
 267  153.6931
 268  190.4338
 269  184.1246
 270  10.90207
 271  -7.971366
 272  133.8904
 273  347.1058
 274  285.4371
 275  169.1537
 276  167.7146
 277  168.1592
 278  82.05148
 279  -57.86075
 280  44.30462
 281  279.165
 282  368.6694
 283  215.6796
 284  2.030528
 285  -32.19803
 286  56.73085
 287  81.10872
 288  109.1496
 289  115.2083
 290  136.9958
 291  150.6059
 292  204.3332
 293  116.4065
 294  25.05296
 295  -95.29751
 296  -30.67396
 297  -1.748156
 298  105.2246
 299  269.0274
 300  233.542
 301  137.6357
 302  81.02263
 303  189.8678
 304  173.2655
 305  129.5815
 306  54.39641
 307  -38.03647
 308  -12.19851
 309  266.9465
 310  340.8697
 311  365.0597
 312  271.4879
 313  196.6603
 314  151.0072
 315  54.73879
 316  91.01283
 317  9.494098
 318  115.6044
 319  207.9008
 320  187.8668
 321  123.0057
 322  117.39
 323  213.181
 324  95.60242
 325  27.28813
 326  -8.478779
 327  90.88934
 328  172.7827
 329  191.9704
 330  153.1836
 331  130.3305
 332  120.5392
 333  45.86159
 334  -126.3657
 335  -47.04664
 336  212.9341
 337  460.8223
 338  533.7889
 339  349.6966
 340  240.9446
 341  119.2196
 342  252.3954
 343  318.7384
 344  420.842
 345  229.9467
 346  102.4623
 347  126.3257
 348  231.5799
 349  335.8018
 350  298.0471
 351  232.4758
 352  181.4492
 353  109.0582
 354  192.3363
 355  200.9185
 356  172.9956
 357  2.016078
 358  -4.756337
 359  62.53973
 360  200.5025
 361  211.959
 362  335.2855
 363  263.0843
 364  156.8654
 365  -133.7194
 366  -135.5435
 367  -79.47713
 368  112.8411
 369  153.9175
 370  70.7196
 371  93.19405
 372  220.5997
 373  323.7379
 374  240.1803
 375  106.3081
 376  43.30457
 377  21.19654
 378  -0.7235894
 379  13.66397
 380  106.295
 381  259.6234
 382  314.4252
 383  329.4081
 384  289.6176
 385  263.2371
 386  64.16352
 387  2.653281
 388  43.03857
 389  48.8905
 390  91.1702
 391  184.9675
 392  203.4295
 393  212.4448
 394  225.5645
 395  225.3345
 396  199.2412
 397  207.4743
 398  329.8553
 399  265.2565
 400  213.7563
 401  117.2742
 402  148.9136
 403  162.8992
 404  171.9897
 405  79.06084
 406  41.24049
 407  65.10625
 408  229.0008
 409  327.6373
 410  237.8229
 411  211.2511
 412  154.1544
 413  173.2873
 414  63.05951
 415  31.18594
 416  103.1419
 417  175.6643
 418  190.1165
 419  197.6253
 420  193.0345
 421  99.56114
 422  222.3908
 423  355.9561
 424  508.9
 425  381.656
 426  193.1047
 427  162.9861
 428  152.4064
 429  228.4215
 430  250.6987
 431  388.2336
 432  198.0917
 433  159.1953
 434  64.36243
 435  195.1542
 436  169.8428
 437  173.9286
 438  191.5965
 439  203.2506
 440  77.9306
 441  172.9071
 442  294.1804
 443  493.0097
 444  365.9336
 445  402.2119
 446  406.4205
 447  372.1172
 448  250.3891
 449  313.6596
 450  405.49
 451  384.645
 452  383.8112
 453  302.0998
 454  323.8147
 455  337.2039
 456  322.3947
 457  263.6076
 458  143.3649
 459  115.8492
 460  161.1265
 461  184.3353
 462  330.6786
 463  365.6459
 464  389.7371
 465  326.1415
 466  383.9564
 467  345.7073
 468  352.5992
 469  285.8235
 470  255.7262
 471  97.49762
 472  106.4068
 473  213.2394
 474  197.4766
 475  44.23612
 476  -127.4235
 477  -145.9541
 478  -158.9056
 479  42.13379
 480  134.2398
 481  281.7019
 482  245.387
 483  343.7638
 484  383.0726
 485  447.0619
 486  436.0192
 487  455.6633
 488  408.1241
 489  260.8549
 490  106.7202
 491  66.56098
 492  130.6663
 493  334.5354
 494  200.0311
 495  201.181
 496  56.10691
 497  10.46136
 498  -84.71516
 499  -41.63388
 500  17.56648
 501  32.41307
 502  19.99882
 503  173.2207
 504  90.37988
 505  113.1471
 506  83.05699
 507  188.558
 508  37.00436
 509  -16.00617
 510  16.11236
 511  88.29899
 512  101.2626
 513  116.5369
 514  233.0781
 515  32.96717
 516  41.95861
 517  7.185156
 518  45.32193
 519  91.69498
 520  203.7191
 521  384.2837
 522  370.8311
 523  368.513
 524  365.0405
 525  301.8475
 526  258.7496
 527  151.7196
 528  65.2517
 529  16.76257
 530  -7.795451
 531  127.1096
 532  69.33403
 533  51.26714
 534  -44.26041
 535  121.7208
 536  110.5086
 537  143.9023
 538  41.83162
 539  136.9716
 540  29.55126
 541  81.50435
 542  115.5155
 543  251.1935
 544  195.988
 545  240.0705
 546  296.8709
 547  255.1113
 548  189.0586
 549  69.42536
 550  49.68938
 551  96.33356
 552  240.9024
 553  359.6732
 554  308.5261
 555  235.3643
 556  120.2235
 557  94.42519
 558  157.1787
 559  264.254
 560  419.0154
 561  468.4646
 562  460.8452
 563  376.1404
 564  248.2083
 565  355.7757
 566  334.8398
 567  365.4531
 568  208.8241
 569  107.668
 570  -53.92868
 571  -107.2309
 572  -3.211938
 573  30.19754
 574  19.64815
 575  15.18795
 576  152.2123
 577  164.7305
 578  205.4083
 579  136.4327
 580  3.125728
 581  60.3579
 582  163.6961
 583  351.8882
 584  311.3259
 585  310.7756
 586  190.3993
 587  125.8743
 588  70.48038
 589  87.89723
 590  99.19384
 591  169.4647
 592  291.59
 593  225.4982
 594  309.1961
 595  174.8619
 596  111.277
 597  -41.71741
 598  -43.34965
 599  44.73758
 600  31.94007
 601  35.02769
 602  45.84724
 603  177.3428
 604  245.4545
 605  224.4076
 606  152.1145
 607  195.9998
 608  224.719
 609  226.8796
 610  281.7773
 611  281.023
 612  337.7252
 613  254.2183
 614  266.275
 615  207.847
 616  225.2619
 617  299.2538
 618  360.1461
 619  362.2462
 620  280.9442
 621  144.47
 622  216.4212
 623  304.0615
 624  414.1595
 625  321.0367
 626  294.9225
 627  412.2559
 628  415.1344
 629  364.8246
 630  467.7114
 631  521.1161
 632  462.5895
 633  323.5107
 634  336.9973
 635  459.601
 636  475.8052
 637  620.5931
 638  656.1434
 639  684.8148
 640  777.9063
 641  1045.22
 642  1069.61
 643  996.9464
 644  761.6289
 645  757.0414
 646  642.4205
 647  584.8538
 648  500.8807
 649  409.683
 650  367.038
 651  253.8735
 652  160.7299
 653  55.59063
 654  74.3037
 655  115.6331
 656  204.2507
 657  212.7096
 658  207.2882
 659  104.2354
 660  122.0691
 661  128.6688
 662  170.3555
 663  147.8362
 664  236.2941
 665  245.2278
 666  259.817
 667  223.2299
 668  160.9253
 669  253.4673
 670  271.1582
 671  287.0318
 672  236.5478
 673  185.0424
 674  219.0529
 675  125.4719
 676  238.7615
 677  313.6795
 678  365.6884
 679  236.7785
 680  197.6244
 681  65.71335
 682  202.3555
 683  90.71287
 684  190.645
 685  188.0874
 686  396.6732
 687  382.5888
 688  198.0527
 689  94.64603
 690  10.30718
 691  -67.84201
 692  -55.08959
 693  -73.10748
 694  182.85
 695  167.6476
 696  259.5169
 697  110.9827
 698  127.3395
 699  252.3806
 700  230.2851
 701  127.1141
 702  63.63333
 703  112.1394
 704  166.7782
 705  149.1376
 706  180.1146
 707  226.3504
 708  171.1204
 709  -148.4661
 710  -200.7222
 711  -239.5264
 712  11.56822
 713  13.19741
 714  44.70184
 715  97.54521
 716  143.692
 717  159.3366
 718  226.8517
 719  191.8807
 720  149.1479
 721  5.634525
 722  49.61898
 723  185.0837
 724  347.8596
 725  328.015
 726  211.7006
 727  27.93716
 728  15.47064
 729  -73.9003
 730  -163.7962
 731  -169.0441
 732  22.08199
 733  149.3242
 734  74.01245
 735  35.10828
 736  162.2459
 737  409.515
 738  435.355
 739  412.057
 740  295.6156
 741  328.8345
 742  300.6897
 743  194.5302
 744  81.34608
 745  38.70203
 746  -16.50569
 747  -87.57564
 748  -24.42568
 749  134.5667
 750  140.2196
 751  104.2405
 752  98.91882
 753  331.0807
 754  495.6617
 755  360.248
 756  216.2654
 757  137.0767
 758  196.5668
 759  211.1713
 760  172.399
 761  302.9562
 762  302.8446
 763  316.961
 764  275.3526
 765  286.8984
 766  264.5012
 767  241.306
 768  313.8665
 769  243.7755
 770  210.2747
 771  -12.33001
 772  72.58627
 773  54.37449
 774  138.7109
 775  198.3401
 776  293.4058
 777  344.0177
 778  329.9385
 779  324.5382
 780  235.1279
 781  305.5896
 782  330.0898
 783  331.9458
 784  149.4995
 785  24.62813
 786  30.78835
 787  -39.03812
 788  -171.9661
 789  -252.162
 790  -157.5992
 791  13.60454
 792  251.562
 793  278.3075
 794  245.6181
 795  78.06348
 796  51.89045
 797  16.84782
 798  -65.70653
 799  -20.12473
 800  45.08932
 801  159.0054
 802  176.3524
 803  179.9419
 804  213.5485
 805  261.913
 806  319.789
 807  356.0787
 808  239.3447
 809  103.3552
 810  51.84909
 811  195.6173
 812  217.2276
 813  278.2673
 814  187.1635
 815  97.33348
 816  -45.14132
 817  14.72647
 818  167.7604
 819  184.6313
 820  81.89018
 821  194.4908
 822  346.4674
 823  485.2203
 824  254.1453
 825  168.377
 826  155.2317
 827  107.2045
 828  47.80939
 829  64.29875
 830  260.0534
 831  294.8679
 832  187.3894
 833  108.0959
 834  96.69213
 835  170.4106
 836  307.1659
 837  252.3255
 838  271.2184
 839  64.12486
 840  227.7578
 841  127.8942
 842  268.6071
 843  204.2148
 844  303.0378
 845  344.4866
 846  366.1091
 847  343.6894
 848  277.3157
 849  201.152
 850  182.8174
 851  197.2314
 852  269.7462
 853  283.5531
 854  212.7455
 855  196.774
 856  163.3125
 857  79.0107
 858  -41.73996
 859  -127.7895
 860  34.465
 861  214.9312
 862  311.4342
 863  303.0777
 864  177.1875
 865  128.2366
 866  57.77301
 867  127.2335
 868  47.60442
 869  -98.40947
 870  -137.9441
 871  27.79805
 872  86.37946
 873  -20.02188
 874  -75.51299
 875  -68.65286
 876  -49.66966
 877  -12.8552
 878  68.49618
 879  156.2014
 880  85.9529
 881  106.9905
 882  209.6383
 883  345.4894
 884  293.6258
 885  194.6309
 886  122.9055
 887  162.6772
 888  345.323
 889  419.2372
 890  353.8972
 891  171.313
 892  85.28551
 893  215.6773
 894  170.2033
 895  119.9373
 896  75.19325
 897  163.0238
 898  193.2195
 899  219.2344
 900  235.8635
 901  229.4184
 902  205.9734
 903  232.0442
 904  191.2661
 905  66.77665
 906  69.76363
 907  156.241
 908  316.1548
 909  416.2767
 910  358.5534
 911  315.1552
 912  151.696
 913  63.52878
 914  130.7352
 915  197.7984
 916  207.4835
 917  249.2267
 918  203.8394
 919  253.5975
 920  113.1865
 921  145.5218
 922  76.11101
 923  35.42584
 924  24.39946
 925  158.0594
 926  327.2168
 927  361.6613
 928  360.1708
 929  291.701
 930  212.1981
 931  180.3807
 932  132.8528
 933  174.7752
 934  191.3919
 935  262.219
 936  199.8425
 937  230.8768
 938  91.83479
 939  203.1692
 940  213.8157
 941  354.021
 942  197.6447
 943  173.2707
 944  212.2399
 945  212.5798
 946  278.8824
 947  282.5822
 948  385.2631
 949  316.761
 950  141.2059
 951  -87.77696
 952  -154.1503
 953  -20.4838
 954  142.2884
 955  179.1314
 956  172.5883
 957  224.4129
 958  242.3523
 959  233.5683
 960  130.2517
 961  22.76191
 962  -3.298193
 963  -42.18936
 964  25.7711
 965  102.0056
 966  24.04084
 967  78.72945
 968  216.8955
 969  340.9915
 970  356.9082
 971  316.7053
 972  349.1082
 973  391.8235
 974  358.8944
 975  353.1618
 976  82.36522
 977  -72.61787
 978  -4.707245
 979  183.9708
 980  217.3273
 981  49.76708
 982  66.77066
 983  139.7515
 984  253.2979
 985  255.2664
 986  237.0128
 987  220.8911
 988  129.052
 989  18.34469
 990  -44.94227
 991  84.44956
 992  124.048
 993  161.6511
 994  191.0006
 995  359.5967
 996  347.7946
 997  303.1222
 998  185.395
 999  170.1795
1000  23.37358
1001  116.6132
1002  132.2605
1003  203.0341
1004  134.7922
1005  183.6003
1006  129.2975
1007  54.21765
1008  79.46223
1009  98.94064
1010  172.5376
1011  108.2384
1012  113.2589
1013  147.9742
1014  171.6127
1015  204.4075
1016  237.6434
1017  141.8451
1018  96.54395
1019  89.78008
1020  186.8738
1021  145.9425
1022  173.9245
1023  129.2126
