# Input file       =  1189485312.127878_cleaned.dat
# Candidate        =  PSR_0332+5434
# Telescope        =  AR
# Epoch_topo       =  58011.191332498587
# Epoch_bary       =  N/A
# T_sample         =  0.002
# Data Folded      =  7340032
# Data Avg         =  0.02853479127225 
# Data StdDev      =  3.05708585726135 
# Profile Bins     =  512
# Profile Avg      =  409.156507475377 
# Profile StdDev   =  366.03417215437  
# Reduced chi-sqr  =  1.313
# Prob(Noise)      <  2.35e-06   (~4.6 sigma)
# P_topo (ms)      =  714.466269988822  +/- 0.000143
# P'_topo (s/s)    =  -0                +/- 7.54e-11
# P''_topo (s/s^2) =  0                 +/- 3.33e-14
# P_bary (ms)      =  N/A
# P'_bary (s/s)    =  N/A
# P''_bary (s/s^2) =  N/A
# P_orb (s)        =  N/A
# asin(i)/c (s)    =  N/A
# eccentricity     =  N/A
# w (rad)          =  N/A
# T_peri           =  N/A
######################################################
   0  364.0227
   1  511.8753
   2  781.7241
   3  790.5043
   4  394.0431
   5  387.0646
   6  463.0045
   7  561.2043
   8  303.9466
   9  857.2239
  10  571.8087
  11  664.8216
  12  574.2144
  13  389.8441
  14  560.0002
  15  746.7302
  16  -68.50507
  17  -21.08725
  18  363.1952
  19  651.0331
  20  212.3287
  21  510.8648
  22  397.6718
  23  385.8409
  24  250.2161
  25  505.7592
  26  670.1531
  27  278.5876
  28  -13.88873
  29  132.2986
  30  375.6213
  31  303.6973
  32  -54.12027
  33  56.749
  34  627.36
  35  673.0538
  36  977.501
  37  957.7672
  38  470.5372
  39  527.3564
  40  110.1101
  41  216.7981
  42  453.7874
  43  701.2167
  44  570.9784
  45  409.587
  46  339.4033
  47  199.272
  48  -219.0333
  49  46.12583
  50  311.9472
  51  67.61379
  52  337.3649
  53  428.6732
  54  215.9939
  55  216.9044
  56  202.7316
  57  103.3707
  58  170.6581
  59  58.09949
  60  144.08
  61  230.2814
  62  455.8001
  63  590.9934
  64  898.7468
  65  365.6334
  66  775.8983
  67  647.4729
  68  678.2087
  69  586.9127
  70  291.3332
  71  413.2616
  72  595.2418
  73  40.74907
  74  345.035
  75  307.0467
  76  567.3416
  77  704.3553
  78  422.9542
  79  420.891
  80  387.9376
  81  429.0723
  82  894.9609
  83  677.7686
  84  237.2448
  85  379.9429
  86  386.1646
  87  315.5658
  88  723.281
  89  379.4756
  90  713.4085
  91  766.845
  92  413.8255
  93  541.1442
  94  495.2385
  95  413.0503
  96  500.4315
  97  456.6663
  98  235.5987
  99  255.2403
 100  174.5586
 101  334.9448
 102  430.2061
 103  192.4027
 104  537.3049
 105  426.7164
 106  514.8806
 107  438.3068
 108  452.5244
 109  457.9547
 110  283.3979
 111  700.7836
 112  507.5311
 113  352.2731
 114  561.0997
 115  247.7784
 116  294.8172
 117  461.3593
 118  430.6537
 119  257.4553
 120  294.0351
 121  314.3792
 122  618.2291
 123  732.6062
 124  804.5543
 125  365.4926
 126  175.7121
 127  242.4928
 128  390.8224
 129  188.1229
 130  629.9157
 131  323.5934
 132  361.5231
 133  757.1469
 134  452.4031
 135  453.5656
 136  1038.546
 137  837.1872
 138  843.1735
 139  1081.574
 140  955.1631
 141  482.7489
 142  102.8118
 143  596.6713
 144  896.3961
 145  706.6858
 146  555.3823
 147  606.2663
 148  705
 149  461.3846
 150  356.0997
 151  458.407
 152  354.3767
 153  184.4635
 154  123.4893
 155  267.8188
 156  235.1766
 157  675.2759
 158  897.2501
 159  389.6722
 160  312.3203
 161  494.0824
 162  349.7405
 163  316.9374
 164  265.4407
 165  440.0968
 166  561.3166
 167  274.5173
 168  461.8618
 169  833.2505
 170  435.1908
 171  113.6098
 172  147.1265
 173  519.5461
 174  826.9536
 175  531.6387
 176  617.8098
 177  639.4119
 178  713.2902
 179  374.4545
 180  429.9442
 181  -256.2503
 182  90.6814
 183  192.0558
 184  719.4619
 185  453.2329
 186  423.0295
 187  674.6683
 188  548.2012
 189  703.9131
 190  516.4351
 191  754.2889
 192  558.6906
 193  75.34266
 194  279.1408
 195  314.9388
 196  197.483
 197  11.19539
 198  409.8154
 199  684.4882
 200  491.6635
 201  260.2269
 202  360.4378
 203  949.1395
 204  627.8062
 205  315.067
 206  570.6512
 207  752.9827
 208  502.0791
 209  413.9997
 210  596.8507
 211  329.5408
 212  -34.05578
 213  310.2515
 214  208.5537
 215  303.9854
 216  441.8965
 217  290.1207
 218  -29.97352
 219  149.3715
 220  447.4602
 221  384.3476
 222  584.1638
 223  481.8761
 224  505.6545
 225  117.9511
 226  222.8969
 227  256.9367
 228  306.1119
 229  452.351
 230  -271.4502
 231  57.91203
 232  611.5416
 233  313.5468
 234  389.391
 235  148.7327
 236  242.5725
 237  261.4202
 238  -19.74834
 239  233.2261
 240  422.308
 241  686.9799
 242  573.3565
 243  383.943
 244  363.6635
 245  378.684
 246  210.5397
 247  213.3796
 248  279.4074
 249  402.805
 250  666.2175
 251  212.1902
 252  -101.7194
 253  445.4316
 254  386.882
 255  72.82477
 256  -224.728
 257  226.5867
 258  279.7821
 259  253.6265
 260  619.7913
 261  140.8212
 262  356.0298
 263  554.5235
 264  320.0571
 265  52.26142
 266  -296.8437
 267  263.6142
 268  288.3721
 269  82.45947
 270  21.86218
 271  -126.364
 272  486.406
 273  837.5562
 274  666.6478
 275  131.9743
 276  456.6508
 277  715.9867
 278  678.5968
 279  211.1537
 280  346.382
 281  308.9795
 282  23.71682
 283  212.6295
 284  194.6287
 285  323.1062
 286  624.7493
 287  612.3387
 288  241.552
 289  70.80927
 290  308.1674
 291  519.1959
 292  484.2779
 293  528.8798
 294  96.74738
 295  -211.2455
 296  1.400575
 297  60.8671
 298  -168.2271
 299  238.641
 300  203.0598
 301  535.21
 302  542.8359
 303  411.8706
 304  534.8212
 305  108.7992
 306  -193.9518
 307  -311.8371
 308  316.5427
 309  163.4023
 310  51.23144
 311  182.3169
 312  517.8551
 313  539.8726
 314  227.8182
 315  116.0247
 316  479.596
 317  524.3945
 318  751.8793
 319  1201.125
 320  1752.168
 321  2213.66
 322  2310.575
 323  2301.096
 324  1200.447
 325  736.9054
 326  769.5796
 327  540.462
 328  73.55408
 329  140.7184
 330  198.9079
 331  251.4935
 332  104.6173
 333  128.642
 334  677.8589
 335  425.5794
 336  132.2933
 337  384.8902
 338  653.9471
 339  426.3753
 340  135.8183
 341  331.2694
 342  170.5724
 343  128.9541
 344  627.8456
 345  750.3942
 346  183.2406
 347  186.3278
 348  32.43759
 349  -85.92708
 350  453.1937
 351  781.7019
 352  742.5782
 353  219.6513
 354  724.6639
 355  661.7897
 356  342.2256
 357  354.2483
 358  552.6594
 359  449.6666
 360  338.3016
 361  424.8284
 362  649.7199
 363  661.6589
 364  639.5088
 365  617.4672
 366  250.8782
 367  157.0681
 368  592.0962
 369  488.117
 370  351.0531
 371  67.84033
 372  230.7703
 373  395.1745
 374  488.345
 375  558.4337
 376  325.8734
 377  399.1178
 378  140.4708
 379  -143.5579
 380  193.6161
 381  448.4591
 382  728.5901
 383  191.2429
 384  208.7432
 385  689.9822
 386  511.1517
 387  438.9156
 388  195.789
 389  629.9641
 390  383.4484
 391  354.4721
 392  546.9243
 393  319.7255
 394  -57.48631
 395  202.8513
 396  299.4808
 397  546.3274
 398  510.4842
 399  402.6498
 400  248.5146
 401  224.1603
 402  22.31458
 403  516.8491
 404  615.5884
 405  618.7899
 406  453.2705
 407  64.36327
 408  477.364
 409  604.2641
 410  1107.344
 411  995.6385
 412  353.1798
 413  472.3581
 414  512.0833
 415  666.7657
 416  733.2825
 417  341.2818
 418  190.6991
 419  458.1949
 420  431.985
 421  590.7089
 422  415.8257
 423  750.6263
 424  555.2153
 425  74.92664
 426  709.6027
 427  920.1875
 428  504.7946
 429  342.5304
 430  244.3151
 431  872.6779
 432  844.7187
 433  1150.729
 434  850.9313
 435  908.4008
 436  432.202
 437  277.9304
 438  218.7753
 439  888.2383
 440  543.5479
 441  -79.11977
 442  0.6083384
 443  111.1203
 444  623.3127
 445  511.7014
 446  -134.1157
 447  -73.44839
 448  7.226298
 449  625.8315
 450  743.8487
 451  272.5257
 452  134.0269
 453  -10.92557
 454  151.6402
 455  624.164
 456  763.3538
 457  307.4392
 458  -4.836537
 459  70.73815
 460  338.6968
 461  144.433
 462  -232.7289
 463  38.43621
 464  466.2974
 465  754.062
 466  753.7249
 467  405.9966
 468  362.0068
 469  385.0862
 470  221.0492
 471  404.4926
 472  683.2647
 473  1081.778
 474  848.4449
 475  618.9948
 476  400.9264
 477  270.7826
 478  256.6043
 479  118.362
 480  187.6865
 481  -156.1423
 482  -148.0704
 483  -361.5522
 484  269.1413
 485  417.7118
 486  405.2908
 487  599.7013
 488  490.7619
 489  457.6829
 490  428.4275
 491  458.9547
 492  217.1176
 493  76.46053
 494  292.0973
 495  459.326
 496  400.9991
 497  400.602
 498  613.5834
 499  572.5802
 500  371.0838
 501  460.1925
 502  606.7886
 503  202.8111
 504  330.0755
 505  476.5894
 506  460.1691
 507  187.9294
 508  230.2929
 509  148.6848
 510  -24.37353
 511  286.6578
