# Input file       =  1189226738.107004_cleaned.dat
# Candidate        =  PSR_0332+5434
# Telescope        =  AR
# Epoch_topo       =  58008.198577627358
# Epoch_bary       =  N/A
# T_sample         =  0.002
# Data Folded      =  7340032
# Data Avg         =  0.0231071063462878
# Data StdDev      =  2.9229618683735  
# Profile Bins     =  1024
# Profile Avg      =  165.603806440733 
# Profile StdDev   =  247.469766254112 
# Reduced chi-sqr  =  1.315
# Prob(Noise)      <  4e-11   (~6.5 sigma)
# P_topo (ms)      =  714.465478410971  +/- 8.97e-05
# P'_topo (s/s)    =  -0                +/- 4.73e-11
# P''_topo (s/s^2) =  0                 +/- 2.09e-14
# P_bary (ms)      =  N/A
# P'_bary (s/s)    =  N/A
# P''_bary (s/s^2) =  N/A
# P_orb (s)        =  N/A
# asin(i)/c (s)    =  N/A
# eccentricity     =  N/A
# w (rad)          =  N/A
# T_peri           =  N/A
######################################################
   0  157.2307
   1  158.9053
   2  165.6439
   3  230.7956
   4  350.2712
   5  318.0601
   6  232.0496
   7  205.2098
   8  151.7976
   9  291.4396
  10  217.6345
  11  143.7473
  12  -50.09852
  13  -103.6064
  14  -109.6486
  15  -60.46728
  16  87.74052
  17  187.4118
  18  98.08802
  19  16.04806
  20  93.51893
  21  340.4228
  22  331.6543
  23  153.3931
  24  -0.8386726
  25  117.3887
  26  167.0927
  27  311.9427
  28  218.0943
  29  80.35643
  30  -39.96212
  31  -46.08617
  32  -120.8036
  33  -227.0246
  34  -96.54962
  35  93.14877
  36  167.4987
  37  191.337
  38  162.574
  39  180.5186
  40  128.4923
  41  128.8104
  42  192.3161
  43  194.1544
  44  188.1883
  45  94.57504
  46  60.23755
  47  55.30105
  48  99.93572
  49  81.44297
  50  146.8127
  51  233.5036
  52  206.3201
  53  95.85073
  54  -13.40895
  55  0.5135326
  56  64.38472
  57  90.0921
  58  217.1065
  59  104.2247
  60  117.6193
  61  180.6181
  62  281.5201
  63  30.27127
  64  -292.1219
  65  -286.3564
  66  -34.11893
  67  80.995
  68  146.9579
  69  239.649
  70  151.1431
  71  56.55851
  72  -8.817003
  73  6.433364
  74  89.82806
  75  105.6648
  76  131.3503
  77  88.19448
  78  146.8655
  79  162.7506
  80  135.3797
  81  110.6389
  82  210.0727
  83  253.3881
  84  108.5492
  85  62.54899
  86  109.0663
  87  191.2353
  88  138.985
  89  137.5423
  90  142.6507
  91  134.7564
  92  143.2498
  93  196.9155
  94  227.5796
  95  218.4619
  96  159.1933
  97  -83.23856
  98  -72.48415
  99  80.08714
 100  282.182
 101  286.947
 102  257.8473
 103  235.6997
 104  233.8216
 105  136.436
 106  75.97654
 107  -65.22424
 108  8.202369
 109  139.9795
 110  230.8184
 111  169.0471
 112  197.8818
 113  215.3348
 114  241.7002
 115  125.3681
 116  32.64786
 117  66.81783
 118  116.7456
 119  145.3708
 120  175.549
 121  92.71437
 122  69.77866
 123  142.7249
 124  353.4614
 125  310.5801
 126  187.7013
 127  122.6031
 128  227.0383
 129  169.9582
 130  229.0831
 131  241.3744
 132  177.6968
 133  190.7145
 134  106.925
 135  128.7187
 136  44.61209
 137  148.0446
 138  132.8963
 139  135.8714
 140  243.0395
 141  401.0448
 142  321.5652
 143  181.7512
 144  124.1282
 145  145.3271
 146  213.1494
 147  228.4366
 148  243.0502
 149  23.19393
 150  -42.42227
 151  -134.7423
 152  14.66697
 153  100.478
 154  193.2625
 155  156.7364
 156  -3.191508
 157  -82.9257
 158  -1.147404
 159  48.08401
 160  52.59706
 161  24.89844
 162  30.66372
 163  36.31176
 164  -11.62527
 165  83.87276
 166  173.1301
 167  218.1029
 168  -1.253773
 169  -77.69779
 170  -42.26154
 171  20.39732
 172  140.2382
 173  137.8746
 174  182.1405
 175  275.7451
 176  254.8574
 177  280.6747
 178  194.1666
 179  310.8345
 180  202.894
 181  66.60416
 182  -43.74145
 183  -24.52671
 184  -117.0058
 185  -60.38108
 186  53.36547
 187  223.2553
 188  183.9837
 189  70.61282
 190  -26.38418
 191  93.56942
 192  234.9273
 193  312.4639
 194  302.3579
 195  164.8615
 196  147.1569
 197  191.4879
 198  295.9389
 199  297.4232
 200  188.8464
 201  99.00873
 202  38.80603
 203  73.51618
 204  50.13707
 205  57.531
 206  -6.143071
 207  50.45311
 208  38.77033
 209  32.22808
 210  44.63036
 211  46.51633
 212  119.6195
 213  181.5947
 214  355.5256
 215  317.8645
 216  327.8483
 217  312.727
 218  284.1685
 219  156.8058
 220  89.48521
 221  22.92259
 222  132.2454
 223  230.0299
 224  224.955
 225  225.8485
 226  185.571
 227  249.6474
 228  223.9095
 229  193.6197
 230  126.6891
 231  167.2827
 232  283.4278
 233  295.0526
 234  252.5857
 235  265.6614
 236  194.2958
 237  45.60457
 238  132.1585
 239  154.8124
 240  324.3931
 241  205.9656
 242  168.7287
 243  -105.287
 244  -137.4616
 245  -18.57539
 246  184.3009
 247  211.1069
 248  187.252
 249  280.1998
 250  304.6825
 251  396.6628
 252  295.0364
 253  206.2942
 254  77.93832
 255  41.06519
 256  102.0293
 257  148.5917
 258  215.0194
 259  147.8219
 260  122.5627
 261  108.2395
 262  91.72863
 263  -28.32847
 264  -59.88071
 265  128.1093
 266  184.0903
 267  230.1023
 268  241.0849
 269  339.9295
 270  341.9337
 271  363.5452
 272  283.7969
 273  217.4691
 274  184.5363
 275  196.6584
 276  67.04942
 277  100.0702
 278  154.1144
 279  222.7333
 280  56.38303
 281  130.9831
 282  269.1443
 283  336.1456
 284  185.4958
 285  86.3237
 286  153.4887
 287  244.362
 288  143.6214
 289  24.45327
 290  -126.9348
 291  -79.78979
 292  29.14652
 293  125.1762
 294  40.95819
 295  -27.77928
 296  -46.27535
 297  37.66772
 298  -16.22698
 299  23.77039
 300  121.7212
 301  182.3674
 302  103.5027
 303  35.41599
 304  -32.42656
 305  40.99266
 306  70.7384
 307  318.7593
 308  407.6378
 309  377.3064
 310  176.801
 311  154.3228
 312  223.0775
 313  154.6616
 314  52.65247
 315  69.11237
 316  187.1078
 317  114.2701
 318  9.395674
 319  83.19572
 320  226.2
 321  276.7433
 322  319.4935
 323  218.4298
 324  153.5203
 325  78.16295
 326  90.22166
 327  154.2221
 328  125.9262
 329  136.6883
 330  142.1802
 331  226.8725
 332  183.9656
 333  40.89495
 334  -4.751065
 335  54.70493
 336  -5.544696
 337  -44.59186
 338  -117.1402
 339  -32.33987
 340  153.8313
 341  225.9897
 342  155.1682
 343  -50.99899
 344  141.5138
 345  281.162
 346  289.4739
 347  159.5023
 348  78.49818
 349  92.65211
 350  37.62969
 351  -21.35916
 352  36.10041
 353  14.45709
 354  82.19994
 355  2.369764
 356  48.84755
 357  91.49165
 358  157.1608
 359  316.0009
 360  336.5775
 361  322.6134
 362  94.83616
 363  -92.4072
 364  -134.7349
 365  -47.04097
 366  43.74367
 367  67.49193
 368  92.87044
 369  35.05273
 370  88.83711
 371  156.0381
 372  301.9528
 373  350.7071
 374  202.0772
 375  120.1984
 376  44.7632
 377  172.6417
 378  81.9666
 379  105.3739
 380  176.1721
 381  303.3763
 382  274.4195
 383  223.885
 384  75.84937
 385  -38.10864
 386  -6.1236
 387  121.3077
 388  158.047
 389  187.8392
 390  186.9858
 391  272.3083
 392  205.4273
 393  91.27053
 394  -8.780787
 395  -8.830194
 396  -27.17632
 397  139.142
 398  216.8595
 399  222.1818
 400  120.8762
 401  146.4904
 402  19.86791
 403  -28.03001
 404  -43.08555
 405  161.5715
 406  220.5026
 407  137.3709
 408  101.8763
 409  75.72408
 410  233.6749
 411  244.1169
 412  282.1881
 413  108.655
 414  56.44714
 415  92.44369
 416  258.6779
 417  387.8603
 418  393.4408
 419  335.2783
 420  161.5417
 421  38.72975
 422  25.02032
 423  120.6928
 424  187.256
 425  83.9568
 426  -31.28435
 427  33.7901
 428  116.0429
 429  201.245
 430  81.50533
 431  125.9139
 432  74.7326
 433  133.6782
 434  149.8542
 435  208.1925
 436  216.1712
 437  154.7832
 438  195.5591
 439  250.7761
 440  240.0653
 441  228.9213
 442  199.6943
 443  418.3256
 444  335.3118
 445  301.5662
 446  93.5886
 447  143.1194
 448  221.4346
 449  240.1748
 450  130.08
 451  116.2149
 452  221.6803
 453  275.4588
 454  286.5174
 455  267.9257
 456  346.5856
 457  259.355
 458  246.6583
 459  206.4791
 460  199.3238
 461  157.8414
 462  173.6476
 463  116.2917
 464  57.36103
 465  63.96063
 466  205.3901
 467  272.1324
 468  180.0065
 469  110.0283
 470  107.3565
 471  151.4886
 472  192.8682
 473  98.1745
 474  195.7729
 475  98.95129
 476  154.3266
 477  124.1655
 478  123.0071
 479  138.1346
 480  142.4088
 481  208.0368
 482  195.7033
 483  324.1655
 484  311.6084
 485  326.1218
 486  243.1136
 487  66.92145
 488  -120.931
 489  -177.1257
 490  -79.85487
 491  93.17309
 492  99.22163
 493  210.1644
 494  314.6957
 495  312.0664
 496  186.8443
 497  274.3709
 498  308.0096
 499  403.9837
 500  307.6637
 501  224.6853
 502  163.9639
 503  50.90126
 504  121.3712
 505  53.15767
 506  38.15755
 507  -46.31562
 508  -61.54486
 509  -23.04325
 510  -147.3695
 511  12.92592
 512  131.1938
 513  235.5244
 514  120.3585
 515  81.5194
 516  189.1128
 517  161.6862
 518  192.3323
 519  173.9841
 520  146.7217
 521  160.793
 522  116.5599
 523  256.4457
 524  194.6074
 525  228.5182
 526  173.4536
 527  201.2327
 528  160.4849
 529  199.7247
 530  248.4991
 531  311.295
 532  328.3071
 533  338.8316
 534  418.8418
 535  237.8773
 536  82.34404
 537  -5.049475
 538  148.3999
 539  275.7485
 540  313.0471
 541  306.3804
 542  294.4637
 543  394.9025
 544  357.2178
 545  400.1034
 546  495.8228
 547  492.3803
 548  248.9345
 549  86.24033
 550  184.8203
 551  350.0873
 552  387.7865
 553  300.1135
 554  91.80859
 555  -72.07573
 556  5.749722
 557  116.7699
 558  146.4106
 559  165.7129
 560  371.2583
 561  460.7068
 562  232.1524
 563  40.43258
 564  23.13364
 565  198.6213
 566  280.5076
 567  255.2363
 568  298.3352
 569  358.2047
 570  306.6826
 571  149.747
 572  -23.93631
 573  -93.25508
 574  -43.32599
 575  44.35778
 576  35.5729
 577  24.59407
 578  90.54594
 579  175.8359
 580  62.5748
 581  78.98967
 582  180.4399
 583  292.3587
 584  236.7308
 585  225.7152
 586  -7.295519
 587  4.908981
 588  78.37206
 589  167.5844
 590  2.988139
 591  22.18159
 592  102.8131
 593  205.0974
 594  240.11
 595  197.5363
 596  35.76631
 597  -61.43692
 598  22.12913
 599  50.61078
 600  70.03701
 601  192.833
 602  304.9304
 603  180.4213
 604  65.49429
 605  38.86069
 606  165.9755
 607  228.9287
 608  256.8532
 609  303.4345
 610  218.9891
 611  148.1243
 612  93.18847
 613  93.53503
 614  280.9907
 615  356.8033
 616  510.3691
 617  390.1051
 618  261.1134
 619  109.1473
 620  149.4238
 621  139.9966
 622  215.181
 623  227.8769
 624  154.0926
 625  196.0184
 626  275.511
 627  456.1292
 628  314.0876
 629  314.0681
 630  263.5801
 631  234.0669
 632  185.9697
 633  127.6104
 634  361.0997
 635  429.3597
 636  434.5408
 637  246.374
 638  324.8896
 639  540.7812
 640  849.1081
 641  962.0699
 642  1096.264
 643  1218.668
 644  1344.715
 645  1301.876
 646  1004.85
 647  921.3269
 648  739.2504
 649  630.6255
 650  460.1761
 651  555.2049
 652  615.2583
 653  486.4047
 654  218.7533
 655  191.5712
 656  155.079
 657  264.6499
 658  192.6728
 659  150.986
 660  23.40243
 661  -55.47808
 662  -140.1942
 663  -55.09232
 664  135.4585
 665  345.6465
 666  421.9613
 667  314.8642
 668  163.5304
 669  200.6894
 670  355.601
 671  514.06
 672  471.3865
 673  433.6823
 674  269.9334
 675  248.2879
 676  225.2695
 677  353.3556
 678  335.858
 679  302.977
 680  346.2108
 681  243.4369
 682  161.7393
 683  23.34653
 684  30.60416
 685  24.28796
 686  72.43425
 687  165.1996
 688  306.7075
 689  242.9566
 690  205.9099
 691  150.166
 692  259.3001
 693  256.1516
 694  225.9851
 695  225.9106
 696  215.3902
 697  69.96315
 698  -39.98489
 699  -118.9323
 700  -11.4366
 701  240.5995
 702  411.616
 703  300.3771
 704  29.85294
 705  -43.29926
 706  147.8094
 707  180.3306
 708  97.67544
 709  20.85799
 710  142.8175
 711  160.9325
 712  205.2341
 713  176.8253
 714  153.2166
 715  92.94749
 716  64.92284
 717  60.12854
 718  158.5539
 719  260.3312
 720  303.3341
 721  129.9099
 722  47.66933
 723  -50.81535
 724  60.90761
 725  44.99764
 726  205.5544
 727  187.2804
 728  108.5484
 729  -12.42451
 730  43.79328
 731  147.6947
 732  232.6926
 733  342.2668
 734  352.9908
 735  235.0978
 736  56.6062
 737  54.25457
 738  55.3599
 739  -65.73963
 740  -108.4063
 741  -135.4035
 742  47.49199
 743  116.6473
 744  195.4927
 745  241.6393
 746  271.8022
 747  190.177
 748  124.6367
 749  65.06348
 750  65.64727
 751  62.66947
 752  156.8621
 753  186.69
 754  236.6777
 755  197.0341
 756  148.5248
 757  39.45149
 758  81.02615
 759  115.1123
 760  91.37215
 761  -44.28436
 762  -119.4953
 763  39.90545
 764  121.3562
 765  147.9251
 766  74.41908
 767  212.2106
 768  339.0131
 769  285.9058
 770  251.727
 771  154.6779
 772  181.8355
 773  151.1553
 774  66.21484
 775  -19.91993
 776  46.07805
 777  232.8044
 778  377.6453
 779  204.0636
 780  140.7255
 781  103.4772
 782  297.9092
 783  242.5167
 784  323.2144
 785  328.3096
 786  453.6274
 787  457.041
 788  384.8416
 789  258.9058
 790  123.5433
 791  138.2932
 792  217.722
 793  203.5243
 794  113.6837
 795  160.588
 796  312.662
 797  380.3081
 798  377.3096
 799  389.9297
 800  459.7853
 801  269.4984
 802  150.6976
 803  36.72241
 804  257.1671
 805  354.1009
 806  422.989
 807  279.6069
 808  114.2151
 809  44.44858
 810  18.61422
 811  193.6266
 812  295.0336
 813  453.6815
 814  435.2709
 815  425.5168
 816  227.4733
 817  199.8364
 818  179.7638
 819  172.5037
 820  71.08343
 821  -0.7461779
 822  54.9627
 823  56.38182
 824  -15.5496
 825  -87.60978
 826  -65.75703
 827  62.61272
 828  161.8625
 829  302.2752
 830  372.4425
 831  251.6328
 832  109.7846
 833  -8.126955
 834  -51.86147
 835  35.99726
 836  119.5163
 837  235.8179
 838  81.72064
 839  -83.68107
 840  -117.0291
 841  27.4571
 842  240.5465
 843  388.7592
 844  362.3936
 845  340.7469
 846  244.494
 847  218.3601
 848  169.4294
 849  98.84521
 850  138.3572
 851  71.26353
 852  217.3809
 853  159.101
 854  199.2449
 855  112.762
 856  128.4765
 857  224.7285
 858  150.7332
 859  62.60418
 860  19.48978
 861  255.3619
 862  495.2408
 863  417.7198
 864  142.3495
 865  -17.96154
 866  21.60193
 867  200.9991
 868  162.1698
 869  89.65382
 870  65.45672
 871  135.7529
 872  118.9816
 873  106.556
 874  93.21107
 875  216.0777
 876  213.0164
 877  177.8792
 878  51.61377
 879  78.45912
 880  196.9513
 881  322.7013
 882  390.2301
 883  423.9577
 884  289.6887
 885  64.98553
 886  -115.4312
 887  -75.09214
 888  84.03723
 889  126.5668
 890  125.4451
 891  202.3387
 892  123.7074
 893  1.924681
 894  -123.0561
 895  -58.51836
 896  63.61785
 897  304.5208
 898  515.5536
 899  562.244
 900  308.4634
 901  46.91337
 902  -35.01167
 903  3.683949
 904  75.44606
 905  92.9564
 906  14.75582
 907  -12.89804
 908  -55.22863
 909  -163.3838
 910  -125.2487
 911  99.81339
 912  360.3316
 913  381.1119
 914  122.2133
 915  1.387175
 916  -164.0016
 917  57.68958
 918  127.4981
 919  121.5783
 920  94.39613
 921  -10.93706
 922  132.4315
 923  194.7052
 924  326.9366
 925  226.0618
 926  248.5312
 927  282.9881
 928  307.9964
 929  251.9736
 930  244.2752
 931  267.6472
 932  244.555
 933  290.9575
 934  250.8145
 935  256.1761
 936  223.352
 937  269.9654
 938  298.0092
 939  294.2097
 940  291.533
 941  323.3025
 942  265.3698
 943  204.7411
 944  56.03817
 945  114.3983
 946  67.73667
 947  190.209
 948  250.0132
 949  352.8411
 950  358.6808
 951  346.5562
 952  353.7942
 953  207.2188
 954  139.9719
 955  131.0127
 956  119.379
 957  141.9921
 958  163.0349
 959  216.4169
 960  230.3905
 961  134.4346
 962  144.4693
 963  144.7737
 964  279.2242
 965  436.614
 966  418.675
 967  293.2201
 968  146.9388
 969  112.1108
 970  177.0703
 971  146.3933
 972  73.54102
 973  -42.27677
 974  -38.82531
 975  20.06097
 976  62.04663
 977  104.1647
 978  184.8711
 979  232.3855
 980  257.3866
 981  302.0222
 982  235.5105
 983  133.2319
 984  169.3742
 985  197.1934
 986  246.7313
 987  129.8008
 988  124.2982
 989  33.80654
 990  127.155
 991  227.8826
 992  191.8543
 993  234.2836
 994  228.1758
 995  281.0487
 996  346.889
 997  432.755
 998  318.5182
 999  134.8703
1000  143.0043
1001  338.3754
1002  344.0131
1003  164.92
1004  -67.33347
1005  -38.01076
1006  -8.327174
1007  136.1703
1008  170.991
1009  123.8718
1010  -105.9418
1011  -172.832
1012  20.69309
1013  218.4099
1014  280.7363
1015  253.9753
1016  311.4101
1017  236.3897
1018  -34.31796
1019  -116.8029
1020  -67.90509
1021  63.2763
1022  31.22113
1023  95.95044
