# Input file       =  1189054427.122775_cleaned.dat
# Candidate        =  PSR_0332+5434
# Telescope        =  AR
# Epoch_topo       =  58006.204237532118
# Epoch_bary       =  N/A
# T_sample         =  0.002
# Data Folded      =  7340032
# Data Avg         =  0.0234448552801041
# Data StdDev      =  2.77357043087204 
# Profile Bins     =  1024
# Profile Avg      =  168.037333808091 
# Profile StdDev   =  234.821683321909 
# Reduced chi-sqr  =  1.132
# Prob(Noise)      <  0.00194   (~2.9 sigma)
# P_topo (ms)      =  714.465035024563  +/- 0.000213
# P'_topo (s/s)    =  -0                +/- 1.13e-10
# P''_topo (s/s^2) =  0                 +/- 4.97e-14
# P_bary (ms)      =  N/A
# P'_bary (s/s)    =  N/A
# P''_bary (s/s^2) =  N/A
# P_orb (s)        =  N/A
# asin(i)/c (s)    =  N/A
# eccentricity     =  N/A
# w (rad)          =  N/A
# T_peri           =  N/A
######################################################
   0  189.0679
   1  131.8946
   2  162.4697
   3  215.5237
   4  225.9945
   5  108.6091
   6  0.4870176
   7  8.230271
   8  112.8702
   9  37.47112
  10  -15.72106
  11  57.91564
  12  174.0313
  13  190.0799
  14  110.891
  15  165.1933
  16  223.4543
  17  260.7884
  18  198.9351
  19  205.4941
  20  235.8972
  21  310.276
  22  257.9041
  23  262.5582
  24  240.8024
  25  318.9866
  26  258.7221
  27  280.3502
  28  263.346
  29  307.8911
  30  153.0051
  31  59.23684
  32  196.1773
  33  259.9654
  34  240.848
  35  158.4426
  36  173.049
  37  334.7431
  38  327.1008
  39  307.3353
  40  149.3089
  41  103.9655
  42  90.52396
  43  139.0211
  44  126.5121
  45  94.03478
  46  17.04171
  47  88.32028
  48  108.8526
  49  200.4037
  50  189.3499
  51  146.6108
  52  285.1419
  53  313.6843
  54  317.763
  55  202.2058
  56  274.162
  57  333.9084
  58  217.2785
  59  -12.45244
  60  -53.93765
  61  -2.663313
  62  181.3979
  63  206.793
  64  319.6427
  65  321.4165
  66  337.314
  67  259.0139
  68  329.0397
  69  444.6515
  70  352.3836
  71  206.6832
  72  119.3787
  73  291.3499
  74  242.4497
  75  303.8085
  76  217.728
  77  237.0842
  78  297.8616
  79  250.8874
  80  216.7404
  81  100.9445
  82  41.37699
  83  57.02512
  84  76.36601
  85  261.4852
  86  296.4518
  87  352.9597
  88  221.4154
  89  238.8487
  90  292.5553
  91  360.9392
  92  270.2515
  93  238.5685
  94  248.4502
  95  227.3676
  96  169.3889
  97  106.0617
  98  78.04429
  99  13.04885
 100  2.719928
 101  -57.80354
 102  -27.42056
 103  147.2396
 104  351.7899
 105  444.912
 106  432.959
 107  328.6874
 108  250.3682
 109  238.4161
 110  249.687
 111  280.6805
 112  223.8688
 113  203.6984
 114  172.8876
 115  158.164
 116  194.303
 117  73.79264
 118  67.67688
 119  -17.10433
 120  49.64411
 121  154.3331
 122  302.3513
 123  261.3481
 124  202.9264
 125  258.1047
 126  319.9589
 127  292.7359
 128  152.1067
 129  185.6658
 130  206.4258
 131  309.2315
 132  227.3811
 133  192.6549
 134  258.5774
 135  447.0216
 136  440.0417
 137  243.589
 138  121.2513
 139  174.7285
 140  304.0038
 141  312.856
 142  349.7383
 143  322.2967
 144  231.0385
 145  47.85227
 146  6.676682
 147  126.5228
 148  193.4742
 149  117.196
 150  46.25557
 151  97.8512
 152  193.8335
 153  146.9339
 154  176.8565
 155  155.0435
 156  260.8926
 157  292.1209
 158  273.4853
 159  137.837
 160  51.69119
 161  53.81637
 162  13.43477
 163  -56.63681
 164  6.705927
 165  97.16979
 166  194.0058
 167  195.7592
 168  237.4613
 169  135.142
 170  165.7935
 171  244.9511
 172  312.6954
 173  291.0466
 174  112.77
 175  107.0162
 176  191.8391
 177  281.1928
 178  274.089
 179  246.2101
 180  325.8758
 181  398.0423
 182  259.2295
 183  236.2741
 184  259.9408
 185  294.8288
 186  247.8153
 187  271.8993
 188  311.489
 189  316.3672
 190  86.6627
 191  50.88973
 192  62.19253
 193  119.1776
 194  85.12328
 195  46.41143
 196  94.5508
 197  142.9829
 198  158.8941
 199  166.6445
 200  177.9058
 201  214.3076
 202  241.0321
 203  175.5686
 204  168.5516
 205  123.8324
 206  124.0011
 207  184.0074
 208  287.5648
 209  290.0584
 210  199.9214
 211  160.8519
 212  224.4239
 213  215.9065
 214  194.2322
 215  204.6129
 216  191.4067
 217  148.0421
 218  138.3818
 219  135.4646
 220  203.3435
 221  93.47669
 222  94.97453
 223  -31.89424
 224  157.4595
 225  186.0267
 226  236.469
 227  278.0974
 228  430.1659
 229  444.3742
 230  329.4827
 231  219.5013
 232  138.8117
 233  113.4204
 234  23.66977
 235  31.89934
 236  -9.168312
 237  -26.07132
 238  26.20168
 239  113.3793
 240  233.5309
 241  199.829
 242  237.2179
 243  149.4935
 244  26.67852
 245  45.6455
 246  139.2982
 247  185.8509
 248  59.47747
 249  22.58309
 250  65.85936
 251  102.1352
 252  -8.220756
 253  -71.194
 254  -54.25601
 255  77.98154
 256  173.3374
 257  216.3711
 258  189.8744
 259  168.6856
 260  226.5939
 261  340.2247
 262  188.869
 263  53.02663
 264  -128.874
 265  -125.5272
 266  -141.6971
 267  -103.3023
 268  -148.4524
 269  -192.5134
 270  -158.0273
 271  -79.02156
 272  -34.4173
 273  36.41368
 274  79.46523
 275  38.16581
 276  10.79994
 277  61.09236
 278  19.5192
 279  -10.9466
 280  -3.621143
 281  53.65243
 282  -39.01839
 283  -14.16091
 284  3.403239
 285  67.25867
 286  93.85664
 287  89.28762
 288  59.90781
 289  37.97699
 290  -67.52753
 291  -40.46943
 292  33.86769
 293  216.3104
 294  267.4288
 295  253.3509
 296  144.1648
 297  115.8853
 298  63.27224
 299  2.266238
 300  -25.78199
 301  5.224523
 302  150.3819
 303  257.6715
 304  191.3131
 305  120.4438
 306  29.27023
 307  108.6251
 308  167.1718
 309  243.5845
 310  220.4167
 311  138.3883
 312  189.1964
 313  245.171
 314  215.0792
 315  72.76082
 316  29.54112
 317  53.44571
 318  210.7956
 319  211.6801
 320  89.08261
 321  -89.47752
 322  -69.26352
 323  -2.191303
 324  97.76426
 325  168.1205
 326  179.2511
 327  234.3291
 328  191.7031
 329  250.6735
 330  144.2851
 331  134.3803
 332  196.4243
 333  371.0443
 334  365.0035
 335  234.1634
 336  159.5456
 337  181.525
 338  103.176
 339  14.49497
 340  50.40845
 341  213.2434
 342  248.5914
 343  165.0408
 344  61.25645
 345  210.6964
 346  342.5402
 347  415.7823
 348  358.4642
 349  205.9684
 350  133.0829
 351  49.72659
 352  -53.62933
 353  -160.7197
 354  -85.1797
 355  132.4595
 356  342.4616
 357  238.4682
 358  228.2697
 359  200.5629
 360  302.4524
 361  353.9194
 362  269.6215
 363  172.8523
 364  80.12778
 365  142.4888
 366  162.3025
 367  109.9709
 368  113.5087
 369  167.1568
 370  150.9942
 371  66.69237
 372  86.14719
 373  177.7753
 374  193.2773
 375  211.6968
 376  44.3453
 377  22.12604
 378  -18.48952
 379  -17.08245
 380  -41.03973
 381  10.31184
 382  -2.701521
 383  93.9099
 384  89.95878
 385  128.5235
 386  12.15188
 387  9.62084
 388  23.76901
 389  70.9958
 390  53.1122
 391  104.6847
 392  205.1098
 393  210.209
 394  177.699
 395  58.70781
 396  33.61243
 397  -33.96559
 398  -129.8546
 399  -256.7439
 400  -127.7096
 401  116.1057
 402  114.2447
 403  -80.51315
 404  -126.1093
 405  37.19115
 406  132.1971
 407  -7.730735
 408  -31.82579
 409  59.62312
 410  93.61052
 411  30.67434
 412  47.79974
 413  148.463
 414  244.467
 415  120.2099
 416  125.9959
 417  103.8259
 418  244.181
 419  283.6812
 420  314.1896
 421  337.0845
 422  227.0818
 423  143.4342
 424  96.22283
 425  219.917
 426  272.499
 427  145.4261
 428  67.69308
 429  -17.81716
 430  -36.96245
 431  43.68668
 432  75.7708
 433  141.3032
 434  110.2464
 435  199.7652
 436  233.3264
 437  21.03073
 438  -35.35398
 439  -30.93369
 440  28.49786
 441  43.72485
 442  65.19621
 443  139.5272
 444  206.2281
 445  235.2384
 446  279.3665
 447  223.0699
 448  121.5774
 449  39.78031
 450  26.50498
 451  122.2243
 452  181.303
 453  217.2396
 454  209.3967
 455  157.1221
 456  141.5288
 457  62.43688
 458  57.00421
 459  -18.92876
 460  70.06251
 461  70.53685
 462  164.8363
 463  164.3922
 464  220.6344
 465  334.171
 466  288.0067
 467  280.2353
 468  255.0759
 469  330.1072
 470  203.1494
 471  201.4143
 472  219.9369
 473  240.4435
 474  267.0492
 475  363.428
 476  418.5739
 477  235.5158
 478  171.841
 479  69.21546
 480  57.31754
 481  117.6271
 482  261.9665
 483  343.9907
 484  261.221
 485  341.1919
 486  271.2387
 487  176.5339
 488  74.63389
 489  102.226
 490  73.73915
 491  5.453065
 492  -135.5122
 493  -84.36062
 494  48.33718
 495  209.4078
 496  292.725
 497  340.5684
 498  365.8434
 499  157.3723
 500  110.5755
 501  25.78765
 502  143.5298
 503  225.9153
 504  199.6212
 505  265.1714
 506  286.3805
 507  452.8838
 508  239.4743
 509  130.0987
 510  -45.78964
 511  77.05988
 512  75.04184
 513  253.9813
 514  195.1021
 515  111.1761
 516  110.7344
 517  151.4966
 518  260.6718
 519  254.7976
 520  247.8506
 521  192.0412
 522  195.3878
 523  180.1065
 524  138.8888
 525  139.2669
 526  109.8934
 527  183.5949
 528  253.9069
 529  271.0309
 530  239.0616
 531  164.3951
 532  216.298
 533  294.5685
 534  336.603
 535  312.8349
 536  329.9938
 537  269.1206
 538  175.7229
 539  162.3841
 540  212.5315
 541  339.2708
 542  320.8542
 543  287.7021
 544  313.9188
 545  294.3948
 546  276.0657
 547  188.9734
 548  101.9562
 549  -12.59684
 550  -112.949
 551  -64.91967
 552  2.569632
 553  61.09848
 554  133.4061
 555  173.8878
 556  182.0922
 557  220.6669
 558  248.0773
 559  214.8306
 560  156.5753
 561  43.37532
 562  -11.08872
 563  -21.77255
 564  109.2234
 565  209.8618
 566  134.1196
 567  42.22235
 568  17.30466
 569  166.5385
 570  215.8488
 571  292.7827
 572  204.1499
 573  200.4848
 574  177.7427
 575  225.8571
 576  278.1291
 577  295.1387
 578  224.0122
 579  136.4109
 580  156.8522
 581  143.0841
 582  180.159
 583  147.935
 584  227.3775
 585  253.8155
 586  170.3824
 587  171.3965
 588  78.74855
 589  218.3066
 590  263.2762
 591  319.0163
 592  172.1919
 593  91.00912
 594  168.5831
 595  188.706
 596  117.9348
 597  16.82727
 598  161.3237
 599  95.06592
 600  105.8917
 601  158.9456
 602  277.4453
 603  202.9646
 604  216.2225
 605  230.5222
 606  315.8327
 607  272.9238
 608  236.709
 609  167.7436
 610  157.1168
 611  111.6771
 612  35.82175
 613  28.66696
 614  57.61364
 615  156.8078
 616  181.4696
 617  159.7591
 618  114.9422
 619  214.9324
 620  355.8865
 621  413.6196
 622  428.5142
 623  443.0298
 624  401.662
 625  377.1311
 626  405.3307
 627  467.7404
 628  449.5094
 629  301.4449
 630  212.4139
 631  134.1468
 632  282.1053
 633  348.7499
 634  531.1026
 635  548.6286
 636  511.7031
 637  538.2606
 638  557.4704
 639  619.2877
 640  695.1317
 641  789.0637
 642  899.7287
 643  882.621
 644  943.0543
 645  855.9151
 646  805.1061
 647  694.1504
 648  584.0248
 649  513.1138
 650  332.0469
 651  361.6731
 652  276.8278
 653  349.0873
 654  264.1115
 655  259.8118
 656  186.4913
 657  183.4466
 658  291.1245
 659  405.6097
 660  461.7032
 661  407.9946
 662  471.5546
 663  433.879
 664  299.5167
 665  169.613
 666  103.2993
 667  200.9451
 668  297.5995
 669  286.5233
 670  206.6096
 671  217.7869
 672  376.4489
 673  444.8115
 674  396.2669
 675  224.3601
 676  207.453
 677  201.1529
 678  329.6475
 679  371.7383
 680  415.5432
 681  266.2912
 682  260.7082
 683  331.8451
 684  378.8974
 685  351.2168
 686  211.3538
 687  233.041
 688  183.0569
 689  155.4599
 690  104.8928
 691  119.944
 692  125.421
 693  190.5099
 694  338.443
 695  353.1234
 696  218.4725
 697  99.36031
 698  100.8472
 699  256.8308
 700  311.3183
 701  207.0046
 702  272.8991
 703  276.7716
 704  336.2838
 705  179.4521
 706  108.3443
 707  105.0554
 708  134.8091
 709  183.4447
 710  177.3486
 711  134.906
 712  81.03491
 713  138.6158
 714  282.8115
 715  321.8581
 716  306.7241
 717  162.592
 718  54.31196
 719  17.74216
 720  161.6717
 721  204.9858
 722  40.53674
 723  -82.58363
 724  -99.0728
 725  11.38188
 726  -8.145404
 727  204.7317
 728  205.1664
 729  322.9987
 730  102.4516
 731  -21.14896
 732  -53.25263
 733  -18.39689
 734  106.7685
 735  148.3774
 736  195.0573
 737  104.5058
 738  22.90021
 739  93.68639
 740  167.4674
 741  273.8914
 742  231.3729
 743  177.4154
 744  99.84595
 745  137.7707
 746  60.10108
 747  72.51109
 748  45.49748
 749  64.12366
 750  93.85307
 751  2.253157
 752  137.4389
 753  77.23346
 754  124.2257
 755  97.56882
 756  171.9547
 757  143.561
 758  128.7461
 759  -54.24615
 760  -106.9198
 761  -244.7844
 762  -149.8179
 763  -92.64142
 764  -47.84216
 765  75.11977
 766  41.8124
 767  122.393
 768  90.34127
 769  180.1326
 770  172.6125
 771  169.5284
 772  184.5101
 773  122.0106
 774  48.60665
 775  115.9159
 776  177.12
 777  286.9134
 778  199.595
 779  191.9675
 780  36.28431
 781  7.241561
 782  0.7647321
 783  103.4244
 784  143.0427
 785  180.3759
 786  272.285
 787  317.0573
 788  242.6135
 789  252.017
 790  280.3134
 791  303.4438
 792  154.5782
 793  70.08282
 794  205.835
 795  220.977
 796  221.7016
 797  336.3438
 798  365.3816
 799  311.7169
 800  159.5037
 801  225.9175
 802  203.3915
 803  167.0919
 804  141.3564
 805  150.8628
 806  139.1628
 807  225.0909
 808  261.5431
 809  216.8395
 810  162.3252
 811  273.6122
 812  271.3226
 813  127.1918
 814  16.51706
 815  99.55283
 816  182.9045
 817  171.639
 818  57.11467
 819  -47.13494
 820  -185.3191
 821  -70.05252
 822  34.46336
 823  127.346
 824  135.2597
 825  214.1866
 826  225.1279
 827  147.6205
 828  94.63515
 829  145.1464
 830  113.6999
 831  61.96841
 832  120.75
 833  234.6065
 834  413.0157
 835  469.2615
 836  352.6281
 837  192.217
 838  120.4498
 839  194.3536
 840  248.5915
 841  265.8375
 842  219.8235
 843  173.5714
 844  109.7287
 845  21.50481
 846  11.70889
 847  120.8977
 848  164.4523
 849  152.4592
 850  113.4191
 851  223.2925
 852  230.1189
 853  158.1705
 854  121.4285
 855  117.7702
 856  202.9967
 857  142.7947
 858  106.8409
 859  -46.26729
 860  29.10717
 861  90.7598
 862  212.3143
 863  108.1286
 864  143.3058
 865  189.9314
 866  174.2219
 867  221.4314
 868  261.0981
 869  406.2899
 870  348.5287
 871  254.3311
 872  171.9451
 873  131.5856
 874  149.4571
 875  115.3841
 876  78.81747
 877  79.82189
 878  110.2263
 879  174.8
 880  152.562
 881  87.11527
 882  69.62647
 883  69.925
 884  133.5489
 885  68.21726
 886  193.0769
 887  272.7007
 888  346.8104
 889  203.6913
 890  146.6112
 891  201.7944
 892  172.4224
 893  105.2026
 894  -7.176733
 895  70.91347
 896  155.2787
 897  196.8969
 898  112.0419
 899  27.65102
 900  43.39227
 901  156.8812
 902  198.9258
 903  185.7191
 904  83.59271
 905  26.69333
 906  144.2762
 907  260.1448
 908  407.58
 909  349.2735
 910  331.6329
 911  287.8892
 912  313.2883
 913  289.7623
 914  303.5786
 915  216.3301
 916  175.5909
 917  80.92291
 918  130.0131
 919  63.21658
 920  -1.502777
 921  98.79463
 922  161.9956
 923  215.1526
 924  298.5245
 925  302.3815
 926  282.2142
 927  128.2915
 928  75.65195
 929  137.31
 930  89.91203
 931  51.31151
 932  -180.9587
 933  -126.2996
 934  -14.51156
 935  158.7301
 936  166.0931
 937  71.09735
 938  115.9669
 939  -2.93669
 940  91.4364
 941  39.27489
 942  117.8614
 943  51.04357
 944  130.5579
 945  224.2093
 946  286.043
 947  163.0402
 948  250.4572
 949  309.9434
 950  340.6689
 951  122.3169
 952  -39.6504
 953  -89.91279
 954  -72.51718
 955  78.29836
 956  199.1852
 957  178.7822
 958  134.2501
 959  34.06849
 960  194.9967
 961  176.4389
 962  216.8709
 963  144.1735
 964  173.8152
 965  167.6341
 966  133.4239
 967  142.0775
 968  136.3221
 969  52.1657
 970  66.26572
 971  66.85025
 972  198.7593
 973  229.931
 974  351.1249
 975  374.0508
 976  367.9098
 977  198.6202
 978  113.9162
 979  32.18761
 980  20.40882
 981  123.7016
 982  247.153
 983  326.5634
 984  195.625
 985  -8.791454
 986  -192.0111
 987  -114.3513
 988  -64.63867
 989  -9.356034
 990  -57.80626
 991  23.9206
 992  90.23849
 993  175.1316
 994  179.3317
 995  96.94199
 996  37.06021
 997  169.5934
 998  231.5786
 999  245.8631
1000  160.8814
1001  164.2814
1002  140.7683
1003  144.4984
1004  130.2164
1005  152.9585
1006  145.2159
1007  84.72707
1008  71.3555
1009  26.92748
1010  35.21626
1011  -65.58484
1012  -108.3926
1013  -21.85583
1014  -74.8131
1015  11.24914
1016  -104.7116
1017  53.92244
1018  187.478
1019  319.1692
1020  264.3875
1021  66.86104
1022  90.14219
1023  110.8879
