# Input file       =  1189541950.11086_cleaned.dat
# Candidate        =  PSR_0332+5434
# Telescope        =  AR
# Epoch_topo       =  58011.846864709027
# Epoch_bary       =  N/A
# T_sample         =  0.002
# Data Folded      =  7143424
# Data Avg         =  0.0394433798821677
# Data StdDev      =  3.27151065278419 
# Profile Bins     =  512
# Profile Avg      =  550.274725289431 
# Profile StdDev   =  386.426207424218 
# Reduced chi-sqr  =  1.043
# Prob(Noise)      <  0.244   (~0.7 sigma)
# P_topo (ms)      =  714.466111866145  +/- 0.000146
# P'_topo (s/s)    =  -0                +/- 7.89e-11
# P''_topo (s/s^2) =  0                 +/- 3.58e-14
# P_bary (ms)      =  N/A
# P'_bary (s/s)    =  N/A
# P''_bary (s/s^2) =  N/A
# P_orb (s)        =  N/A
# asin(i)/c (s)    =  N/A
# eccentricity     =  N/A
# w (rad)          =  N/A
# T_peri           =  N/A
######################################################
   0  489.9927
   1  475.5826
   2  850.0269
   3  807.8806
   4  826.7343
   5  607.414
   6  692.112
   7  465.1836
   8  162.3847
   9  184.7049
  10  750.272
  11  626.2455
  12  700.538
  13  866.7838
  14  725.681
  15  741.8157
  16  842.8379
  17  687.0724
  18  764.0684
  19  622.6345
  20  455.2568
  21  363.0019
  22  233.9831
  23  276.8389
  24  294.6426
  25  37.08337
  26  225.1248
  27  608.5729
  28  816.2266
  29  759.5518
  30  740.0407
  31  733.1241
  32  549.075
  33  314.3762
  34  318.6417
  35  310.6683
  36  472.2314
  37  738.384
  38  930.3516
  39  729.5957
  40  543.0692
  41  282.5626
  42  174.2401
  43  432.8154
  44  756.0233
  45  872.8813
  46  810.7528
  47  568.5699
  48  565.9545
  49  333.4702
  50  461.5986
  51  340.1446
  52  -162.8316
  53  150.6729
  54  582.0662
  55  974.0881
  56  580.6595
  57  319.6508
  58  97.31078
  59  193.5592
  60  356.4963
  61  431.4203
  62  743.0558
  63  624.5005
  64  555.8569
  65  504.5439
  66  491.9014
  67  625.9218
  68  422.1623
  69  480.1754
  70  268.492
  71  390.3997
  72  729.6654
  73  478.1585
  74  163.5704
  75  220.5306
  76  396.0405
  77  578.7114
  78  453.2853
  79  477.7599
  80  481.4373
  81  545.2974
  82  709.4564
  83  518.2989
  84  230.3139
  85  714.8439
  86  1090.372
  87  781.752
  88  846.0424
  89  572.1116
  90  414.8054
  91  463.4026
  92  632.575
  93  585.8835
  94  593.1902
  95  673.9287
  96  527.3923
  97  475.5644
  98  612.7697
  99  557.488
 100  553.2254
 101  412.2225
 102  166.7367
 103  279.4579
 104  209.619
 105  549.7822
 106  471.1613
 107  683.1328
 108  417.2411
 109  511.73
 110  752.4888
 111  430.9253
 112  373.7863
 113  737.3075
 114  597.0031
 115  777.5125
 116  939.9123
 117  475.587
 118  429.1671
 119  832.7129
 120  761.6956
 121  569.2902
 122  405.6012
 123  -128.1141
 124  -140.5599
 125  9.936734
 126  513.3744
 127  712.5919
 128  1123.655
 129  969.9118
 130  676.3018
 131  487.3564
 132  363.8169
 133  197.5399
 134  490.8587
 135  452.6156
 136  743.9227
 137  659.5339
 138  490.3701
 139  346.0455
 140  320.4277
 141  459.3985
 142  498.9804
 143  200.9579
 144  298.2946
 145  505.4451
 146  874.9124
 147  734.8951
 148  483.6303
 149  577.5732
 150  628.4594
 151  624.6866
 152  333.3263
 153  214.9897
 154  370.9362
 155  1009.59
 156  766.1711
 157  446.5285
 158  551.2346
 159  371.6948
 160  355.4636
 161  306.9072
 162  235.3745
 163  -28.72972
 164  302.6436
 165  231.0399
 166  461.4479
 167  599.6108
 168  644.1013
 169  484.7996
 170  461.5215
 171  336.099
 172  670.7677
 173  477.0616
 174  349.9631
 175  708.1207
 176  599.6497
 177  550.6301
 178  354.3852
 179  273.5862
 180  421.9983
 181  599.0403
 182  669.0192
 183  420.8957
 184  578.606
 185  552.0855
 186  415.434
 187  456.0853
 188  549.6633
 189  950.0835
 190  820.3647
 191  798.1313
 192  603.5432
 193  558.4526
 194  787.5731
 195  495.0975
 196  562.6344
 197  769.1401
 198  770.1831
 199  708.2874
 200  469.4299
 201  808.0622
 202  898.3568
 203  657.0865
 204  509.0825
 205  499.9827
 206  930.5013
 207  678.818
 208  583.6081
 209  654.3767
 210  744.7819
 211  810.438
 212  1112.911
 213  896.9059
 214  597.0652
 215  167.5358
 216  78.97868
 217  216.6808
 218  518.6801
 219  334.1808
 220  290.7458
 221  397.3548
 222  420.3126
 223  295.3101
 224  186.0237
 225  609.2
 226  854.6381
 227  387.1354
 228  260.2166
 229  321.2039
 230  53.91882
 231  309.0057
 232  600.7411
 233  154.9073
 234  -109.8712
 235  -7.57403
 236  367.9832
 237  670.7938
 238  598.5903
 239  673.3179
 240  409.6887
 241  446.2873
 242  580.6652
 243  647.5327
 244  446.2046
 245  690.3372
 246  926.1072
 247  517.9979
 248  534.0032
 249  595.5272
 250  534.6979
 251  106.2746
 252  112.3082
 253  110.3504
 254  454.9118
 255  472.9682
 256  561.3014
 257  802.1736
 258  1058.337
 259  1052.35
 260  666.2104
 261  735.5757
 262  787.2532
 263  765.2162
 264  659.6858
 265  226.0513
 266  496.8363
 267  439.2674
 268  686.8668
 269  605.2421
 270  483.7068
 271  534.1152
 272  281.7043
 273  717.1643
 274  818.2831
 275  771.8111
 276  620.8674
 277  847.1277
 278  755.3441
 279  814.7131
 280  544.2043
 281  648.3051
 282  615.1741
 283  853.1504
 284  771.2858
 285  425.9342
 286  433.562
 287  386.5215
 288  96.38422
 289  296.2864
 290  422.8717
 291  232.5991
 292  693.6324
 293  942.8322
 294  587.1151
 295  775.3023
 296  995.151
 297  644.2946
 298  246.5141
 299  343.4992
 300  581.8908
 301  759.0367
 302  854.1216
 303  535.9014
 304  204.578
 305  165.0352
 306  200.0349
 307  57.63006
 308  468.2025
 309  754.0184
 310  705.6965
 311  741.5353
 312  509.2827
 313  341.3811
 314  530.0688
 315  811.4944
 316  617.5352
 317  602.8328
 318  603.4949
 319  1369.466
 320  2005.549
 321  2490.912
 322  2549.572
 323  1764.178
 324  899.825
 325  710.8502
 326  543.2321
 327  600.9746
 328  689.4305
 329  571.3873
 330  367.6483
 331  396.375
 332  73.04222
 333  196.8858
 334  119.8724
 335  149.8126
 336  624.6485
 337  561.2149
 338  606.5062
 339  488.4333
 340  503.5346
 341  211.0546
 342  470.925
 343  403.1078
 344  615.332
 345  460.1738
 346  301.984
 347  508.9836
 348  317.0319
 349  686.0472
 350  1090.83
 351  1017.515
 352  767.8952
 353  529.3342
 354  460.762
 355  186.7372
 356  215.2984
 357  584.8121
 358  1015.958
 359  827.7206
 360  563.207
 361  436.5738
 362  98.85292
 363  345.6476
 364  458.0139
 365  554.5376
 366  532.6014
 367  909.7027
 368  644.074
 369  558.7492
 370  539.5657
 371  560.7218
 372  251.1151
 373  479.8954
 374  819.27
 375  567.9104
 376  785.168
 377  478.6643
 378  950.7993
 379  821.8625
 380  921.542
 381  739.5891
 382  681.0084
 383  629.0316
 384  572.2251
 385  715.5983
 386  715.8224
 387  552.7507
 388  585.952
 389  179.5665
 390  307.7635
 391  296.0796
 392  362.584
 393  678.1019
 394  450.4864
 395  187.6174
 396  227.258
 397  410.0761
 398  286.8575
 399  117.9868
 400  599.9332
 401  790.7802
 402  819.562
 403  651.968
 404  571.6785
 405  438.466
 406  391.1121
 407  611.9126
 408  360.1375
 409  182.5746
 410  29.88775
 411  224.035
 412  105.1768
 413  243.1746
 414  362.3951
 415  333.1182
 416  354.9435
 417  397.3087
 418  425.8946
 419  249.29
 420  101.1408
 421  282.822
 422  528.7636
 423  720.3748
 424  930.0187
 425  1024.523
 426  1115.621
 427  1137.687
 428  853.5518
 429  398.0559
 430  417.1421
 431  370.6608
 432  574.8429
 433  557.7889
 434  1055.168
 435  654.834
 436  596.2287
 437  444.0628
 438  782.3978
 439  853.5104
 440  778.9045
 441  543.6431
 442  691.5526
 443  673.5566
 444  440.8642
 445  920.8778
 446  838.9348
 447  728.5288
 448  966.6287
 449  918.0363
 450  962.6136
 451  472.7117
 452  665.1056
 453  856.7454
 454  1006.186
 455  1126.169
 456  973.2054
 457  784.2454
 458  639.8208
 459  861.031
 460  491.0278
 461  573.2966
 462  545.8642
 463  368.8183
 464  516.5112
 465  748.7624
 466  526.561
 467  613.1106
 468  565.824
 469  340.773
 470  251.2079
 471  174.9028
 472  616.0561
 473  875.8115
 474  721.6988
 475  978.3141
 476  657.7528
 477  359.67
 478  349.951
 479  -180.5051
 480  29.23954
 481  254.3684
 482  569.0781
 483  586.0779
 484  602.9577
 485  473.4018
 486  601.5914
 487  139.5478
 488  41.66727
 489  518.8753
 490  602.8754
 491  804.354
 492  527.882
 493  636.8867
 494  707.7827
 495  229.7316
 496  357.9137
 497  423.9308
 498  375.0921
 499  575.2914
 500  451.9187
 501  495.3318
 502  651.171
 503  255.8557
 504  349.143
 505  286.844
 506  586.1149
 507  547.6901
 508  598.7269
 509  740.6208
 510  880.8032
 511  615.1039
