# Input file       =  1189987313.102369_cleaned.dat
# Candidate        =  PSR_0332+5434
# Telescope        =  AR
# Epoch_topo       =  58017.001528962603
# Epoch_bary       =  N/A
# T_sample         =  0.002
# Data Folded      =  7340032
# Data Avg         =  0.0248215981939991
# Data StdDev      =  2.43656925856005 
# Profile Bins     =  1024
# Profile Avg      =  177.965377301615 
# Profile StdDev   =  206.289801930717 
# Reduced chi-sqr  =  1.444
# Prob(Noise)      <  4.09e-19   (~8.9 sigma)
# P_topo (ms)      =  714.467909581001  +/- 0.000144
# P'_topo (s/s)    =  -0                +/- 7.58e-11
# P''_topo (s/s^2) =  0                 +/- 3.34e-14
# P_bary (ms)      =  N/A
# P'_bary (s/s)    =  N/A
# P''_bary (s/s^2) =  N/A
# P_orb (s)        =  N/A
# asin(i)/c (s)    =  N/A
# eccentricity     =  N/A
# w (rad)          =  N/A
# T_peri           =  N/A
######################################################
   0  124.7053
   1  166.6613
   2  139.787
   3  177.3627
   4  230.5355
   5  172.2647
   6  -14.78662
   7  -68.43026
   8  18.61463
   9  33.42301
  10  20.42525
  11  91.34288
  12  206.0131
  13  178.2785
  14  185.2467
  15  189.7372
  16  205.1395
  17  65.17099
  18  162.4566
  19  184.8536
  20  280.5135
  21  243.3813
  22  197.6516
  23  137.2029
  24  21.11695
  25  139.4277
  26  116.0044
  27  154.3055
  28  33.88442
  29  63.60809
  30  66.07632
  31  100.2613
  32  136.2068
  33  128.8286
  34  136.0553
  35  124.0678
  36  55.53783
  37  -13.13969
  38  47.76858
  39  179.5745
  40  181.5511
  41  70.81927
  42  -8.578176
  43  33.5096
  44  52.31297
  45  146.5901
  46  66.42342
  47  -8.066982
  48  -49.42924
  49  34.30597
  50  -14.84953
  51  25.51075
  52  78.99556
  53  183.9867
  54  241.1945
  55  336.3081
  56  261.5998
  57  212.3849
  58  86.91618
  59  105.6153
  60  21.7803
  61  46.36461
  62  152.7193
  63  193.076
  64  178.7376
  65  49.76277
  66  0.3584478
  67  77.72023
  68  264.4142
  69  272.6189
  70  270.7382
  71  195.8793
  72  243.9575
  73  100.7286
  74  76.35313
  75  32.60699
  76  131.1642
  77  177.7411
  78  143.6135
  79  90.32603
  80  61.97685
  81  156.6063
  82  187.6387
  83  238.6299
  84  174.9712
  85  101.5837
  86  0.1899519
  87  81.16879
  88  172.0004
  89  190.5308
  90  141.6906
  91  150.2091
  92  119.888
  93  72.55554
  94  30.24928
  95  107.3381
  96  153.5944
  97  93.10329
  98  10.36104
  99  24.77383
 100  136.4392
 101  163.5099
 102  97.04854
 103  113.6039
 104  106.2805
 105  169.5268
 106  223.6645
 107  324.5737
 108  348.3058
 109  209.2715
 110  -0.7529486
 111  -186.6777
 112  -162.8887
 113  -10.04892
 114  178.5011
 115  119.8747
 116  -14.64685
 117  -38.16239
 118  28.2994
 119  201.0614
 120  301.478
 121  404.2297
 122  336.4375
 123  153.611
 124  12.82981
 125  97.19984
 126  164.057
 127  226.9974
 128  160.1916
 129  226.2776
 130  187.0876
 131  116.8208
 132  86.97909
 133  150.2979
 134  244.4792
 135  196.5758
 136  107.4071
 137  113.7381
 138  171.8951
 139  350.049
 140  299.8371
 141  284.2715
 142  182.8779
 143  249.1628
 144  231.0084
 145  194.959
 146  150.3344
 147  106.4595
 148  225.9149
 149  182.1006
 150  190.0798
 151  163.2764
 152  290.531
 153  274.2475
 154  232.4332
 155  171.59
 156  182.1005
 157  246.4497
 158  260.5602
 159  235.2241
 160  109.4453
 161  -0.6463363
 162  10.17537
 163  -0.2814574
 164  83.21212
 165  46.23814
 166  123.795
 167  166.0354
 168  309.0638
 169  263.2128
 170  215.2516
 171  202.5458
 172  264.4173
 173  441.8547
 174  507.1478
 175  543.853
 176  441.458
 177  429.2378
 178  296.7452
 179  110.8069
 180  -22.19739
 181  47.44079
 182  234.8469
 183  283.9006
 184  293.0848
 185  234.7285
 186  129.9067
 187  99.67415
 188  192.859
 189  351.5157
 190  233.4989
 191  61.14165
 192  -37.12315
 193  24.5847
 194  158.9586
 195  196.5667
 196  272.8523
 197  168.6807
 198  92.52776
 199  74.17059
 200  142.3122
 201  177.961
 202  179.6175
 203  227.5334
 204  203.4352
 205  176.7829
 206  132.032
 207  116.7607
 208  16.77127
 209  -3.320552
 210  14.12448
 211  75.76448
 212  28.69572
 213  -144.2315
 214  -76.16899
 215  37.32742
 216  271.9574
 217  195.4305
 218  177.062
 219  64.4292
 220  -39.06985
 221  -119.9325
 222  -93.11657
 223  12.73215
 224  146.0649
 225  222.8589
 226  240.7321
 227  148.9315
 228  206.2932
 229  295.1784
 230  239.2216
 231  43.67424
 232  -70.95244
 233  55.59264
 234  254.0562
 235  280.9061
 236  221.5314
 237  151.1576
 238  173.5485
 239  142.9008
 240  150.3215
 241  96.3386
 242  90.23391
 243  207.5781
 244  308.3564
 245  345.5293
 246  215.3044
 247  126.708
 248  63.91617
 249  125.0786
 250  199.367
 251  249.0128
 252  184.6983
 253  115.3617
 254  60.50133
 255  163.6362
 256  235.7941
 257  214.4044
 258  114.3347
 259  130.6391
 260  194.0173
 261  238.8474
 262  126.721
 263  97.83091
 264  153.787
 265  247.3979
 266  229.1584
 267  222.6503
 268  164.4567
 269  169.8341
 270  233.6725
 271  156.4414
 272  9.131629
 273  -163.3132
 274  -86.08889
 275  -23.1756
 276  84.17972
 277  102.475
 278  142.1564
 279  166.4581
 280  201.4685
 281  98.81715
 282  70.49158
 283  28.64791
 284  35.48586
 285  104.1778
 286  80.30983
 287  143.4889
 288  68.11966
 289  191.8117
 290  121.3129
 291  38.60085
 292  20.70065
 293  111.8795
 294  240.2981
 295  214.7127
 296  152.4572
 297  88.13835
 298  163.9533
 299  112.5708
 300  126.3922
 301  58.40158
 302  97.72136
 303  51.0773
 304  61.03657
 305  126.3948
 306  169.2168
 307  296.5651
 308  227.8472
 309  214.6735
 310  139.5313
 311  161.276
 312  173.3404
 313  151.5158
 314  249.8266
 315  259.4682
 316  241.4081
 317  118.2212
 318  91.24893
 319  126.2681
 320  300.5989
 321  257.5188
 322  63.01033
 323  -66.1629
 324  77.24251
 325  290.1246
 326  378.6089
 327  241.5088
 328  155.1187
 329  -22.85132
 330  57.75323
 331  30.48007
 332  148.4268
 333  115.3536
 334  97.37194
 335  5.450973
 336  116.9791
 337  237.2823
 338  272.6382
 339  142.7522
 340  133.758
 341  183.7502
 342  176.8026
 343  156.9081
 344  260.8771
 345  292.9898
 346  276.9955
 347  263.6108
 348  275.9308
 349  289.3897
 350  197.5322
 351  136.089
 352  44.02222
 353  -15.99637
 354  2.850239
 355  85.22766
 356  186.6877
 357  265.9675
 358  142.3987
 359  61.64719
 360  -50.90932
 361  6.675597
 362  50.00712
 363  219.6629
 364  210.9089
 365  212.0503
 366  97.12565
 367  50.72334
 368  90.4916
 369  126.3467
 370  246.9261
 371  260.7442
 372  373.137
 373  256.4196
 374  137.0489
 375  207.2866
 376  174.3726
 377  124.4023
 378  -73.24809
 379  -2.702642
 380  67.43377
 381  185.4241
 382  244.7274
 383  159.3835
 384  127.4391
 385  68.08244
 386  32.38142
 387  -19.09876
 388  -19.65785
 389  34.12345
 390  77.35599
 391  97.70612
 392  146.5225
 393  108.5647
 394  143.9652
 395  105.5426
 396  64.85961
 397  46.96767
 398  78.70597
 399  118.6245
 400  125.9328
 401  67.88878
 402  86.8093
 403  112.2219
 404  174.2595
 405  209.1295
 406  208.7175
 407  240.1414
 408  181.4433
 409  101.5016
 410  14.36921
 411  86.38608
 412  182.9689
 413  180.5243
 414  67.10204
 415  17.69333
 416  81.88709
 417  170.5741
 418  176.6354
 419  171.6981
 420  113.6895
 421  53.83112
 422  74.96989
 423  58.09607
 424  -7.55771
 425  -43.78191
 426  10.48587
 427  99.52483
 428  44.71783
 429  39.36802
 430  100.0802
 431  181.4467
 432  167.5851
 433  158.4306
 434  187.0702
 435  186.4346
 436  182.7715
 437  113.4143
 438  103.5458
 439  57.698
 440  172.1099
 441  153.4366
 442  175.0276
 443  191.936
 444  206.6469
 445  98.60993
 446  -15.81559
 447  60.55941
 448  135.0504
 449  82.40754
 450  68.63712
 451  115.8169
 452  291.4144
 453  333.1066
 454  289.6745
 455  138.1337
 456  61.55003
 457  25.63396
 458  153.6738
 459  189.6403
 460  173.2948
 461  79.78365
 462  18.60531
 463  45.09408
 464  -74.35448
 465  26.92123
 466  43.79921
 467  225.0142
 468  309.849
 469  282.7153
 470  215.0282
 471  129.7426
 472  138.0862
 473  168.3832
 474  248.7035
 475  258.0558
 476  236.528
 477  136.3204
 478  107.1373
 479  87.72703
 480  111.1896
 481  172.7054
 482  163.2779
 483  240.0144
 484  135.8371
 485  112.3811
 486  52.59999
 487  213.265
 488  197.5493
 489  233.1858
 490  259.9442
 491  390.3482
 492  326.0366
 493  204.734
 494  138.8224
 495  249.2739
 496  248.5619
 497  235.8906
 498  178.732
 499  111.5634
 500  57.00686
 501  102.651
 502  111.7972
 503  145.1685
 504  75.70003
 505  153.7302
 506  132.5369
 507  200.308
 508  273.3898
 509  385.3716
 510  468.4188
 511  412.0509
 512  226.7529
 513  191.8444
 514  166.2194
 515  208.4924
 516  107.4971
 517  101.9934
 518  84.20534
 519  167.4966
 520  113.2927
 521  300.8577
 522  281.3663
 523  290.5117
 524  211.9045
 525  257.0743
 526  299.7141
 527  269.1392
 528  199.9423
 529  196.7171
 530  129.0905
 531  194.6004
 532  96.87996
 533  37.6854
 534  6.050009
 535  192.7148
 536  304.1821
 537  360.4036
 538  366.9938
 539  335.5981
 540  296.5142
 541  281.2553
 542  289.0519
 543  268.1726
 544  290.2868
 545  327.5471
 546  309.3424
 547  276.063
 548  245.1627
 549  278.9438
 550  308.6146
 551  346.5818
 552  377.2755
 553  349.276
 554  200.0325
 555  90.32172
 556  182.6968
 557  366.766
 558  376.0107
 559  343.3448
 560  288.1427
 561  260.9989
 562  241.8144
 563  288.8124
 564  386.0516
 565  314.2854
 566  301.5762
 567  277.0794
 568  274.433
 569  187.6026
 570  117.7812
 571  97.43594
 572  69.5213
 573  133.3065
 574  161.5409
 575  64.73015
 576  -11.49326
 577  -0.6688632
 578  170.906
 579  243.6196
 580  284.7307
 581  181.0009
 582  224.7924
 583  261.2914
 584  218.5477
 585  101.24
 586  182.2074
 587  301.2483
 588  376.6231
 589  301.9311
 590  302.8421
 591  231.9894
 592  203.226
 593  240.0118
 594  344.9342
 595  326.2404
 596  245.7919
 597  214.5645
 598  296.0113
 599  274.5143
 600  257.9895
 601  257.8941
 602  227.695
 603  191.4243
 604  188.0773
 605  177.6469
 606  159.3117
 607  133.1118
 608  204.5193
 609  230.5827
 610  280.1577
 611  192.8799
 612  171.2359
 613  160.5657
 614  294.6675
 615  274.8958
 616  144.753
 617  156.4471
 618  304.7933
 619  324.7741
 620  108.8018
 621  19.00498
 622  -62.67731
 623  -133.1048
 624  -78.3147
 625  57.31014
 626  166.5709
 627  132.939
 628  194.0468
 629  270.4245
 630  305.4314
 631  321.4962
 632  324.0672
 633  302.4733
 634  272.6893
 635  379.013
 636  459.7975
 637  571.8146
 638  654.488
 639  857.2739
 640  1033.768
 641  1107.989
 642  1152.527
 643  1157.621
 644  1138.133
 645  1014.369
 646  830.0152
 647  685.0699
 648  501.6199
 649  381.0256
 650  317.9568
 651  416.5967
 652  471.2458
 653  420.8669
 654  296.2223
 655  111.4754
 656  43.97629
 657  3.820199
 658  -0.4925623
 659  66.96858
 660  135.4944
 661  175.6358
 662  300.7984
 663  398.8456
 664  450.3962
 665  343.1484
 666  197.8808
 667  167.6315
 668  191.8717
 669  313.7264
 670  350.5717
 671  368.8475
 672  349.5901
 673  306.9347
 674  197.7668
 675  196.861
 676  215.1006
 677  308.4037
 678  279.2829
 679  190.1758
 680  167.7054
 681  222.7623
 682  206.26
 683  106.3902
 684  17.78102
 685  57.235
 686  70.54459
 687  119.5892
 688  143.6766
 689  164.3267
 690  143.2556
 691  141.4956
 692  148.0255
 693  186.7352
 694  267.1547
 695  351.6075
 696  364.7897
 697  231.0066
 698  31.07368
 699  -21.39893
 700  89.07436
 701  352.429
 702  423.1509
 703  312.5052
 704  125.1725
 705  95.41515
 706  111.0373
 707  97.14814
 708  174.1034
 709  279.6917
 710  323.8739
 711  241.7791
 712  238.956
 713  287.1782
 714  259.8782
 715  208.628
 716  247.6053
 717  277.533
 718  218.8009
 719  190.2706
 720  194.9549
 721  186.8857
 722  102.3301
 723  102.6039
 724  161.404
 725  98.14966
 726  103.7394
 727  71.33316
 728  171.1449
 729  190.2627
 730  220.4095
 731  194.1757
 732  257.8715
 733  261.8727
 734  225.0397
 735  40.92354
 736  -41.65252
 737  21.26658
 738  99.44624
 739  171.571
 740  165.0731
 741  132.3843
 742  202.7299
 743  323.0718
 744  409.3237
 745  407.5551
 746  371.3977
 747  381.5195
 748  332.5619
 749  259.6659
 750  225.3882
 751  238.418
 752  256.8674
 753  244.5204
 754  232.2522
 755  259.2199
 756  194.184
 757  108.0129
 758  122.8229
 759  247.6438
 760  347.2973
 761  343.9379
 762  280.9721
 763  266.4727
 764  237.6599
 765  158.9803
 766  96.2914
 767  142.2186
 768  246.6784
 769  260.399
 770  129.3114
 771  105.3493
 772  37.78995
 773  81.70134
 774  172.6639
 775  301.3068
 776  350.0794
 777  322.2874
 778  288.2081
 779  215.1832
 780  136.0965
 781  129.4686
 782  156.689
 783  205.0429
 784  191.7342
 785  177.1254
 786  151.9134
 787  98.91897
 788  69.40698
 789  114.0677
 790  244.2348
 791  334.6086
 792  260.1646
 793  231.9298
 794  138.4717
 795  124.3179
 796  157.5493
 797  311.7536
 798  224.5296
 799  225.0937
 800  136.5876
 801  143.1306
 802  93.32706
 803  80.57747
 804  113.8344
 805  104.9611
 806  81.13345
 807  71.02908
 808  114.6593
 809  278.7203
 810  386.0097
 811  412.9573
 812  262.9982
 813  163.9816
 814  154.3865
 815  119.7642
 816  140.4419
 817  120.8438
 818  164.1638
 819  158.3709
 820  256.0963
 821  227.2009
 822  159.2934
 823  93.1039
 824  133.5664
 825  118.9466
 826  85.51656
 827  18.41744
 828  42.3352
 829  110.6581
 830  267.4689
 831  259.2942
 832  265.4032
 833  243.9585
 834  267.4445
 835  263.0493
 836  244.7592
 837  195.0338
 838  173.7782
 839  88.64071
 840  52.7939
 841  28.24722
 842  133.1695
 843  258.7271
 844  236.8347
 845  158.5106
 846  104.2337
 847  271.529
 848  344.9258
 849  363.7851
 850  276.047
 851  272.7284
 852  283.2499
 853  325.1227
 854  238.6977
 855  203.2048
 856  62.62551
 857  95.26434
 858  173.5866
 859  365.5358
 860  360.1802
 861  175.3779
 862  67.12236
 863  80.32783
 864  136.7289
 865  94.81787
 866  146.1103
 867  205.6678
 868  211.543
 869  279.8625
 870  227.4072
 871  227.7453
 872  221.3749
 873  363.4355
 874  370.6576
 875  278.0482
 876  188.088
 877  162.2881
 878  358.0112
 879  426.1107
 880  401.2428
 881  332.8641
 882  317.5729
 883  288.1045
 884  73.00729
 885  -10.93298
 886  -14.18943
 887  7.588868
 888  -5.912894
 889  -52.74699
 890  -126.5799
 891  -221.2042
 892  -262.7464
 893  -68.56933
 894  123.983
 895  247.7061
 896  181.3511
 897  173.8004
 898  168.5283
 899  202.3173
 900  126.8013
 901  151.0189
 902  136.2959
 903  118.3215
 904  90.34285
 905  -6.19564
 906  90.5743
 907  115.5317
 908  205.5333
 909  235.6716
 910  249.4637
 911  182.6983
 912  58.6364
 913  52.69936
 914  60.53593
 915  74.97809
 916  38.39529
 917  125.082
 918  139.6301
 919  125.7149
 920  22.11643
 921  -82.14079
 922  -50.38289
 923  -41.68967
 924  56.4227
 925  65.79518
 926  120.3807
 927  41.13741
 928  66.88245
 929  24.35175
 930  32.89061
 931  112.2057
 932  158.9306
 933  224.1628
 934  140.1807
 935  146.1947
 936  139.9519
 937  63.4888
 938  14.79961
 939  -48.25175
 940  75.41267
 941  155.5479
 942  208.6962
 943  156.4434
 944  189.7875
 945  283.9702
 946  420.2866
 947  371.6198
 948  256.1198
 949  139.9921
 950  28.89425
 951  95.1959
 952  92.62948
 953  216.2195
 954  224.8543
 955  311.8564
 956  283.0463
 957  204.1456
 958  182.0399
 959  248.4337
 960  313.8967
 961  307.4877
 962  341.5526
 963  261.2362
 964  252.9335
 965  256.5811
 966  175.662
 967  54.04185
 968  12.09229
 969  79.36647
 970  105.158
 971  105.8681
 972  213.1928
 973  293.2925
 974  372.9485
 975  383.4966
 976  257.6259
 977  174.2095
 978  168.1492
 979  213.5155
 980  305.5727
 981  285.7889
 982  266.2133
 983  177.8273
 984  250.0453
 985  289.3902
 986  280.6517
 987  205.6068
 988  139.4064
 989  129.0429
 990  102.222
 991  73.81084
 992  117.4742
 993  195.7665
 994  253.7075
 995  201.0303
 996  195.5541
 997  266.1224
 998  185.1096
 999  169.174
1000  133.0416
1001  127.4616
1002  122.7704
1003  72.75668
1004  129.7906
1005  55.58862
1006  121.1822
1007  230.0273
1008  326.0526
1009  278.9228
1010  278.836
1011  320.3223
1012  281.504
1013  109.838
1014  53.11753
1015  198.66
1016  294.8255
1017  391.168
1018  296.8354
1019  374.0559
1020  373.2074
1021  374.367
1022  209.6449
1023  96.95252
