# Input file       =  1189399122.117035_cleaned.dat
# Candidate        =  PSR_0332+5434
# Telescope        =  AR
# Epoch_topo       =  58010.193762928648
# Epoch_bary       =  N/A
# T_sample         =  0.002
# Data Folded      =  7340032
# Data Avg         =  0.0461678609364232
# Data StdDev      =  3.65936024762095 
# Profile Bins     =  1024
# Profile Avg      =  330.89857192819  
# Profile StdDev   =  309.816229529625 
# Reduced chi-sqr  =  1.355
# Prob(Noise)      <  1.93e-13   (~7.3 sigma)
# P_topo (ms)      =  714.465989236219  +/- 0.000167
# P'_topo (s/s)    =  -0                +/- 8.79e-11
# P''_topo (s/s^2) =  0                 +/- 3.88e-14
# P_bary (ms)      =  N/A
# P'_bary (s/s)    =  N/A
# P''_bary (s/s^2) =  N/A
# P_orb (s)        =  N/A
# asin(i)/c (s)    =  N/A
# eccentricity     =  N/A
# w (rad)          =  N/A
# T_peri           =  N/A
######################################################
   0  482.8105
   1  532.3972
   2  598.0589
   3  459.5352
   4  381.2745
   5  333.3239
   6  271.1487
   7  383.8716
   8  297.7092
   9  343.8162
  10  401.335
  11  501.2614
  12  540.4893
  13  519.7929
  14  586.6989
  15  634.9054
  16  614.6953
  17  523.1776
  18  342.62
  19  274.0811
  20  223.9832
  21  429.4448
  22  414.0014
  23  388.554
  24  215.9153
  25  215.361
  26  273.0681
  27  350.5639
  28  341.748
  29  312.9582
  30  258.5106
  31  354.8851
  32  406.0556
  33  443.5843
  34  314.6345
  35  147.0048
  36  230.6527
  37  358.8044
  38  388.8274
  39  187.2305
  40  60.65968
  41  134.6944
  42  248.6114
  43  373.5604
  44  325.4644
  45  300.4123
  46  207.228
  47  246.7042
  48  201.9592
  49  296.8232
  50  282.7385
  51  276.3059
  52  199.215
  53  135.4906
  54  167.5485
  55  270.6059
  56  282.3781
  57  346.076
  58  251.2924
  59  320.7766
  60  336.8819
  61  325.5157
  62  352.9226
  63  369.5683
  64  445.7441
  65  312.9873
  66  193.5323
  67  221.4953
  68  165.4628
  69  219.4545
  70  169.5316
  71  305.9169
  72  331.5549
  73  212.309
  74  257.3737
  75  326.6859
  76  300.7298
  77  227.2073
  78  41.06842
  79  136.3894
  80  129.7531
  81  235.8382
  82  236.9648
  83  262.2322
  84  333.5173
  85  314.3944
  86  251.6728
  87  36.90789
  88  180.9073
  89  373.7235
  90  571.7319
  91  702.4109
  92  793.0015
  93  620.8872
  94  492.6573
  95  285.3447
  96  247.363
  97  269.0066
  98  419.4648
  99  540.0704
 100  433.1489
 101  456.3595
 102  429.1217
 103  475.9036
 104  280.7049
 105  250.6687
 106  242.404
 107  206.5197
 108  183.5523
 109  239.6612
 110  423.0138
 111  398.0497
 112  340.9232
 113  269.0382
 114  236.7145
 115  120.4441
 116  164.0069
 117  204.3677
 118  351.4003
 119  176.8382
 120  183.1909
 121  114.4728
 122  16.12478
 123  -142.7188
 124  -36.50085
 125  154.623
 126  192.8914
 127  291.3948
 128  393.1382
 129  500.7471
 130  378.5659
 131  308.1205
 132  305.1051
 133  287.159
 134  308.852
 135  335.5823
 136  389.427
 137  340.3356
 138  366.3553
 139  439.0151
 140  555.516
 141  573.8961
 142  597.394
 143  574.4185
 144  522.9486
 145  542.9225
 146  561.3912
 147  510.6182
 148  496.4153
 149  594.821
 150  659.4037
 151  544.724
 152  463.0823
 153  431.8953
 154  363.9967
 155  154.6797
 156  79.59227
 157  332.4479
 158  417.4987
 159  493.6449
 160  410.6588
 161  569.6851
 162  575.3078
 163  420.6858
 164  332.0827
 165  434.1018
 166  424.5467
 167  272.8891
 168  280.1057
 169  380.3862
 170  392.6546
 171  355.4832
 172  511.093
 173  531.972
 174  640.0959
 175  572.6844
 176  674.7068
 177  609.862
 178  638.9528
 179  356.4462
 180  371.7131
 181  402.9418
 182  537.9916
 183  404.8528
 184  580.8096
 185  683.2192
 186  667.3011
 187  530.2964
 188  359.742
 189  354.2333
 190  320.8278
 191  208.4364
 192  279.9673
 193  353.0223
 194  489.5016
 195  542.9089
 196  511.8982
 197  563.1204
 198  475.085
 199  322.7266
 200  338.0699
 201  487.2339
 202  614.81
 203  393.3959
 204  323.982
 205  183.1153
 206  193.8404
 207  47.66183
 208  50.16787
 209  150.8034
 210  186.7309
 211  284.6917
 212  378.7292
 213  370.7113
 214  413.0056
 215  419.0392
 216  487.0623
 217  445.0748
 218  394.0628
 219  413.5426
 220  265.6109
 221  169.5216
 222  186.5362
 223  331.7507
 224  512.0974
 225  705.1924
 226  681.9136
 227  503.249
 228  252.2067
 229  161.5717
 230  151.7389
 231  37.43654
 232  90.67253
 233  107.2711
 234  248.5223
 235  235.0343
 236  371.285
 237  471.1777
 238  544.5888
 239  512.1766
 240  415.3292
 241  416.1191
 242  363.4398
 243  418.2853
 244  388.5481
 245  416.7934
 246  348.4107
 247  396.3202
 248  505.5739
 249  482.0865
 250  320.3636
 251  266.9819
 252  179.5829
 253  192.6172
 254  59.36557
 255  142.7789
 256  227.276
 257  268.1149
 258  321.4788
 259  355.0481
 260  510.4106
 261  461.0863
 262  402.2945
 263  249.9446
 264  201.1054
 265  309.7242
 266  352.877
 267  449.846
 268  359.4576
 269  476.0716
 270  402.1495
 271  415.8365
 272  387.9196
 273  562.2068
 274  603.1675
 275  468.1424
 276  398.3296
 277  350.3159
 278  273.1167
 279  150.2483
 280  147.4547
 281  285.1243
 282  164.9495
 283  155.8753
 284  -0.7442832
 285  74.39769
 286  181.2744
 287  535.0121
 288  811.9707
 289  767.9899
 290  437.9549
 291  348.4732
 292  507.2891
 293  625.0067
 294  620.7466
 295  488.0402
 296  413.2031
 297  160.3187
 298  85.07771
 299  182.3646
 300  441.9384
 301  458.0392
 302  435.1417
 303  426.1808
 304  294.1879
 305  266.1549
 306  237.2149
 307  215.7456
 308  300.3385
 309  287.5453
 310  305.5885
 311  90.72282
 312  133.7096
 313  360.6546
 314  576.6776
 315  435.0381
 316  267.6913
 317  132.0832
 318  114.1521
 319  263.5967
 320  418.5705
 321  447.8288
 322  241.0623
 323  166.5396
 324  296.595
 325  368.0637
 326  242.2197
 327  182.5461
 328  274.078
 329  287.3232
 330  225.0716
 331  215.5573
 332  393.5312
 333  341.8839
 334  192.4036
 335  -10.57949
 336  145.5872
 337  308.2484
 338  483.7871
 339  430.3673
 340  274.5368
 341  82.5583
 342  25.09511
 343  79.80694
 344  223.614
 345  233.0307
 346  274.6927
 347  187.9035
 348  237.0199
 349  303.0092
 350  261.1145
 351  196.9324
 352  93.93668
 353  227.3058
 354  72.84303
 355  122.5415
 356  199.1144
 357  368.5736
 358  379.5267
 359  269.9449
 360  338.0039
 361  233.6492
 362  178.3931
 363  60.66586
 364  84.30598
 365  59.09858
 366  58.99782
 367  -63.69672
 368  -54.53688
 369  -34.68582
 370  101.0046
 371  65.05281
 372  114.4109
 373  188.809
 374  272.0191
 375  281.7871
 376  148.7921
 377  32.28013
 378  -65.80981
 379  195.5196
 380  148.5484
 381  299.1642
 382  136.3227
 383  246.3148
 384  141.891
 385  -6.236966
 386  -88.12864
 387  83.12083
 388  349.8721
 389  440.1818
 390  368.5049
 391  339.5686
 392  314.6434
 393  300.9331
 394  269.4912
 395  224.1882
 396  257.6984
 397  315.2477
 398  217.7496
 399  214.0775
 400  213.2588
 401  320.7615
 402  279.8803
 403  174.1467
 404  70.45124
 405  143.3926
 406  312.6747
 407  417.0668
 408  378.1862
 409  314.3831
 410  326.8664
 411  321.0955
 412  350.1897
 413  377.1264
 414  281.8968
 415  168.9535
 416  144.8326
 417  152.2107
 418  94.15975
 419  14.73091
 420  27.44202
 421  25.84277
 422  121.2794
 423  174.7074
 424  260.4651
 425  212.4925
 426  300.9109
 427  388.0659
 428  332.39
 429  139.4864
 430  -15.05445
 431  122.7418
 432  286.2344
 433  242.2649
 434  77.20607
 435  18.18646
 436  -116.833
 437  -260.3167
 438  -207.9508
 439  75.92258
 440  250.7872
 441  245.6409
 442  269.3178
 443  379.6954
 444  217.6891
 445  70.72475
 446  162.5387
 447  282.9863
 448  350.9405
 449  253.1976
 450  404.104
 451  414.1254
 452  329.1278
 453  267.4217
 454  440.7135
 455  520.9042
 456  356.9662
 457  110.5494
 458  15.79598
 459  180.6383
 460  281.0089
 461  491.9745
 462  418.2867
 463  283.6195
 464  193.8571
 465  174.8112
 466  217.9401
 467  122.1301
 468  98.35219
 469  123.4521
 470  175.6468
 471  227.931
 472  241.0036
 473  224.9912
 474  331.3893
 475  289.5667
 476  167.6955
 477  -12.42336
 478  -143.3025
 479  -156.067
 480  -32.30032
 481  315.0565
 482  371.4627
 483  373.7297
 484  315.6114
 485  410.3205
 486  297.3583
 487  169.6503
 488  185.5482
 489  179.7058
 490  25.83161
 491  -37.4315
 492  7.807587
 493  89.78369
 494  6.515835
 495  -103.6215
 496  -89.52734
 497  -34.11497
 498  214.25
 499  371.7478
 500  545.7379
 501  471.6058
 502  320.019
 503  139.5169
 504  189.9025
 505  305.3218
 506  372.8452
 507  293.5411
 508  202.8311
 509  143.1784
 510  132.9924
 511  175.5717
 512  157.903
 513  208.9309
 514  290.4636
 515  328.699
 516  256.2732
 517  123.2234
 518  119.0663
 519  73.54643
 520  146.0561
 521  290.2233
 522  374.0378
 523  492.6103
 524  306.5742
 525  189.448
 526  62.58769
 527  104.3028
 528  135.1947
 529  171.7098
 530  203.1273
 531  328.3766
 532  144.3614
 533  68.07168
 534  -21.41076
 535  -1.633658
 536  117.2418
 537  155.7721
 538  240.8258
 539  205.3208
 540  244.8052
 541  335.5189
 542  312.3794
 543  249.4223
 544  259.3447
 545  408.3076
 546  304.1664
 547  206.5205
 548  113.2226
 549  89.10339
 550  -4.268286
 551  5.347884
 552  -49.89096
 553  14.4883
 554  82.36494
 555  270.5093
 556  174.0046
 557  179.7071
 558  311.5937
 559  640.1255
 560  501.4139
 561  221.3862
 562  30.40889
 563  219.3092
 564  369.1892
 565  425.9471
 566  321.3757
 567  217.3271
 568  210.223
 569  268.89
 570  328.4352
 571  287.6761
 572  189.9262
 573  285.0159
 574  355.5503
 575  415.5748
 576  231.4836
 577  264.1105
 578  268.5847
 579  552.313
 580  646.987
 581  717.0689
 582  480.1108
 583  334.9846
 584  354.8965
 585  401.4262
 586  530.0897
 587  578.3704
 588  553.0211
 589  473.7231
 590  425.295
 591  502.3778
 592  445.1209
 593  414.7186
 594  476.3209
 595  628.4506
 596  605.0648
 597  339.5991
 598  251.3237
 599  312.6258
 600  312.1551
 601  337.2422
 602  430.5923
 603  584.5217
 604  512.159
 605  655.1011
 606  781.3984
 607  736.8587
 608  576.5129
 609  471.6074
 610  513.0854
 611  483.2528
 612  511.8921
 613  561.4351
 614  398.1911
 615  260.475
 616  200.501
 617  209.0806
 618  203.4953
 619  201.4194
 620  344.8777
 621  355.8051
 622  491.549
 623  523.4235
 624  659.8722
 625  678.928
 626  626.0659
 627  490.9975
 628  384.1268
 629  373.7948
 630  416.3537
 631  468.8931
 632  461.1434
 633  477.3929
 634  629.4644
 635  773.8816
 636  866.7228
 637  1047.055
 638  1126.545
 639  1247.717
 640  1143.558
 641  1090.963
 642  1130.536
 643  1296.813
 644  1431.345
 645  1281.671
 646  892.0725
 647  700.2104
 648  689.1154
 649  929.0768
 650  982.6324
 651  972.6254
 652  755.9181
 653  642.6708
 654  475.2258
 655  385.3097
 656  298.3333
 657  293.5474
 658  339.78
 659  327.3785
 660  435.1446
 661  358.474
 662  223.442
 663  226.2316
 664  361.073
 665  515.2982
 666  553.2258
 667  581.4676
 668  585.6013
 669  611.1653
 670  732.9763
 671  746.6077
 672  677.1208
 673  611.7645
 674  648.0089
 675  578.204
 676  486.8543
 677  414.6316
 678  475.2345
 679  407.7767
 680  369.9343
 681  346.0935
 682  500.0103
 683  438.749
 684  512.5737
 685  461.704
 686  447.3739
 687  353.1027
 688  398.1326
 689  450.6059
 690  537.3895
 691  573.0186
 692  582.2161
 693  448.834
 694  224.0343
 695  186.1051
 696  313.5537
 697  472.3857
 698  530.7012
 699  543.8293
 700  524.7936
 701  529.4169
 702  455.9711
 703  541.5552
 704  484.1874
 705  369.9971
 706  234.4213
 707  460.297
 708  537.9032
 709  489.3454
 710  228.1573
 711  222.2833
 712  102.3649
 713  159.5005
 714  220.734
 715  424.0191
 716  463.0605
 717  452.3716
 718  471.8449
 719  533.5826
 720  503.0012
 721  490.1988
 722  494.4867
 723  422.8855
 724  328.3006
 725  377.3723
 726  444.3713
 727  354.0042
 728  439.9653
 729  416.5777
 730  474.7744
 731  508.886
 732  625.2122
 733  601.5733
 734  563.632
 735  462.7136
 736  512.7881
 737  481.3263
 738  578.8578
 739  502.6138
 740  375.1899
 741  247.0098
 742  186.7259
 743  223.6048
 744  259.878
 745  278.1083
 746  325.4138
 747  325.7677
 748  340.42
 749  387.2788
 750  419.407
 751  429.9246
 752  281.4099
 753  280.7628
 754  314.699
 755  386.7787
 756  317.8958
 757  330.2586
 758  481.0688
 759  621.3306
 760  606.698
 761  502.1537
 762  361.5789
 763  253.4206
 764  275.4368
 765  444.5284
 766  527.7216
 767  500.0602
 768  396.3921
 769  355.6727
 770  252.9251
 771  205.4696
 772  121.1404
 773  140.967
 774  142.7486
 775  349.8403
 776  579.798
 777  668.767
 778  637.1183
 779  498.0333
 780  438.3904
 781  324.095
 782  386.3661
 783  375.284
 784  399.5766
 785  441.4444
 786  580.6782
 787  534.9359
 788  607.8271
 789  497.7351
 790  461.6146
 791  255.7682
 792  353.8181
 793  400.3953
 794  476.4514
 795  435.8197
 796  533.9648
 797  562.0591
 798  647.4933
 799  596.5368
 800  692.8679
 801  866.4318
 802  785.205
 803  545.5446
 804  350.7019
 805  334.7037
 806  232.8737
 807  130.2962
 808  113.2428
 809  264.0415
 810  357.5019
 811  427.5107
 812  359.7747
 813  259.918
 814  358.1174
 815  531.5082
 816  717.6013
 817  659.929
 818  344.7687
 819  167.4551
 820  -68.44552
 821  148.657
 822  254.8106
 823  375.1378
 824  281.1333
 825  200.8329
 826  108.4264
 827  85.92944
 828  254.932
 829  311.5306
 830  357.2646
 831  163.715
 832  174.238
 833  169.5587
 834  181.1916
 835  60.58341
 836  14.45806
 837  199.6245
 838  405.2393
 839  422.7087
 840  324.0655
 841  145.1745
 842  271.2548
 843  455.3772
 844  643.4645
 845  417.4302
 846  268.8798
 847  -8.925094
 848  103.45
 849  159.8461
 850  267.4534
 851  236.8135
 852  296.2838
 853  474.5316
 854  521.1145
 855  361.7749
 856  405.9184
 857  454.171
 858  443.2916
 859  243.5193
 860  117.5652
 861  207.9575
 862  356.3703
 863  375.758
 864  329.5453
 865  206.165
 866  259.4963
 867  260.7651
 868  430.9789
 869  513.1164
 870  589.1847
 871  665.7986
 872  515.8622
 873  382.0557
 874  177.1921
 875  145.9118
 876  252.1591
 877  213.5983
 878  42.6082
 879  -41.64237
 880  193.8001
 881  477.484
 882  426.6539
 883  316.7404
 884  153.4236
 885  174.7754
 886  223.9146
 887  207.1469
 888  217.7223
 889  189.5909
 890  340.6473
 891  321.5109
 892  161.2144
 893  119.6004
 894  138.9383
 895  389.5114
 896  317.0963
 897  305.2116
 898  143.0011
 899  218.0281
 900  133.5869
 901  123.1223
 902  82.63541
 903  38.68152
 904  73.79511
 905  127.5642
 906  224.1205
 907  298.4813
 908  250.5144
 909  264.5563
 910  249.7252
 911  222.0877
 912  -36.8405
 913  -85.40903
 914  -134.9014
 915  5.959144
 916  -8.305017
 917  147.0853
 918  264.0974
 919  383.5451
 920  497.0796
 921  502.8168
 922  410.6798
 923  332.8361
 924  282.5402
 925  235.7847
 926  166.8108
 927  192.4175
 928  145.7418
 929  54.62311
 930  -152.1615
 931  -205.4066
 932  -183.6007
 933  -54.05278
 934  -42.76397
 935  -7.898523
 936  16.80778
 937  98.67735
 938  136.2135
 939  205.0262
 940  265.7656
 941  306.9749
 942  171.5346
 943  165.2448
 944  185.697
 945  474.4892
 946  554.3868
 947  515.1481
 948  505.747
 949  509.4788
 950  500.7581
 951  409.0425
 952  252.412
 953  68.46652
 954  99.70641
 955  262.868
 956  297.8988
 957  164.0985
 958  203.5834
 959  319.1586
 960  232.3187
 961  252.3146
 962  289.8783
 963  364.6695
 964  202.7
 965  6.339897
 966  137.5112
 967  275.9982
 968  450.0952
 969  289.7623
 970  226.4053
 971  194.0641
 972  350.8485
 973  429.1405
 974  546.3182
 975  388.6667
 976  471.6926
 977  313.0751
 978  232.3877
 979  79.94225
 980  152.1315
 981  311.4236
 982  473.8185
 983  508.2546
 984  430.0163
 985  452.632
 986  371.85
 987  217.1869
 988  187.3338
 989  259.1194
 990  396.2063
 991  384.4525
 992  467.5454
 993  720.7707
 994  744.3407
 995  735.5174
 996  455.1467
 997  308.8722
 998  80.18226
 999  177.6158
1000  264.592
1001  477.8168
1002  554.3042
1003  630.4453
1004  410.8792
1005  194.7511
1006  130.2333
1007  276.6469
1008  402.9888
1009  529.0104
1010  623.594
1011  645.3774
1012  517.6619
1013  481.931
1014  402.5269
1015  471.3604
1016  329.6067
1017  320.5869
1018  350.347
1019  444.106
1020  470.5052
1021  343.6488
1022  280.2823
1023  255.6758
