# Input file       =  1189125652.118063_cleaned.dat
# Candidate        =  PSR_0332+5434
# Telescope        =  AR
# Epoch_topo       =  58007.028600903504
# Epoch_bary       =  N/A
# T_sample         =  0.002
# Data Folded      =  7340032
# Data Avg         =  0.0262136177469594
# Data StdDev      =  2.44136958298929 
# Profile Bins     =  512
# Profile Avg      =  375.910217294439 
# Profile StdDev   =  292.312593089187 
# Reduced chi-sqr  =  1.264
# Prob(Noise)      <  4.58e-05   (~3.9 sigma)
# P_topo (ms)      =  714.46487529879   +/- 0.00014
# P'_topo (s/s)    =  -0                +/- 7.39e-11
# P''_topo (s/s^2) =  0                 +/- 3.26e-14
# P_bary (ms)      =  N/A
# P'_bary (s/s)    =  N/A
# P''_bary (s/s^2) =  N/A
# P_orb (s)        =  N/A
# asin(i)/c (s)    =  N/A
# eccentricity     =  N/A
# w (rad)          =  N/A
# T_peri           =  N/A
######################################################
   0  532.5126
   1  446.4743
   2  549.4111
   3  387.4785
   4  427.3438
   5  484.6196
   6  556.4888
   7  487.3298
   8  466.4898
   9  433.9784
  10  265.1666
  11  291.0651
  12  591.6395
  13  564.2727
  14  445.5698
  15  132.3855
  16  519.278
  17  694.9207
  18  620.2766
  19  687.2094
  20  495.7121
  21  772.837
  22  728.8864
  23  532.7153
  24  454.6784
  25  426.5431
  26  552.4325
  27  627.3896
  28  294.5414
  29  251.768
  30  350.0784
  31  323.414
  32  173.6642
  33  331.4557
  34  583.7974
  35  240.1355
  36  228.9737
  37  381.4891
  38  406.1665
  39  671.5886
  40  479.155
  41  71.45824
  42  255.5602
  43  335.085
  44  323.1278
  45  272.9471
  46  366.7179
  47  116.3143
  48  57.68535
  49  419.7299
  50  328.7373
  51  211.6623
  52  259.6029
  53  673.8429
  54  466.7798
  55  212.0292
  56  533.6932
  57  763.7213
  58  615.5624
  59  319.9406
  60  443.907
  61  393.9094
  62  215.897
  63  23.48714
  64  71.23075
  65  283.2688
  66  529.8102
  67  130.2413
  68  302.8847
  69  288.7122
  70  316.7278
  71  192.1371
  72  500.6815
  73  500.0318
  74  333.0933
  75  153.104
  76  73.17932
  77  268.1604
  78  550.6127
  79  527.3452
  80  195.2587
  81  238.9462
  82  232.7368
  83  90.74673
  84  -117.3478
  85  92.9827
  86  249.2737
  87  297.1445
  88  381.5497
  89  460.5863
  90  410.057
  91  294.5242
  92  406.7558
  93  513.4344
  94  261.4859
  95  202.2617
  96  380.6836
  97  537.1978
  98  406.4175
  99  163.1022
 100  79.97649
 101  241.3513
 102  429.5787
 103  283.8151
 104  97.53539
 105  275.5878
 106  311.5731
 107  516.6114
 108  502.4592
 109  456.3812
 110  78.36323
 111  -312.0669
 112  -41.5285
 113  515.0482
 114  702.8527
 115  238.3732
 116  282.7891
 117  148.0046
 118  267.3702
 119  789.8608
 120  579.1871
 121  455.78
 122  -73.90629
 123  273.504
 124  316.2038
 125  442.5753
 126  248.71
 127  127.7684
 128  413.2236
 129  662.9592
 130  525.6969
 131  522.9476
 132  321.0499
 133  472.5308
 134  380.4234
 135  423.7368
 136  228.2117
 137  439.9207
 138  203.4663
 139  256.3416
 140  359.4362
 141  652.7646
 142  794.0509
 143  867.795
 144  912.7113
 145  576.5692
 146  389.683
 147  122.4195
 148  44.91279
 149  307.5123
 150  376.5453
 151  273.0737
 152  407.5121
 153  470.6837
 154  626.4805
 155  295.3439
 156  630.4658
 157  620.1043
 158  562.0598
 159  216.1434
 160  67.20079
 161  335.5078
 162  534.8472
 163  551.6619
 164  118.4663
 165  196.0578
 166  301.4766
 167  396.5124
 168  522.6766
 169  477.9241
 170  249.7098
 171  178.4876
 172  587.6165
 173  534.777
 174  177.4327
 175  362.2526
 176  388.7947
 177  348.8513
 178  389.0809
 179  257.1815
 180  199.0231
 181  102.9881
 182  592.1359
 183  992.2128
 184  1581.924
 185  1678.828
 186  2104.987
 187  1669.733
 188  1296.636
 189  1106.765
 190  603.543
 191  265.5365
 192  299.4748
 193  401.9181
 194  316.2776
 195  269.1883
 196  490.186
 197  377.756
 198  144.9207
 199  280.4809
 200  744.6339
 201  243.5161
 202  351.7139
 203  426.3232
 204  283.7823
 205  261.7297
 206  381.7589
 207  375.3289
 208  279.9407
 209  383.7261
 210  396.3001
 211  274.9612
 212  -39.10191
 213  303.9503
 214  228.1504
 215  274.0004
 216  54.14895
 217  353.6555
 218  501.2536
 219  206.9257
 220  397.2708
 221  569.7229
 222  380.5925
 223  417.0383
 224  465.4133
 225  488.4758
 226  272.5764
 227  467.9338
 228  485.3708
 229  696.655
 230  420.178
 231  575.9708
 232  351.4017
 233  297.7064
 234  118.8874
 235  211.3269
 236  386.7515
 237  330.446
 238  628.1638
 239  583.6046
 240  606.2124
 241  491.1869
 242  403.4941
 243  67.15007
 244  -109.2735
 245  215.4621
 246  577.7076
 247  846.1288
 248  504.7794
 249  241.3997
 250  349.0729
 251  377.1553
 252  221.9957
 253  92.50669
 254  543.8347
 255  136.1875
 256  86.9096
 257  196.0096
 258  595.0199
 259  689.2491
 260  424.3717
 261  748.3221
 262  423.0432
 263  329.7833
 264  304.8232
 265  330.6044
 266  129.0926
 267  312.5619
 268  282.881
 269  -115.6358
 270  227.9449
 271  309.0769
 272  311.3005
 273  528.0347
 274  622.0392
 275  689.3293
 276  140.4688
 277  -92.89057
 278  276.4084
 279  518.4047
 280  622.9367
 281  186.3972
 282  -46.49079
 283  25.28418
 284  99.44789
 285  249.1219
 286  510.876
 287  467.5333
 288  545.2451
 289  663.4147
 290  438.8614
 291  434.7323
 292  360.0309
 293  212.3588
 294  448.3642
 295  491.3129
 296  72.07059
 297  133.8389
 298  146.4355
 299  -29.80246
 300  252.282
 301  252.2612
 302  623.9315
 303  984.428
 304  427.6846
 305  307.0779
 306  437.4836
 307  781.6152
 308  575.9286
 309  481.2675
 310  397.4568
 311  316.3929
 312  296.6344
 313  532.4538
 314  503.6129
 315  524.3263
 316  666.0612
 317  668.112
 318  451.9993
 319  411.8974
 320  204.0173
 321  288.183
 322  672.4952
 323  400.7799
 324  408.2181
 325  345.6855
 326  363.9079
 327  381.4354
 328  220.1298
 329  215.9942
 330  93.27585
 331  361.4134
 332  307.4393
 333  412.1653
 334  278.5252
 335  275.5922
 336  217.5052
 337  369.53
 338  470.3459
 339  212.3152
 340  172.0809
 341  522.3775
 342  596.608
 343  626.0392
 344  593.9629
 345  572.4358
 346  336.6851
 347  161.9618
 348  329.3282
 349  630.8427
 350  301.2795
 351  392.4526
 352  411.3415
 353  441.7227
 354  276.7445
 355  223.68
 356  225.645
 357  188.741
 358  98.20497
 359  19.57461
 360  195.5243
 361  534.8621
 362  458.4759
 363  539.1736
 364  352.4814
 365  451.271
 366  400.1042
 367  499.8197
 368  461.5714
 369  452.6474
 370  -13.59268
 371  55.09125
 372  96.61633
 373  446.5622
 374  357.1692
 375  267.1961
 376  583.5644
 377  638.7789
 378  3.042675
 379  73.58298
 380  542.9119
 381  324.6331
 382  79.6438
 383  273.7271
 384  522.4467
 385  341.1554
 386  204.5112
 387  280.2863
 388  -101.0354
 389  -178.5843
 390  115.9673
 391  271.1335
 392  386.6059
 393  752.9214
 394  633.5031
 395  225.1689
 396  174.2393
 397  123.4652
 398  346.0948
 399  161.6666
 400  14.98825
 401  65.03264
 402  416.7025
 403  349.7477
 404  341.4841
 405  186.5758
 406  215.3485
 407  -193.2125
 408  42.27037
 409  814.1579
 410  295.7128
 411  256.4821
 412  157.4874
 413  172.9971
 414  395.2133
 415  380.6065
 416  499.0472
 417  322.9833
 418  136.1778
 419  316.6443
 420  263.8742
 421  690.4004
 422  429.3509
 423  142.372
 424  522.1691
 425  142.4061
 426  29.50427
 427  202.7874
 428  496.6109
 429  415.926
 430  244.302
 431  386.979
 432  445.1153
 433  477.4522
 434  311.853
 435  108.3374
 436  -7.297006
 437  135.5655
 438  405.6597
 439  220.7384
 440  388.7907
 441  437.9042
 442  430.6897
 443  328.588
 444  116.2515
 445  364.1776
 446  763.9444
 447  555.5316
 448  571.9448
 449  255.2531
 450  335.8844
 451  500.7094
 452  490.0503
 453  176.1
 454  239.3699
 455  356.166
 456  441.9223
 457  587.4642
 458  284.1847
 459  274.4678
 460  397.9729
 461  563.3669
 462  709.0482
 463  837.5469
 464  537.8423
 465  455.3878
 466  240.0283
 467  339.5138
 468  232.0986
 469  603.8702
 470  439.1098
 471  197.952
 472  307.445
 473  181.8236
 474  260.5292
 475  232.3958
 476  395.923
 477  315.3808
 478  223.3678
 479  167.5012
 480  54.64763
 481  466.3273
 482  606.1797
 483  653.6701
 484  548.4454
 485  323.5388
 486  58.18778
 487  307.3184
 488  386.4582
 489  509.6331
 490  495.3358
 491  39.63741
 492  1.00138
 493  445.901
 494  650.7666
 495  762.0477
 496  766.4306
 497  538.8926
 498  441.0675
 499  504.9649
 500  680.9019
 501  345.0757
 502  175.9865
 503  364.8902
 504  370.9708
 505  448.0172
 506  539.7672
 507  254.8076
 508  304.1531
 509  496.8693
 510  446.7044
 511  511.7899
