# Input file       =  1189829930.117989_cleaned.dat
# Candidate        =  PSR_0332+5434
# Telescope        =  AR
# Epoch_topo       =  58015.179966643394
# Epoch_bary       =  N/A
# T_sample         =  0.002
# Data Folded      =  7340032
# Data Avg         =  0.00905578671978436
# Data StdDev      =  1.00001489629619 
# Profile Bins     =  512
# Profile Avg      =  129.804110394219 
# Profile StdDev   =  119.73481995554  
# Reduced chi-sqr  =  1.036
# Prob(Noise)      <  0.279   (~0.6 sigma)
# P_topo (ms)      =  714.467562598487  +/- 0.000159
# P'_topo (s/s)    =  -0                +/- 8.39e-11
# P''_topo (s/s^2) =  0                 +/- 3.7e-14
# P_bary (ms)      =  N/A
# P'_bary (s/s)    =  N/A
# P''_bary (s/s^2) =  N/A
# P_orb (s)        =  N/A
# asin(i)/c (s)    =  N/A
# eccentricity     =  N/A
# w (rad)          =  N/A
# T_peri           =  N/A
######################################################
   0  164.837
   1  149.0019
   2  261.1061
   3  157.8909
   4  129.2477
   5  80.63757
   6  75.8343
   7  163.3284
   8  225.4985
   9  224.6565
  10  233.3833
  11  114.2706
  12  155.4796
  13  127.8947
  14  42.98494
  15  41.2055
  16  110.4492
  17  52.8355
  18  121.9343
  19  57.71353
  20  110.5805
  21  132.9799
  22  238.2131
  23  124.5797
  24  45.44409
  25  137.4943
  26  141.202
  27  61.74953
  28  102.0548
  29  -105.9538
  30  10.77116
  31  119.222
  32  139.902
  33  190.7348
  34  183.0049
  35  173.8738
  36  139.9503
  37  238.2447
  38  97.82191
  39  68.61436
  40  228.4956
  41  215.9255
  42  123.1341
  43  84.9776
  44  209.8401
  45  11.99231
  46  46.31445
  47  127.0886
  48  63.37656
  49  -14.75268
  50  40.0255
  51  62.09631
  52  256.8375
  53  392.563
  54  227.8299
  55  158.8566
  56  67.48988
  57  253.3696
  58  377.5304
  59  220.9006
  60  146.1519
  61  85.64247
  62  163.2236
  63  135.372
  64  170.9763
  65  217.2883
  66  163.0199
  67  107.8152
  68  78.81181
  69  62.33685
  70  141.7033
  71  236.9143
  72  178.5435
  73  142.6198
  74  171.8102
  75  82.89024
  76  139.9368
  77  130.4554
  78  230.9823
  79  79.08617
  80  -70.90473
  81  -32.8498
  82  111.105
  83  146.9203
  84  45.72061
  85  95.77579
  86  120.0798
  87  117.2102
  88  162.8303
  89  107.7202
  90  153.2452
  91  136.0204
  92  191.8661
  93  153.805
  94  206.9167
  95  272.1168
  96  19.62226
  97  105.5613
  98  -76.48708
  99  17.40638
 100  19.97449
 101  -15.0828
 102  152.038
 103  184.804
 104  151.8169
 105  123.1319
 106  -0.4891213
 107  28.73284
 108  118.1884
 109  247.412
 110  126.112
 111  127.3294
 112  196.7944
 113  157.1917
 114  24.50198
 115  78.2672
 116  122.2929
 117  45.45299
 118  40.87477
 119  -57.7649
 120  86.62321
 121  142.1455
 122  78.44223
 123  107.4823
 124  87.76765
 125  -5.777204
 126  59.59102
 127  12.25975
 128  35.27069
 129  136.2598
 130  80.85151
 131  159.5941
 132  236.5238
 133  161.7276
 134  206.2872
 135  234.8999
 136  217.5176
 137  253.0726
 138  296.7988
 139  266.4936
 140  102.5365
 141  68.28704
 142  91.53565
 143  107.8888
 144  256.1671
 145  173.8855
 146  81.5704
 147  -26.8708
 148  33.00264
 149  130.6292
 150  142.2723
 151  160.1852
 152  122.8612
 153  127.2651
 154  81.64367
 155  142.9017
 156  258.088
 157  149.2778
 158  176.2242
 159  486.151
 160  458.0124
 161  479.4271
 162  473.8463
 163  596.0314
 164  600.7649
 165  377.3323
 166  150.8934
 167  152.42
 168  260.26
 169  226.4523
 170  156.4837
 171  200.1826
 172  57.15521
 173  105.8015
 174  135.9413
 175  227.3356
 176  181.9371
 177  258.737
 178  226.8295
 179  183.3026
 180  61.69432
 181  3.94085
 182  124.8266
 183  113.2004
 184  54.4262
 185  -5.355809
 186  -48.76094
 187  -9.671371
 188  171.4371
 189  240.3373
 190  138.9212
 191  101.747
 192  110.6205
 193  89.1301
 194  45.76154
 195  187.6022
 196  178.6914
 197  -14.14965
 198  -116.0011
 199  117.6368
 200  106.9131
 201  174.2529
 202  208.687
 203  138.1065
 204  25.27819
 205  106.8996
 206  176.3311
 207  108.8939
 208  -59.77156
 209  34.37585
 210  142.7223
 211  67.18967
 212  109.8599
 213  179.1469
 214  89.65412
 215  129.993
 216  129.7241
 217  -25.05488
 218  124.4412
 219  123.9977
 220  179.1967
 221  149.0939
 222  122.4847
 223  158.9811
 224  122.9586
 225  36.98302
 226  103.2345
 227  89.9577
 228  108.6553
 229  130.2398
 230  146.8981
 231  73.37492
 232  -58.54397
 233  -30.9321
 234  66.61556
 235  165.1295
 236  140.4914
 237  54.32936
 238  54.97091
 239  134.9997
 240  161.8755
 241  84.64705
 242  115.9258
 243  29.7683
 244  76.64992
 245  166.8491
 246  236.2648
 247  201.6767
 248  97.20972
 249  112.9238
 250  153.0025
 251  159.102
 252  222.8284
 253  205.7519
 254  90.81489
 255  190.4465
 256  141.752
 257  40.13714
 258  179.5918
 259  202.7849
 260  -93.13099
 261  -16.99265
 262  157.0479
 263  144.9505
 264  193.0651
 265  163.2156
 266  180.9085
 267  184.6174
 268  74.6623
 269  61.51285
 270  98.61575
 271  310.5865
 272  187.3727
 273  126.9593
 274  128.5853
 275  189.2329
 276  127.3287
 277  179.764
 278  222.801
 279  190.008
 280  26.61461
 281  107.3279
 282  82.93912
 283  155.6861
 284  178.4818
 285  106.6155
 286  -29.77768
 287  -5.070482
 288  115.1773
 289  114.7183
 290  139.3121
 291  32.53843
 292  -28.435
 293  100.0472
 294  141.4352
 295  246.2484
 296  123.7474
 297  56.87043
 298  112.8125
 299  160.57
 300  192.02
 301  182.2834
 302  150.3432
 303  117.7408
 304  21.79396
 305  164.2985
 306  59.83254
 307  85.37078
 308  94.08437
 309  107.4756
 310  212.0306
 311  299.9844
 312  214.0725
 313  136.638
 314  74.78796
 315  38.99762
 316  56.28374
 317  13.06701
 318  80.86967
 319  26.25517
 320  -41.17144
 321  135.1241
 322  135.4409
 323  6.28201
 324  165.3524
 325  60.40332
 326  126.3922
 327  172.2059
 328  183.3869
 329  12.85309
 330  45.87858
 331  157.7462
 332  89.45156
 333  166.0889
 334  195.0804
 335  265.1346
 336  268.8297
 337  101.5136
 338  195.256
 339  144.4756
 340  96.16395
 341  102.0254
 342  98.79494
 343  160.6192
 344  -24.98227
 345  100.6604
 346  132.8046
 347  122.5855
 348  5.311515
 349  108.0541
 350  175.556
 351  22.28173
 352  27.46778
 353  118.8418
 354  76.3632
 355  97.61307
 356  195.0416
 357  180.9001
 358  73.26237
 359  94.75755
 360  71.20712
 361  118.9882
 362  233.4285
 363  106.9677
 364  85.77457
 365  47.02042
 366  101.0154
 367  181.3875
 368  161.8642
 369  169.9586
 370  132.7052
 371  90.08437
 372  96.01306
 373  99.07393
 374  212.0283
 375  300.7578
 376  234.7043
 377  157.1905
 378  28.05026
 379  69.62961
 380  90.11784
 381  187.7179
 382  231.616
 383  170.0579
 384  111.8387
 385  214.6439
 386  75.503
 387  -8.31494
 388  34.28012
 389  184.5204
 390  270.0863
 391  327.0639
 392  252.5822
 393  99.5191
 394  129.1451
 395  180.9262
 396  202.4714
 397  239.9388
 398  82.45097
 399  135.6305
 400  86.97716
 401  20.73154
 402  146.8866
 403  127.9427
 404  149.4061
 405  132.354
 406  209.1908
 407  98.41115
 408  146.2344
 409  228.4251
 410  105.9463
 411  98.59064
 412  47.81726
 413  148.5907
 414  27.09163
 415  56.69543
 416  164.0817
 417  223.9797
 418  137.617
 419  96.1853
 420  187.721
 421  237.3121
 422  66.1147
 423  154.9582
 424  147.4358
 425  93.28794
 426  49.18284
 427  152.6413
 428  188.032
 429  157.5592
 430  169.961
 431  157.2357
 432  144.9035
 433  125.2053
 434  103.5822
 435  81.59033
 436  128.7627
 437  121.2012
 438  143.1243
 439  173.3597
 440  264.0554
 441  262.3694
 442  187.9251
 443  135.9849
 444  123.1433
 445  187.9867
 446  166.0912
 447  184.3689
 448  219.7668
 449  262.6681
 450  186.5222
 451  219.1434
 452  186.4572
 453  79.58234
 454  -2.940385
 455  57.18191
 456  91.8894
 457  100.4026
 458  111.5064
 459  190.4904
 460  69.88127
 461  150.1195
 462  79.51541
 463  61.25725
 464  161.1762
 465  77.2445
 466  12.3065
 467  -29.8621
 468  215.6854
 469  -32.41241
 470  -16.13319
 471  178.5796
 472  90.33098
 473  80.16099
 474  10.01414
 475  40.73395
 476  159.1949
 477  170.9536
 478  78.31416
 479  44.90462
 480  171.3539
 481  236.218
 482  90.34772
 483  133.4998
 484  99.69553
 485  53.92172
 486  42.07697
 487  155.0392
 488  221.07
 489  215.1207
 490  168.1343
 491  103.3614
 492  125.5505
 493  208.1881
 494  154.1532
 495  180.2975
 496  76.15897
 497  -58.03736
 498  118.9444
 499  232.7461
 500  207.316
 501  168.1093
 502  167.5684
 503  234.5227
 504  134.9551
 505  54.28339
 506  202.1019
 507  146.0529
 508  11.17599
 509  -47.14649
 510  56.7908
 511  205.873
