# Input file       =  1189024883.115833_cleaned.dat
# Candidate        =  PSR_0332+5434
# Telescope        =  AR
# Epoch_topo       =  58005.862293007325
# Epoch_bary       =  N/A
# T_sample         =  0.002
# Data Folded      =  7208960
# Data Avg         =  0.0185627646871249
# Data StdDev      =  3.20612649049027 
# Profile Bins     =  1024
# Profile Avg      =  130.679526333798 
# Profile StdDev   =  269.009106526313 
# Reduced chi-sqr  =  0.651
# Prob(Noise)      <  1   (~0.0 sigma)
# P_topo (ms)      =  714.464616483575  +/- 0.00134
# P'_topo (s/s)    =  -0                +/- 7.22e-10
# P''_topo (s/s^2) =  0                 +/- 3.25e-13
# P_bary (ms)      =  N/A
# P'_bary (s/s)    =  N/A
# P''_bary (s/s^2) =  N/A
# P_orb (s)        =  N/A
# asin(i)/c (s)    =  N/A
# eccentricity     =  N/A
# w (rad)          =  N/A
# T_peri           =  N/A
######################################################
   0  2.097659
   1  -52.26674
   2  46.36021
   3  9.245728
   4  -59.31628
   5  43.28704
   6  249.775
   7  361.9777
   8  297.287
   9  281.251
  10  257.1704
  11  287.5058
  12  287.7625
  13  361.5154
  14  288.776
  15  256.8968
  16  188.0239
  17  223.9808
  18  142.6082
  19  152.7126
  20  154.0627
  21  169.7025
  22  126.5187
  23  116.2824
  24  136.6173
  25  157.4589
  26  111.405
  27  69.01694
  28  21.61625
  29  77.84384
  30  77.19839
  31  75.42063
  32  63.87283
  33  -6.816077
  34  19.29927
  35  -7.79294
  36  118.3117
  37  84.68481
  38  -0.4122684
  39  1.929044
  40  10.02778
  41  124.2997
  42  98.13499
  43  137.6619
  44  105.8451
  45  83.16234
  46  18.16013
  47  22.18271
  48  163.1757
  49  356.023
  50  443.5078
  51  311.98
  52  234.6992
  53  281.6484
  54  338.2802
  55  269.292
  56  127.1841
  57  163.0659
  58  224.4318
  59  267.7596
  60  179.8877
  61  112.8526
  62  3.390588
  63  168.4132
  64  238.3528
  65  224.5416
  66  42.55094
  67  91.71976
  68  142.3773
  69  178.2394
  70  107.9946
  71  75.89743
  72  -5.299869
  73  25.10719
  74  71.80599
  75  86.51756
  76  74.52341
  77  -97.75742
  78  -130.8555
  79  -145.8764
  80  -62.5014
  81  -29.46181
  82  79.83654
  83  170.8933
  84  167.2114
  85  187.1079
  86  92.54024
  87  95.4784
  88  68.35187
  89  174.5115
  90  177.6908
  91  88.67384
  92  -18.89654
  93  -96.43386
  94  -5.203447
  95  -17.44502
  96  66.54829
  97  261.7484
  98  289.9978
  99  266.584
 100  238.8723
 101  233.3327
 102  137.9131
 103  8.265061
 104  72.42275
 105  105.2803
 106  124.8786
 107  169.9554
 108  155.6423
 109  -2.96271
 110  -115.6262
 111  -45.67578
 112  149.3113
 113  49.0768
 114  25.69478
 115  19.08632
 116  1.917806
 117  -38.6773
 118  51.9264
 119  236.0857
 120  229.6354
 121  169.5817
 122  130.1236
 123  185.4977
 124  178.5239
 125  170.9968
 126  120.62
 127  131.1027
 128  224.0809
 129  182.478
 130  124.3256
 131  36.13221
 132  134.681
 133  194.2309
 134  187.3289
 135  178.321
 136  230.3696
 137  179.366
 138  167.5374
 139  144.9323
 140  119.7402
 141  -21.35141
 142  -114.3298
 143  71.26226
 144  127.3856
 145  91.81432
 146  55.475
 147  35.70387
 148  82.3208
 149  99.11781
 150  208.6497
 151  189.6547
 152  114.2304
 153  159.6787
 154  233.5779
 155  187.4361
 156  38.40571
 157  -78.35715
 158  -114.8881
 159  -45.65077
 160  -18.86343
 161  116.368
 162  97.9719
 163  158.3202
 164  83.39764
 165  164.4389
 166  113.4387
 167  142.3728
 168  180.5341
 169  302.0366
 170  356.8267
 171  370.0792
 172  463.4326
 173  437.7614
 174  406.8262
 175  337.9182
 176  324.5106
 177  245.9807
 178  210.5384
 179  115.1912
 180  90.17394
 181  129.7806
 182  260.0112
 183  300.292
 184  189.6772
 185  104.3869
 186  165.7241
 187  179.0773
 188  207.4327
 189  165.439
 190  133.4611
 191  128.6932
 192  132.2709
 193  234.4461
 194  306.6067
 195  266.5849
 196  240.5893
 197  283.3034
 198  386.7227
 199  303.353
 200  234.4146
 201  208.905
 202  95.34187
 203  23.81793
 204  40.19149
 205  109.2713
 206  59.24057
 207  110.3942
 208  220.6813
 209  293.4937
 210  235.7927
 211  137.2428
 212  78.18874
 213  81.11433
 214  109.7648
 215  219.8977
 216  214.929
 217  258.5302
 218  237.6085
 219  296.8779
 220  248.4127
 221  197.9823
 222  133.7652
 223  116.5626
 224  174.7674
 225  200.53
 226  256.2856
 227  259.629
 228  254.4618
 229  291.0394
 230  298.4561
 231  361.4812
 232  331.9379
 233  309.2284
 234  318.7534
 235  299.0778
 236  229.4722
 237  183.5354
 238  196.2464
 239  162.3358
 240  89.17041
 241  160.846
 242  346.7611
 243  345.4244
 244  214.4807
 245  141.3246
 246  187.3342
 247  272.9517
 248  216.7835
 249  91.38653
 250  121.7078
 251  126.1082
 252  219.9587
 253  110.9669
 254  103.721
 255  113.7683
 256  190.5142
 257  68.6217
 258  89.60404
 259  190.7436
 260  361.7386
 261  409.1759
 262  331.674
 263  376.6454
 264  392.3596
 265  360.4587
 266  377.7602
 267  279.8716
 268  206.439
 269  35.94559
 270  125.5657
 271  209.2234
 272  180.75
 273  96.50178
 274  18.30588
 275  56.15434
 276  93.74443
 277  281.5464
 278  307.7173
 279  223.4704
 280  170.6152
 281  199.7415
 282  290.8361
 283  165.3549
 284  48.26991
 285  52.61311
 286  183.4933
 287  250.5362
 288  219.4029
 289  308.7259
 290  255.9047
 291  92.88579
 292  -75.30899
 293  -52.32282
 294  18.18455
 295  128.4738
 296  239.0003
 297  269.9156
 298  222.6133
 299  251.1716
 300  245.0708
 301  166.5177
 302  100.6794
 303  220.4458
 304  365.1644
 305  378.1014
 306  378.568
 307  308.3572
 308  206.6223
 309  116.7973
 310  54.84053
 311  70.11775
 312  95.8636
 313  120.6198
 314  144.2674
 315  61.85914
 316  39.1832
 317  90.30924
 318  135.5391
 319  226.6436
 320  226.5959
 321  274.6877
 322  178.6264
 323  122.6449
 324  78.24705
 325  103.3082
 326  29.76476
 327  73.20283
 328  10.58572
 329  15.49102
 330  119.9341
 331  237.9833
 332  285.9061
 333  206.9398
 334  117.0738
 335  34.16837
 336  -94.546
 337  73.5639
 338  312.719
 339  484.4921
 340  286.6295
 341  171.7518
 342  162.5078
 343  70.34597
 344  1.497431
 345  12.31596
 346  174.1476
 347  294.0029
 348  291.3489
 349  253.5814
 350  143.1769
 351  55.36486
 352  65.39031
 353  167.7251
 354  217.635
 355  119.1531
 356  114.9344
 357  158.8151
 358  215.3285
 359  74.06544
 360  60.81654
 361  97.09003
 362  156.1582
 363  91.75835
 364  160.9746
 365  161.9967
 366  194.4439
 367  138.104
 368  208.928
 369  328.05
 370  327.7408
 371  313.379
 372  136.2318
 373  46.1902
 374  12.40042
 375  70.48518
 376  55.85759
 377  58.92204
 378  75.8594
 379  91.50159
 380  74.02936
 381  105.5027
 382  283.0692
 383  302.0418
 384  119.3584
 385  23.8196
 386  115.2411
 387  224.444
 388  239.6876
 389  213.5673
 390  199.7213
 391  82.74357
 392  132.5984
 393  223.3501
 394  225.1082
 395  28.25223
 396  -48.64524
 397  21.80051
 398  82.8917
 399  66.71004
 400  110.7434
 401  198.6474
 402  88.34045
 403  -24.66319
 404  -16.92345
 405  168.5393
 406  219.6016
 407  213.7786
 408  164.2241
 409  61.31788
 410  30.87661
 411  98.14865
 412  180.0652
 413  217.4346
 414  281.6452
 415  350.0787
 416  260.9109
 417  105.6982
 418  -53.96418
 419  42.63771
 420  62.23866
 421  -19.35086
 422  -81.03288
 423  61.3294
 424  144.5876
 425  130.2679
 426  118.264
 427  284.8916
 428  295.0397
 429  189.5574
 430  119.7073
 431  90.59795
 432  61.12373
 433  105.3547
 434  85.49772
 435  69.0951
 436  39.41216
 437  80.26212
 438  179.0506
 439  209.9302
 440  303.6848
 441  302.6752
 442  268.5905
 443  168.5625
 444  142.9984
 445  197.9753
 446  77.76702
 447  37.97112
 448  45.53564
 449  163.7941
 450  165.0049
 451  218.5692
 452  337.6882
 453  343.4973
 454  242.2204
 455  208.9403
 456  171.2387
 457  192.498
 458  118.4715
 459  166.57
 460  154.0135
 461  84.90157
 462  77.5201
 463  96.20734
 464  165.7169
 465  143.9603
 466  131.7807
 467  113.2257
 468  123.7438
 469  182.9735
 470  243.8531
 471  249.032
 472  219.377
 473  179.933
 474  137.6972
 475  204.9366
 476  256.1741
 477  221.6308
 478  188.3054
 479  163.4407
 480  170.2771
 481  92.19731
 482  36.83455
 483  -63.69731
 484  -27.21089
 485  38.42343
 486  145.706
 487  164.0502
 488  184.5412
 489  92.28737
 490  1.760649
 491  -62.59163
 492  -8.867339
 493  117.8267
 494  158.9058
 495  278.0271
 496  195.6483
 497  94.57616
 498  -88.18793
 499  -45.20734
 500  11.31709
 501  68.24433
 502  19.66918
 503  15.92072
 504  18.61534
 505  83.61222
 506  145.753
 507  110.3023
 508  93.32725
 509  65.04763
 510  95.96615
 511  135.1286
 512  139.6842
 513  195.5313
 514  100.0108
 515  27.49587
 516  -22.71801
 517  37.64713
 518  76.08872
 519  112.3397
 520  211.7859
 521  269.2332
 522  269.8027
 523  259.2159
 524  228.6884
 525  246.4152
 526  198.5395
 527  216.1128
 528  179.6821
 529  124.8378
 530  150.106
 531  101.3407
 532  206.9935
 533  134.8624
 534  107.3527
 535  14.42108
 536  139.0683
 537  205.9346
 538  431.5117
 539  441.335
 540  450.0787
 541  234.1465
 542  131.9876
 543  2.757999
 544  14.30036
 545  33.65878
 546  112.8033
 547  119.9111
 548  30.21474
 549  -53.56755
 550  17.84427
 551  67.31732
 552  -34.10736
 553  -66.24331
 554  42.46085
 555  55.08988
 556  25.88104
 557  57.22014
 558  -21.38302
 559  -66.54262
 560  -22.58273
 561  216.4922
 562  237.4929
 563  194.922
 564  104.0712
 565  26.61047
 566  -86.6858
 567  -43.19015
 568  54.57947
 569  119.8136
 570  16.84187
 571  -113.6964
 572  -184.485
 573  -144.5129
 574  -83.79042
 575  100.3702
 576  159.9386
 577  160.1275
 578  119.8593
 579  85.23753
 580  73.03557
 581  3.893308
 582  126.9862
 583  179.0837
 584  82.15338
 585  -153.4646
 586  -43.58083
 587  82.22739
 588  138.1242
 589  32.8811
 590  94.83509
 591  132.6849
 592  167.4195
 593  278.5253
 594  270.5829
 595  186.6516
 596  102.2482
 597  165.8485
 598  211.926
 599  115.9593
 600  72.92494
 601  13.44783
 602  -10.1131
 603  -76.31236
 604  24.50501
 605  81.05544
 606  86.36777
 607  39.91245
 608  166.7704
 609  245.2748
 610  237.833
 611  80.74976
 612  17.62168
 613  -10.77194
 614  105.8614
 615  152.5992
 616  53.22519
 617  -47.75047
 618  -7.272317
 619  80.90055
 620  44.60963
 621  19.83999
 622  70.76716
 623  190.0338
 624  172.6774
 625  127.692
 626  112.5732
 627  93.30326
 628  186.0533
 629  279.3105
 630  302.5332
 631  203.5298
 632  108.1705
 633  98.77476
 634  74.31601
 635  199.9441
 636  252.8443
 637  320.5913
 638  355.0488
 639  446.1965
 640  663.7303
 641  743.8365
 642  749.2645
 643  642.1182
 644  628.7161
 645  616.7497
 646  631.4478
 647  607.2979
 648  515.3763
 649  300.5019
 650  110.8433
 651  28.45133
 652  200.7751
 653  234.0354
 654  185.6564
 655  82.29889
 656  54.30125
 657  62.30098
 658  116.6904
 659  282.7337
 660  239.7547
 661  267.6911
 662  222.8202
 663  205.6998
 664  102.2261
 665  96.60229
 666  132.0695
 667  243.9942
 668  221.1243
 669  279.8409
 670  234.3266
 671  185.7986
 672  62.04301
 673  37.79996
 674  107.9524
 675  81.33463
 676  85.64207
 677  94.83923
 678  97.35968
 679  6.977254
 680  34.83395
 681  16.08858
 682  65.59142
 683  199.2031
 684  284.8062
 685  200.7542
 686  70.49473
 687  145.9791
 688  227.3822
 689  135.2933
 690  127.0388
 691  92.91204
 692  151.3016
 693  118.0477
 694  110.3616
 695  122.0583
 696  17.62663
 697  96.22334
 698  133.5373
 699  137.9779
 700  112.8525
 701  78.643
 702  139.1115
 703  125.5216
 704  23.36958
 705  -21.39313
 706  -46.30717
 707  68.21677
 708  131.1787
 709  139.8635
 710  63.48395
 711  23.91832
 712  40.52393
 713  215.4568
 714  195.8252
 715  217.9426
 716  175.171
 717  215.3487
 718  52.23641
 719  -25.4768
 720  -14.36182
 721  106.5588
 722  101.6984
 723  55.99484
 724  233.2141
 725  285.0655
 726  221.8136
 727  107.6951
 728  151.0446
 729  249.4659
 730  242.5243
 731  292.8221
 732  159.3304
 733  42.60463
 734  -77.37583
 735  47.93698
 736  108.5791
 737  32.60733
 738  -111.4934
 739  -97.24146
 740  30.21888
 741  115.6572
 742  135.9871
 743  158.7077
 744  198.0046
 745  183.3207
 746  116.3201
 747  78.12328
 748  162.0689
 749  233.0936
 750  232.2034
 751  127.5707
 752  154.5944
 753  97.99339
 754  81.383
 755  -34.71264
 756  -37.51736
 757  67.72509
 758  142.7891
 759  252.2967
 760  239.6817
 761  297.5663
 762  286.6831
 763  230.3472
 764  150.1795
 765  153.6826
 766  85.76514
 767  57.39628
 768  72.07172
 769  120.9558
 770  64.72778
 771  124.4974
 772  170.5595
 773  241.9021
 774  116.5859
 775  51.81651
 776  22.80122
 777  72.19158
 778  102.7196
 779  75.65446
 780  36.8648
 781  18.85195
 782  30.87416
 783  55.80283
 784  28.46605
 785  62.67505
 786  187.1618
 787  140.8128
 788  33.08907
 789  -65.68103
 790  91.67928
 791  112.926
 792  66.80886
 793  45.49762
 794  94.52889
 795  53.7132
 796  80.78642
 797  100.284
 798  198.0355
 799  199.5053
 800  309.7878
 801  286.8882
 802  192.7604
 803  81.24177
 804  44.96283
 805  101.9147
 806  113.7852
 807  121.7765
 808  164.9972
 809  251.3783
 810  215.3039
 811  98.86762
 812  -25.18213
 813  -26.00317
 814  -37.43961
 815  -18.17908
 816  25.16223
 817  113.0656
 818  153.3408
 819  61.87136
 820  -3.055805
 821  94.53693
 822  86.06107
 823  157.6921
 824  155.8663
 825  249.0223
 826  176.9353
 827  193.7141
 828  173.5715
 829  160.0862
 830  113.6768
 831  163.1323
 832  128.2052
 833  190.987
 834  -28.31262
 835  1.181531
 836  -26.46124
 837  -55.09264
 838  -124.4087
 839  -122.2752
 840  20.12599
 841  -5.37796
 842  19.35856
 843  -113.2971
 844  -137.2998
 845  -113.0051
 846  -26.88591
 847  95.79564
 848  111.0133
 849  -71.4911
 850  -131.918
 851  -89.48035
 852  -51.17656
 853  -243.1417
 854  -231.7262
 855  -96.02509
 856  126.1733
 857  212.4392
 858  220.9745
 859  191.7867
 860  100.7738
 861  5.629652
 862  -31.18065
 863  -25.58735
 864  -20.63477
 865  -14.52393
 866  117.7068
 867  110.8736
 868  88.02009
 869  138.9662
 870  182.1102
 871  166.0013
 872  3.072404
 873  -14.74959
 874  41.95444
 875  72.90518
 876  164.5804
 877  212.6703
 878  297.5011
 879  105.9339
 880  -30.50042
 881  -59.08665
 882  -19.04611
 883  64.82893
 884  101.3086
 885  86.39587
 886  18.80504
 887  5.174264
 888  75.08948
 889  238.212
 890  340.8448
 891  330.7896
 892  167.444
 893  107.2884
 894  132.1108
 895  178.1254
 896  241.3116
 897  167.184
 898  249.7505
 899  183.101
 900  181.547
 901  104.8337
 902  84.19269
 903  132.1699
 904  39.20675
 905  80.44655
 906  94.48195
 907  90.08488
 908  115.373
 909  99.78337
 910  77.90261
 911  60.47931
 912  121.4421
 913  223.4445
 914  168.7828
 915  -10.80324
 916  -92.51917
 917  -74.87939
 918  -14.27658
 919  95.50391
 920  204.3063
 921  221.2749
 922  137.7928
 923  133.3604
 924  118.2945
 925  19.5353
 926  37.3085
 927  184.0605
 928  224.0622
 929  55.01394
 930  33.15361
 931  99.14593
 932  39.58555
 933  -98.1565
 934  -21.50341
 935  45.53873
 936  87.81315
 937  102.6171
 938  232.8965
 939  277.623
 940  234.1383
 941  221.8305
 942  205.0832
 943  139.0005
 944  58.99507
 945  -2.866945
 946  41.82526
 947  61.80196
 948  217.9346
 949  208.4015
 950  135.7212
 951  65.56454
 952  160.4075
 953  281.413
 954  288.1442
 955  215.6039
 956  151.1009
 957  145.687
 958  95.38537
 959  130.2164
 960  11.95631
 961  84.07335
 962  38.58289
 963  82.2419
 964  110.4382
 965  128.73
 966  123.4951
 967  37.67916
 968  72.09012
 969  24.72946
 970  45.12418
 971  41.82048
 972  -18.66449
 973  -36.73223
 974  -95.22722
 975  -113.6589
 976  -130.2976
 977  -38.56143
 978  97.87114
 979  229.1702
 980  197.7018
 981  199.1357
 982  152.0385
 983  269.5473
 984  372.4075
 985  302.3855
 986  152.1592
 987  -55.30088
 988  -19.02084
 989  22.96736
 990  64.85143
 991  135.725
 992  141.1191
 993  102.3669
 994  26.79773
 995  67.26386
 996  59.34349
 997  44.39885
 998  -22.37945
 999  21.70266
1000  10.40561
1001  123.1768
1002  173.7261
1003  150.5083
1004  142.6084
1005  77.05991
1006  116.6917
1007  56.30457
1008  190.399
1009  112.6748
1010  -13.01168
1011  -74.62764
1012  14.12384
1013  47.54821
1014  12.34138
1015  63.56371
1016  84.12894
1017  30.40374
1018  -14.05163
1019  44.55762
1020  162.5091
1021  151.0289
1022  206.1406
1023  50.60255
