# Input file       =  1189024883.115833_cleaned.dat
# Candidate        =  PSR_0332+5434
# Telescope        =  AR
# Epoch_topo       =  58005.862293007325
# Epoch_bary       =  N/A
# T_sample         =  0.002
# Data Folded      =  7208960
# Data Avg         =  0.0081190372452178
# Data StdDev      =  1.00006324338279 
# Profile Bins     =  512
# Profile Avg      =  114.313654926658 
# Profile StdDev   =  118.666680201206 
# Reduced chi-sqr  =  1.120
# Prob(Noise)      <  0.0306   (~1.9 sigma)
# P_topo (ms)      =  714.464615440995  +/- 0.000387
# P'_topo (s/s)    =  -0                +/- 2.08e-10
# P''_topo (s/s^2) =  0                 +/- 9.35e-14
# P_bary (ms)      =  N/A
# P'_bary (s/s)    =  N/A
# P''_bary (s/s^2) =  N/A
# P_orb (s)        =  N/A
# asin(i)/c (s)    =  N/A
# eccentricity     =  N/A
# w (rad)          =  N/A
# T_peri           =  N/A
######################################################
   0  539.6772
   1  493.0197
   2  321.2365
   3  47.97842
   4  169.5522
   5  132.6041
   6  31.27649
   7  144.8737
   8  140.6416
   9  128.818
  10  51.81264
  11  130.7021
  12  220.6413
  13  215.0318
  14  71.27941
  15  82.21693
  16  76.99645
  17  115.8219
  18  46.75394
  19  84.31757
  20  173.2351
  21  111.5814
  22  162.3608
  23  93.04658
  24  88.74485
  25  35.50063
  26  61.22943
  27  124.9678
  28  115.8728
  29  106.3049
  30  91.42876
  31  47.34828
  32  89.88701
  33  64.78011
  34  85.59412
  35  127.2234
  36  134.0484
  37  57.86999
  38  112.949
  39  118.975
  40  235.5295
  41  130.3077
  42  97.31436
  43  136.3338
  44  82.60787
  45  49.44345
  46  119.6474
  47  -0.9925135
  48  99.29505
  49  119.2577
  50  88.15182
  51  67.31442
  52  145.0973
  53  134.308
  54  146.8213
  55  131.3609
  56  30.70665
  57  133.5989
  58  156.0698
  59  149.4655
  60  76.18021
  61  77.63793
  62  105.8693
  63  144.0641
  64  148.6479
  65  92.70966
  66  10.5555
  67  94.06721
  68  51.67123
  69  0.6098953
  70  57.52211
  71  141.8104
  72  6.105238
  73  58.48877
  74  61.96017
  75  26.74614
  76  61.33792
  77  188.1897
  78  252.9824
  79  170.0899
  80  89.38405
  81  149.129
  82  205.7252
  83  169.4243
  84  57.61993
  85  1.683553
  86  58.32314
  87  103.0788
  88  86.6826
  89  225.3483
  90  220.7714
  91  129.6563
  92  113.6248
  93  79.0288
  94  102.107
  95  -46.36845
  96  -6.495496
  97  -53.95839
  98  22.90448
  99  -58.09301
 100  -94.92947
 101  -19.71347
 102  80.16765
 103  -36.81134
 104  -65.47786
 105  -136.4356
 106  69.91647
 107  126.3786
 108  -3.251218
 109  -22.47093
 110  13.54486
 111  92.45741
 112  84.22202
 113  188.2929
 114  42.34275
 115  48.21754
 116  109.1793
 117  134.8973
 118  -61.86382
 119  7.192367
 120  134.3372
 121  98.34125
 122  178.2672
 123  314.3219
 124  116.1549
 125  147.8425
 126  144.0458
 127  150.3653
 128  148.894
 129  164.3986
 130  93.42413
 131  119.3892
 132  103.4489
 133  51.15099
 134  88.04629
 135  51.70835
 136  -93.7093
 137  31.04573
 138  170.9964
 139  156.6143
 140  92.19666
 141  52.00298
 142  132.9478
 143  60.60761
 144  13.4802
 145  85.41913
 146  139.8439
 147  187.6082
 148  180.255
 149  145.4589
 150  63.11472
 151  104.2649
 152  206.4833
 153  82.10991
 154  134.7921
 155  211.9671
 156  181.6342
 157  82.12672
 158  58.53572
 159  45.61916
 160  52.87054
 161  53.64253
 162  50.59126
 163  86.33019
 164  -9.005616
 165  -53.59278
 166  -81.61073
 167  100.1786
 168  185.7632
 169  255.0026
 170  331.6773
 171  40.39264
 172  -0.5625131
 173  83.21967
 174  41.36092
 175  52.50343
 176  97.28035
 177  43.70502
 178  86.82302
 179  115.7183
 180  96.4202
 181  91.54021
 182  104.3857
 183  -27.4023
 184  0.08522761
 185  38.86528
 186  57.10268
 187  36.15963
 188  172.8508
 189  112.0728
 190  22.99169
 191  34.5019
 192  -4.052122
 193  207.9599
 194  219.0311
 195  234.0934
 196  265.2267
 197  238.4698
 198  177.9547
 199  151.6874
 200  115.2002
 201  51.4782
 202  85.8029
 203  70.40305
 204  70.07993
 205  129.7593
 206  104.6564
 207  16.87293
 208  57.26308
 209  -29.31236
 210  40.12352
 211  98.59371
 212  46.1666
 213  -31.26777
 214  142.3385
 215  272.8354
 216  212.1162
 217  269.1979
 218  118.9977
 219  197.4588
 220  144.0014
 221  125.0689
 222  185.7846
 223  36.80847
 224  143.8277
 225  148.0945
 226  61.62196
 227  66.84039
 228  62.02848
 229  1.697539
 230  -25.47222
 231  121.4873
 232  240.48
 233  63.11971
 234  78.19779
 235  138.6807
 236  34.41145
 237  33.59055
 238  148.6137
 239  258.5098
 240  189.6902
 241  147.3491
 242  118.8314
 243  117.549
 244  85.29125
 245  -23.54942
 246  141.9887
 247  89.69492
 248  26.94305
 249  127.6643
 250  199.7785
 251  91.38906
 252  135.3778
 253  99.4534
 254  177.9916
 255  78.38315
 256  84.2991
 257  114.7921
 258  171.3934
 259  142.2803
 260  68.56991
 261  17.39867
 262  104.207
 263  55.25194
 264  121.7662
 265  205.6162
 266  196.9904
 267  175.7568
 268  0.7783323
 269  -48.86114
 270  35.51311
 271  90.48571
 272  105.4987
 273  150.8152
 274  225.1887
 275  303.8806
 276  341.2318
 277  296.2357
 278  208.8905
 279  129.5641
 280  105.0722
 281  266.714
 282  144.0928
 283  111.7707
 284  127.1104
 285  110.6052
 286  133.0087
 287  196.5584
 288  149.4491
 289  236.3893
 290  174.7356
 291  102.3481
 292  102.1761
 293  112.8494
 294  228.0966
 295  204.5173
 296  97.74002
 297  138.2136
 298  202.8631
 299  191.3311
 300  182.2086
 301  145.0972
 302  146.0129
 303  202.6486
 304  171.3191
 305  224.6777
 306  294.9581
 307  267.0291
 308  172.6513
 309  142.5112
 310  94.33262
 311  261.6378
 312  116.2801
 313  128.8581
 314  119.0215
 315  102.5347
 316  181.5801
 317  128.1083
 318  132.7813
 319  134.5249
 320  297.3263
 321  312.0868
 322  305.1271
 323  275.6239
 324  131.0898
 325  118.0829
 326  119.7223
 327  58.84566
 328  166.939
 329  219.3859
 330  172.5751
 331  210.1099
 332  55.26544
 333  163.1619
 334  224.0854
 335  181.7566
 336  -19.5404
 337  76.99328
 338  261.6885
 339  207.5506
 340  144.2648
 341  146.1808
 342  314.3083
 343  286.6832
 344  112.8979
 345  36.47389
 346  97.24583
 347  101.151
 348  84.11762
 349  209.0354
 350  258.2311
 351  169.369
 352  64.02214
 353  68.12234
 354  29.65771
 355  93.75266
 356  174.0375
 357  70.49224
 358  -8.604264
 359  323.2937
 360  263.4804
 361  128.4879
 362  -8.98003
 363  181.9563
 364  206.5578
 365  105.6683
 366  63.16997
 367  162.4184
 368  192.909
 369  145.4061
 370  72.33197
 371  79.32755
 372  100.0208
 373  149.5254
 374  183.16
 375  233.9759
 376  36.03545
 377  -21.83762
 378  18.39934
 379  69.2924
 380  86.31181
 381  196.6948
 382  44.62428
 383  128.2597
 384  163.5363
 385  68.67413
 386  124.7838
 387  85.33672
 388  -47.90965
 389  59.80679
 390  90.21449
 391  18.65335
 392  73.15434
 393  203.8078
 394  77.35146
 395  21.14594
 396  78.02225
 397  212.553
 398  182.842
 399  63.73484
 400  62.06716
 401  20.20878
 402  172.646
 403  146.3896
 404  145.887
 405  46.33199
 406  13.08327
 407  31.72334
 408  72.30935
 409  181.83
 410  270.7257
 411  162.7121
 412  125.6957
 413  69.82605
 414  103.3805
 415  189.0004
 416  296.0295
 417  185.1398
 418  124.6721
 419  130.5969
 420  168.0047
 421  169.1676
 422  175.7305
 423  141.7372
 424  154.154
 425  210.9362
 426  192.8188
 427  213.8272
 428  224.1401
 429  117.6819
 430  53.59003
 431  -48.64563
 432  38.8833
 433  135.5475
 434  169.6216
 435  18.75336
 436  0.5849156
 437  100.1155
 438  75.32672
 439  -100.3949
 440  23.74784
 441  14.7347
 442  56.24302
 443  146.0695
 444  36.75639
 445  27.89165
 446  125.0412
 447  77.06927
 448  56.72264
 449  130.3011
 450  245.3413
 451  250.7497
 452  193.8189
 453  191.7185
 454  170.567
 455  94.13108
 456  146.3851
 457  47.46815
 458  126.1021
 459  315.2882
 460  288.803
 461  75.14171
 462  5.781132
 463  97.36346
 464  82.50803
 465  24.91302
 466  -83.66737
 467  -4.95548
 468  32.55285
 469  -32.15052
 470  -3.67898
 471  189.7796
 472  72.11935
 473  -66.41563
 474  56.15124
 475  87.87999
 476  -88.15487
 477  19.93521
 478  145.6922
 479  30.82752
 480  -1.601784
 481  73.13762
 482  5.649156
 483  41.69876
 484  140.906
 485  133.012
 486  184.3645
 487  155.9489
 488  56.25618
 489  93.91959
 490  45.09031
 491  3.358675
 492  65.40625
 493  97.13313
 494  116.8706
 495  80.89457
 496  -42.84784
 497  69.95305
 498  -2.135837
 499  1.309101
 500  48.97412
 501  143.2138
 502  134.8102
 503  68.29644
 504  188.728
 505  199.5662
 506  118.1474
 507  137.9023
 508  278.242
 509  338.4851
 510  589.0029
 511  574.7361
