# Input file       =  1189384196.109106_cleaned.dat
# Candidate        =  PSR_0332+5434
# Telescope        =  AR
# Epoch_topo       =  58010.021008207244
# Epoch_bary       =  N/A
# T_sample         =  0.002
# Data Folded      =  7340032
# Data Avg         =  0.0325600117274528
# Data StdDev      =  2.57441698127864 
# Profile Bins     =  1024
# Profile Avg      =  233.495167292948 
# Profile StdDev   =  217.960547310237 
# Reduced chi-sqr  =  1.419
# Prob(Noise)      <  1.86e-17   (~8.4 sigma)
# P_topo (ms)      =  714.465606950947  +/- 0.000152
# P'_topo (s/s)    =  -0                +/- 8.03e-11
# P''_topo (s/s^2) =  0                 +/- 3.54e-14
# P_bary (ms)      =  N/A
# P'_bary (s/s)    =  N/A
# P''_bary (s/s^2) =  N/A
# P_orb (s)        =  N/A
# asin(i)/c (s)    =  N/A
# eccentricity     =  N/A
# w (rad)          =  N/A
# T_peri           =  N/A
######################################################
   0  292.5632
   1  230.5001
   2  205.6361
   3  186.1087
   4  194.4241
   5  206.2531
   6  121.309
   7  223.107
   8  380.0789
   9  453.3816
  10  358.5717
  11  419.4666
  12  395.9308
  13  450.9463
  14  309.2397
  15  241.1031
  16  175.7466
  17  286.618
  18  411.6683
  19  437.4943
  20  249.9705
  21  122.8615
  22  142.5191
  23  258.5193
  24  154.5284
  25  97.95032
  26  71.1429
  27  144.8785
  28  88.47525
  29  80.78613
  30  54.42016
  31  120.1283
  32  197.7496
  33  224.98
  34  68.9984
  35  80.72478
  36  274.1457
  37  306.5505
  38  287.1834
  39  170.5349
  40  190.4363
  41  138.2022
  42  158.1794
  43  251.5789
  44  258.5637
  45  190.0784
  46  97.38609
  47  125.507
  48  35.37044
  49  111.107
  50  146.2366
  51  257.2493
  52  177.7682
  53  248.6428
  54  386.6065
  55  542.4612
  56  376.6358
  57  197.1515
  58  -31.30081
  59  31.35482
  60  -8.048518
  61  7.501401
  62  61.47404
  63  122.8727
  64  302.5262
  65  245.2032
  66  238.6579
  67  274.194
  68  450.5351
  69  401.7415
  70  285.1755
  71  216.0863
  72  184.9895
  73  114.7592
  74  159.9817
  75  205.5952
  76  193.192
  77  120.1472
  78  103.8307
  79  108.5124
  80  209.802
  81  414.6056
  82  517.4942
  83  408.9146
  84  215.0918
  85  139.5459
  86  137.1749
  87  147.7363
  88  236.2668
  89  356.6983
  90  266.7463
  91  258.6836
  92  173.2491
  93  316.2673
  94  292.5624
  95  251.6698
  96  88.87017
  97  155.095
  98  258.995
  99  229.4288
 100  114.4898
 101  221.6087
 102  273.3602
 103  239.4377
 104  46.49774
 105  8.402462
 106  74.133
 107  136.2097
 108  208.7202
 109  121.9075
 110  42.82393
 111  88.35382
 112  188.548
 113  386.8459
 114  298.5549
 115  169.8795
 116  -61.92276
 117  70.50104
 118  208.6665
 119  261.7215
 120  200.0463
 121  29.24051
 122  141.0993
 123  133.9227
 124  141.1547
 125  22.69052
 126  63.29045
 127  289.7704
 128  330.1158
 129  349.0279
 130  351.6138
 131  403.6361
 132  319.7284
 133  237.0658
 134  253.3874
 135  347.0512
 136  152.1839
 137  56.9277
 138  97.63107
 139  318.0519
 140  234.5642
 141  125.5751
 142  -25.58387
 143  -25.41703
 144  -13.73537
 145  78.5865
 146  85.78525
 147  153.5963
 148  226.6225
 149  286.7356
 150  345.2448
 151  318.3029
 152  375.0621
 153  383.0346
 154  376.0677
 155  344.8937
 156  293.7647
 157  242.9201
 158  200.2603
 159  119.1254
 160  49.85509
 161  -24.8215
 162  94.36814
 163  332.3138
 164  305.3515
 165  223.4616
 166  131.0227
 167  286.1019
 168  235.2228
 169  149.9304
 170  23.3236
 171  206.9542
 172  351.5153
 173  333.2606
 174  204.9216
 175  82.04549
 176  208.1167
 177  151.3235
 178  251.4224
 179  220.5332
 180  299.6268
 181  310.3546
 182  292.925
 183  285.6392
 184  278.5878
 185  215.5554
 186  256.8402
 187  322.3525
 188  405.0774
 189  373.9334
 190  266.1832
 191  150.1523
 192  159.2491
 193  212.6225
 194  283.3177
 195  199.138
 196  181.7489
 197  218.4227
 198  195.8071
 199  219.3864
 200  242.2704
 201  377.2984
 202  404.629
 203  416.5015
 204  371.7697
 205  266.9761
 206  311.572
 207  367.041
 208  385.9446
 209  271.8697
 210  279.2332
 211  329.6505
 212  353.1733
 213  278.8986
 214  347.101
 215  378.084
 216  366.1098
 217  292.3028
 218  204.7279
 219  227.2459
 220  154.5095
 221  205.8611
 222  263.5236
 223  318.8076
 224  293.1061
 225  265.7622
 226  305.578
 227  252.3924
 228  209.611
 229  197.8581
 230  264.3874
 231  335.1368
 232  337.1076
 233  258.095
 234  205.9442
 235  285.7782
 236  285.4102
 237  226.3868
 238  159.0271
 239  93.37154
 240  101.2208
 241  94.31935
 242  145.6837
 243  216.7288
 244  218.3061
 245  150.929
 246  80.65746
 247  153.5362
 248  226.8675
 249  210.0479
 250  186.8737
 251  95.3644
 252  54.46301
 253  47.37403
 254  141.8188
 255  181.2374
 256  126.0621
 257  81.77387
 258  145.4142
 259  141.6978
 260  228.6421
 261  164.883
 262  140.8206
 263  80.53546
 264  220.5098
 265  337.2676
 266  310.1744
 267  155.1926
 268  163.9555
 269  194.3866
 270  138.992
 271  138.4159
 272  193.8542
 273  289.9787
 274  252.2672
 275  271.3636
 276  299.0566
 277  300.933
 278  315.1165
 279  215.2206
 280  196.4528
 281  113.8319
 282  97.21007
 283  42.2374
 284  57.9529
 285  138.8783
 286  191.8954
 287  93.55443
 288  -25.6839
 289  -14.03385
 290  193.2529
 291  143.8847
 292  64.29047
 293  105.3079
 294  323.3104
 295  324.7344
 296  159.5932
 297  121.1022
 298  212.1498
 299  299.1721
 300  251.0726
 301  182.8125
 302  220.6091
 303  154.0068
 304  162.4227
 305  32.30586
 306  22.37722
 307  60.67974
 308  189.2713
 309  299.4306
 310  283.814
 311  279.1336
 312  270.74
 313  265.065
 314  275.9528
 315  269.7472
 316  240.876
 317  147.975
 318  178.295
 319  231.2545
 320  208.7644
 321  192.6877
 322  265.0495
 323  377.8128
 324  363.8686
 325  364.4009
 326  262.0912
 327  261.6416
 328  192.1918
 329  287.0388
 330  198.2435
 331  178.4797
 332  72.15128
 333  133.0975
 334  184.3435
 335  306.0104
 336  388.8032
 337  447.7303
 338  428.1661
 339  335.7299
 340  137.5156
 341  50.73486
 342  89.63638
 343  340.7155
 344  394.1303
 345  434.8203
 346  344.065
 347  285.1854
 348  163.43
 349  123.2475
 350  113.6168
 351  220.3637
 352  192.0663
 353  97.22002
 354  75.16803
 355  261.8425
 356  447.9233
 357  409.33
 358  268.063
 359  236.7921
 360  229.8132
 361  185.5063
 362  240.0629
 363  236.2573
 364  258.1051
 365  109.0154
 366  161.0266
 367  267.0413
 368  356.8596
 369  371.8629
 370  253.183
 371  178.7142
 372  80.77843
 373  208.6069
 374  165.8317
 375  255.4422
 376  242.8738
 377  245.9616
 378  225.3471
 379  241.2435
 380  276.3593
 381  136.518
 382  168.3601
 383  227.578
 384  370.4582
 385  361.1114
 386  301.2657
 387  358.0448
 388  408.0245
 389  498.3371
 390  336.3159
 391  270.5462
 392  181.9201
 393  216.4989
 394  244.0434
 395  294.59
 396  360.3343
 397  326.0408
 398  300.1868
 399  335.0992
 400  385.4781
 401  271.6459
 402  266.451
 403  153.6928
 404  192.3967
 405  190.6747
 406  384.2997
 407  306.8535
 408  210.2844
 409  141.3401
 410  180.4035
 411  195.2498
 412  210.5979
 413  358.6722
 414  270.0052
 415  231.8131
 416  175.9754
 417  208.6182
 418  117.0769
 419  101.8036
 420  136.0078
 421  109.4426
 422  52.13027
 423  100.6008
 424  183.0462
 425  230.0823
 426  206.2138
 427  259.2787
 428  223.7498
 429  253.2199
 430  115.1192
 431  194.4073
 432  200.6977
 433  206.9995
 434  115.705
 435  184.9571
 436  181.5288
 437  232.2032
 438  220.0857
 439  202.752
 440  170.4191
 441  114.7038
 442  142.3038
 443  297.0473
 444  476.5121
 445  489.5779
 446  240.5003
 447  140.5396
 448  185.081
 449  235.9327
 450  258.546
 451  207.5617
 452  243.8896
 453  210.3886
 454  268.2306
 455  247.1819
 456  253.9294
 457  308.1051
 458  327.6066
 459  290.6479
 460  153.4175
 461  254.2254
 462  312.7645
 463  273.9392
 464  162.6552
 465  120.2958
 466  180.5972
 467  281.9908
 468  311.3182
 469  306.307
 470  304.2835
 471  336.2662
 472  268.6315
 473  91.84711
 474  101.458
 475  150.3212
 476  273.489
 477  264.9362
 478  293.9827
 479  220.3792
 480  164.9059
 481  69.21964
 482  118.5194
 483  206.1597
 484  252.9504
 485  147.2854
 486  122.3498
 487  39.88371
 488  65.85618
 489  19.62759
 490  84.82468
 491  135.282
 492  242.8042
 493  141.2844
 494  121.5834
 495  63.21277
 496  252.7093
 497  270.4208
 498  360.7021
 499  197.3354
 500  244.3539
 501  179.465
 502  244.8316
 503  124.8334
 504  139.273
 505  156.7066
 506  225.7263
 507  186.0149
 508  132.7987
 509  117.7786
 510  261.694
 511  469.5471
 512  471.8325
 513  488.3205
 514  321.7684
 515  242.6029
 516  153.7509
 517  191.4411
 518  291.0431
 519  308.367
 520  322.2548
 521  391.8411
 522  347.9471
 523  195.0077
 524  76.72953
 525  91.87244
 526  273.2825
 527  409.1193
 528  444.4164
 529  450.9776
 530  418.0848
 531  537.0497
 532  477.9583
 533  430.3808
 534  319.4682
 535  263.8366
 536  218.757
 537  171.4863
 538  246.0456
 539  258.4313
 540  325.2604
 541  274.9872
 542  385.6055
 543  406.1225
 544  314.7253
 545  193.668
 546  205.2204
 547  256.4532
 548  295.1819
 549  206.8124
 550  217.0107
 551  93.33363
 552  113.6394
 553  96.25193
 554  152.4395
 555  105.7191
 556  158.5333
 557  284.6788
 558  426.6871
 559  357.1107
 560  159.6979
 561  84.84655
 562  122.8013
 563  81.2756
 564  -49.79526
 565  -81.1386
 566  73.56824
 567  258.761
 568  364.7175
 569  335.9052
 570  166.3221
 571  16.9776
 572  1.256172
 573  122.8522
 574  264.0417
 575  327.5416
 576  318.9238
 577  345.2039
 578  377.935
 579  394.1413
 580  263.0013
 581  178.3755
 582  149.674
 583  219.0695
 584  210.8588
 585  147.6515
 586  163.5099
 587  250.3988
 588  323.3488
 589  342.8497
 590  254.4563
 591  249.6483
 592  221.0484
 593  443.1421
 594  369.0559
 595  326.3305
 596  216.6647
 597  232.7296
 598  191.1489
 599  202.7312
 600  277.0253
 601  361.7038
 602  398.9409
 603  463.8838
 604  417.0761
 605  373.1079
 606  332.9529
 607  360.3468
 608  334.9406
 609  292.6564
 610  299.5205
 611  284.2552
 612  236.463
 613  200.8366
 614  255.9707
 615  206.1897
 616  147.7644
 617  177.8585
 618  310.1877
 619  404.1278
 620  420.7605
 621  299.5418
 622  223.6385
 623  188.58
 624  228.7539
 625  251.3833
 626  185.0223
 627  199.9003
 628  218.7262
 629  325.9835
 630  481.3813
 631  496.0719
 632  398.3392
 633  379.4266
 634  552.2686
 635  631.6896
 636  684.3629
 637  732.9305
 638  908.6879
 639  998.0171
 640  1011.416
 641  976.4075
 642  1051.049
 643  1122.069
 644  1297.996
 645  1238.2
 646  1114.127
 647  959.9048
 648  760.5723
 649  539.6307
 650  384.9272
 651  274.8124
 652  171.9485
 653  152.9315
 654  272.2936
 655  435.8229
 656  465.4009
 657  459.6714
 658  345.4999
 659  224.8799
 660  275.6544
 661  289.3654
 662  384.0824
 663  237.2234
 664  220.6561
 665  102.7423
 666  103.8952
 667  123.3499
 668  243.1392
 669  326.7274
 670  364.9788
 671  408.2311
 672  316.6234
 673  181.3729
 674  121.2936
 675  243.1394
 676  239.9369
 677  219.4788
 678  313.4027
 679  382.1257
 680  366.2274
 681  335.4096
 682  396.6937
 683  434.1646
 684  328.1081
 685  238.6229
 686  40.5822
 687  59.71964
 688  100.7155
 689  254.7129
 690  272.7454
 691  316.4914
 692  212.4354
 693  155.378
 694  186.0229
 695  397.7731
 696  380.3842
 697  260.2589
 698  150.8891
 699  234.2938
 700  253.894
 701  265.2002
 702  294.3272
 703  240.9189
 704  213.7649
 705  155.0653
 706  229.3027
 707  111.8636
 708  177.5529
 709  209.2759
 710  346.3357
 711  413.8593
 712  326.7907
 713  233.9742
 714  218.1808
 715  196.785
 716  176.0865
 717  -20.29275
 718  -21.3975
 719  116.0663
 720  296.7898
 721  339.9272
 722  274.1485
 723  241.6933
 724  233.607
 725  237.7461
 726  246.4388
 727  236.2981
 728  136.0836
 729  94.73476
 730  223.5571
 731  296.0217
 732  235.0505
 733  14.71572
 734  130.1936
 735  146.1852
 736  264.15
 737  279.1223
 738  326.7463
 739  254.5567
 740  255.8298
 741  240.9577
 742  271.3909
 743  397.303
 744  456.932
 745  529.6188
 746  463.0314
 747  555.5347
 748  515.6633
 749  447.0872
 750  196.5189
 751  127.9565
 752  93.6377
 753  166.5486
 754  213.2967
 755  335.7427
 756  407.449
 757  404.059
 758  462.8031
 759  484.8746
 760  433.8845
 761  312.9794
 762  284.022
 763  301.7501
 764  169.3532
 765  96.75707
 766  22.45721
 767  39.98808
 768  147.7567
 769  258.738
 770  294.5003
 771  255.2024
 772  292.1136
 773  335.665
 774  298.2349
 775  337.3663
 776  492.8328
 777  475.7351
 778  428.979
 779  292.1455
 780  166.0059
 781  138.6143
 782  167.0273
 783  322.7331
 784  159.9862
 785  254.6336
 786  355.8831
 787  479.9982
 788  296.6847
 789  212.5072
 790  177.5239
 791  315.9001
 792  367.8869
 793  400.4468
 794  331.6003
 795  183.8839
 796  158.3807
 797  128.2155
 798  185.871
 799  68.39606
 800  211.127
 801  275.0916
 802  360.3501
 803  372.8515
 804  458.9836
 805  439.237
 806  284.118
 807  183.4565
 808  168.4039
 809  232.2825
 810  311.736
 811  259.1482
 812  272.7342
 813  377.9049
 814  329.2052
 815  229.8615
 816  174.0081
 817  288.1463
 818  395.6007
 819  376.6889
 820  287.5446
 821  227.9288
 822  209.0891
 823  242.9589
 824  216.1761
 825  214.8631
 826  174.5751
 827  189.5162
 828  129.9785
 829  221.3226
 830  285.8007
 831  373.9596
 832  311.4323
 833  238.8885
 834  111.3399
 835  47.86569
 836  73.61793
 837  208.4807
 838  273.9937
 839  309.3921
 840  323.0305
 841  318.8641
 842  276.0583
 843  261.0364
 844  230.6739
 845  199.7392
 846  219.0686
 847  195.821
 848  79.56836
 849  63.47985
 850  4.298403
 851  109.9638
 852  222.7251
 853  255.5015
 854  222.7878
 855  89.93856
 856  243.6069
 857  254.3053
 858  353.0012
 859  335.762
 860  362.6393
 861  347.0625
 862  224.1896
 863  60.54827
 864  13.63619
 865  65.56421
 866  120.2251
 867  142.72
 868  231.3064
 869  262.2596
 870  142.037
 871  113.4674
 872  94.75324
 873  139.1069
 874  17.16842
 875  40.00787
 876  215.8178
 877  367.9075
 878  271.4781
 879  68.38439
 880  143.1064
 881  258.5451
 882  277.2515
 883  210.047
 884  103.3787
 885  91.41721
 886  112.5372
 887  134.9431
 888  219.5465
 889  218.1875
 890  361.8932
 891  348.6051
 892  409.0499
 893  239.8519
 894  147.6702
 895  115.1514
 896  133.9167
 897  195.887
 898  153.5061
 899  187.7175
 900  125.4187
 901  83.1473
 902  87.31545
 903  129.9642
 904  178.5836
 905  103.0697
 906  122.1123
 907  17.55104
 908  55.85825
 909  41.65726
 910  238.5875
 911  323.3674
 912  400.8919
 913  242.9623
 914  42.95176
 915  -92.88612
 916  1.56269
 917  91.19327
 918  125.9983
 919  274.2032
 920  423.7661
 921  358.7432
 922  118.298
 923  143.5445
 924  254.1813
 925  349.6447
 926  190.9045
 927  122.3359
 928  92.71042
 929  227.7807
 930  183.6732
 931  131.6045
 932  -4.287272
 933  -8.521678
 934  8.238638
 935  49.50153
 936  93.7058
 937  112.1593
 938  197.3001
 939  199.2505
 940  158.5495
 941  175.9211
 942  265.0781
 943  317.617
 944  222.2903
 945  54.19441
 946  -125.9931
 947  -74.52539
 948  36.17474
 949  169.4389
 950  104.8801
 951  118.8604
 952  55.54836
 953  83.54373
 954  67.40906
 955  248.0225
 956  202.6121
 957  191.6841
 958  121.0029
 959  225.2688
 960  213.5277
 961  195.362
 962  127.8625
 963  69.86718
 964  82.88264
 965  81.5846
 966  134.1366
 967  219.0501
 968  326.1245
 969  311.9383
 970  249.9147
 971  185.0749
 972  230.8501
 973  218.8233
 974  186.8857
 975  125.9754
 976  105.0319
 977  178.7511
 978  190.6947
 979  209.7152
 980  145.5199
 981  169.3819
 982  126.6204
 983  101.3579
 984  166.9584
 985  329.2801
 986  385.3838
 987  279.8251
 988  147.7982
 989  141.8134
 990  168.6765
 991  152.7374
 992  166.6508
 993  248.5061
 994  105.2242
 995  11.49362
 996  -35.87494
 997  112.2376
 998  82.18566
 999  5.208373
1000  -27.69294
1001  -16.73214
1002  73.88187
1003  55.79185
1004  50.0069
1005  74.59031
1006  163.7485
1007  194.5651
1008  208.7738
1009  192.4293
1010  170.2506
1011  139.168
1012  97.19672
1013  200.4104
1014  223.1189
1015  229.2971
1016  102.4339
1017  159.822
1018  203.7679
1019  145.6377
1020  33.16344
1021  52.70435
1022  247.7075
1023  277.1138
