# Input file       =  1189728850.110648_cleaned.dat
# Candidate        =  PSR_0332+5434
# Telescope        =  AR
# Epoch_topo       =  58014.010059151020
# Epoch_bary       =  N/A
# T_sample         =  0.002
# Data Folded      =  7340032
# Data Avg         =  0.0323925381536745
# Data StdDev      =  2.62137749136137 
# Profile Bins     =  1024
# Profile Avg      =  232.253904545135 
# Profile StdDev   =  221.936413906066 
# Reduced chi-sqr  =  1.173
# Prob(Noise)      <  0.000102   (~3.7 sigma)
# P_topo (ms)      =  714.466818977931  +/- 9.74e-05
# P'_topo (s/s)    =  -0                +/- 5.14e-11
# P''_topo (s/s^2) =  0                 +/- 2.27e-14
# P_bary (ms)      =  N/A
# P'_bary (s/s)    =  N/A
# P''_bary (s/s^2) =  N/A
# P_orb (s)        =  N/A
# asin(i)/c (s)    =  N/A
# eccentricity     =  N/A
# w (rad)          =  N/A
# T_peri           =  N/A
######################################################
   0  237.5732
   1  208.431
   2  299.0076
   3  310.0582
   4  314.7271
   5  214.8829
   6  215.9487
   7  222.9941
   8  295.1241
   9  367.1376
  10  225.1271
  11  180.0561
  12  128.0535
  13  190.2334
  14  265.4939
  15  384.6753
  16  515.8619
  17  437.5588
  18  299.4259
  19  172.7965
  20  144.6408
  21  219.3167
  22  179.511
  23  106.7338
  24  74.09521
  25  27.29952
  26  84.47729
  27  156.545
  28  403.3888
  29  414.3881
  30  250.7748
  31  84.21014
  32  49.1531
  33  167.5411
  34  213.5308
  35  261.8889
  36  207.7464
  37  192.2215
  38  138.0667
  39  171.8915
  40  245.446
  41  223.9087
  42  209.1604
  43  76.36329
  44  97.24958
  45  180.4606
  46  191.5752
  47  244.0863
  48  233.0359
  49  284.4735
  50  280.9967
  51  287.8174
  52  270.9673
  53  129.0663
  54  33.09322
  55  52.318
  56  97.55263
  57  121.8686
  58  159.6758
  59  270.9756
  60  309.8119
  61  336.3278
  62  245.1721
  63  156.3074
  64  131.2594
  65  279.4041
  66  314.3112
  67  315.3874
  68  250.3611
  69  174.5678
  70  200.6006
  71  196.8645
  72  306.2888
  73  316.2964
  74  327.175
  75  218.7433
  76  98.43967
  77  170.4199
  78  294.4813
  79  402.7276
  80  306.2036
  81  194.5581
  82  231.2614
  83  272.1676
  84  277.1597
  85  231.1643
  86  328.211
  87  416.7867
  88  267.7766
  89  220.9586
  90  157.2672
  91  276.0237
  92  271.4486
  93  433.9395
  94  449.272
  95  378.1836
  96  219.6518
  97  112.6503
  98  102.3692
  99  197.4446
 100  333.2533
 101  334.0491
 102  399.1229
 103  427.9287
 104  412.7663
 105  360.998
 106  275.5117
 107  163.1737
 108  92.32249
 109  62.13894
 110  169.6417
 111  183.9375
 112  163.222
 113  181.1513
 114  160.3058
 115  89.45316
 116  65.23636
 117  121.5204
 118  274.0327
 119  161.9525
 120  130.4639
 121  135.226
 122  179.9404
 123  190.5041
 124  149.894
 125  216.273
 126  308.761
 127  295.333
 128  235.3143
 129  105.6032
 130  211.1274
 131  212.3299
 132  224.3964
 133  117.1876
 134  164.7101
 135  292.4769
 136  356.1252
 137  238.7534
 138  195.4703
 139  264.903
 140  508.2082
 141  506.6718
 142  397.0787
 143  154.7424
 144  113.6548
 145  121.1427
 146  83.26273
 147  -28.55081
 148  -42.89613
 149  225.9795
 150  368.1779
 151  356.1106
 152  157.0722
 153  273.0429
 154  364.8991
 155  491.1277
 156  276.8411
 157  268.7789
 158  176.5271
 159  308.0191
 160  182.7852
 161  262.1772
 162  105.1656
 163  189.7029
 164  103.7557
 165  298.7468
 166  250.0189
 167  271.7176
 168  133.8142
 169  193.3156
 170  233.9498
 171  290.4414
 172  354.2672
 173  332.4367
 174  257.9581
 175  127.371
 176  26.18074
 177  33.89612
 178  30.51076
 179  110.9024
 180  277.355
 181  390.197
 182  452.1974
 183  251.9909
 184  21.08845
 185  -52.48199
 186  60.72554
 187  222.3026
 188  317.5082
 189  365.3105
 190  349.4886
 191  253.392
 192  276.6787
 193  442.2163
 194  461.1685
 195  419.0877
 196  272.2393
 197  251.9011
 198  260.472
 199  269.1143
 200  273.3492
 201  271.1025
 202  249.2933
 203  213.128
 204  205.3094
 205  241.3754
 206  221.1555
 207  315.197
 208  298.8257
 209  294.6503
 210  177.2093
 211  231.8031
 212  286.3169
 213  366.1488
 214  351.562
 215  324.6714
 216  282.4815
 217  285.0908
 218  279.2398
 219  214.5629
 220  219.4534
 221  185.3604
 222  253.8383
 223  259.9742
 224  200.0878
 225  175.6093
 226  164.2728
 227  239.9712
 228  220.7512
 229  236.5441
 230  249.343
 231  262.9945
 232  168.8476
 233  89.59595
 234  174.7887
 235  347.4848
 236  338.7673
 237  244.337
 238  199.6725
 239  223.595
 240  164.7349
 241  66.35455
 242  111.4726
 243  232.3856
 244  326.167
 245  206.8866
 246  104.6454
 247  82.01294
 248  138.5004
 249  187.338
 250  202.2919
 251  251.6796
 252  226.4652
 253  222.326
 254  192.7311
 255  226.6319
 256  210.7546
 257  239.8027
 258  261.9022
 259  236.1425
 260  237.8091
 261  208.0856
 262  111.7797
 263  29.36617
 264  28.15151
 265  142.2394
 266  350.5125
 267  444.715
 268  476.1162
 269  380.2666
 270  244.7259
 271  150.377
 272  41.4456
 273  68.64942
 274  150.2666
 275  188.4977
 276  269.5066
 277  296.9671
 278  263.334
 279  227.045
 280  209.1056
 281  218.8203
 282  263.0772
 283  371.8264
 284  412.9363
 285  361.208
 286  324.2919
 287  297.4639
 288  215.9268
 289  113.418
 290  152.2428
 291  195.1803
 292  247.4517
 293  191.964
 294  238.893
 295  290.9212
 296  299.2523
 297  119.8661
 298  165.1345
 299  163.8669
 300  377.6974
 301  372.7811
 302  330.4507
 303  245.8985
 304  126.0481
 305  78.94153
 306  6.321046
 307  -15.43808
 308  4.784102
 309  -7.501419
 310  21.20164
 311  -15.83966
 312  10.27776
 313  96.48534
 314  133.3332
 315  229.0036
 316  237.9397
 317  178.0041
 318  80.4119
 319  88.65752
 320  221.0015
 321  212.5114
 322  172.4087
 323  223.243
 324  261.7833
 325  368.1645
 326  337.4787
 327  309.9313
 328  367.2305
 329  433.2598
 330  387.1577
 331  357.6758
 332  332.7271
 333  405.5692
 334  382.3528
 335  214.2936
 336  129.7835
 337  57.11249
 338  263.3253
 339  340.7745
 340  284.0078
 341  123.8405
 342  103.6092
 343  137.3356
 344  217.0611
 345  171.5893
 346  121.0015
 347  61.03759
 348  119.2248
 349  227.1835
 350  317.8079
 351  262.5009
 352  264.7226
 353  226.0825
 354  267.7948
 355  274.6071
 356  216.5316
 357  144.4074
 358  117.1243
 359  151.7054
 360  232.6349
 361  214.9291
 362  195.2231
 363  228.9733
 364  336.2407
 365  412.9183
 366  423.2052
 367  252.4953
 368  188.4296
 369  216.8495
 370  389.8297
 371  424.6993
 372  288.3593
 373  151.9734
 374  159.8632
 375  205.8095
 376  253.971
 377  110.2004
 378  78.60409
 379  132.9217
 380  220.923
 381  295.4352
 382  255.927
 383  427.082
 384  460.863
 385  287.3231
 386  137.9826
 387  202.3997
 388  298.8568
 389  332.9412
 390  259.7307
 391  294.5614
 392  211.5481
 393  247.8356
 394  149.8814
 395  173.8712
 396  259.5136
 397  466.9119
 398  341.4426
 399  210.0398
 400  179.8045
 401  257.4616
 402  295.9164
 403  211.1298
 404  183.1057
 405  186.4544
 406  137.484
 407  176.7979
 408  80.36033
 409  173.5829
 410  224.5
 411  459.3582
 412  484.9062
 413  465.0392
 414  241.3348
 415  92.53745
 416  -34.99178
 417  34.2478
 418  146.3521
 419  198.5914
 420  124.4786
 421  99.89294
 422  77.98502
 423  79.67634
 424  166.2752
 425  248.8647
 426  165.7338
 427  26.29907
 428  -15.21693
 429  93.05959
 430  185.0809
 431  213.7007
 432  161.5299
 433  186.8126
 434  236.9093
 435  214.5085
 436  195.8459
 437  324.3234
 438  498.8865
 439  488.818
 440  361.5165
 441  346.9665
 442  308.829
 443  282.3623
 444  180.3441
 445  138.9897
 446  182.8763
 447  201.6101
 448  215.7222
 449  68.02503
 450  22.17263
 451  65.13157
 452  153.8281
 453  141.4552
 454  141.3489
 455  172.6091
 456  197.5526
 457  281.3232
 458  232.6531
 459  262.6908
 460  301.8599
 461  419.0469
 462  408.7451
 463  179.2496
 464  22.24638
 465  13.70273
 466  171.4694
 467  263.8746
 468  273.5739
 469  192.1322
 470  192.7691
 471  114.9174
 472  69.78805
 473  44.17876
 474  11.57649
 475  104.9973
 476  107.2896
 477  181.4267
 478  196.0908
 479  237.2868
 480  241.3502
 481  212.494
 482  199.5801
 483  171.7093
 484  120.8253
 485  46.80536
 486  5.461523
 487  36.83268
 488  153.6235
 489  354.2519
 490  423.1508
 491  364.1877
 492  177.449
 493  256.5872
 494  301.3165
 495  304.6378
 496  132.9203
 497  116.591
 498  200.1242
 499  211.3129
 500  170.8031
 501  199.3934
 502  405.0904
 503  523.6092
 504  498.5514
 505  320.8736
 506  240.7601
 507  134.1842
 508  112.6344
 509  153.426
 510  210.3709
 511  379.4289
 512  291.1386
 513  143.9745
 514  -49.96801
 515  -100.1072
 516  18.09023
 517  -13.44665
 518  117.8622
 519  178.5407
 520  315.3143
 521  270.9535
 522  213.739
 523  136.1024
 524  162.172
 525  294.8926
 526  401.4653
 527  450.6682
 528  336.7806
 529  319.8702
 530  184.3654
 531  57.87399
 532  -32.15301
 533  26.49689
 534  54.36427
 535  173.7386
 536  121.5652
 537  223.401
 538  1.298382
 539  97.69524
 540  126.3091
 541  243.2584
 542  311.7892
 543  397.2365
 544  489.5463
 545  394.5095
 546  334.2046
 547  197.8631
 548  207.0759
 549  195.9574
 550  209.24
 551  118.1774
 552  124.1136
 553  86.98647
 554  95.63032
 555  149.9004
 556  209.6959
 557  249.2782
 558  203.1748
 559  302.5975
 560  294.7694
 561  352.8368
 562  263.5182
 563  160.2443
 564  75.62711
 565  52.98414
 566  81.36295
 567  235.7575
 568  278.5949
 569  209.5964
 570  57.79545
 571  124.8693
 572  284.1576
 573  350.226
 574  327.2548
 575  344.3886
 576  343.4253
 577  280.8579
 578  209.1036
 579  257.4933
 580  348.455
 581  398.4537
 582  259.5771
 583  143.7036
 584  49.07119
 585  283.0929
 586  306.771
 587  234.3926
 588  25.55976
 589  83.95454
 590  303.4302
 591  449.7404
 592  386.7857
 593  172.664
 594  50.3132
 595  139.0652
 596  199.8159
 597  189.3062
 598  135.6064
 599  81.0498
 600  97.7292
 601  151.2955
 602  221.6596
 603  154.2535
 604  208.6032
 605  326.7029
 606  329.4282
 607  206.8469
 608  247.5678
 609  353.9651
 610  437.7278
 611  349.7138
 612  220.0104
 613  139.0483
 614  207.4769
 615  311.1757
 616  255.96
 617  69.47249
 618  57.70583
 619  52.61514
 620  57.91896
 621  105.5596
 622  247.4783
 623  433.0398
 624  476.5095
 625  373.1699
 626  181.217
 627  75.39998
 628  166.6745
 629  404.2226
 630  545.3753
 631  556.0126
 632  500.1082
 633  406.0552
 634  473.6094
 635  459.8241
 636  567.8066
 637  617.5002
 638  706.985
 639  929.8342
 640  1038.875
 641  1045.282
 642  948.2089
 643  913.024
 644  966.6815
 645  899.3196
 646  838.2197
 647  742.3231
 648  626.4509
 649  462.8897
 650  352.7849
 651  369.2498
 652  458.2895
 653  438.1415
 654  348.0938
 655  297.285
 656  160.748
 657  84.42725
 658  258.9946
 659  282.821
 660  250.9704
 661  150.6504
 662  269.6227
 663  265.2307
 664  262.1369
 665  271.862
 666  285.7009
 667  206.4367
 668  146.4428
 669  187.1753
 670  154.1989
 671  193.4115
 672  243.858
 673  339.0342
 674  148.1594
 675  167.6553
 676  185.8509
 677  409.3241
 678  356.4089
 679  337.5555
 680  214.2865
 681  223.907
 682  129.6299
 683  138.1534
 684  186.5949
 685  414.9506
 686  449.4738
 687  405.3165
 688  240.7042
 689  293.1354
 690  305.1876
 691  333.4757
 692  146.6918
 693  17.37541
 694  -31.43853
 695  7.371529
 696  95.29787
 697  161.4992
 698  188.417
 699  235.0881
 700  262.0179
 701  189.1659
 702  200.5311
 703  208.9351
 704  338.5
 705  315.1844
 706  329.9637
 707  274.7746
 708  193.4607
 709  226.6978
 710  157.6885
 711  194.8072
 712  200.8868
 713  262.0381
 714  228.9516
 715  169.2493
 716  146.5898
 717  213.671
 718  248.5417
 719  294.692
 720  388.4714
 721  378.0431
 722  322.3127
 723  181.155
 724  144.0669
 725  113.9588
 726  92.03259
 727  109.1551
 728  176.0417
 729  153.7099
 730  201.1261
 731  197.7516
 732  241.8012
 733  259.8618
 734  306.1458
 735  289.7073
 736  289.244
 737  310.5329
 738  172.3535
 739  194.3738
 740  215.4204
 741  221.0165
 742  158.2975
 743  177.893
 744  310.5206
 745  315.7736
 746  357.7503
 747  297.1013
 748  420.1024
 749  459.3121
 750  320.0268
 751  122.4092
 752  31.09886
 753  186.4977
 754  250.3578
 755  303.1995
 756  181.2355
 757  201.5415
 758  182.0923
 759  328.2537
 760  303.2328
 761  322.7072
 762  244.1286
 763  165.7578
 764  212.1969
 765  237.2067
 766  350.6188
 767  304.3613
 768  339.9865
 769  253.9547
 770  145.8143
 771  -40.38469
 772  36.10308
 773  125.5863
 774  240.4277
 775  209.6331
 776  113.336
 777  128.0928
 778  247.5818
 779  350.8418
 780  203.0676
 781  49.85485
 782  -29.0174
 783  11.11031
 784  47.00815
 785  118.5816
 786  154.8652
 787  185.6742
 788  131.584
 789  36.85832
 790  43.30761
 791  48.05407
 792  42.29025
 793  81.38342
 794  188.5117
 795  274.874
 796  158.5032
 797  147.9298
 798  235.7589
 799  355.2876
 800  297.2558
 801  277.4299
 802  328.4727
 803  380.5576
 804  424.7628
 805  347.8174
 806  247.8806
 807  50.93635
 808  77.03094
 809  273.7272
 810  412.3035
 811  289.2935
 812  141.2684
 813  205.7411
 814  346.4078
 815  368.8107
 816  268.6375
 817  256.8631
 818  360.9677
 819  409.1564
 820  387.5393
 821  254.5281
 822  216.5189
 823  122.6623
 824  71.91649
 825  77.40141
 826  197.5887
 827  208.0741
 828  247.8695
 829  335.1738
 830  448.8646
 831  346.0297
 832  236.6962
 833  161.343
 834  206.6678
 835  274.4903
 836  266.3497
 837  252.2371
 838  124.5224
 839  125.8697
 840  149.2772
 841  224.8405
 842  317.2643
 843  330.3476
 844  344.6131
 845  317.5832
 846  357.3615
 847  371.2988
 848  328.895
 849  309.2544
 850  359.1074
 851  441.6825
 852  423.6187
 853  281.6205
 854  237.4354
 855  183.5584
 856  112.3987
 857  94.65804
 858  137.8353
 859  174.2673
 860  165.2518
 861  178.516
 862  185.5366
 863  332.6718
 864  517.5859
 865  579.5615
 866  405.816
 867  343.9973
 868  426.5282
 869  416.5571
 870  233.1926
 871  97.32688
 872  182.8744
 873  267.9553
 874  369.9803
 875  307.1343
 876  266.7692
 877  119.924
 878  25.06235
 879  -11.39096
 880  85.30948
 881  170.985
 882  164.4503
 883  224.0795
 884  247.6131
 885  319.6498
 886  316.496
 887  344.1132
 888  281.0284
 889  215.5737
 890  257.762
 891  391.8409
 892  380.4454
 893  191.7568
 894  61.55531
 895  47.03334
 896  94.97388
 897  177.0667
 898  141.7146
 899  169.6673
 900  230.4091
 901  230.4776
 902  218.8505
 903  145.3685
 904  261.2369
 905  355.959
 906  429.3597
 907  397.2468
 908  281.2524
 909  135.6544
 910  17.90679
 911  44.30802
 912  138.8467
 913  182.9595
 914  151.1428
 915  197.2733
 916  276.8369
 917  308.5662
 918  242.0961
 919  147.0768
 920  154.2245
 921  146.3792
 922  179.4525
 923  213.9343
 924  174.0153
 925  163.5839
 926  145.0724
 927  177.7412
 928  137.3069
 929  188.079
 930  308.5847
 931  319.3687
 932  274.9543
 933  253.006
 934  265.8732
 935  196.1931
 936  43.91452
 937  44.18512
 938  1.768599
 939  165.8221
 940  198.46
 941  292.7249
 942  146.2489
 943  140.7307
 944  224.1362
 945  343.0994
 946  360.8391
 947  213.6814
 948  218.6924
 949  201.8427
 950  92.92852
 951  -17.39672
 952  23.087
 953  214.401
 954  268.1941
 955  291.5225
 956  332.3923
 957  351.6624
 958  246.3875
 959  117.2428
 960  97.59297
 961  13.00619
 962  145.5601
 963  210.7514
 964  331.893
 965  239.3318
 966  198.2093
 967  149.4061
 968  115.1856
 969  -35.31025
 970  -94.6926
 971  63.65238
 972  210.0713
 973  249.2091
 974  213.133
 975  253.7573
 976  225.3224
 977  162.5108
 978  70.90469
 979  105.8756
 980  152.0608
 981  309.4403
 982  393.1405
 983  440.3003
 984  353.9847
 985  306.9119
 986  218.387
 987  245.4666
 988  302.4974
 989  310.8092
 990  277.7888
 991  307.4197
 992  338.8878
 993  417.5022
 994  337.3277
 995  285.2
 996  207.6143
 997  136.6892
 998  20.26023
 999  -69.91245
1000  -26.49346
1001  73.0873
1002  205.9195
1003  271.7028
1004  245.299
1005  254.5139
1006  295.1557
1007  336.4738
1008  230.4433
1009  242.9121
1010  191.4131
1011  196.6778
1012  200.205
1013  203.0329
1014  297.7261
1015  259.0744
1016  317.0618
1017  203.6193
1018  123.1672
1019  117.1233
1020  248.4966
1021  294.2405
1022  288.5131
1023  247.0276
