# Input file       =  1189628040.113569_cleaned.dat
# Candidate        =  PSR_0332+5434
# Telescope        =  AR
# Epoch_topo       =  58012.843276777421
# Epoch_bary       =  N/A
# T_sample         =  0.002
# Data Folded      =  7208960
# Data Avg         =  0.0278360952993602
# Data StdDev      =  3.25437303992478 
# Profile Bins     =  1024
# Profile Avg      =  195.952639747185 
# Profile StdDev   =  273.05721916156  
# Reduced chi-sqr  =  0.850
# Prob(Noise)      <  1   (~0.0 sigma)
# P_topo (ms)      =  714.466421345452  +/- 0.000231
# P'_topo (s/s)    =  -0                +/- 1.24e-10
# P''_topo (s/s^2) =  0                 +/- 5.57e-14
# P_bary (ms)      =  N/A
# P'_bary (s/s)    =  N/A
# P''_bary (s/s^2) =  N/A
# P_orb (s)        =  N/A
# asin(i)/c (s)    =  N/A
# eccentricity     =  N/A
# w (rad)          =  N/A
# T_peri           =  N/A
######################################################
   0  134.1109
   1  239.0831
   2  332.7223
   3  270.9749
   4  153.1696
   5  189.9264
   6  197.5786
   7  221.9347
   8  50.15943
   9  221.1529
  10  345.2905
  11  345.5781
  12  244.1434
  13  247.8632
  14  331.0017
  15  337.136
  16  354.3712
  17  192.7475
  18  150.3531
  19  -0.6806663
  20  107.5277
  21  43.72014
  22  109.0992
  23  128.7949
  24  224.6385
  25  246.1246
  26  324.939
  27  354.0726
  28  214.495
  29  17.70441
  30  -30.57715
  31  166.5307
  32  233.2299
  33  262.9658
  34  169.6935
  35  180.4778
  36  121.6953
  37  198.6699
  38  174.5754
  39  112.6445
  40  126.9823
  41  189.5145
  42  251.3374
  43  216.8638
  44  84.61855
  45  99.93186
  46  126.3517
  47  301.4001
  48  317.1876
  49  324.5773
  50  255.9998
  51  260.4584
  52  127.306
  53  74.53795
  54  50.82737
  55  239.8777
  56  293.2102
  57  275.7836
  58  266.2914
  59  323.1274
  60  299.1375
  61  193.5827
  62  137.965
  63  205.4577
  64  196.5375
  65  165.7759
  66  162.3577
  67  131.8898
  68  123.8774
  69  238.2009
  70  133.7721
  71  161.8211
  72  145.29
  73  211.6705
  74  198.3034
  75  123.9744
  76  173.3177
  77  243.4198
  78  311.8086
  79  294.4263
  80  193.2124
  81  259.5245
  82  271.4402
  83  288.1046
  84  203.6608
  85  233.2052
  86  283.5026
  87  252.7841
  88  290.5075
  89  294.9793
  90  258.9426
  91  112.3406
  92  -30.05412
  93  45.30093
  94  53.92107
  95  83.48206
  96  148.274
  97  244.1193
  98  324.1408
  99  273.0234
 100  135.6492
 101  17.28931
 102  53.71558
 103  74.78893
 104  -12.29331
 105  -133.9479
 106  -125.9465
 107  -2.323399
 108  65.69955
 109  121.2549
 110  118.8755
 111  138.0124
 112  117.5406
 113  184.0558
 114  308.4781
 115  268.5944
 116  221.6693
 117  141.5201
 118  157.1329
 119  120.8651
 120  210.9158
 121  59.84691
 122  80.38795
 123  196.9356
 124  310.9214
 125  269.764
 126  201.8176
 127  212.7302
 128  240.3034
 129  227.4695
 130  312.0702
 131  216.0429
 132  224.5671
 133  302.5854
 134  309.5408
 135  167.5378
 136  53.05145
 137  62.04677
 138  104.9648
 139  126.5376
 140  177.9532
 141  139.6434
 142  99.18144
 143  128.4245
 144  192.4448
 145  224.7203
 146  223.5993
 147  276.6376
 148  159.1622
 149  287.4181
 150  351.2271
 151  461.7692
 152  218.1832
 153  141.8743
 154  170.5866
 155  89.80448
 156  -27.04993
 157  -69.84734
 158  45.11477
 159  71.6404
 160  81.09063
 161  191.5513
 162  132.8236
 163  70.65262
 164  136.3373
 165  245.9415
 166  298.3147
 167  208.0064
 168  268.0197
 169  270.9703
 170  273.6294
 171  226.3294
 172  162.9248
 173  98.30111
 174  137.5012
 175  220.3533
 176  305.4163
 177  336.4113
 178  448.4672
 179  416.8772
 180  411.3206
 181  339.0494
 182  285.9305
 183  225.1219
 184  292.9926
 185  374.117
 186  291.2216
 187  236.9132
 188  289.0921
 189  280.25
 190  163.8521
 191  84.19896
 192  242.9763
 193  261.5779
 194  184.0978
 195  93.6902
 196  70.20178
 197  137.1274
 198  223.8114
 199  181.6016
 200  145.6557
 201  276.1239
 202  453.7753
 203  368.6495
 204  158.1658
 205  126.4769
 206  259.6695
 207  275.9521
 208  146.3715
 209  53.73409
 210  10.08689
 211  85.82288
 212  164.7924
 213  158.419
 214  226.1018
 215  278.6971
 216  239.2037
 217  67.48002
 218  1.67031
 219  136.647
 220  175.0556
 221  134.5447
 222  70.28051
 223  46.61613
 224  -5.563011
 225  59.31548
 226  123.8741
 227  69.70457
 228  -42.28363
 229  -48.26059
 230  15.68837
 231  -6.848397
 232  67.76648
 233  137.6133
 234  188.6805
 235  78.65959
 236  42.53776
 237  100.8736
 238  267.7367
 239  301.1322
 240  327.504
 241  236.7446
 242  279.3629
 243  334.494
 244  314.0912
 245  240.8253
 246  313.3804
 247  324.4945
 248  287.0743
 249  135.1805
 250  127.6138
 251  147.3303
 252  181.0982
 253  254.7784
 254  223.5001
 255  137.5593
 256  68.50037
 257  273.8669
 258  286.7528
 259  404.0274
 260  348.0316
 261  462.4653
 262  265.6013
 263  260.3263
 264  196.3324
 265  78.23687
 266  -9.218129
 267  69.94418
 268  152.977
 269  85.88682
 270  24.19139
 271  103.0249
 272  153.6445
 273  259.0894
 274  300.4451
 275  279.4503
 276  256.8111
 277  216.1094
 278  139.7557
 279  156.6259
 280  321.3454
 281  490.256
 282  456.3148
 283  254.2157
 284  227.3739
 285  213.0984
 286  207.9483
 287  214.9572
 288  359.5808
 289  209.6062
 290  12.43457
 291  -81.83248
 292  137.494
 293  213.9021
 294  357.3627
 295  275.0427
 296  219.074
 297  72.80097
 298  73.05701
 299  122.6732
 300  164.6224
 301  287.6901
 302  391.2788
 303  434.5042
 304  394.0476
 305  322.5794
 306  144.5859
 307  -56.73678
 308  -86.27897
 309  127.0524
 310  182.7847
 311  221.1268
 312  143.4131
 313  174.0548
 314  231.8368
 315  337.7128
 316  412.5899
 317  384.1075
 318  335.8293
 319  343.8653
 320  276.8003
 321  353.4238
 322  354.2243
 323  321.5025
 324  208.0081
 325  164.29
 326  88.46783
 327  48.78778
 328  -6.036406
 329  93.88667
 330  133.1009
 331  210.3893
 332  343.9741
 333  427.9574
 334  433.8301
 335  303.3039
 336  283.7518
 337  231.2296
 338  317.4258
 339  233.8649
 340  247.9973
 341  57.05398
 342  67.15534
 343  -38.4068
 344  44.24243
 345  149.3021
 346  327.5157
 347  354.9413
 348  297.6454
 349  199.5166
 350  144.7463
 351  90.69591
 352  74.39612
 353  42.99625
 354  69.32126
 355  96.06618
 356  104.7207
 357  148.4686
 358  185.5654
 359  210.3326
 360  199.6709
 361  123.9983
 362  2.771841
 363  -52.83495
 364  -27.43403
 365  118.5972
 366  127.3822
 367  100.4829
 368  -65.76344
 369  69.9857
 370  66.09353
 371  90.65778
 372  62.36047
 373  128.5417
 374  133.0443
 375  1.298819
 376  -30.34331
 377  51.89599
 378  122.2317
 379  172.6762
 380  136.3237
 381  130.8799
 382  35.98211
 383  11.18879
 384  -25.15311
 385  14.01454
 386  71.55132
 387  222.6671
 388  216.4355
 389  199.396
 390  167.0398
 391  148.0485
 392  77.08599
 393  100.0351
 394  183.2954
 395  181.3911
 396  96.2991
 397  65.21492
 398  120.7348
 399  134.2355
 400  177.0219
 401  126.7629
 402  71.77654
 403  -68.30786
 404  -15.92404
 405  117.5853
 406  217.544
 407  193.7794
 408  74.42889
 409  -0.987743
 410  4.626908
 411  125.0055
 412  94.66576
 413  79.16268
 414  116.3721
 415  111.395
 416  53.13931
 417  100.021
 418  114.7575
 419  140.2327
 420  58.52923
 421  98.78342
 422  109.0691
 423  150.2471
 424  284.1759
 425  401.4551
 426  333.1307
 427  178.9722
 428  29.52807
 429  86.01987
 430  75.96209
 431  7.087095
 432  -5.275071
 433  45.23224
 434  165.1122
 435  233.829
 436  255.008
 437  189.4387
 438  163.9335
 439  158.146
 440  272.6718
 441  332.9772
 442  369.4591
 443  288.5393
 444  315.1729
 445  149.1707
 446  113.966
 447  67.2104
 448  231.504
 449  175.6785
 450  84.23132
 451  144.4046
 452  388.7434
 453  436.6241
 454  339.8409
 455  231.3454
 456  209.2382
 457  87.17601
 458  12.67134
 459  -8.741666
 460  -2.321172
 461  -2.107971
 462  96.63007
 463  256.2083
 464  218.21
 465  121.1277
 466  101.1838
 467  141.9267
 468  126.2982
 469  217.1083
 470  429.6367
 471  546.421
 472  390.9094
 473  316.9365
 474  198.1189
 475  297.6415
 476  345.5482
 477  402.4553
 478  259.4265
 479  263.7409
 480  169.0305
 481  151.8306
 482  52.90966
 483  146.9815
 484  102.2615
 485  109.8786
 486  150.0048
 487  160.4771
 488  258.3444
 489  271.1114
 490  318.4547
 491  234.9803
 492  130.888
 493  198.1434
 494  214.5099
 495  228.1709
 496  337.4355
 497  395.0435
 498  289.3076
 499  149.7016
 500  239.5333
 501  186.8252
 502  43.83109
 503  -37.33822
 504  103.8407
 505  67.0433
 506  98.41965
 507  109.1493
 508  231.9043
 509  321.5497
 510  455.6301
 511  421.9682
 512  336.4674
 513  315.1476
 514  289.4422
 515  275.2782
 516  211.733
 517  236.2932
 518  50.78635
 519  -78.91044
 520  -84.34122
 521  92.65157
 522  176.7864
 523  150.9233
 524  187.2905
 525  175.5312
 526  124.6397
 527  124.1008
 528  272.4995
 529  312.884
 530  192.8315
 531  214.3231
 532  193.5528
 533  308.2891
 534  198.8448
 535  190.1959
 536  73.42881
 537  53.95308
 538  176.1046
 539  223.0045
 540  202.4541
 541  181.579
 542  179.127
 543  198.6833
 544  205.6758
 545  234.1717
 546  246.037
 547  263.0482
 548  411.0641
 549  259.226
 550  168.7883
 551  166.3502
 552  151.4545
 553  134.445
 554  77.19421
 555  191.1461
 556  164.1441
 557  97.62037
 558  150.3025
 559  178.1584
 560  231.8013
 561  246.0676
 562  192.7584
 563  18.86906
 564  41.82043
 565  170.9141
 566  368.9087
 567  288.3918
 568  197.6694
 569  36.84421
 570  -62.37605
 571  -37.25126
 572  71.92088
 573  50.83129
 574  -43.8882
 575  8.862734
 576  36.55463
 577  90.4799
 578  108.3107
 579  210.5801
 580  118.0216
 581  166.897
 582  283.8304
 583  360.4279
 584  129.5396
 585  58.70363
 586  37.71947
 587  86.02441
 588  104.7508
 589  262.8678
 590  319.7146
 591  281.8794
 592  204.3355
 593  294.8022
 594  232.6323
 595  208.5878
 596  237.8692
 597  286.2103
 598  383.0468
 599  472.111
 600  509.6593
 601  405.1114
 602  234.5241
 603  47.63037
 604  -7.510903
 605  35.054
 606  188.1487
 607  201.4059
 608  199.4977
 609  263.0803
 610  226.9587
 611  151.5213
 612  214.2097
 613  303.3153
 614  409.2173
 615  239.8178
 616  267.3535
 617  269.1002
 618  370.3153
 619  361.5623
 620  212.8024
 621  165.7566
 622  122.8638
 623  267.4628
 624  227.5832
 625  76.71918
 626  56.20959
 627  96.23636
 628  170.7223
 629  327.3156
 630  386.2305
 631  473.5069
 632  300.8944
 633  370.9078
 634  470.7228
 635  501.5226
 636  393.1527
 637  500.0573
 638  594.872
 639  837.1012
 640  972.0838
 641  1135.543
 642  1161.377
 643  1183.202
 644  1134.791
 645  976.6465
 646  725.9222
 647  709.5456
 648  639.5297
 649  561.3317
 650  425.4897
 651  426.7466
 652  436.431
 653  410.613
 654  371.8723
 655  388.2487
 656  390.4873
 657  384.1387
 658  340.0933
 659  254.7914
 660  88.33384
 661  7.675567
 662  65.04448
 663  128.1168
 664  194.4965
 665  104.8188
 666  42.67097
 667  76.53309
 668  148.9086
 669  206.2992
 670  267.6012
 671  332.38
 672  347.5735
 673  346.7761
 674  472.5474
 675  399.0417
 676  259.5532
 677  208.848
 678  275.2932
 679  134.0445
 680  21.35721
 681  56.35063
 682  205.3732
 683  74.17589
 684  81.55243
 685  126.25
 686  148.1963
 687  178.4632
 688  211.0846
 689  259.0753
 690  87.7673
 691  -5.548963
 692  53.95675
 693  98.39973
 694  98.22232
 695  135.2941
 696  108.4704
 697  -15.16842
 698  -141.8844
 699  -7.277914
 700  139.7396
 701  226.0023
 702  278.2087
 703  278.067
 704  220.6633
 705  219.6422
 706  252.9297
 707  208.4065
 708  276.8842
 709  281.3231
 710  335.33
 711  100.1978
 712  171.0651
 713  73.44086
 714  137.2503
 715  55.88316
 716  86.89619
 717  83.98562
 718  101.3043
 719  114.8364
 720  102.9357
 721  -23.55657
 722  77.28331
 723  184.9589
 724  242.5822
 725  188.8105
 726  200.2088
 727  202.9981
 728  191.385
 729  100.3968
 730  171.8338
 731  149.7405
 732  195.4254
 733  139.5868
 734  164.5935
 735  118.0587
 736  71.00772
 737  14.50271
 738  30.83917
 739  177.7644
 740  189.5464
 741  169.6257
 742  120.5272
 743  254.1964
 744  181.2909
 745  128.6241
 746  67.73345
 747  261.4394
 748  215.8383
 749  268.1412
 750  225.8067
 751  260.3201
 752  148.4047
 753  234.5464
 754  336.509
 755  367.7403
 756  219.5984
 757  189.841
 758  157.175
 759  109.8071
 760  163.5972
 761  114.3617
 762  57.95276
 763  67.117
 764  280.9927
 765  306.6353
 766  273.2584
 767  214.3459
 768  287.9141
 769  290.8868
 770  317.4321
 771  252.1356
 772  140.1245
 773  211.4159
 774  321.4587
 775  274.9505
 776  117.7866
 777  48.3639
 778  120.1159
 779  82.58545
 780  81.39099
 781  130.3863
 782  198.27
 783  300.683
 784  267.0424
 785  174.9921
 786  83.67017
 787  160.0727
 788  305.8917
 789  303.9669
 790  226.883
 791  216.8856
 792  248.5458
 793  303.8561
 794  236.3729
 795  229.2798
 796  258.8383
 797  394.0645
 798  398.0919
 799  215.9002
 800  68.85992
 801  85.5625
 802  177.5488
 803  238.1824
 804  256.3833
 805  248.8586
 806  192.1165
 807  209.8553
 808  257.0161
 809  262.5709
 810  144.7562
 811  188.8209
 812  256.1162
 813  354.862
 814  356.0919
 815  425.1216
 816  235.6003
 817  119.623
 818  87.67788
 819  166.2799
 820  112.5438
 821  8.173508
 822  126.3204
 823  159.7956
 824  177.3727
 825  243.6625
 826  425.3713
 827  353.7608
 828  120.2678
 829  -65.93208
 830  67.11933
 831  150.272
 832  176.6815
 833  138.2944
 834  275.5146
 835  296.3498
 836  366.2547
 837  222.7898
 838  218.439
 839  221.6658
 840  248.8064
 841  198.1559
 842  167.3518
 843  134.3855
 844  89.31692
 845  155.743
 846  129.8521
 847  53.67479
 848  12.8742
 849  152.6602
 850  132.769
 851  85.99606
 852  109.4027
 853  371.2461
 854  330.6259
 855  281.882
 856  274.0091
 857  283.7499
 858  155.781
 859  15.43683
 860  78.42058
 861  91.65838
 862  91.91238
 863  130.2722
 864  62.93711
 865  -15.51955
 866  9.817145
 867  170.4553
 868  234.7146
 869  223.5829
 870  454.8904
 871  473.94
 872  443.4803
 873  323.0383
 874  261.2323
 875  161.6499
 876  169.9887
 877  265.5974
 878  303.3609
 879  231.3578
 880  233.6067
 881  253.5219
 882  220.4713
 883  167.2123
 884  204.0665
 885  288.2193
 886  406.3649
 887  475.9961
 888  432.5349
 889  262.9911
 890  97.91404
 891  38.54766
 892  30.46444
 893  26.96621
 894  63.19599
 895  -48.74153
 896  18.94323
 897  108.5802
 898  189.7332
 899  166.8018
 900  116.2609
 901  245.635
 902  188.1407
 903  246.6629
 904  221.9259
 905  230.4641
 906  90.2263
 907  163.4097
 908  244.1924
 909  221.4627
 910  145.3577
 911  252.963
 912  244.7276
 913  116.9869
 914  64.93369
 915  145.9576
 916  295.1291
 917  398.9575
 918  399.9193
 919  318.6181
 920  139.2244
 921  165.2715
 922  121.8977
 923  170.1538
 924  202.1633
 925  144.2003
 926  106.4236
 927  43.7587
 928  63.71583
 929  55.52268
 930  -14.06482
 931  33.49065
 932  62.74048
 933  82.2083
 934  82.73692
 935  157.9628
 936  275.896
 937  264.8014
 938  328.3819
 939  320.6224
 940  344.5223
 941  394.9437
 942  507.8287
 943  456.6588
 944  308.4855
 945  275.2436
 946  269.8609
 947  181.0639
 948  215.8074
 949  299.8355
 950  214.4779
 951  83.13051
 952  109.9885
 953  257.4744
 954  170.4892
 955  86.76269
 956  70.34399
 957  66.62172
 958  15.23026
 959  34.51458
 960  82.16793
 961  67.29929
 962  -41.84078
 963  53.70684
 964  135.7784
 965  163.3676
 966  47.01809
 967  53.80938
 968  129.4731
 969  170.1876
 970  172.6206
 971  128.1571
 972  186.4992
 973  224.9428
 974  180.2791
 975  131.3314
 976  73.33239
 977  131.0353
 978  21.99634
 979  49.8294
 980  98.53747
 981  183.9225
 982  177.6328
 983  213.5221
 984  248.2813
 985  240.5719
 986  307.4222
 987  215.1163
 988  111.9356
 989  15.34104
 990  79.30817
 991  85.08137
 992  120.9761
 993  94.68239
 994  268.6233
 995  265.1284
 996  272.7534
 997  194.5148
 998  148.2214
 999  250.9158
1000  309.5923
1001  314.2685
1002  267.6299
1003  360.0544
1004  433.9068
1005  391.858
1006  261.2447
1007  330.8132
1008  293.138
1009  239.2497
1010  143.3336
1011  210.0917
1012  218.6062
1013  148.6533
1014  60.95243
1015  123.9176
1016  159.0306
1017  238.6078
1018  244.7945
1019  277.4594
1020  149.2944
1021  155.8912
1022  136.281
1023  153.6446
