# Input file       =  1189657632.118036_cleaned.dat
# Candidate        =  PSR_0332+5434
# Telescope        =  AR
# Epoch_topo       =  58013.185776829123
# Epoch_bary       =  N/A
# T_sample         =  0.002
# Data Folded      =  7340032
# Data Avg         =  0.0284025458801937
# Data StdDev      =  2.9290396799733  
# Profile Bins     =  1024
# Profile Avg      =  203.64277804569  
# Profile StdDev   =  247.984338350387 
# Reduced chi-sqr  =  1.072
# Prob(Noise)      <  0.0537   (~1.6 sigma)
# P_topo (ms)      =  714.466881811216  +/- 9.41e-05
# P'_topo (s/s)    =  -0                +/- 4.97e-11
# P''_topo (s/s^2) =  0                 +/- 2.19e-14
# P_bary (ms)      =  N/A
# P'_bary (s/s)    =  N/A
# P''_bary (s/s^2) =  N/A
# P_orb (s)        =  N/A
# asin(i)/c (s)    =  N/A
# eccentricity     =  N/A
# w (rad)          =  N/A
# T_peri           =  N/A
######################################################
   0  122.2146
   1  138.8346
   2  235.5477
   3  278.8135
   4  345.7644
   5  309.4068
   6  209.2076
   7  189.1696
   8  166.0081
   9  169.0077
  10  132.0559
  11  119.4693
  12  126.6255
  13  181.8766
  14  116.4715
  15  74.97894
  16  140.92
  17  197.3313
  18  326.5914
  19  321.0962
  20  398.8526
  21  290.1758
  22  230.7816
  23  110.7348
  24  72.61609
  25  78.11272
  26  226.0693
  27  310.1295
  28  255.0672
  29  222.5612
  30  137.9205
  31  103.8427
  32  32.36307
  33  136.6779
  34  221.1853
  35  230.0285
  36  252.5325
  37  190.9375
  38  41.95524
  39  -25.2733
  40  19.45332
  41  148.8296
  42  91.3995
  43  -2.745373
  44  28.96096
  45  133.5665
  46  298.0127
  47  296.6047
  48  298.9335
  49  233.8046
  50  262.1855
  51  -10.87325
  52  -42.58173
  53  -115.4449
  54  82.2007
  55  -2.277873
  56  102.3904
  57  123.8924
  58  264.8942
  59  222.216
  60  152.0757
  61  115.1546
  62  212.939
  63  275.0598
  64  202.2254
  65  91.32615
  66  59.39001
  67  63.48206
  68  63.43422
  69  86.40739
  70  209.7605
  71  290.0254
  72  293.8753
  73  190.8557
  74  179.5885
  75  292.6687
  76  398.0841
  77  397.0405
  78  211.3362
  79  180.6379
  80  115.0845
  81  180.6286
  82  103.532
  83  172.1986
  84  81.00311
  85  145.7935
  86  269.3175
  87  411.7704
  88  396.7531
  89  330.7867
  90  218.0125
  91  98.40253
  92  31.89692
  93  104.1653
  94  112.7304
  95  179.953
  96  117.0005
  97  97.47071
  98  155.3081
  99  293.5608
 100  278.2553
 101  249.0739
 102  230.5293
 103  290.6545
 104  349.4722
 105  384.9106
 106  346.8177
 107  189.6711
 108  97.63456
 109  209.5635
 110  404.3663
 111  408.4863
 112  286.9052
 113  228.888
 114  335.4604
 115  401.1646
 116  277.4326
 117  272.2174
 118  412.1404
 119  515.2515
 120  327.8568
 121  25.16008
 122  -97.38161
 123  -15.66303
 124  157.7024
 125  359.4313
 126  415.6623
 127  360.8953
 128  295.3299
 129  269.1792
 130  133.7838
 131  49.8937
 132  34.41698
 133  175.1827
 134  335.2379
 135  323.5319
 136  364.018
 137  254.4685
 138  422.1848
 139  405.992
 140  346.5208
 141  332.287
 142  212.5278
 143  230.6633
 144  57.42123
 145  122.5293
 146  326.305
 147  422.2715
 148  459.1707
 149  272.3363
 150  237.7794
 151  320.1685
 152  490.6088
 153  602.1736
 154  490.4875
 155  468.5381
 156  362.267
 157  249.374
 158  141.5061
 159  118.767
 160  183.7312
 161  177.0595
 162  109.6727
 163  93.15232
 164  206.8033
 165  198.9073
 166  139.6726
 167  135.9105
 168  382.6907
 169  435.2996
 170  322.4078
 171  79.6789
 172  99.70899
 173  61.14134
 174  50.74719
 175  34.05196
 176  124.5987
 177  95.94013
 178  87.01019
 179  27.53399
 180  140.1415
 181  167.3684
 182  256.9374
 183  323.2549
 184  368.8324
 185  402.8528
 186  262.8416
 187  118.2159
 188  150.7532
 189  222.22
 190  403.6559
 191  289.5168
 192  230.1557
 193  248.2866
 194  240.9218
 195  184.8458
 196  75.4136
 197  79.75815
 198  106.2582
 199  207.546
 200  343.6156
 201  324.2854
 202  246.7894
 203  182.6523
 204  264.1162
 205  312.2332
 206  375.9549
 207  386.413
 208  346.1492
 209  229.205
 210  208.5342
 211  286.9213
 212  336.9991
 213  342.8279
 214  400.2323
 215  337.9644
 216  302.6158
 217  195.0021
 218  147.6976
 219  171.5561
 220  129.8317
 221  156.375
 222  258.2043
 223  345.5925
 224  369.2965
 225  301.3978
 226  287.8982
 227  199.0299
 228  157.9068
 229  203.9332
 230  245.1645
 231  225.3281
 232  91.70107
 233  121.2559
 234  198.7536
 235  344.9422
 236  153.455
 237  95.16939
 238  20.67177
 239  -95.40593
 240  -122.0763
 241  -141.3128
 242  30.62828
 243  -3.167351
 244  64.09959
 245  125.3212
 246  187.9756
 247  245.3649
 248  109.866
 249  94.01337
 250  -54.49558
 251  28.12192
 252  139.2025
 253  325.407
 254  271.5099
 255  204.6727
 256  172.7895
 257  209.3994
 258  182.2258
 259  52.08287
 260  102.8003
 261  158.8825
 262  184.2656
 263  185.7149
 264  185.1137
 265  242.2326
 266  108.7205
 267  133.3765
 268  253.6294
 269  316.7479
 270  282.1568
 271  187.2256
 272  231.8731
 273  202.4401
 274  250.1915
 275  209.6948
 276  272.4345
 277  230.0865
 278  226.5313
 279  250.643
 280  290.5754
 281  318.1952
 282  246.2613
 283  225.1906
 284  229.6769
 285  256.8446
 286  256.656
 287  291.1506
 288  199.9416
 289  168.9475
 290  212.9221
 291  163.6155
 292  123.7211
 293  -61.87488
 294  41.22664
 295  33.7378
 296  148.2988
 297  169.5068
 298  232.2061
 299  206.5978
 300  254.3054
 301  289.4112
 302  271.2126
 303  218.1064
 304  69.76583
 305  146.5064
 306  142.8121
 307  219.4978
 308  258.0495
 309  213.3592
 310  184.0279
 311  196.4282
 312  279.4861
 313  313.5563
 314  314.2784
 315  370.0855
 316  348.5403
 317  251.0202
 318  180.6256
 319  40.55576
 320  66.79906
 321  115.499
 322  258.4083
 323  297.2534
 324  226.2359
 325  175.0863
 326  169.7216
 327  198.9745
 328  193.9037
 329  182.0713
 330  286.651
 331  257.7357
 332  267.7294
 333  247.3135
 334  145.8181
 335  70.27848
 336  -30.81321
 337  50.6823
 338  100.5002
 339  213.9955
 340  102.7299
 341  47.87704
 342  -115.1674
 343  45.27493
 344  125.1603
 345  125.7017
 346  34.93032
 347  6.98559
 348  127.9778
 349  275.5445
 350  268.7765
 351  158.1824
 352  34.08437
 353  18.9311
 354  -13.3391
 355  82.08163
 356  145.8338
 357  343.1442
 358  225.2834
 359  143.7499
 360  -37.35999
 361  -20.3179
 362  -9.887792
 363  151.4681
 364  320.3987
 365  431.1141
 366  241.1513
 367  126.6567
 368  20.87648
 369  135.4786
 370  138.8507
 371  15.82939
 372  11.4685
 373  -49.85867
 374  87.04721
 375  201.5092
 376  349.1457
 377  499.819
 378  487.2219
 379  492.7267
 380  283.8575
 381  340.9451
 382  318.7402
 383  423.4187
 384  313.6968
 385  327.0781
 386  294.4025
 387  238.0431
 388  241.4055
 389  213.6343
 390  222.9701
 391  219.5226
 392  248.1066
 393  307.0944
 394  288.2438
 395  347.7207
 396  340.6717
 397  304.1273
 398  141.0728
 399  75.71751
 400  12.03642
 401  35.73538
 402  -9.475168
 403  9.844995
 404  137.4119
 405  143.5791
 406  159.6313
 407  51.03331
 408  68.40724
 409  104.0938
 410  172.7356
 411  179.8481
 412  110.6311
 413  114.4983
 414  100.6055
 415  237.2097
 416  184.0136
 417  216.7441
 418  340.2519
 419  302.1959
 420  383.9049
 421  326.3772
 422  266.6049
 423  159.5859
 424  -32.68163
 425  67.23985
 426  62.2637
 427  92.81371
 428  55.74222
 429  101.2884
 430  269.5291
 431  272.4521
 432  290.5733
 433  257.5343
 434  192.7887
 435  242.0699
 436  249.5763
 437  260.7441
 438  260.4378
 439  210.4294
 440  299.9849
 441  112.1929
 442  54.68441
 443  -53.74841
 444  6.700579
 445  86.81258
 446  183.4908
 447  283.1152
 448  202.871
 449  90.28134
 450  -21.91158
 451  16.15439
 452  75.22588
 453  169.4496
 454  372.4637
 455  437.9766
 456  413.2624
 457  272.6802
 458  258.3311
 459  304.9163
 460  228.5181
 461  236.5268
 462  244.3453
 463  210.1749
 464  280.8134
 465  289.4236
 466  285.2591
 467  103.6836
 468  -20.33054
 469  29.34357
 470  -122.4124
 471  16.97828
 472  213.4404
 473  451.7982
 474  329.9185
 475  165.9503
 476  146.7682
 477  253.8382
 478  295.5885
 479  276.3066
 480  210.0004
 481  126.071
 482  96.3927
 483  154.0955
 484  201.2596
 485  238.9118
 486  105.859
 487  39.73477
 488  47.45502
 489  -3.47111
 490  42.68942
 491  89.20522
 492  348.0158
 493  444.9034
 494  455.7715
 495  323.2494
 496  252.2046
 497  173.96
 498  223.3604
 499  221.1444
 500  210.7508
 501  158.1164
 502  129.6642
 503  186.2487
 504  174.2675
 505  251.1365
 506  123.5829
 507  189.6783
 508  155.8674
 509  198.3706
 510  76.55782
 511  -69.45214
 512  98.53644
 513  166.3726
 514  241.3167
 515  155.2261
 516  99.19678
 517  132.0306
 518  106.0879
 519  204.7189
 520  235.2329
 521  311.3872
 522  333.2316
 523  248.0262
 524  150.8412
 525  -10.63733
 526  -44.16597
 527  40.04394
 528  194.405
 529  210.643
 530  90.06707
 531  -66.01967
 532  -59.49926
 533  -50.43649
 534  -60.28642
 535  -30.39202
 536  45.34407
 537  71.68189
 538  124.3467
 539  91.16032
 540  174.3402
 541  205.6103
 542  281.7782
 543  267.8784
 544  233.0955
 545  184.8099
 546  176.6556
 547  155.4852
 548  96.33475
 549  111.6922
 550  282.2449
 551  455.0764
 552  637.4669
 553  516.7097
 554  238.294
 555  147.3958
 556  149.4678
 557  110.4788
 558  -69.72123
 559  -3.969304
 560  238.9021
 561  474.0775
 562  457.2328
 563  441.847
 564  293.7408
 565  278.6689
 566  280.5406
 567  177.2963
 568  -8.460793
 569  5.131299
 570  171.5426
 571  242.4234
 572  212.7794
 573  180.6038
 574  87.5396
 575  108.8197
 576  191.3336
 577  364.9289
 578  309.9482
 579  319.8494
 580  337.2997
 581  447.3939
 582  445.626
 583  327.3559
 584  226.5199
 585  130.4081
 586  203.8975
 587  296.3431
 588  250.6243
 589  157.8525
 590  3.850662
 591  -4.420105
 592  -56.0787
 593  140.7987
 594  231.4242
 595  282.6301
 596  197.3374
 597  230.4429
 598  203.2171
 599  149.258
 600  85.61216
 601  50.06052
 602  106.9029
 603  215.7013
 604  291.6372
 605  394.8395
 606  294.9622
 607  344.4174
 608  362.9048
 609  354.8799
 610  288.7225
 611  270.5469
 612  235.4841
 613  120.6811
 614  -20.26639
 615  73.88514
 616  166.028
 617  329.2574
 618  355.6075
 619  323.4936
 620  203.2926
 621  173.063
 622  210.7498
 623  210.662
 624  186.1242
 625  225.0571
 626  299.7443
 627  413.9722
 628  406.4695
 629  300.1037
 630  198.93
 631  113.6574
 632  223.5942
 633  200.248
 634  281.1555
 635  380.8451
 636  610.2886
 637  657.8322
 638  752.8286
 639  716.7215
 640  868.1388
 641  955.6967
 642  979.4218
 643  867.3943
 644  844.2372
 645  959.8168
 646  956.2122
 647  714.6608
 648  476.3779
 649  364.8645
 650  300.6429
 651  244.6545
 652  197.9646
 653  206.7554
 654  198.1961
 655  122.6546
 656  159.2247
 657  225.1845
 658  250.9118
 659  187.2714
 660  125.8562
 661  245.6364
 662  174.4005
 663  199.3623
 664  199.6437
 665  333.0835
 666  308.6878
 667  456.4029
 668  481.7749
 669  485.3256
 670  356.3139
 671  378.6306
 672  294.3183
 673  231.5764
 674  127.3663
 675  146.6208
 676  219.448
 677  246.5405
 678  205.2104
 679  97.33508
 680  39.04842
 681  137.9352
 682  186.4544
 683  251.9269
 684  264.6184
 685  400.196
 686  388.4527
 687  468.5892
 688  501.1495
 689  616.2404
 690  493.1795
 691  337.5925
 692  259.8652
 693  364.4487
 694  317.2156
 695  90.41935
 696  -29.48509
 697  56.96251
 698  215.724
 699  277.5981
 700  241.0217
 701  134.1949
 702  113.7924
 703  219.7448
 704  236.5288
 705  196.4026
 706  161.8307
 707  87.1013
 708  -51.75723
 709  -9.830197
 710  62.90808
 711  178.5118
 712  167.7133
 713  129.3537
 714  102.0756
 715  45.86621
 716  184.7644
 717  268.9016
 718  275.0486
 719  117.3086
 720  49.70502
 721  52.09755
 722  81.69353
 723  179.2074
 724  241.9514
 725  309.6161
 726  345.6772
 727  339.8204
 728  369.1167
 729  399.3355
 730  352.1143
 731  140.5056
 732  116.1767
 733  157.8588
 734  168.875
 735  124.029
 736  27.14737
 737  -19.00625
 738  -96.24133
 739  -5.50654
 740  194.4445
 741  316.4611
 742  180.4596
 743  56.93622
 744  -74.51438
 745  1.169486
 746  86.26017
 747  256.8156
 748  385.0142
 749  452.3606
 750  464.4996
 751  305.6717
 752  272.6809
 753  202.6003
 754  182.443
 755  59.30867
 756  42.38553
 757  73.74111
 758  136.5944
 759  151.9795
 760  136.7518
 761  71.34276
 762  169.7238
 763  162.0723
 764  180.2921
 765  182.4307
 766  242.3532
 767  346.9153
 768  311.5597
 769  267.4223
 770  113.7396
 771  24.95181
 772  61.21357
 773  231.7393
 774  302.3911
 775  346.3333
 776  293.5265
 777  369.4951
 778  236.0851
 779  116.5684
 780  -6.05401
 781  198.9162
 782  314.308
 783  289.2985
 784  54.0338
 785  76.9454
 786  58.16202
 787  141.2943
 788  148.01
 789  259.9876
 790  257.9153
 791  171.5704
 792  123.1111
 793  116.4931
 794  224.2121
 795  345.743
 796  350.6905
 797  295.4449
 798  165.8432
 799  188.2607
 800  190.2392
 801  271.4074
 802  165.1215
 803  293.1325
 804  288.5341
 805  171.5064
 806  -41.14433
 807  -75.89279
 808  78.206
 809  134.0235
 810  166.7748
 811  283.8208
 812  406.9054
 813  571.0353
 814  565.4728
 815  411.625
 816  244.6333
 817  133.7894
 818  209.0355
 819  264.5028
 820  274.7462
 821  208.516
 822  118.8354
 823  39.19192
 824  -25.10526
 825  -3.986996
 826  20.20692
 827  122.0691
 828  179.0692
 829  299.1499
 830  259.1097
 831  352.4055
 832  440.5882
 833  483.0144
 834  438.8075
 835  384.3252
 836  376.6054
 837  204.4118
 838  124.435
 839  106.3328
 840  186.8784
 841  202.7315
 842  178.8539
 843  110.8732
 844  123.452
 845  91.28757
 846  52.21431
 847  174.7225
 848  275.5747
 849  251.0326
 850  23.94025
 851  40.48214
 852  201.4848
 853  230.4708
 854  181.4406
 855  166.2148
 856  186.5251
 857  81.45579
 858  -101.1255
 859  33.24332
 860  137.7525
 861  195.5781
 862  129.0284
 863  115.4567
 864  168.1181
 865  224.9636
 866  220.9122
 867  109.4025
 868  72.88982
 869  48.61966
 870  86.8552
 871  90.63245
 872  93.50784
 873  148.715
 874  174.8219
 875  255.1941
 876  172.7962
 877  245.7009
 878  221.3926
 879  267.326
 880  212.599
 881  192.9522
 882  115.4007
 883  161.6929
 884  219.0486
 885  267.9145
 886  192.7339
 887  122.958
 888  112.9848
 889  224.8441
 890  202.5708
 891  231.1095
 892  178.0312
 893  253.1753
 894  144.8714
 895  19.82164
 896  28.42053
 897  90.41601
 898  105.0149
 899  112.9138
 900  57.45016
 901  89.26361
 902  189.1113
 903  281.3555
 904  304.4399
 905  196.2039
 906  244.0054
 907  349.7313
 908  323.6719
 909  97.05516
 910  66.67223
 911  136.4866
 912  277.2351
 913  189.6099
 914  244.6584
 915  198.75
 916  259.239
 917  292.2914
 918  408.8191
 919  361.5329
 920  287.7219
 921  222.2936
 922  168.3479
 923  219.9258
 924  103.4415
 925  92.23022
 926  111.4845
 927  78.70954
 928  97.6848
 929  66.94482
 930  149.0858
 931  153.1886
 932  216.6765
 933  273.6998
 934  139.1903
 935  72.69009
 936  131.4447
 937  202.444
 938  300.5251
 939  306.0835
 940  279.033
 941  138.3092
 942  -30.71322
 943  20.7109
 944  -18.97006
 945  91.94601
 946  28.40777
 947  51.149
 948  124.6784
 949  228.4834
 950  230.7416
 951  51.00592
 952  77.21212
 953  249.1339
 954  320.3576
 955  349.8326
 956  365.5732
 957  268.3455
 958  96.09829
 959  77.88831
 960  193.905
 961  180.9777
 962  36.94802
 963  -92.27829
 964  -38.10743
 965  35.04601
 966  61.56345
 967  97.06465
 968  169.3576
 969  167.7642
 970  -10.56352
 971  -7.075513
 972  149.06
 973  385.8551
 974  418.9446
 975  346.8922
 976  378.2184
 977  392.6557
 978  465.6256
 979  271.2735
 980  121.6632
 981  -26.13438
 982  73.92434
 983  179.5386
 984  208.3166
 985  179.5451
 986  155.0675
 987  245.3845
 988  168.0312
 989  84.39007
 990  -2.455381
 991  76.54706
 992  46.62766
 993  82.3289
 994  90.85302
 995  253.7617
 996  295.3851
 997  352.0933
 998  375.554
 999  281.4762
1000  92.12338
1001  -44.08267
1002  89.66291
1003  154.0323
1004  259.4855
1005  307.4705
1006  313.6864
1007  270.2022
1008  228.0602
1009  262.4678
1010  254.7333
1011  294.6555
1012  169.0061
1013  122.5803
1014  127.0388
1015  251.6985
1016  236.9736
1017  204.9997
1018  291.2973
1019  373.2971
1020  381.1864
1021  256.0963
1022  144.0335
1023  81.04372
