# Input file       =  1189541950.11086_cleaned.dat
# Candidate        =  PSR_0332+5434
# Telescope        =  AR
# Epoch_topo       =  58011.846864709027
# Epoch_bary       =  N/A
# T_sample         =  0.002
# Data Folded      =  7143424
# Data Avg         =  0.0126238803696888
# Data StdDev      =  1.00006087428553 
# Profile Bins     =  512
# Profile Avg      =  176.108714240372 
# Profile StdDev   =  118.125774866306 
# Reduced chi-sqr  =  1.525
# Prob(Noise)      <  1.79e-13   (~7.3 sigma)
# P_topo (ms)      =  714.46611093659   +/- 0.000161
# P'_topo (s/s)    =  -0                +/- 8.72e-11
# P''_topo (s/s^2) =  0                 +/- 3.96e-14
# P_bary (ms)      =  N/A
# P'_bary (s/s)    =  N/A
# P''_bary (s/s^2) =  N/A
# P_orb (s)        =  N/A
# asin(i)/c (s)    =  N/A
# eccentricity     =  N/A
# w (rad)          =  N/A
# T_peri           =  N/A
######################################################
   0  1010.737
   1  866.1801
   2  441.3449
   3  305.288
   4  218.2555
   5  221.5866
   6  222.9427
   7  195.6132
   8  112.5335
   9  146.2131
  10  76.13757
  11  31.38702
  12  110.5015
  13  69.00626
  14  171.0264
  15  197.2646
  16  169.5777
  17  183.4083
  18  151.0286
  19  82.69898
  20  73.09404
  21  69.07621
  22  123.3521
  23  112.283
  24  78.29742
  25  139.1948
  26  168.1528
  27  86.62166
  28  299.7708
  29  312.8146
  30  256.1014
  31  181.9279
  32  123.9178
  33  18.4919
  34  18.77151
  35  153.3418
  36  281.238
  37  245.1299
  38  97.81042
  39  58.23895
  40  5.375737
  41  77.9586
  42  181.3706
  43  218.242
  44  86.21557
  45  222.5254
  46  177.0011
  47  161.4317
  48  213.0609
  49  223.236
  50  109.2564
  51  134.4659
  52  236.0038
  53  121.4726
  54  149.1415
  55  153.4612
  56  276.2252
  57  297.3365
  58  285.6603
  59  230.7981
  60  179.0752
  61  208.5672
  62  229.6527
  63  224.3397
  64  317.6146
  65  200.9876
  66  272.9969
  67  152.4499
  68  136.4323
  69  121.7268
  70  76.95901
  71  138.292
  72  129.1799
  73  30.73794
  74  43.86244
  75  138.6498
  76  201.9563
  77  71.03428
  78  190.5552
  79  268.8802
  80  272.2714
  81  291.2504
  82  257.7946
  83  226.8318
  84  126.9821
  85  204.8035
  86  103.5076
  87  17.07173
  88  -0.1401749
  89  28.90395
  90  79.71742
  91  70.62161
  92  125.4403
  93  142.4078
  94  107.6163
  95  125.8024
  96  161.0023
  97  93.90764
  98  -4.245894
  99  5.448308
 100  145.7104
 101  191.6584
 102  312.1975
 103  337.3159
 104  324.4286
 105  366.7965
 106  327.3408
 107  181.6592
 108  138.2156
 109  127.1186
 110  203.489
 111  161.4581
 112  258.3013
 113  218.5439
 114  244.577
 115  159.0537
 116  230.3702
 117  189.5333
 118  225.328
 119  112.7911
 120  144.58
 121  235.5908
 122  146.73
 123  271.2199
 124  288.7631
 125  182.5624
 126  276.0178
 127  276.539
 128  310.0255
 129  203.8339
 130  147.9425
 131  278.1073
 132  326.6948
 133  413.4094
 134  311.599
 135  229.9012
 136  107.9438
 137  242.6281
 138  178.3707
 139  164.5292
 140  179.9645
 141  147.7222
 142  83.84051
 143  220.9723
 144  173.5885
 145  156.3243
 146  199.9771
 147  191.9805
 148  125.0355
 149  39.95888
 150  150.6407
 151  374.0152
 152  236.748
 153  317.6598
 154  247.216
 155  58.88829
 156  46.45604
 157  -29.31674
 158  -31.5816
 159  70.71568
 160  147.3354
 161  161.7712
 162  202.6509
 163  122.6021
 164  214.5437
 165  173.3525
 166  57.42253
 167  158.8034
 168  208.9573
 169  247.5006
 170  165.2021
 171  98.62063
 172  211.1931
 173  109.7689
 174  38.99325
 175  189.3645
 176  120.4361
 177  209.5483
 178  173.1361
 179  107.0888
 180  234.6274
 181  109.4619
 182  72.94355
 183  98.39526
 184  148.0303
 185  208.728
 186  152.6876
 187  187.3397
 188  252.6913
 189  166.2561
 190  122.5301
 191  112.1562
 192  271.7098
 193  287.1549
 194  251.9342
 195  194.4925
 196  202.5763
 197  163.9846
 198  69.01583
 199  -39.67952
 200  105.7856
 201  159.186
 202  159.1192
 203  257.8722
 204  221.0224
 205  201.2388
 206  249.5481
 207  199.5986
 208  222.624
 209  247.3676
 210  142.9762
 211  142.6526
 212  54.84151
 213  78.95901
 214  67.4969
 215  13.58833
 216  -67.95231
 217  68.28354
 218  142.3205
 219  239.1419
 220  179.011
 221  185.0351
 222  203.5425
 223  90.43608
 224  147.4596
 225  110.4052
 226  46.30562
 227  133.9558
 228  262.6553
 229  309.4384
 230  245.9672
 231  168.6769
 232  114.4433
 233  79.15512
 234  181.9854
 235  267.1515
 236  231.9435
 237  144.181
 238  123.5766
 239  129.4527
 240  149.9022
 241  202.6232
 242  10.63602
 243  -4.973885
 244  97.30251
 245  315.3539
 246  266.4718
 247  125.183
 248  124.8612
 249  88.88801
 250  156.461
 251  103.4632
 252  164.3638
 253  153.0659
 254  148.1492
 255  179.1994
 256  139.8159
 257  260.9342
 258  263.9675
 259  248.0107
 260  155.0098
 261  74.64698
 262  267.5157
 263  229.0943
 264  59.8588
 265  78.84254
 266  115.8395
 267  204.3112
 268  181.852
 269  184.6541
 270  203.8218
 271  156.646
 272  254.0774
 273  248.3967
 274  98.93908
 275  161.282
 276  429.3848
 277  377.1592
 278  334.214
 279  222.7986
 280  166.6245
 281  115.9744
 282  173.9341
 283  183.0081
 284  217.296
 285  161.1324
 286  180.6479
 287  41.09026
 288  93.74142
 289  211.23
 290  151.9328
 291  107.1745
 292  15.38537
 293  37.8203
 294  58.72805
 295  203.7443
 296  208.7204
 297  230.0868
 298  198.4926
 299  70.77258
 300  161.9831
 301  127.047
 302  81.46684
 303  230.1337
 304  194.6621
 305  212.1381
 306  354.6627
 307  203.6029
 308  60.50045
 309  255.0018
 310  194.2472
 311  206.562
 312  98.79506
 313  -49.93266
 314  -31.45681
 315  22.32555
 316  147.6422
 317  222.5743
 318  304.8444
 319  380.4101
 320  255.6079
 321  198.7551
 322  211.6671
 323  71.01508
 324  171.5263
 325  174.3728
 326  217.6162
 327  249.7576
 328  240.0639
 329  187.3017
 330  169.0776
 331  123.5795
 332  231.47
 333  80.15804
 334  105.2672
 335  157.5072
 336  283.7045
 337  241.8537
 338  177.5641
 339  194.3641
 340  237.1776
 341  309.4123
 342  213.8521
 343  101.5211
 344  80.42937
 345  292.326
 346  332.5453
 347  192.2498
 348  144.7653
 349  185.1015
 350  107.4586
 351  136.1962
 352  123.224
 353  -46.77308
 354  67.25481
 355  36.25455
 356  88.73923
 357  191.1089
 358  269.9987
 359  172.6775
 360  142.0913
 361  135.7897
 362  186.4399
 363  219.4029
 364  56.22653
 365  194.375
 366  192.8665
 367  188.489
 368  157.3718
 369  31.67997
 370  56.03939
 371  97.11343
 372  191.3973
 373  44.25676
 374  96.73523
 375  128.0154
 376  143.6312
 377  105.5017
 378  152.3549
 379  269.6446
 380  291.0224
 381  215.9202
 382  168.4594
 383  77.63984
 384  204.6349
 385  181.0388
 386  157.0236
 387  252.6389
 388  229.6326
 389  232.2522
 390  74.93492
 391  154.5707
 392  310.1942
 393  163.8396
 394  143.1611
 395  135.3498
 396  265.0829
 397  323.0828
 398  212.826
 399  143.4048
 400  186.1806
 401  234.734
 402  315.7696
 403  279.2594
 404  213.8054
 405  123.7892
 406  97.71379
 407  66.05863
 408  195.2195
 409  99.35114
 410  53.07265
 411  74.85405
 412  184.9298
 413  158.5457
 414  110.1082
 415  144.0441
 416  290.0777
 417  178.862
 418  86.89551
 419  136.7628
 420  37.55107
 421  34.77557
 422  206.5518
 423  151.3726
 424  23.85399
 425  3.107808
 426  103.594
 427  228.1832
 428  257.9657
 429  272.1572
 430  175.8868
 431  177.1426
 432  127.6607
 433  257.7686
 434  90.00224
 435  102.0627
 436  253.6121
 437  201.2141
 438  140.1792
 439  204.7092
 440  216.9132
 441  57.16739
 442  13.4031
 443  -9.681329
 444  68.97444
 445  210.1773
 446  140.2553
 447  160.9459
 448  284.92
 449  330.1929
 450  251.0585
 451  187.0605
 452  242.8871
 453  238.5652
 454  274.1019
 455  105.2686
 456  94.00798
 457  128.6233
 458  179.1698
 459  217.7353
 460  200.7791
 461  257.671
 462  155.0508
 463  185.7296
 464  307.1277
 465  214.9855
 466  197.4077
 467  213.5291
 468  209.7351
 469  257.2695
 470  212.1563
 471  206.5817
 472  234.2862
 473  196.0557
 474  266.8483
 475  142.3553
 476  130.798
 477  138.5857
 478  48.03914
 479  84.12931
 480  135.1981
 481  119.7966
 482  89.46585
 483  269.1319
 484  166.029
 485  257.1371
 486  347.7327
 487  265.1903
 488  49.59333
 489  51.31297
 490  147.6735
 491  236.0963
 492  271.9541
 493  300.9745
 494  180.9356
 495  104.0873
 496  93.23662
 497  30.83267
 498  95.03371
 499  263.4801
 500  206.7258
 501  224.7198
 502  170.7655
 503  125.2102
 504  117.4624
 505  338.6117
 506  284.9664
 507  240.4791
 508  246.1641
 509  429.3685
 510  704.4679
 511  921.9265
