# Input file       =  1190849001.1267_cleaned.dat
# Candidate        =  PSR_0332+5434
# Telescope        =  AR
# Epoch_topo       =  58026.974769984954
# Epoch_bary       =  N/A
# T_sample         =  0.002
# Data Folded      =  7340032
# Data Avg         =  0.0304176862867149
# Data StdDev      =  2.62706544791763 
# Profile Bins     =  1024
# Profile Avg      =  218.2618799576   
# Profile StdDev   =  222.417979298578 
# Reduced chi-sqr  =  1.269
# Prob(Noise)      <  9.78e-09   (~5.6 sigma)
# P_topo (ms)      =  714.472595193268  +/- 8.78e-05
# P'_topo (s/s)    =  -0                +/- 4.63e-11
# P''_topo (s/s^2) =  0                 +/- 2.05e-14
# P_bary (ms)      =  N/A
# P'_bary (s/s)    =  N/A
# P''_bary (s/s^2) =  N/A
# P_orb (s)        =  N/A
# asin(i)/c (s)    =  N/A
# eccentricity     =  N/A
# w (rad)          =  N/A
# T_peri           =  N/A
######################################################
   0  118.4652
   1  183.1746
   2  138.1367
   3  168.065
   4  102.6869
   5  127.9805
   6  214.3785
   7  253.4555
   8  303.6776
   9  308.1232
  10  315.3892
  11  313.8896
  12  312.32
  13  366.4691
  14  293.6934
  15  267.0414
  16  295.815
  17  254.6348
  18  312.2501
  19  266.6912
  20  289.651
  21  218.8524
  22  122.9506
  23  150.1016
  24  108.0071
  25  194.9617
  26  167.6804
  27  263.3283
  28  226.3415
  29  149.0874
  30  47.99907
  31  146.9147
  32  344.8763
  33  478.6371
  34  372.4032
  35  216.6114
  36  97.63256
  37  131.3927
  38  115.0403
  39  256.6537
  40  289.722
  41  383.4004
  42  296.5179
  43  347.5607
  44  295.3825
  45  311.1243
  46  289.1344
  47  292.3492
  48  135.3384
  49  107.2568
  50  234.2692
  51  428.6519
  52  488.8011
  53  410.4297
  54  355.4858
  55  316.7091
  56  252.4596
  57  258.039
  58  196.3394
  59  258.179
  60  296.9113
  61  237.737
  62  206.1336
  63  123.7657
  64  276.4164
  65  261.5229
  66  332.4781
  67  248.6524
  68  348.3872
  69  319.4666
  70  359.8281
  71  373.3091
  72  418.3187
  73  352.8889
  74  310.5466
  75  308.7166
  76  333.8996
  77  224.7932
  78  141.2782
  79  157.8333
  80  273.279
  81  346.339
  82  336.7793
  83  311.7919
  84  271.6424
  85  350.3505
  86  340.024
  87  301.0418
  88  218.3432
  89  210.0813
  90  201.1011
  91  245.2514
  92  374.6964
  93  306.3699
  94  200.2139
  95  127.4519
  96  202.0199
  97  177.0188
  98  139.0614
  99  108.3737
 100  202.8863
 101  200.9111
 102  227.8081
 103  184.3337
 104  203.6781
 105  284.3299
 106  326.1111
 107  315.2485
 108  285.0571
 109  317.8979
 110  211.0728
 111  103.6254
 112  155.9641
 113  294.9501
 114  274.4172
 115  181.8984
 116  103.0816
 117  73.8064
 118  54.6375
 119  47.12657
 120  77.8245
 121  32.28502
 122  115.9914
 123  143.6865
 124  150.5656
 125  90.39453
 126  38.37875
 127  141.8011
 128  249.8149
 129  261.0201
 130  156.0847
 131  -15.30469
 132  -158.6857
 133  -139.6349
 134  -58.39362
 135  93.78403
 136  179.7686
 137  145.7835
 138  169.5997
 139  243.4561
 140  458.816
 141  518.6258
 142  489.3912
 143  442.5205
 144  309.6541
 145  50.97188
 146  -8.900443
 147  123.8735
 148  230.1763
 149  313.0085
 150  203.1276
 151  169.6422
 152  146.2521
 153  211.3607
 154  227.828
 155  153.247
 156  135.3889
 157  147.9997
 158  124.3497
 159  132.4393
 160  107.1812
 161  203.4286
 162  184.7263
 163  148.6669
 164  103.9888
 165  190.9171
 166  252.4177
 167  318.5319
 168  274.7272
 169  200.3957
 170  153.7099
 171  184.2654
 172  215.9565
 173  263.6876
 174  383.1099
 175  373.8961
 176  355.1587
 177  211.7978
 178  258.2102
 179  295.7012
 180  434.6888
 181  407.669
 182  295.4074
 183  265.0192
 184  391.0753
 185  347.0959
 186  230.6813
 187  188.4098
 188  280.4873
 189  333.3024
 190  278.7064
 191  133.179
 192  -64.49098
 193  -82.71323
 194  78.63445
 195  247.2058
 196  193.9501
 197  177.598
 198  207.8106
 199  263.3809
 200  231.557
 201  137.6707
 202  246.3237
 203  368.8779
 204  453.4392
 205  438.914
 206  382.6662
 207  366.5838
 208  302.2645
 209  284.3446
 210  242.2667
 211  296.2731
 212  328.5488
 213  274.7473
 214  162.0008
 215  85.11646
 216  164.2346
 217  180.0893
 218  193.3005
 219  197.5287
 220  185.4111
 221  206.1945
 222  165.3405
 223  139.37
 224  73.38536
 225  82.72607
 226  230.0317
 227  312.1857
 228  321.5838
 229  270.2379
 230  185.5829
 231  131.5562
 232  66.54691
 233  126.7934
 234  73.19413
 235  27.62908
 236  -103.9576
 237  7.577828
 238  70.51839
 239  83.20332
 240  11.63916
 241  22.0668
 242  38.51419
 243  89.30714
 244  139.9821
 245  227.3938
 246  297.3035
 247  259.5399
 248  271.0855
 249  174.4271
 250  188.3225
 251  109.3797
 252  49.8633
 253  9.016459
 254  69.91533
 255  190.9059
 256  107.901
 257  19.58383
 258  -48.8198
 259  19.9714
 260  69.19589
 261  138.1612
 262  155.5209
 263  225.3686
 264  206.5936
 265  254.9358
 266  200.2897
 267  243.5068
 268  218.636
 269  217.3876
 270  155.1615
 271  75.67516
 272  95.87095
 273  155.6574
 274  189.1629
 275  222.5833
 276  131.5736
 277  68.66465
 278  110.9237
 279  296.7192
 280  498.1452
 281  407.2118
 282  199.1669
 283  59.3779
 284  71.50584
 285  139.759
 286  173.3052
 287  266.9394
 288  266.2565
 289  269.2527
 290  167.3578
 291  158.5066
 292  154.6662
 293  244.5327
 294  343.6855
 295  409.3248
 296  409.1398
 297  204.4584
 298  56.06787
 299  47.93654
 300  155.5031
 301  123.1047
 302  93.19624
 303  108.4461
 304  204.4031
 305  132.0384
 306  91.25195
 307  71.02831
 308  116.5136
 309  81.52022
 310  193.87
 311  111.0413
 312  111.5714
 313  2.902551
 314  86.35378
 315  103.1053
 316  115.0996
 317  53.81117
 318  91.07108
 319  94.79149
 320  132.766
 321  105.1624
 322  30.00879
 323  37.05846
 324  -68.49442
 325  -20.41739
 326  80.86999
 327  211.1852
 328  225.1271
 329  33.6319
 330  -27.46651
 331  17.27479
 332  126.3438
 333  220.9494
 334  221.8856
 335  322.1279
 336  232.5402
 337  209.714
 338  142.5229
 339  224.2529
 340  201.5525
 341  218.1858
 342  133.2711
 343  198.504
 344  161.6878
 345  376.0811
 346  320.9233
 347  385.0838
 348  310.0749
 349  410.5726
 350  323.1801
 351  310.6743
 352  254.3298
 353  176.4087
 354  158.7502
 355  -7.744279
 356  100.2613
 357  206.3465
 358  369.1424
 359  272.2917
 360  67.16651
 361  -61.43442
 362  -76.97089
 363  60.21957
 364  139.737
 365  200.5285
 366  154.6474
 367  285.1516
 368  399.547
 369  506.3388
 370  494.6122
 371  272.1813
 372  149.1998
 373  55.50235
 374  81.98747
 375  88.68298
 376  140.9997
 377  200.67
 378  191.2393
 379  177.7418
 380  167.2793
 381  245.2947
 382  307.1496
 383  361.293
 384  245.7371
 385  272.6058
 386  193.7937
 387  199.8145
 388  159.0437
 389  60.39409
 390  180.6185
 391  160.1156
 392  193.5512
 393  89.64283
 394  144.3554
 395  175.1822
 396  161.4443
 397  140.4137
 398  245.8983
 399  301.2413
 400  292.5471
 401  232.8289
 402  195.7727
 403  103.9254
 404  45.7244
 405  131.3586
 406  275.1121
 407  357.564
 408  253.9265
 409  185.3364
 410  115.7892
 411  124.3226
 412  132.4647
 413  280.6362
 414  430.106
 415  455.1979
 416  410.9741
 417  331.3367
 418  182.6348
 419  -15.08869
 420  -40.62157
 421  124.3232
 422  261.0563
 423  304.057
 424  251.7709
 425  191.2024
 426  174.9695
 427  159.5535
 428  184.1665
 429  196.3869
 430  311.2045
 431  436.3786
 432  353.4597
 433  101.0139
 434  -104.0029
 435  -71.40578
 436  74.63195
 437  199.1879
 438  361.5709
 439  535.7109
 440  536.4441
 441  292.2823
 442  -4.971732
 443  -71.71794
 444  -34.78226
 445  90.53698
 446  269.863
 447  413.839
 448  452.5955
 449  271.9109
 450  172.1605
 451  122.4488
 452  145.1474
 453  185.678
 454  70.88402
 455  188.9632
 456  268.8726
 457  355.1757
 458  310.5137
 459  355.4294
 460  325.8205
 461  326.2103
 462  292.3352
 463  230.2017
 464  151.457
 465  154.0332
 466  178.5845
 467  161.9461
 468  164.9132
 469  155.6895
 470  148.6904
 471  123.1375
 472  142.648
 473  211.5369
 474  175.3851
 475  248.0252
 476  208.7326
 477  250.8669
 478  96.26316
 479  108.0761
 480  145.3279
 481  240.0505
 482  290.32
 483  200.5398
 484  45.25729
 485  -136.5788
 486  -43.26974
 487  52.45581
 488  174.1078
 489  198.312
 490  273.5844
 491  308.4249
 492  269.2854
 493  224.6927
 494  225.6732
 495  305.1485
 496  250.3521
 497  168.1746
 498  190.9726
 499  165.8473
 500  132.4381
 501  81.70313
 502  86.69068
 503  153.1793
 504  155.7353
 505  141.0063
 506  148.2799
 507  250.518
 508  359.206
 509  433.3085
 510  409.633
 511  302.7434
 512  131.9364
 513  97.65964
 514  60.4352
 515  258.5225
 516  394.9916
 517  509.5841
 518  405.4685
 519  228.1661
 520  151.7455
 521  157.0816
 522  143.0821
 523  96.42408
 524  194.4628
 525  296.8904
 526  339.3412
 527  199.2411
 528  238.9482
 529  282.4033
 530  345.4379
 531  395.2175
 532  276.2559
 533  185.5373
 534  104.1904
 535  175.102
 536  161.9513
 537  72.27943
 538  92.96925
 539  133.1609
 540  242.5701
 541  200.9919
 542  216.7228
 543  223.1481
 544  239.6247
 545  333.025
 546  342.709
 547  418.3167
 548  394.7723
 549  349.1539
 550  277.7667
 551  152.063
 552  165.0953
 553  151.0006
 554  169.846
 555  184.8264
 556  198.6962
 557  218.9371
 558  211.8944
 559  200.4231
 560  200.5387
 561  103.1621
 562  113.05
 563  84.50674
 564  137.4836
 565  183.8548
 566  294.8137
 567  258.0548
 568  263.1122
 569  133.33
 570  182.3371
 571  142.6562
 572  214.2837
 573  217.2141
 574  163.8383
 575  141.6999
 576  160.7532
 577  277.9335
 578  315.7253
 579  346.7996
 580  254.9041
 581  164.8187
 582  82.72402
 583  211.0038
 584  123.0547
 585  201.0787
 586  135.8783
 587  255.8606
 588  129.763
 589  177.1593
 590  351.0428
 591  449.0206
 592  499.0836
 593  317.2126
 594  316.0873
 595  196.4135
 596  195.0721
 597  93.36863
 598  68.40931
 599  70.83438
 600  185.9269
 601  289.1066
 602  347.3356
 603  216.288
 604  210.1671
 605  213.4127
 606  348.7498
 607  266.4756
 608  266.7381
 609  242.0727
 610  241.829
 611  248.8714
 612  182.3381
 613  225.4075
 614  78.68741
 615  141.0542
 616  57.77343
 617  112.1911
 618  152.0278
 619  297.1437
 620  321.5626
 621  285.9019
 622  299.4957
 623  376.8875
 624  538.9343
 625  564.6631
 626  510.4303
 627  401.4962
 628  295.6284
 629  353.6417
 630  361.2487
 631  577.1861
 632  657.6246
 633  746.1224
 634  749.4788
 635  780.0609
 636  835.9349
 637  842.975
 638  811.7148
 639  1004.29
 640  1077.859
 641  1142.335
 642  1055.662
 643  972.1306
 644  826.9641
 645  621.8889
 646  556.2443
 647  404.8264
 648  326.5533
 649  244.9084
 650  218.4042
 651  259.2323
 652  254.1163
 653  290.692
 654  175.9008
 655  253.4872
 656  279.4697
 657  348.5471
 658  337.2114
 659  340.69
 660  260.2661
 661  253.8799
 662  132.233
 663  237.9053
 664  219.8198
 665  232.433
 666  227.584
 667  217.1464
 668  191.1598
 669  166.1208
 670  348.8267
 671  437.5159
 672  359.2461
 673  180.5827
 674  85.83817
 675  118.2959
 676  17.10794
 677  109.5503
 678  150.8719
 679  249.3713
 680  189.5429
 681  154.2695
 682  177.0628
 683  264.1982
 684  280.757
 685  164.1164
 686  136.6284
 687  120.1435
 688  153.0246
 689  168.3068
 690  198.2052
 691  223.5129
 692  157.5979
 693  315.9317
 694  386.0523
 695  493.5255
 696  489.003
 697  404.1592
 698  369.9758
 699  292.2749
 700  339.2983
 701  162.8013
 702  45.0961
 703  -54.13977
 704  -1.237274
 705  144.0156
 706  240.3584
 707  218.4891
 708  274.4056
 709  348.1776
 710  321.1159
 711  298.5706
 712  324.1254
 713  355.5741
 714  288.4023
 715  251.186
 716  295.2588
 717  238.5671
 718  185.5259
 719  244.1395
 720  344.1986
 721  366.8879
 722  340.1201
 723  224.5629
 724  239.3176
 725  169.5817
 726  255.8775
 727  177.4358
 728  289.1764
 729  286.1774
 730  297.8819
 731  268.6307
 732  262.2693
 733  246.7798
 734  161.2051
 735  391.124
 736  482.2888
 737  556.6712
 738  469.3186
 739  449.2632
 740  467.8644
 741  371.3319
 742  241.6737
 743  196.3053
 744  240.7117
 745  350.7504
 746  286.9996
 747  187.7274
 748  215.1386
 749  209.3844
 750  200.07
 751  176.9335
 752  119.5438
 753  126.1769
 754  116.02
 755  200.412
 756  294.7276
 757  219.895
 758  155.8927
 759  133.9304
 760  108.9139
 761  100.7397
 762  2.761904
 763  137.8629
 764  220.0399
 765  204.7092
 766  67.19505
 767  28.05326
 768  164.184
 769  212.7799
 770  189.1001
 771  99.79612
 772  109.2605
 773  227.2716
 774  336.2663
 775  356.4342
 776  286.385
 777  324.5641
 778  384.4313
 779  319.5654
 780  188.0144
 781  100.7127
 782  123.9665
 783  170.4566
 784  164.0489
 785  91.59705
 786  42.25911
 787  96.47198
 788  147.1852
 789  196.6368
 790  224.4699
 791  292.5964
 792  216.8636
 793  189.9427
 794  245.7418
 795  246.3906
 796  199.9085
 797  115.903
 798  125.2535
 799  222.489
 800  303.1462
 801  248.8868
 802  194.5205
 803  179.2415
 804  178.9647
 805  130.7178
 806  111.8126
 807  180.7179
 808  226.7564
 809  297.3168
 810  310.0754
 811  356.803
 812  391.2866
 813  340.3573
 814  269.0081
 815  183.829
 816  172.51
 817  127.6496
 818  232.3974
 819  286.6964
 820  280.9921
 821  206.2977
 822  142.6305
 823  217.3526
 824  291.8987
 825  278.5552
 826  264.0755
 827  214.7135
 828  246.2459
 829  256.7136
 830  240.3086
 831  94.2079
 832  101.3564
 833  201.7429
 834  279.9687
 835  223.3882
 836  131.788
 837  169.784
 838  167.2716
 839  125.8772
 840  106.4364
 841  138.4105
 842  229.3546
 843  270.8857
 844  259.8181
 845  172.4216
 846  135.2876
 847  104.237
 848  209.4461
 849  231.5665
 850  219.0028
 851  139.4425
 852  221.8557
 853  220.4525
 854  213.4566
 855  54.54574
 856  52.34134
 857  103.9609
 858  237.5429
 859  411.5509
 860  457.1328
 861  296.5777
 862  55.73515
 863  35.68164
 864  139.5065
 865  280.1708
 866  227.6503
 867  409.0029
 868  380.8477
 869  400.2182
 870  237.8132
 871  306.6305
 872  280.3243
 873  328.2972
 874  284.9125
 875  341.6731
 876  236.9899
 877  225.9573
 878  127.994
 879  113.1238
 880  197.6242
 881  207.0419
 882  92.38303
 883  51.49968
 884  13.31638
 885  75.97795
 886  66.85298
 887  163.2129
 888  159.5628
 889  261.5551
 890  275.2112
 891  307.9867
 892  246.2205
 893  253.9272
 894  197.2701
 895  163.4141
 896  72.84394
 897  -15.77779
 898  43.81332
 899  184.5008
 900  243.3403
 901  258.1973
 902  175.4761
 903  112.2241
 904  92.60293
 905  209.392
 906  340.9116
 907  380.1504
 908  288.8094
 909  380.9457
 910  301.271
 911  342.2867
 912  274.0164
 913  232.9883
 914  238.2474
 915  214.054
 916  198.0225
 917  102.301
 918  -120.771
 919  -124.5868
 920  -39.00896
 921  197.709
 922  335.4348
 923  393.0178
 924  284.9775
 925  224.5186
 926  211.9843
 927  375.1838
 928  377.917
 929  326.4902
 930  267.9651
 931  322.4343
 932  295.2654
 933  204.6264
 934  -12.21701
 935  -52.78842
 936  -17.99601
 937  83.07932
 938  97.5453
 939  96.47208
 940  79.19243
 941  157.3418
 942  148.6752
 943  138.1554
 944  100.0975
 945  67.13666
 946  60.05716
 947  30.28255
 948  134.5643
 949  174.6823
 950  139.9
 951  46.26196
 952  -10.47887
 953  27.35025
 954  95.20053
 955  43.61938
 956  78.2693
 957  87.45534
 958  216.6227
 959  165.1452
 960  115.3578
 961  193.9736
 962  240.8359
 963  269.9218
 964  239.1602
 965  217.1767
 966  172.7623
 967  20.86336
 968  -40.87506
 969  18.89097
 970  105.5022
 971  143.6924
 972  91.49098
 973  109.1502
 974  74.47668
 975  58.92193
 976  59.30872
 977  140.7673
 978  222.186
 979  244.857
 980  255.9067
 981  247.3204
 982  224.0361
 983  167.2959
 984  84.16324
 985  71.20125
 986  114.3637
 987  231.4057
 988  277.5874
 989  263.9688
 990  255.1026
 991  174.7631
 992  83.92886
 993  113.7836
 994  210.2679
 995  307.2975
 996  193.4688
 997  173.8681
 998  163.4894
 999  194.3842
1000  229.5432
1001  143.1512
1002  111.8921
1003  146.3896
1004  233.9326
1005  238.4735
1006  115.2809
1007  132.6249
1008  256.2465
1009  359.4205
1010  408.2888
1011  327.145
1012  361.3276
1013  178.228
1014  205.0706
1015  96.25076
1016  233.4513
1017  181.2565
1018  305.4024
1019  323.9256
1020  360.2068
1021  276.585
1022  188.3638
1023  241.4817
