# Input file       =  1190692150.109053_cleaned.dat
# Candidate        =  PSR_0332+5434
# Telescope        =  AR
# Epoch_topo       =  58025.159364688116
# Epoch_bary       =  N/A
# T_sample         =  0.002
# Data Folded      =  7340032
# Data Avg         =  0.0359153978507884
# Data StdDev      =  3.13193126875775 
# Profile Bins     =  512
# Profile Avg      =  514.922219457687 
# Profile StdDev   =  374.995640531703 
# Reduced chi-sqr  =  1.045
# Prob(Noise)      <  0.235   (~0.7 sigma)
# P_topo (ms)      =  714.471981045721  +/- 0.000167
# P'_topo (s/s)    =  -0                +/- 8.8e-11
# P''_topo (s/s^2) =  0                 +/- 3.88e-14
# P_bary (ms)      =  N/A
# P'_bary (s/s)    =  N/A
# P''_bary (s/s^2) =  N/A
# P_orb (s)        =  N/A
# asin(i)/c (s)    =  N/A
# eccentricity     =  N/A
# w (rad)          =  N/A
# T_peri           =  N/A
######################################################
   0  843.0258
   1  425.0802
   2  665.7545
   3  671.9852
   4  787.7864
   5  421.299
   6  349.4651
   7  594.5074
   8  216.7866
   9  276.9579
  10  919.7086
  11  677.9351
  12  174.2025
  13  393.9981
  14  505.6806
  15  774.6169
  16  263.0579
  17  264.2603
  18  409.8459
  19  864.6572
  20  278.9124
  21  708.3754
  22  735.8534
  23  319.6085
  24  472.0476
  25  795.4367
  26  780.9208
  27  497.4743
  28  546.4469
  29  688.5999
  30  641.7487
  31  743.9195
  32  751.4536
  33  824.5231
  34  617.9651
  35  474.6854
  36  515.1334
  37  199.249
  38  565.0731
  39  202.4732
  40  356.4044
  41  607.6025
  42  545.2647
  43  199.756
  44  416.3654
  45  780.8077
  46  784.9276
  47  439.6342
  48  385.9517
  49  353.4281
  50  232.8677
  51  221.5622
  52  505.0235
  53  648.4884
  54  1016.08
  55  400.9909
  56  481.6491
  57  746.6085
  58  499.6589
  59  729.9368
  60  330.7111
  61  844.8556
  62  895.809
  63  412.9923
  64  832.1508
  65  634.5825
  66  702.1038
  67  325.0165
  68  317.5546
  69  390.1092
  70  778.5416
  71  393.1984
  72  263.2443
  73  520.4451
  74  395.1712
  75  497.2115
  76  440.1277
  77  309.3901
  78  609.0079
  79  387.2433
  80  250.502
  81  198.9828
  82  199.9398
  83  -41.41098
  84  95.73314
  85  431.5749
  86  292.8721
  87  382.1342
  88  593.1028
  89  707.6626
  90  980.9042
  91  773.4011
  92  407.4574
  93  531.1548
  94  814.3959
  95  598.9255
  96  476.9614
  97  674.6991
  98  589.1475
  99  527.1074
 100  471.0034
 101  684.3179
 102  720.4582
 103  573.319
 104  300.0671
 105  435.6633
 106  269.3179
 107  233.8741
 108  491.8016
 109  320.8547
 110  131.0116
 111  431.9005
 112  581.1269
 113  406.3267
 114  364.7979
 115  239.7606
 116  494.7818
 117  564.6259
 118  345.9261
 119  559.0059
 120  880.573
 121  540.6157
 122  215.0238
 123  649.1876
 124  497.2154
 125  564.726
 126  488.3049
 127  755.501
 128  1208.118
 129  923.4182
 130  497.8506
 131  444.1349
 132  608.2927
 133  409.4702
 134  549.05
 135  609.2952
 136  841.1685
 137  468.9032
 138  515.721
 139  483.8119
 140  828.2026
 141  778.5674
 142  547.2637
 143  803.0593
 144  833.7556
 145  606.6569
 146  643.1458
 147  539.5724
 148  697.6194
 149  637.3701
 150  527.1402
 151  880.3547
 152  751.3141
 153  -57.01427
 154  299.6015
 155  613.0645
 156  573.9391
 157  412.0469
 158  490.127
 159  360.6353
 160  373.4395
 161  349.5164
 162  398.618
 163  591.4075
 164  154.6289
 165  89.72997
 166  267.9898
 167  350.2579
 168  524.7219
 169  714.2189
 170  429.3786
 171  594.4658
 172  662.9499
 173  358.6129
 174  449.5527
 175  703.0137
 176  628.853
 177  652.0673
 178  280.1074
 179  150.5453
 180  285.7724
 181  586.9604
 182  532.4826
 183  395.6571
 184  598.0139
 185  835.1272
 186  759.7672
 187  641.6666
 188  327.6272
 189  174.5076
 190  233.8111
 191  338.7076
 192  586.767
 193  789.6656
 194  517.3353
 195  279.8013
 196  711.3093
 197  706.2037
 198  861.3747
 199  121.9495
 200  63.23555
 201  187.6379
 202  82.29974
 203  125.2702
 204  209.0343
 205  330.9793
 206  773.5912
 207  796.0711
 208  551.6664
 209  612.6518
 210  522.3406
 211  540.4733
 212  396.5753
 213  276.3472
 214  429.8862
 215  192.1106
 216  618.993
 217  784.1771
 218  431.3051
 219  54.39752
 220  205.5765
 221  240.1294
 222  435.0364
 223  210.5165
 224  282.0508
 225  563.1976
 226  1022.282
 227  1114.697
 228  747.2202
 229  458.9484
 230  419.849
 231  219.7792
 232  273.3524
 233  148.6027
 234  690.5358
 235  713.2641
 236  829.3087
 237  870.1788
 238  146.4565
 239  184.5368
 240  -100.2404
 241  551.8547
 242  597.1527
 243  411.2097
 244  529.7415
 245  545.019
 246  589.2514
 247  361.3528
 248  196.9834
 249  449.0155
 250  395.5671
 251  899.2425
 252  969.2426
 253  855.9482
 254  445.7314
 255  196.3225
 256  294.495
 257  404.5773
 258  541.8175
 259  503.8817
 260  459.2166
 261  356.0608
 262  443.9698
 263  185.3028
 264  -96.0811
 265  68.1882
 266  308.7666
 267  -197.8492
 268  522.7652
 269  667.8836
 270  402.9489
 271  876.5981
 272  474.0379
 273  596.6832
 274  39.80661
 275  -37.95901
 276  536.9331
 277  558.9841
 278  101.2514
 279  256.5665
 280  406.5701
 281  70.73401
 282  168.2479
 283  369.6156
 284  418.5631
 285  128.1977
 286  -34.78143
 287  335.0008
 288  264.2308
 289  575.1312
 290  529.0447
 291  372.1943
 292  370.8583
 293  166.567
 294  623.2727
 295  635.894
 296  602.8468
 297  63.8727
 298  124.9009
 299  233.8683
 300  450.3824
 301  722.5709
 302  575.4001
 303  350.25
 304  378.3065
 305  128.3976
 306  105.2173
 307  545.1731
 308  485.5308
 309  456.3331
 310  455.7541
 311  571.5145
 312  852.1086
 313  632.6273
 314  270.4825
 315  372.4907
 316  868.9895
 317  1437.375
 318  1694.036
 319  1899.212
 320  2128.464
 321  1788.477
 322  1663.393
 323  879.3961
 324  569.5235
 325  702.9578
 326  680.1342
 327  659.1701
 328  487.932
 329  380.3049
 330  633.7321
 331  882.7275
 332  897.1193
 333  992.0648
 334  752.4651
 335  461.0396
 336  249.3752
 337  508.1113
 338  504.6826
 339  95.12489
 340  493.2581
 341  993.9237
 342  946.5181
 343  676.913
 344  320.743
 345  451.5215
 346  152.7759
 347  416.7109
 348  535.8104
 349  797.1362
 350  785.0745
 351  997.7274
 352  638.1367
 353  460.2252
 354  316.965
 355  438.9815
 356  616.7566
 357  68.56677
 358  286.6936
 359  475.7565
 360  77.75703
 361  301.5123
 362  161.5558
 363  912.2495
 364  1272.429
 365  1143.96
 366  608.5455
 367  357.8029
 368  820.9297
 369  638.9202
 370  688.6089
 371  743.7872
 372  1020.108
 373  575.3264
 374  261.8595
 375  240.5558
 376  407.6353
 377  337.4296
 378  598.3041
 379  239.6021
 380  154.9849
 381  119.4109
 382  69.00047
 383  561.6686
 384  749.9305
 385  826.3341
 386  863.5753
 387  829.841
 388  776.0384
 389  707.4684
 390  744.2332
 391  394.3925
 392  300.5843
 393  609.7753
 394  558.6801
 395  606.3123
 396  622.1445
 397  966.0374
 398  751.236
 399  437.4143
 400  546.6521
 401  986.0552
 402  900.5891
 403  511.8772
 404  281.6794
 405  374.9836
 406  633.3896
 407  914.6226
 408  765.851
 409  942.4092
 410  706.1375
 411  557.4052
 412  393.6563
 413  355.6239
 414  567.6054
 415  732.9701
 416  959.4426
 417  834.6324
 418  488.7687
 419  610.4584
 420  488.621
 421  375.0497
 422  592.9315
 423  580.9014
 424  354.6648
 425  397.9868
 426  404.9582
 427  254.9056
 428  237.8506
 429  134.4119
 430  365.1225
 431  486.4286
 432  765.3049
 433  577.412
 434  794.1973
 435  387.4608
 436  121.3341
 437  501.3314
 438  367.3437
 439  494.8504
 440  415.3972
 441  483.9442
 442  473.8466
 443  477.3081
 444  494.228
 445  177.6068
 446  121.1811
 447  198.9227
 448  326.4216
 449  880.5042
 450  581.9644
 451  353.8077
 452  666.4941
 453  442.9519
 454  -91.07805
 455  326.6174
 456  217.6378
 457  73.78412
 458  333.3828
 459  634.9239
 460  534.425
 461  533.2768
 462  74.90903
 463  260.9933
 464  631.7468
 465  539.2836
 466  760.752
 467  647.7974
 468  725.3701
 469  428.9726
 470  447.8012
 471  573.7155
 472  740.0099
 473  400.2853
 474  325.6438
 475  579.3904
 476  653.0637
 477  657.5535
 478  716.6434
 479  380.8521
 480  546.8598
 481  676.8683
 482  262.2354
 483  574.2522
 484  682.8036
 485  505.7006
 486  298.7543
 487  842.274
 488  869.5095
 489  390.2407
 490  178.9208
 491  217.7915
 492  739.1221
 493  746.283
 494  738.0823
 495  334.9178
 496  527.3236
 497  271.7183
 498  457.417
 499  659.493
 500  774.1922
 501  763.7701
 502  268.6697
 503  71.13463
 504  359.6639
 505  485.19
 506  617.2505
 507  158.9902
 508  271.0653
 509  848.4723
 510  681.3313
 511  907.9941
