# Input file       =  1190677245.097413_cleaned.dat
# Candidate        =  PSR_0332+5434
# Telescope        =  AR
# Epoch_topo       =  58024.986852979317
# Epoch_bary       =  N/A
# T_sample         =  0.002
# Data Folded      =  7340032
# Data Avg         =  0.0287473168303092
# Data StdDev      =  2.48867251295357 
# Profile Bins     =  1024
# Profile Avg      =  206.187282221761 
# Profile StdDev   =  210.701074046634 
# Reduced chi-sqr  =  1.654
# Prob(Noise)      <  9.17e-36   (~12.4 sigma)
# P_topo (ms)      =  714.471549964824  +/- 0.000144
# P'_topo (s/s)    =  -0                +/- 7.59e-11
# P''_topo (s/s^2) =  0                 +/- 3.35e-14
# P_bary (ms)      =  N/A
# P'_bary (s/s)    =  N/A
# P''_bary (s/s^2) =  N/A
# P_orb (s)        =  N/A
# asin(i)/c (s)    =  N/A
# eccentricity     =  N/A
# w (rad)          =  N/A
# T_peri           =  N/A
######################################################
   0  195.1787
   1  157.1446
   2  144.2732
   3  130.7305
   4  177.7905
   5  268.4967
   6  329.0264
   7  220.0198
   8  116.2756
   9  92.79383
  10  51.13457
  11  219.3515
  12  300.6411
  13  388.3711
  14  265.1574
  15  246.1127
  16  215.043
  17  208.1078
  18  131.7626
  19  65.23907
  20  105.9007
  21  103.0849
  22  167.3016
  23  227.4411
  24  395.3537
  25  499.0078
  26  364.7203
  27  306.5322
  28  252.4443
  29  340.2625
  30  339.7072
  31  290.0072
  32  356.583
  33  257.9586
  34  191.7001
  35  148.9317
  36  254.1785
  37  389.1754
  38  318.5435
  39  218.049
  40  127.2234
  41  179.6813
  42  208.3839
  43  155.6313
  44  -26.96634
  45  -74.81964
  46  -52.07706
  47  23.16402
  48  154.3154
  49  173.4075
  50  259.0259
  51  208.8009
  52  167.8654
  53  180.279
  54  243.0648
  55  339.7171
  56  427.0656
  57  466.5472
  58  354.1588
  59  151.1895
  60  61.79453
  61  161.1363
  62  246.8525
  63  251.2296
  64  187.1863
  65  175.5995
  66  206.725
  67  145.888
  68  129.2935
  69  146.0027
  70  196.9393
  71  174.9412
  72  213.3615
  73  286.9171
  74  372.7216
  75  370.0046
  76  330.7431
  77  253.893
  78  266.1814
  79  236.7507
  80  162.3502
  81  80.69094
  82  91.48853
  83  93.58969
  84  65.86787
  85  1.828473
  86  -33.70288
  87  33.50279
  88  112.387
  89  264.48
  90  234.0655
  91  115.1841
  92  -16.71966
  93  91.63783
  94  213.9553
  95  215.2749
  96  13.17508
  97  40.90478
  98  71.97624
  99  64.39518
 100  -43.28752
 101  7.503713
 102  179.8883
 103  241.0255
 104  218.4361
 105  296.241
 106  398.4266
 107  368.2285
 108  240.4517
 109  169.3768
 110  212.097
 111  224.8738
 112  239.8617
 113  156.3462
 114  142.7894
 115  71.95441
 116  82.89922
 117  90.16304
 118  106.5159
 119  161.3602
 120  249.0252
 121  266.7993
 122  379.9089
 123  272.0165
 124  287.6523
 125  161.13
 126  105.3254
 127  19.83799
 128  81.93058
 129  257.4908
 130  424.3143
 131  466.1263
 132  398.7691
 133  204.7171
 134  129.3811
 135  287.7478
 136  396.0009
 137  344.437
 138  184.4543
 139  223.195
 140  252.0055
 141  257.2553
 142  190.2298
 143  178.8994
 144  261.0544
 145  257.7331
 146  199.0891
 147  49.10138
 148  68.9728
 149  45.33805
 150  82.82669
 151  131.0375
 152  195.3308
 153  150.1668
 154  166.6866
 155  107.8503
 156  175.1089
 157  137.5891
 158  142.8567
 159  237.2602
 160  283.3034
 161  328.4917
 162  225.9193
 163  288.1807
 164  236.6539
 165  133.5641
 166  16.10332
 167  207.6927
 168  208.8449
 169  171.9542
 170  41.91847
 171  84.56093
 172  181.7721
 173  176.3983
 174  185.3536
 175  125.2499
 176  197.1204
 177  229.2122
 178  248.4772
 179  263.1597
 180  262.7444
 181  270.4792
 182  284.6447
 183  211.658
 184  176.2242
 185  93.54423
 186  143.9381
 187  139.5469
 188  186.8283
 189  221.0238
 190  234.4109
 191  201.8864
 192  293.5316
 193  386.946
 194  365.0494
 195  279.4821
 196  180.7066
 197  286.408
 198  281.3907
 199  334.9003
 200  297.5191
 201  194.1294
 202  239.8591
 203  257.4819
 204  375.9145
 205  318.955
 206  371.0533
 207  331.1557
 208  326.0126
 209  292.9242
 210  276.1852
 211  326.8118
 212  295.8587
 213  315.2871
 214  287.4673
 215  334.2692
 216  287.231
 217  177.5955
 218  23.5366
 219  44.93583
 220  168.5714
 221  166.2904
 222  182.3356
 223  90.8149
 224  162.4754
 225  101.8116
 226  192.4541
 227  239.5226
 228  387.0712
 229  438.6308
 230  423.0361
 231  295.2077
 232  246.9255
 233  158.7581
 234  169.4445
 235  233.785
 236  286.7784
 237  334.7101
 238  338.7398
 239  340.3302
 240  195.3349
 241  104.7936
 242  158.1153
 243  174.0393
 244  142.9861
 245  130.9832
 246  186.477
 247  178.5782
 248  223.4574
 249  235.8442
 250  320.2291
 251  296.7563
 252  249.2303
 253  166.0738
 254  116.1974
 255  95.54258
 256  187.2692
 257  329.2375
 258  437.3354
 259  442.0051
 260  314.4379
 261  190.3634
 262  160.9442
 263  187.525
 264  149.1213
 265  93.686
 266  41.06071
 267  147.7809
 268  130.759
 269  200.3654
 270  190.8144
 271  190.8703
 272  180.5191
 273  231.1034
 274  269.4043
 275  352.8361
 276  437.2001
 277  414.9767
 278  316.8631
 279  143.6169
 280  142.8052
 281  145.6006
 282  146.8741
 283  172.3047
 284  150.8717
 285  70.05541
 286  125.8763
 287  239.641
 288  338.7917
 289  270.7421
 290  149.4044
 291  75.71071
 292  74.79317
 293  175.2125
 294  255.0541
 295  337.2294
 296  303.8869
 297  209.9006
 298  -26.32137
 299  86.3782
 300  182.674
 301  315.9598
 302  294.684
 303  299.3986
 304  322.3663
 305  137.6785
 306  30.10626
 307  -86.15263
 308  43.7356
 309  146.0128
 310  198.477
 311  163.2796
 312  209.4176
 313  310.8062
 314  392.5988
 315  376.7779
 316  302.1176
 317  236.4749
 318  45.82083
 319  -1.021095
 320  -3.83004
 321  151.3917
 322  240.4139
 323  241.4183
 324  243.6888
 325  256.7114
 326  331.4781
 327  265.1242
 328  147.6355
 329  87.35761
 330  269.5486
 331  427.6366
 332  379.4974
 333  311.0927
 334  184.2554
 335  66.35426
 336  38.8308
 337  118.9021
 338  250.5431
 339  327.8608
 340  309.7368
 341  282.8935
 342  142.0339
 343  162.703
 344  69.60555
 345  106.6501
 346  179.2705
 347  386.8315
 348  388.2563
 349  228.3345
 350  40.62691
 351  93.27287
 352  247.8757
 353  281.758
 354  218.5321
 355  140.7198
 356  198.7594
 357  229.0574
 358  179.2373
 359  180.6503
 360  161.8191
 361  237.8892
 362  249.4196
 363  260.7817
 364  219.6108
 365  186.5914
 366  211.7952
 367  231.4653
 368  192.3596
 369  211.8067
 370  256.6532
 371  304.2769
 372  237.9043
 373  223.6891
 374  226.166
 375  162.6693
 376  164.4289
 377  118.3004
 378  124.2526
 379  68.20049
 380  52.429
 381  171.6838
 382  208.4926
 383  266.9136
 384  258.3402
 385  271.3558
 386  269.9213
 387  216.2523
 388  150.1708
 389  80.80244
 390  86.68017
 391  187.9572
 392  258.0305
 393  295.8832
 394  321.9864
 395  301.2116
 396  358.861
 397  281.2028
 398  235.1364
 399  221.1753
 400  295.0292
 401  333.3792
 402  197.6386
 403  104.301
 404  59.30336
 405  17.3432
 406  -36.1885
 407  -32.66039
 408  88.80014
 409  200.2553
 410  241.4734
 411  218.1778
 412  197.7665
 413  224.5655
 414  236.2513
 415  250.1414
 416  204.6517
 417  165.0119
 418  106.0396
 419  189.4069
 420  255.7888
 421  330.9369
 422  283.0651
 423  249.3353
 424  190.7651
 425  256.4049
 426  236.1565
 427  169.4443
 428  118.9189
 429  156.5885
 430  176.7716
 431  117.1833
 432  112.4309
 433  144.5336
 434  335.8494
 435  429.1667
 436  483.9968
 437  309.3333
 438  171.9199
 439  44.76803
 440  36.36074
 441  53.99073
 442  86.63361
 443  64.22255
 444  180.2637
 445  300.0575
 446  310.9055
 447  273.0771
 448  161.7836
 449  251.897
 450  120.4519
 451  110.7927
 452  88.69511
 453  131.8164
 454  153.1773
 455  175.8867
 456  267.9687
 457  253.7494
 458  37.44131
 459  -212.5165
 460  -292.7199
 461  -237.1546
 462  -65.97144
 463  21.78438
 464  195.8661
 465  211.065
 466  252.073
 467  313.6935
 468  243.8279
 469  234.1841
 470  304.9519
 471  423.5223
 472  391.3952
 473  287.019
 474  185.4527
 475  164.8835
 476  129.7586
 477  147.886
 478  99.87145
 479  110.3025
 480  70.19522
 481  151.9752
 482  123.8139
 483  205.0765
 484  243.1163
 485  326.1837
 486  292.2262
 487  222.6166
 488  191.933
 489  74.9294
 490  5.571035
 491  -51.54171
 492  46.09731
 493  93.75242
 494  76.99957
 495  54.36469
 496  4.689857
 497  -63.73399
 498  -8.925472
 499  176.7157
 500  248.7272
 501  300.4162
 502  194.0485
 503  282.0471
 504  238.6928
 505  228.254
 506  106.0285
 507  29.49586
 508  44.78773
 509  20.93806
 510  48.13247
 511  58.8358
 512  143.3891
 513  195.7118
 514  257.593
 515  173.9227
 516  131.797
 517  56.83534
 518  119.1528
 519  121.205
 520  82.27312
 521  25.94107
 522  87.59306
 523  214.4072
 524  148.4347
 525  73.41655
 526  84.9477
 527  223.0078
 528  235.0672
 529  191.0909
 530  157.2756
 531  185.8062
 532  182.4314
 533  131.5886
 534  127.4293
 535  148.7894
 536  179.2749
 537  89.04951
 538  28.77888
 539  48.46756
 540  86.68676
 541  102.2315
 542  141.3377
 543  99.23636
 544  106.3431
 545  136.826
 546  232.979
 547  217.9873
 548  104.9598
 549  43.19146
 550  135.8851
 551  237.9667
 552  258.1647
 553  144.4993
 554  119.434
 555  68.30759
 556  160.1685
 557  258.0122
 558  350.3171
 559  291.1438
 560  219.2128
 561  231.8291
 562  235.85
 563  170.0358
 564  159.0559
 565  201.9995
 566  287.6895
 567  247.2103
 568  207.6844
 569  117.0024
 570  161.3801
 571  272.9003
 572  371.9207
 573  354.3119
 574  309.5104
 575  273.6629
 576  202.5485
 577  157.165
 578  164.0462
 579  265.8456
 580  252.2172
 581  240.8208
 582  298.0707
 583  352.2708
 584  346.1299
 585  242.2579
 586  204.942
 587  277.5828
 588  356.411
 589  429.6059
 590  274.9699
 591  159.719
 592  43.86592
 593  12.00652
 594  3.677169
 595  31.89526
 596  175.0116
 597  204.3326
 598  206.4747
 599  236.0303
 600  369.6678
 601  444.1276
 602  488.8677
 603  428.6714
 604  293.517
 605  232.3302
 606  255.6914
 607  314.6427
 608  271.3994
 609  156.9605
 610  65.25349
 611  44.35032
 612  41.51321
 613  80.71913
 614  133.0641
 615  317.3904
 616  383.7728
 617  360.5786
 618  265.3953
 619  181.7747
 620  138.3498
 621  122.0828
 622  243.1857
 623  247.3205
 624  231.2911
 625  305.6003
 626  393.6042
 627  455.9499
 628  450.1644
 629  451.8166
 630  366.1674
 631  263.0274
 632  336.4406
 633  377.6217
 634  599.7748
 635  727.2104
 636  981.7134
 637  1150.838
 638  1301.685
 639  1255.445
 640  1251.346
 641  1282.605
 642  1290.087
 643  1150.125
 644  1077.349
 645  934.7581
 646  768.9183
 647  501.7013
 648  427.1363
 649  274.0239
 650  230.5985
 651  167.2376
 652  271.8763
 653  265.8464
 654  320.8576
 655  283.4839
 656  197.1199
 657  111.4822
 658  128.584
 659  249.0207
 660  212.4082
 661  193.921
 662  211.3644
 663  289.9888
 664  214.6075
 665  65.81369
 666  77.21333
 667  165.562
 668  226.3837
 669  181.5573
 670  153.2871
 671  43.1927
 672  42.99715
 673  71.94323
 674  147.1303
 675  108.4163
 676  -31.94367
 677  -110.065
 678  -78.04806
 679  61.66539
 680  134.1717
 681  56.02525
 682  159.4898
 683  196.4107
 684  190.3931
 685  175.9057
 686  199.5581
 687  300.1774
 688  294.5669
 689  207.5869
 690  167.0437
 691  73.18635
 692  -36.60608
 693  -227.4303
 694  -162.9437
 695  -28.50704
 696  50.81182
 697  99.71837
 698  146.4352
 699  296.2327
 700  338.9463
 701  381.2231
 702  418.4892
 703  422.6605
 704  413.213
 705  227.3694
 706  128.9618
 707  238.9338
 708  289.1379
 709  251.3946
 710  70.61413
 711  61.27607
 712  86.22701
 713  289.646
 714  358.4591
 715  454.6891
 716  438.2976
 717  491.0124
 718  352.5868
 719  152.0965
 720  101.3928
 721  218.9695
 722  216.4302
 723  134.1507
 724  -2.466722
 725  -84.80148
 726  -77.31136
 727  -23.24969
 728  155.3908
 729  159.4651
 730  126.3037
 731  93.72373
 732  118.6808
 733  42.86783
 734  6.358526
 735  57.29058
 736  216.5514
 737  146.0997
 738  166.9937
 739  189.8779
 740  294.9047
 741  298.7438
 742  239.5453
 743  179.2091
 744  204.468
 745  172.2861
 746  180.5237
 747  182.7806
 748  293.5984
 749  315.4079
 750  292.0981
 751  236.3473
 752  168.015
 753  198.7933
 754  221.7386
 755  225.6539
 756  160.0161
 757  89.27624
 758  111.7893
 759  169.858
 760  250.199
 761  264.2491
 762  235.7603
 763  282.5573
 764  269.2601
 765  296.1273
 766  237.8893
 767  136.8
 768  29.38705
 769  62.10779
 770  190.9237
 771  315.0066
 772  292.1725
 773  257.8094
 774  221.339
 775  191.2689
 776  168.9038
 777  106.8643
 778  173.2217
 779  135.4123
 780  177.507
 781  148.8795
 782  163.432
 783  187.6568
 784  169.3469
 785  304.7537
 786  326.7747
 787  274.815
 788  178.3361
 789  108.9564
 790  93.88005
 791  -33.72935
 792  42.52165
 793  48.11528
 794  260.1762
 795  231.3522
 796  294.342
 797  203.2295
 798  158.326
 799  165.4024
 800  314.5423
 801  380.0693
 802  332.8358
 803  236.3439
 804  330.3374
 805  285.5687
 806  185.9273
 807  88.0264
 808  247.2838
 809  206.9577
 810  98.12802
 811  -53.571
 812  -14.63513
 813  44.94116
 814  34.39094
 815  81.33312
 816  112.426
 817  199.531
 818  182.9418
 819  134.9608
 820  143.4933
 821  141.2923
 822  155.4117
 823  66.50095
 824  32.95813
 825  138.3847
 826  227.5641
 827  235.5494
 828  204.5357
 829  76.53054
 830  111.7594
 831  172.357
 832  256.8971
 833  207.2659
 834  99.15478
 835  78.4183
 836  75.97482
 837  81.01366
 838  53.43493
 839  185.0367
 840  224.4602
 841  175.9427
 842  22.33875
 843  -26.66883
 844  -61.80586
 845  -22.73626
 846  14.60397
 847  133.1894
 848  186.9006
 849  251.0681
 850  254.1629
 851  215.5921
 852  287.32
 853  391.7951
 854  288.9179
 855  38.18596
 856  -94.68491
 857  -36.41533
 858  15.26107
 859  63.48055
 860  137.9785
 861  294.2698
 862  264.208
 863  252.8751
 864  81.40896
 865  -67.76445
 866  -166.0792
 867  -12.59351
 868  164.9954
 869  270.1064
 870  156.2456
 871  180.8886
 872  227.5872
 873  219.9195
 874  168.5918
 875  65.22108
 876  100.8201
 877  38.13696
 878  92.09725
 879  102.851
 880  204.5397
 881  206.2725
 882  214.2119
 883  214.3471
 884  248.6355
 885  245.0462
 886  257.4439
 887  326.2901
 888  300.8027
 889  278.3511
 890  286.3541
 891  294.864
 892  284.2273
 893  237.4083
 894  221.9897
 895  253.5361
 896  283.799
 897  286.5961
 898  183.9234
 899  242.5735
 900  249.2211
 901  263.3802
 902  226.2747
 903  211.2198
 904  157.7055
 905  150.5607
 906  302.4788
 907  290.6263
 908  197.5856
 909  140.6933
 910  197.9277
 911  269.0898
 912  305.3878
 913  361.0043
 914  423.3527
 915  345.1341
 916  267.3565
 917  213.3596
 918  191.9301
 919  221.5661
 920  110.7988
 921  167.7144
 922  228.1681
 923  365.8176
 924  227.5092
 925  123.5923
 926  75.09515
 927  160.537
 928  134.8275
 929  134.8801
 930  248.6911
 931  237.9983
 932  315.3258
 933  317.7393
 934  321.5076
 935  228.4628
 936  209.5237
 937  110.6954
 938  95.52833
 939  123.0235
 940  219.3074
 941  318.5319
 942  265.3446
 943  216.5566
 944  117.4729
 945  125.4128
 946  241.9312
 947  322.2395
 948  313.9774
 949  230.4335
 950  168.0135
 951  260.2945
 952  214.1664
 953  221.0482
 954  138.2189
 955  200.7129
 956  194.8642
 957  207.5759
 958  196.5381
 959  226.1415
 960  165.8532
 961  70.11852
 962  -94.52561
 963  -52.4366
 964  45.72687
 965  174.2297
 966  266.6738
 967  322.4414
 968  386.4275
 969  347.1208
 970  409.5832
 971  325.0182
 972  337.4801
 973  314.5417
 974  249.2128
 975  209.9037
 976  112.4639
 977  211.1106
 978  169.5454
 979  200.1706
 980  81.32758
 981  147.7242
 982  194.9517
 983  249.0336
 984  255.6192
 985  326.7887
 986  450.2113
 987  385.0454
 988  374.8206
 989  290.3516
 990  310.255
 991  225.3665
 992  257.1454
 993  276.2672
 994  221.0019
 995  125.8654
 996  157.6967
 997  155.2809
 998  138.5296
 999  207.9952
1000  309.5685
1001  312.5778
1002  128.5509
1003  118.9501
1004  208.0896
1005  229.8457
1006  114.915
1007  66.18647
1008  120.608
1009  94.69663
1010  135.2369
1011  42.15269
1012  65.36217
1013  -45.94178
1014  53.43991
1015  187.1128
1016  318.4457
1017  314.3849
1018  277.0613
1019  288.6085
1020  325.7703
1021  252.2858
1022  210.2991
1023  205.6669
