# Input file       =  1190748188.106715_cleaned.dat
# Candidate        =  PSR_0332+5434
# Telescope        =  AR
# Epoch_topo       =  58025.807952624018
# Epoch_bary       =  N/A
# T_sample         =  0.002
# Data Folded      =  7208960
# Data Avg         =  0.157158996139399
# Data StdDev      =  3.73444658485272 
# Profile Bins     =  512
# Profile Avg      =  2212.73146977801 
# Profile StdDev   =  443.126353803589 
# Reduced chi-sqr  =  0.703
# Prob(Noise)      <  1   (~0.0 sigma)
# P_topo (ms)      =  714.471955192486  +/- 0.000252
# P'_topo (s/s)    =  -0                +/- 1.35e-10
# P''_topo (s/s^2) =  0                 +/- 6.08e-14
# P_bary (ms)      =  N/A
# P'_bary (s/s)    =  N/A
# P''_bary (s/s^2) =  N/A
# P_orb (s)        =  N/A
# asin(i)/c (s)    =  N/A
# eccentricity     =  N/A
# w (rad)          =  N/A
# T_peri           =  N/A
######################################################
   0  1920.256
   1  2014.354
   2  2012.272
   3  2160.547
   4  1929.062
   5  2116.692
   6  2385.85
   7  2782.167
   8  2803.076
   9  2298.363
  10  1949.377
  11  2060.721
  12  2331.193
  13  2498.438
  14  2240.885
  15  1709.562
  16  2260.618
  17  2298.305
  18  2008.09
  19  2114.963
  20  2131.541
  21  2122.581
  22  2249.883
  23  2060.421
  24  2216.082
  25  2196.777
  26  2510.857
  27  2333.454
  28  2251.861
  29  1798.983
  30  2102.686
  31  2377.126
  32  2023.305
  33  1901.478
  34  1922.257
  35  2174.716
  36  2046.032
  37  2276.833
  38  2285.452
  39  2247.315
  40  2039.458
  41  2111.189
  42  2214.508
  43  2157.696
  44  2105.231
  45  2204.135
  46  2121.404
  47  2010.696
  48  2009.754
  49  2518.106
  50  2115.467
  51  1824.183
  52  2254.515
  53  2580.354
  54  2428.842
  55  2484.83
  56  2527.457
  57  2453.728
  58  2048.942
  59  2067.218
  60  2237.913
  61  2240.52
  62  2230.228
  63  1934.604
  64  1979.969
  65  1879.986
  66  1919.505
  67  2228.778
  68  1923.453
  69  1971.867
  70  2265.367
  71  2711.609
  72  2541.354
  73  2413.657
  74  2246.44
  75  2185.261
  76  2101.885
  77  2095.439
  78  2068.22
  79  2080.971
  80  1979.736
  81  2009.469
  82  2091.285
  83  2195.378
  84  2181.249
  85  2148.134
  86  2408.697
  87  1991.48
  88  2385.479
  89  2630.093
  90  2782.363
  91  2514.033
  92  2355.852
  93  2409.133
  94  2132.284
  95  2262.785
  96  2109.573
  97  2257.16
  98  2252.083
  99  2050.046
 100  2321.696
 101  2295.303
 102  2503.342
 103  2455.529
 104  2530.339
 105  2483.365
 106  2275.366
 107  2275.4
 108  1939.219
 109  2144.92
 110  2189.679
 111  2482.209
 112  2573.366
 113  2533.38
 114  2425.958
 115  2158.386
 116  2252.798
 117  2282.464
 118  2242.134
 119  2366.813
 120  2119.164
 121  1952.922
 122  1800.894
 123  1735.233
 124  2163.035
 125  2096.608
 126  2130.067
 127  2118.35
 128  2253.586
 129  1855.588
 130  1793.673
 131  2043.83
 132  2005.453
 133  1867.684
 134  1924.003
 135  1931.205
 136  2441.731
 137  2445.937
 138  2128.641
 139  2024.614
 140  1932.119
 141  1861.28
 142  2043.151
 143  2402.816
 144  2176.19
 145  2286.761
 146  2098.705
 147  1937.62
 148  2241.48
 149  1995.79
 150  1779.3
 151  1966.335
 152  2089.054
 153  2049.072
 154  1927.414
 155  2425.382
 156  2365.326
 157  2005.503
 158  1949.686
 159  2034.691
 160  2210.006
 161  2064.051
 162  2118.063
 163  2049.862
 164  2228.136
 165  1850.176
 166  2212.048
 167  2312.121
 168  1913.412
 169  2253.867
 170  2428.579
 171  2179.476
 172  2498.771
 173  2479.637
 174  2151.221
 175  2300.013
 176  2128.741
 177  2185.72
 178  2429.24
 179  2101.471
 180  2026.865
 181  2192.945
 182  2331.11
 183  2145.424
 184  1735.782
 185  1904.067
 186  2184.684
 187  2706.28
 188  2366.953
 189  2105.465
 190  1960.732
 191  2500.269
 192  2221.205
 193  2244.39
 194  2265.893
 195  2083.931
 196  1961.056
 197  1620.899
 198  1725.271
 199  2132.123
 200  2235.025
 201  2465.852
 202  2091.771
 203  2021.709
 204  1883.566
 205  2072.808
 206  2051.015
 207  1843.478
 208  1895.534
 209  2120.875
 210  2718.062
 211  2543.734
 212  2428.025
 213  2115.671
 214  2025.892
 215  2142.477
 216  2270.952
 217  2198.655
 218  2446.874
 219  1921.257
 220  1935.853
 221  2129.49
 222  2204.514
 223  2175.37
 224  2117.001
 225  2031.33
 226  2381.646
 227  2363.588
 228  2090.56
 229  2135.379
 230  2166.556
 231  2109.751
 232  1851.872
 233  2117.757
 234  2439.755
 235  2120.654
 236  2060.02
 237  2459.519
 238  2360.703
 239  2223.146
 240  2545.61
 241  2380.941
 242  2439.229
 243  2323.569
 244  2421.421
 245  2149.888
 246  2207.182
 247  2092.324
 248  1975.76
 249  2428.661
 250  2363.6
 251  2336.861
 252  2230.831
 253  2347.627
 254  2327.473
 255  2207.126
 256  2229.149
 257  2109.467
 258  2282.326
 259  2196.036
 260  2381.224
 261  2390.887
 262  2074.619
 263  2118.416
 264  2293.293
 265  2222.385
 266  2319.932
 267  2436.765
 268  2469.794
 269  2389.391
 270  2332.749
 271  2250.769
 272  2112.831
 273  2223.048
 274  1761.67
 275  1831.215
 276  2376.941
 277  2415.736
 278  2164.684
 279  2106.147
 280  1795.996
 281  2074.401
 282  1893.573
 283  2204.801
 284  2447.242
 285  2602.11
 286  2400.031
 287  2247.935
 288  2222.858
 289  2349.216
 290  2388.153
 291  2318.065
 292  2229.128
 293  2125.087
 294  2064.972
 295  2147.317
 296  2399.647
 297  2284.008
 298  1929.73
 299  2130.41
 300  2324.707
 301  2066.105
 302  2266.996
 303  2498.486
 304  2173.604
 305  2136.8
 306  1882.816
 307  2317.99
 308  2120.498
 309  2385.268
 310  2301.493
 311  2273.059
 312  2071.451
 313  1984.611
 314  2416.667
 315  2732.689
 316  2763.799
 317  2930.504
 318  3629.145
 319  3930.452
 320  3970.929
 321  3796.951
 322  3598.148
 323  2969.848
 324  2750.979
 325  2499.8
 326  2504.68
 327  2343.674
 328  1881.925
 329  2176.496
 330  2199.156
 331  2341.236
 332  2262.375
 333  2410.427
 334  2266.462
 335  2210.566
 336  2159.507
 337  2521.541
 338  2721.458
 339  2469.322
 340  2107.67
 341  2582.24
 342  2238.223
 343  2071.533
 344  2142.291
 345  2052.858
 346  2038.58
 347  1941.021
 348  2180.608
 349  1992.743
 350  2065.514
 351  2207.435
 352  2041.202
 353  1834.095
 354  1998.787
 355  2342.078
 356  2368.066
 357  2534.647
 358  2292.23
 359  2156.974
 360  2196.175
 361  2293.68
 362  2379.63
 363  2211.049
 364  1813.676
 365  1998.632
 366  2362.21
 367  2182.784
 368  1953.821
 369  1995.123
 370  2200.742
 371  2358.077
 372  2500.542
 373  2316.612
 374  2295.074
 375  1969.778
 376  1687.45
 377  1681.821
 378  1949.586
 379  1814.319
 380  2070.472
 381  2318.588
 382  2407.795
 383  2158.902
 384  2104.634
 385  2201.586
 386  2003.523
 387  2150.584
 388  2261.064
 389  2243.05
 390  2370.722
 391  2367.845
 392  2723.919
 393  2393.203
 394  2325.676
 395  2112.772
 396  1953.389
 397  2110.981
 398  2228.964
 399  2329.305
 400  2577.252
 401  2805.094
 402  2516.186
 403  2098.57
 404  1936.525
 405  2008.992
 406  1997.918
 407  1872.464
 408  2195.74
 409  2099.725
 410  1965.159
 411  2117.378
 412  2367.652
 413  2331.045
 414  2199.67
 415  1857.535
 416  2078.082
 417  2298.498
 418  2358.071
 419  2425.544
 420  2098.578
 421  1902.286
 422  2260.145
 423  2261.379
 424  2064.529
 425  1946.745
 426  2285.593
 427  2096.598
 428  2063.944
 429  2183.508
 430  1889.513
 431  1609.898
 432  1998.555
 433  2302.504
 434  2311.868
 435  2378.733
 436  2259.303
 437  2395.446
 438  2400.748
 439  2268.316
 440  2532.842
 441  2484.149
 442  2113.168
 443  2140.263
 444  2076.841
 445  2209.621
 446  2418.314
 447  2157.555
 448  2085.857
 449  2271.78
 450  2202.401
 451  2351.662
 452  2361.298
 453  2411.813
 454  2259.059
 455  2034.29
 456  2109.288
 457  2341.205
 458  2230.296
 459  2154.009
 460  2012.656
 461  2163.291
 462  1958.347
 463  2034.345
 464  2310.438
 465  2298.95
 466  2332.071
 467  2191.817
 468  2036.013
 469  1684.398
 470  1863.506
 471  2070.332
 472  2169.323
 473  2150.367
 474  2286.57
 475  2096.232
 476  1857.139
 477  1883.161
 478  1807.347
 479  1393.778
 480  1783.207
 481  2030.344
 482  2077.246
 483  2215.077
 484  2364.182
 485  1960.38
 486  1779.253
 487  2189.169
 488  2193.066
 489  2154.6
 490  2123.287
 491  2358.357
 492  2597.488
 493  2274.97
 494  2196.541
 495  2555.087
 496  2542.306
 497  2426.8
 498  2260.818
 499  2292.119
 500  2331.498
 501  2581.907
 502  2553.768
 503  2046.005
 504  2305.91
 505  2157.856
 506  2347.899
 507  2460.133
 508  2193.251
 509  2183.898
 510  2272.038
 511  2092.867
