# Input file       =  1190920557.109346_cleaned.dat
# Candidate        =  PSR_0332+5434
# Telescope        =  AR
# Epoch_topo       =  58027.802964228540
# Epoch_bary       =  N/A
# T_sample         =  0.002
# Data Folded      =  7143424
# Data Avg         =  0.127487291584065
# Data StdDev      =  3.59678310428912 
# Profile Bins     =  512
# Profile Avg      =  1778.62713021993 
# Profile StdDev   =  424.846928966927 
# Reduced chi-sqr  =  0.760
# Prob(Noise)      <  1   (~0.0 sigma)
# P_topo (ms)      =  714.473035400697  +/- 0.000501
# P'_topo (s/s)    =  -0                +/- 2.72e-10
# P''_topo (s/s^2) =  0                 +/- 1.23e-13
# P_bary (ms)      =  N/A
# P'_bary (s/s)    =  N/A
# P''_bary (s/s^2) =  N/A
# P_orb (s)        =  N/A
# asin(i)/c (s)    =  N/A
# eccentricity     =  N/A
# w (rad)          =  N/A
# T_peri           =  N/A
######################################################
   0  1636.279
   1  1753.779
   2  1519.235
   3  1778.986
   4  1886.653
   5  1811.381
   6  1674.001
   7  1424.478
   8  1557.084
   9  1796.767
  10  1807.932
  11  1627.437
  12  1635.337
  13  1605.949
  14  1600.886
  15  1596.974
  16  1420.42
  17  1770.87
  18  1462.15
  19  1566.527
  20  1485.395
  21  1585.859
  22  2022.073
  23  1900.992
  24  1862.786
  25  1906.685
  26  1621.111
  27  1436.136
  28  1441.749
  29  1762.637
  30  1847.92
  31  1750.891
  32  1791.619
  33  1515.886
  34  1901.409
  35  1606.483
  36  1864.542
  37  1988.54
  38  1834.839
  39  1837.223
  40  1581.588
  41  1523.068
  42  1576.936
  43  2132.722
  44  2403.794
  45  2115.345
  46  1598.341
  47  1630.459
  48  1452.392
  49  1465.182
  50  1822.235
  51  2277.496
  52  1849.984
  53  1871.1
  54  1829.254
  55  1897.357
  56  2004.993
  57  1881.653
  58  1821.032
  59  2040.779
  60  2144.256
  61  1932.657
  62  1820.388
  63  2199.458
  64  1927.596
  65  1407.543
  66  1667.258
  67  1778.174
  68  1690.157
  69  1767.232
  70  1908.629
  71  2144.563
  72  1857.503
  73  1818.653
  74  1807.111
  75  1861.6
  76  1495.529
  77  1474.393
  78  1619.131
  79  1591.843
  80  1619.991
  81  1671.52
  82  1515.132
  83  1410.766
  84  1796.202
  85  1783.473
  86  1803.411
  87  1769.124
  88  1355.459
  89  1621.949
  90  1794.869
  91  1576.438
  92  1922.474
  93  1772.096
  94  1749.107
  95  1696.331
  96  1858.843
  97  1532.897
  98  1433.095
  99  1718.076
 100  2041.457
 101  2121.694
 102  1938.788
 103  1706.145
 104  1743.169
 105  1728.161
 106  1978.995
 107  1921.282
 108  1880.456
 109  1873.683
 110  1885.06
 111  1725.206
 112  1660.486
 113  1819.962
 114  1915.307
 115  1829.059
 116  1901.204
 117  1864.058
 118  1324.593
 119  1568.982
 120  1573.409
 121  1822.725
 122  1843.395
 123  1703.647
 124  1862.741
 125  2049.619
 126  1799.432
 127  1459.088
 128  1795.451
 129  2011.325
 130  1735.895
 131  1818.991
 132  1957.201
 133  2279.742
 134  2072.383
 135  2128.35
 136  2112.074
 137  1594.843
 138  1762.503
 139  2061.331
 140  1765.879
 141  1495.346
 142  1702.889
 143  1806.705
 144  1789.246
 145  1419.09
 146  1706.303
 147  2105.174
 148  2106.508
 149  1921.831
 150  1651.797
 151  1632.169
 152  1651.815
 153  1864.114
 154  1877.587
 155  1718.922
 156  1551.871
 157  1852.236
 158  1655.443
 159  1985.214
 160  1777.13
 161  1774.439
 162  1990.202
 163  1498.184
 164  1237.14
 165  1548.337
 166  1836.995
 167  2129.492
 168  1616.982
 169  1511.901
 170  1675.282
 171  1870.213
 172  1835.462
 173  1733.562
 174  1819.186
 175  1877.409
 176  1854.198
 177  1687.087
 178  1741.989
 179  1989.268
 180  1966.913
 181  1883.489
 182  2007.502
 183  1757.094
 184  2073
 185  1531.584
 186  1202.557
 187  1427.13
 188  1508.147
 189  1690.777
 190  2094.702
 191  2144.453
 192  1974.843
 193  1585.897
 194  1559.795
 195  1690.55
 196  1842.601
 197  1984.545
 198  2077.506
 199  1668.043
 200  1912.683
 201  1901.668
 202  1812.4
 203  1733.748
 204  1882.837
 205  1876.355
 206  1528.336
 207  1530.324
 208  1572.591
 209  1701.291
 210  1969.017
 211  1987.733
 212  1800.828
 213  1553.604
 214  1770.105
 215  1770.805
 216  1711.434
 217  2138.354
 218  2186.534
 219  1907.252
 220  1757.607
 221  2186.187
 222  1652.408
 223  1676.234
 224  1859.941
 225  2155.922
 226  1749.521
 227  1766.52
 228  1757.192
 229  1581.99
 230  1631.41
 231  1795.53
 232  1996.068
 233  2127.287
 234  1630.918
 235  1822.469
 236  1899.333
 237  2046.734
 238  1957.244
 239  1860.772
 240  1450.144
 241  1628.055
 242  1535.226
 243  1604.575
 244  1821.658
 245  1729.352
 246  2022.456
 247  1913.166
 248  2091.223
 249  2230.712
 250  2183.115
 251  1905.452
 252  1403.216
 253  1565.712
 254  1469.726
 255  1638.089
 256  1693.205
 257  1777.295
 258  1541.38
 259  1197.706
 260  1826.845
 261  1597.469
 262  1372.051
 263  1885.039
 264  2011.865
 265  2111.852
 266  1645.22
 267  1604.563
 268  1653.62
 269  1439.449
 270  1606.993
 271  1817.593
 272  1979.24
 273  2034.252
 274  2293.053
 275  2121.682
 276  2046.162
 277  1437.094
 278  1441.245
 279  1475.294
 280  1811.243
 281  2169.339
 282  2273.702
 283  1774.746
 284  1549.951
 285  1415.73
 286  1313.243
 287  1596.141
 288  1704.514
 289  1924.28
 290  2024.028
 291  2052.196
 292  1710.807
 293  1403.896
 294  1648.065
 295  1505.072
 296  1421.848
 297  1917.976
 298  2020.081
 299  2101.157
 300  1601.342
 301  1860.402
 302  1623.034
 303  1674.018
 304  1774.579
 305  1723.733
 306  1406.693
 307  1596.831
 308  2092.963
 309  2002.762
 310  2050.311
 311  1876.703
 312  1965.805
 313  2151.983
 314  1933.867
 315  2037.418
 316  2368.709
 317  2485.727
 318  2923.655
 319  3391.324
 320  3558.93
 321  3440.484
 322  2894.759
 323  2179.688
 324  1694.823
 325  1593.01
 326  1646.64
 327  1829.112
 328  1694.218
 329  1723.47
 330  1868.021
 331  2103.73
 332  2106.613
 333  1991.258
 334  1911.2
 335  1907.114
 336  2056.737
 337  2023.439
 338  2225.652
 339  1986.218
 340  1794.482
 341  1781.026
 342  1918.971
 343  1725.508
 344  1399.784
 345  1722.381
 346  2021.64
 347  2114.153
 348  2068.227
 349  2027.742
 350  1962.378
 351  1473.513
 352  1748.027
 353  2151.561
 354  1843.76
 355  1490.484
 356  1942.216
 357  1872.06
 358  1622.458
 359  1640.258
 360  1594.987
 361  1623.192
 362  1785.011
 363  1902.399
 364  1831.226
 365  1901.993
 366  1927.527
 367  1774.325
 368  1790.322
 369  1713.132
 370  2011.259
 371  1901.013
 372  1649.835
 373  1552.707
 374  1700.516
 375  1596.601
 376  1620.307
 377  1887.448
 378  1659.384
 379  1520.841
 380  1643.739
 381  1718.461
 382  1782.083
 383  1744.281
 384  1686.457
 385  1754.186
 386  1508.415
 387  1127.572
 388  1672.492
 389  2252.538
 390  2300.944
 391  1942.246
 392  1897.243
 393  1628.558
 394  1583.594
 395  1439.901
 396  1557.176
 397  1661.353
 398  1788.081
 399  1795.104
 400  1500.196
 401  1438.919
 402  1422.304
 403  1336.52
 404  1591.5
 405  1851.098
 406  2007.477
 407  2019.944
 408  1584.729
 409  1393.449
 410  1234.124
 411  1225.067
 412  1569.509
 413  2005.492
 414  1916.374
 415  1995.004
 416  1663.337
 417  1448.672
 418  1616.299
 419  1886.949
 420  1706.551
 421  1887.41
 422  1752.549
 423  1664.69
 424  1555.435
 425  1580.186
 426  1808.872
 427  1612.926
 428  1362.531
 429  1467.595
 430  1646.625
 431  1866.857
 432  1708.676
 433  1474.577
 434  1492.859
 435  1588.109
 436  1539.534
 437  1650.016
 438  1844.81
 439  1845.709
 440  1696.981
 441  1576.959
 442  2118.186
 443  2147.391
 444  1711.776
 445  1388.378
 446  1448.026
 447  1929.747
 448  1928.985
 449  1780.019
 450  1676.091
 451  1418.984
 452  1424.155
 453  1614.95
 454  1377.973
 455  1565.668
 456  1479.564
 457  1768.541
 458  1771.452
 459  1702.633
 460  1793.879
 461  1891.251
 462  1590.732
 463  1564.377
 464  1672.527
 465  1670.318
 466  1554.502
 467  1902.742
 468  1728.13
 469  1857.879
 470  1883.864
 471  1561.571
 472  1707.717
 473  1809.947
 474  1639.172
 475  1480.88
 476  1305.443
 477  1635.949
 478  1667.844
 479  2030.101
 480  1860.22
 481  1766.505
 482  2100.621
 483  1862.393
 484  1425.978
 485  1308.515
 486  1640.303
 487  1825.297
 488  1699.955
 489  1860.598
 490  1921.724
 491  1836.942
 492  2274.301
 493  2083.172
 494  1822.155
 495  1517.41
 496  1664.622
 497  1674.178
 498  1522.155
 499  1683.823
 500  1822.536
 501  2073.76
 502  2244.856
 503  1794.75
 504  1531.881
 505  1345.296
 506  1499.191
 507  1988.683
 508  1905.877
 509  1961.216
 510  1542.998
 511  1534.962
