# Input file       =  1190935138.10484_cleaned.dat
# Candidate        =  PSR_0332+5434
# Telescope        =  AR
# Epoch_topo       =  58027.971725750460
# Epoch_bary       =  N/A
# T_sample         =  0.002
# Data Folded      =  7340032
# Data Avg         =  0.0274435843966785
# Data StdDev      =  2.67581304929049 
# Profile Bins     =  512
# Profile Avg      =  394.368468980034 
# Profile StdDev   =  320.383221168123 
# Reduced chi-sqr  =  1.288
# Prob(Noise)      <  1.08e-05   (~4.2 sigma)
# P_topo (ms)      =  714.473144345717  +/- 0.000222
# P'_topo (s/s)    =  -0                +/- 1.17e-10
# P''_topo (s/s^2) =  0                 +/- 5.17e-14
# P_bary (ms)      =  N/A
# P'_bary (s/s)    =  N/A
# P''_bary (s/s^2) =  N/A
# P_orb (s)        =  N/A
# asin(i)/c (s)    =  N/A
# eccentricity     =  N/A
# w (rad)          =  N/A
# T_peri           =  N/A
######################################################
   0  163.7022
   1  256.2947
   2  69.67228
   3  165.3209
   4  459.4552
   5  431.9171
   6  281.3436
   7  310.2055
   8  319.0168
   9  125.3981
  10  196.2203
  11  317.3951
  12  155.1386
  13  326.0018
  14  335.8274
  15  162.1985
  16  127.1758
  17  192.0567
  18  171.963
  19  196.6566
  20  510.5241
  21  445.1885
  22  401.1574
  23  629.5755
  24  721.931
  25  292.4854
  26  118.8279
  27  451.1301
  28  577.5338
  29  713.657
  30  1043.551
  31  458.2088
  32  119.182
  33  298.07
  34  387.8161
  35  222.7587
  36  318.4573
  37  310.7916
  38  497.8038
  39  457.8987
  40  409.6112
  41  183.7845
  42  435.4175
  43  633.5502
  44  357.8734
  45  163.9485
  46  49.98281
  47  -34.94169
  48  356.608
  49  575.313
  50  292.8322
  51  493.4319
  52  776.4534
  53  457.0923
  54  358.1862
  55  474.6664
  56  713.5882
  57  96.73483
  58  48.13381
  59  374.0612
  60  227.7663
  61  588.3614
  62  465.6334
  63  393.4135
  64  464.7445
  65  497.3677
  66  504.8656
  67  488.9989
  68  458.5481
  69  496.4618
  70  466.2806
  71  413.625
  72  503.045
  73  397.7067
  74  603.6061
  75  528.5845
  76  205.6665
  77  418.7769
  78  714.567
  79  770.0835
  80  218.5821
  81  -59.09972
  82  240.0655
  83  205.6795
  84  222.9558
  85  378.5126
  86  124.1455
  87  355.9301
  88  363.9514
  89  462.6038
  90  265.855
  91  216.1829
  92  360.1198
  93  601.6749
  94  577.8353
  95  449.0894
  96  396.8932
  97  365.7689
  98  543.9161
  99  225.8858
 100  -9.219581
 101  410.3257
 102  227.4447
 103  500.2276
 104  911.2689
 105  503.4535
 106  355.8955
 107  319.1497
 108  341.9233
 109  80.21367
 110  388.054
 111  489.9943
 112  455.5475
 113  386.6804
 114  565.3513
 115  430.9141
 116  647.4087
 117  779.2274
 118  609.9305
 119  537.7455
 120  739.545
 121  443.6885
 122  153.0216
 123  77.99202
 124  18.4069
 125  239.7249
 126  567.6283
 127  332.9108
 128  123.6548
 129  134.52
 130  6.341022
 131  372.8655
 132  766.3488
 133  767.7947
 134  706.6575
 135  510.9537
 136  372.2841
 137  362.1377
 138  361.5193
 139  216.0521
 140  291.9101
 141  263.2255
 142  23.90475
 143  85.41991
 144  496.7365
 145  872.1279
 146  513.6707
 147  48.83187
 148  235.4468
 149  -44.32843
 150  36.83893
 151  302.3804
 152  397.5774
 153  262.6686
 154  171.2699
 155  376.3789
 156  567.8492
 157  320.1574
 158  551.2527
 159  838.8291
 160  570.4354
 161  570.7016
 162  322.4876
 163  184.2637
 164  400.1386
 165  665.1101
 166  607.9131
 167  675.9611
 168  825.8961
 169  490.4758
 170  357.6996
 171  585.9387
 172  400.3173
 173  483.3247
 174  480.8076
 175  443.6401
 176  654.9034
 177  754.7636
 178  468.7401
 179  149.6679
 180  72.19048
 181  290.6513
 182  305.1906
 183  364.0612
 184  280.841
 185  367.0904
 186  374.0554
 187  731.0893
 188  274.1587
 189  334.4365
 190  701.3893
 191  645.0613
 192  480.0896
 193  324.6591
 194  352.6268
 195  555.9272
 196  758.5422
 197  209.3774
 198  604.2183
 199  655.6393
 200  634.5587
 201  484.5011
 202  551.2433
 203  412.3839
 204  394.3489
 205  421.6475
 206  570.1226
 207  354.0162
 208  539.3345
 209  349.6768
 210  60.71245
 211  79.84721
 212  322.5798
 213  776.2625
 214  820.2255
 215  372.0636
 216  122.2542
 217  442.6945
 218  318.0721
 219  341.1786
 220  362.0523
 221  248.9715
 222  144.3845
 223  282.1884
 224  173.1367
 225  385.7841
 226  690.5332
 227  614.6755
 228  435.5584
 229  117.9433
 230  221.9809
 231  305.0342
 232  413.8585
 233  449.1455
 234  324.585
 235  577.4058
 236  639.136
 237  614.7233
 238  610.0362
 239  406.7012
 240  508.473
 241  212.5609
 242  389.154
 243  398.0538
 244  691.6764
 245  462.708
 246  296.3623
 247  320.4387
 248  422.0342
 249  558.2262
 250  362.2661
 251  388.1721
 252  122.8099
 253  218.559
 254  -8.450184
 255  207.0796
 256  25.02707
 257  335.3656
 258  535.7023
 259  979.2994
 260  728.9584
 261  439.5876
 262  537.8514
 263  375.5096
 264  81.40759
 265  166.1972
 266  348.6937
 267  560.9337
 268  398.2245
 269  672.8029
 270  663.435
 271  332.6235
 272  196.4605
 273  394.5212
 274  700.7952
 275  484.863
 276  581.8859
 277  713.8566
 278  283.305
 279  460.6447
 280  507.6445
 281  393.9095
 282  634.9986
 283  317.7549
 284  241.4972
 285  525.8702
 286  577.1772
 287  417.9126
 288  285.5802
 289  -210.8861
 290  -131.0109
 291  162.1394
 292  441.8517
 293  421.4618
 294  10.95217
 295  -116.8519
 296  370.455
 297  234.1397
 298  276.112
 299  331.9191
 300  176.0365
 301  -43.20782
 302  436.3792
 303  428.1683
 304  500.0867
 305  823.9621
 306  446.7447
 307  422.2987
 308  203.2588
 309  326.7668
 310  420.8057
 311  515.7633
 312  578.5895
 313  315.9398
 314  238.1176
 315  144.3094
 316  239.6281
 317  515.2652
 318  213.6185
 319  216.7394
 320  151.9647
 321  543.0388
 322  611.4349
 323  247.2896
 324  249.5226
 325  317.5985
 326  277.449
 327  124.4938
 328  -117.8776
 329  -96.63551
 330  -7.409525
 331  552.4919
 332  860.3559
 333  516.8893
 334  223.8057
 335  288.1281
 336  362.5701
 337  296.1942
 338  514.832
 339  540.1791
 340  359.0778
 341  323.9876
 342  270.1816
 343  682.83
 344  535.715
 345  252.5297
 346  179.4235
 347  226.3579
 348  192.8192
 349  147.9083
 350  156.9892
 351  237.3882
 352  243.0552
 353  203.7507
 354  -229.086
 355  -127.59
 356  325.3844
 357  376.3067
 358  280.1499
 359  54.24268
 360  181.9079
 361  -85.64438
 362  -52.57109
 363  324.4633
 364  407.2344
 365  482.5559
 366  230.4044
 367  245.1516
 368  151.6372
 369  579.2371
 370  439.8161
 371  281.472
 372  65.37509
 373  239.9397
 374  86.17499
 375  231.7017
 376  378.9304
 377  253.4435
 378  73.85799
 379  411.4868
 380  211.552
 381  275.0291
 382  222.418
 383  192.4479
 384  162.4865
 385  388.9766
 386  645.6514
 387  630.0854
 388  131.9222
 389  372.5306
 390  209.8868
 391  364.4762
 392  208.8254
 393  67.68672
 394  93.92539
 395  376.7802
 396  500.7187
 397  402.2518
 398  296.257
 399  471.0444
 400  438.0087
 401  91.34026
 402  242.939
 403  464.578
 404  420.8791
 405  420.8357
 406  376.6094
 407  529.2391
 408  313.4959
 409  591.2983
 410  609.6668
 411  64.88965
 412  109.3925
 413  430.0522
 414  424.4565
 415  477.5141
 416  592.2302
 417  517.6509
 418  529.4387
 419  637.7252
 420  743.6092
 421  753.9702
 422  698.24
 423  895.233
 424  1308.564
 425  1666.811
 426  1751.433
 427  2147.1
 428  1946.803
 429  1652.359
 430  1278.146
 431  736.3766
 432  338.6528
 433  470.7338
 434  201.348
 435  329.5647
 436  23.12518
 437  462.5593
 438  771.3486
 439  1017.814
 440  1103.961
 441  531.3624
 442  853.5714
 443  742.614
 444  604.1733
 445  333.6566
 446  289.3135
 447  475.534
 448  453.3949
 449  552.812
 450  454.5025
 451  268.4582
 452  480.501
 453  177.629
 454  364.27
 455  670.8889
 456  303.3231
 457  369.4465
 458  788.3109
 459  835.3425
 460  629.2922
 461  137.3315
 462  -104.0867
 463  108.736
 464  333.3837
 465  425.1973
 466  228.1108
 467  381.1779
 468  163.3903
 469  4.691499
 470  332.9613
 471  247.594
 472  254.0775
 473  365.3398
 474  289.7636
 475  306.3965
 476  384.346
 477  202.5856
 478  81.95649
 479  -78.72581
 480  532.4921
 481  503.1358
 482  657.1434
 483  651.4719
 484  283.6162
 485  448.6367
 486  196.6364
 487  338.8576
 488  484.4103
 489  165.2094
 490  195.9566
 491  419.4322
 492  455.6673
 493  398.1833
 494  415.0709
 495  391.9168
 496  686.2127
 497  599.1942
 498  709.2048
 499  373.2148
 500  545.075
 501  506.392
 502  428.6586
 503  284.1649
 504  462.4414
 505  258.9163
 506  -19.66659
 507  223.6163
 508  418.2613
 509  263.6091
 510  45.16723
 511  54.24536
