# Input file       =  1190582619.116545_cleaned.dat
# Candidate        =  PSR_0332+5434
# Telescope        =  AR
# Epoch_topo       =  58023.891644867421
# Epoch_bary       =  N/A
# T_sample         =  0.002
# Data Folded      =  7340032
# Data Avg         =  0.0109285406718787
# Data StdDev      =  1.00007150301202 
# Profile Bins     =  512
# Profile Avg      =  156.414917686557 
# Profile StdDev   =  119.741597649506 
# Reduced chi-sqr  =  2.192
# Prob(Noise)      <  1.46e-47   (~14.4 sigma)
# P_topo (ms)      =  714.47092647641   +/- 0.000182
# P'_topo (s/s)    =  -0                +/- 9.63e-11
# P''_topo (s/s^2) =  0                 +/- 4.25e-14
# P_bary (ms)      =  N/A
# P'_bary (s/s)    =  N/A
# P''_bary (s/s^2) =  N/A
# P_orb (s)        =  N/A
# asin(i)/c (s)    =  N/A
# eccentricity     =  N/A
# w (rad)          =  N/A
# T_peri           =  N/A
######################################################
   0  1209.046
   1  960.4871
   2  571.8358
   3  414.7232
   4  146.8253
   5  69.88944
   6  100.6903
   7  241.3345
   8  193.6086
   9  362.935
  10  339.661
  11  309.1313
  12  312.246
  13  288.0833
  14  345.326
  15  338.3362
  16  235.3042
  17  184.8712
  18  185.4626
  19  174.6162
  20  147.8778
  21  104.8259
  22  191.3275
  23  254.5169
  24  292.2387
  25  371.1157
  26  138.7399
  27  86.78027
  28  164.9493
  29  229.3698
  30  169.0618
  31  55.02544
  32  24.81761
  33  69.4397
  34  242.8172
  35  185.8117
  36  28.06532
  37  134.497
  38  257.0652
  39  143.5846
  40  117.2559
  41  183.5435
  42  77.87782
  43  96.5247
  44  210.2043
  45  69.14703
  46  92.81264
  47  160.3529
  48  106.7371
  49  52.47503
  50  142.698
  51  130.2157
  52  104.6255
  53  160.3827
  54  45.80544
  55  79.50587
  56  11.13105
  57  152.022
  58  244.7402
  59  111.4035
  60  -54.52266
  61  48.02571
  62  80.60561
  63  121.3475
  64  129.5833
  65  103.8183
  66  166.5215
  67  246.9374
  68  91.8726
  69  61.06934
  70  158.5091
  71  193.6389
  72  154.4716
  73  250.6139
  74  198.8262
  75  198.035
  76  174.6916
  77  202.3428
  78  187.4778
  79  218.5715
  80  164.6741
  81  82.72373
  82  75.03428
  83  20.92416
  84  136.4225
  85  163.5616
  86  156.5798
  87  106.0639
  88  133.5681
  89  68.48413
  90  126.0207
  91  113.104
  92  133.076
  93  131.1011
  94  129.0376
  95  72.04585
  96  94.58445
  97  164.4033
  98  164.1784
  99  133.1729
 100  197.402
 101  95.96688
 102  40.17265
 103  106.3377
 104  95.18163
 105  239.7385
 106  304.9319
 107  164.5332
 108  102.2398
 109  60.52852
 110  23.42089
 111  -51.3847
 112  209.5439
 113  279.6667
 114  286.6966
 115  245.2372
 116  169.3995
 117  132.6932
 118  135.787
 119  275.5804
 120  243.3279
 121  125.3954
 122  77.55491
 123  149.4032
 124  37.45162
 125  68.44241
 126  97.61045
 127  58.97537
 128  29.42123
 129  114.1274
 130  52.48306
 131  130.0918
 132  237.4866
 133  127.8229
 134  84.21873
 135  221.2278
 136  180.9859
 137  131.4147
 138  53.45372
 139  -20.69853
 140  46.33007
 141  82.1432
 142  114.5258
 143  -19.30508
 144  15.74773
 145  117.8805
 146  80.12634
 147  -87.0493
 148  -110.409
 149  67.7728
 150  43.65096
 151  -12.90635
 152  47.74746
 153  79.25357
 154  115.8721
 155  89.57304
 156  93.09121
 157  13.86389
 158  -114.5247
 159  88.75419
 160  45.03354
 161  92.83688
 162  155.0357
 163  -45.20981
 164  100.8569
 165  146.0037
 166  169.3877
 167  80.53787
 168  181.8214
 169  180.0383
 170  168.4531
 171  206.8054
 172  167.8668
 173  148.01
 174  186.0311
 175  214.4212
 176  191.533
 177  147.0441
 178  40.52554
 179  20.86614
 180  65.14227
 181  68.03083
 182  -16.55835
 183  8.252002
 184  88.7936
 185  167.5836
 186  225.012
 187  222.4333
 188  213.844
 189  121.9788
 190  173.3551
 191  125.3196
 192  155.1226
 193  149.5125
 194  121.4365
 195  71.41523
 196  102.5822
 197  31.4744
 198  195.296
 199  147.6937
 200  86.72942
 201  98.80726
 202  112.4717
 203  111.2549
 204  76.50754
 205  94.2401
 206  171.0423
 207  112.5505
 208  181.6536
 209  260.8225
 210  181.8931
 211  51.67017
 212  206.4865
 213  116.6862
 214  -24.13816
 215  76.9133
 216  222.0133
 217  193.3555
 218  138.5493
 219  192.1877
 220  164.7634
 221  220.9149
 222  182.3119
 223  146.9745
 224  62.80162
 225  134.3067
 226  207.5792
 227  157.1564
 228  151.4358
 229  156.676
 230  150.1739
 231  57.97119
 232  -115.9167
 233  18.37317
 234  188.7949
 235  84.82638
 236  155.5392
 237  74.08859
 238  99.50684
 239  198.7152
 240  178.19
 241  129.7782
 242  242.1453
 243  186.9435
 244  129.08
 245  99.81673
 246  140.0206
 247  208.2116
 248  135.4116
 249  169.469
 250  177.0777
 251  47.16891
 252  61.85752
 253  64.62192
 254  18.95742
 255  28.18658
 256  110.0146
 257  214.822
 258  136.1328
 259  181.4866
 260  109.5462
 261  209.6972
 262  247.1723
 263  294.1623
 264  255.0915
 265  203.1205
 266  123.5678
 267  -31.44933
 268  91.52841
 269  188.4788
 270  83.13631
 271  54.88876
 272  224.5619
 273  340.4835
 274  154.275
 275  159.4837
 276  371.2763
 277  291.6591
 278  228.1528
 279  254.9354
 280  310.9877
 281  294.3153
 282  221.168
 283  221.4378
 284  269.1343
 285  157.0509
 286  297.7137
 287  384.0182
 288  160.0122
 289  117.6474
 290  216.1264
 291  319.4558
 292  385.3234
 293  317.2676
 294  109.3814
 295  174.9362
 296  192.606
 297  88.33992
 298  165.8483
 299  101.4983
 300  144.7659
 301  90.69104
 302  116.1938
 303  224.011
 304  301.8813
 305  214.7359
 306  197.0669
 307  289.9053
 308  164.8127
 309  147.1194
 310  -57.7816
 311  47.56054
 312  21.52135
 313  58.4579
 314  100.5619
 315  10.28828
 316  147.5482
 317  211.2968
 318  202.2693
 319  248.963
 320  360.6365
 321  318.6072
 322  168.5232
 323  106.3789
 324  231.3149
 325  219.5461
 326  308.6223
 327  265.5269
 328  221.4479
 329  211.925
 330  196.3113
 331  22.40141
 332  131.378
 333  120.5111
 334  -1.954506
 335  136.5707
 336  183.6191
 337  105.2064
 338  26.165
 339  92.96301
 340  73.09358
 341  163.7734
 342  65.99414
 343  108.7368
 344  273.3251
 345  223.3663
 346  65.97858
 347  -15.9128
 348  92.31944
 349  153.8371
 350  117.2366
 351  -43.79991
 352  93.02981
 353  220.1782
 354  110.2191
 355  88.2058
 356  144.5276
 357  272.8594
 358  153.2583
 359  37.36494
 360  55.62645
 361  134.7652
 362  166.9598
 363  113.6171
 364  187.2044
 365  7.161539
 366  58.09976
 367  102.3551
 368  202.2895
 369  222.1854
 370  182.3625
 371  244.6408
 372  293.7545
 373  280.9302
 374  275.9218
 375  172.4364
 376  174.113
 377  128.9802
 378  121.0834
 379  187.6681
 380  175.5757
 381  105.7806
 382  87.10013
 383  45.43796
 384  96.32478
 385  11.95269
 386  62.15017
 387  114.3324
 388  160.2771
 389  149.9268
 390  125.5509
 391  -24.79703
 392  121.9476
 393  51.05695
 394  103.9478
 395  147.9729
 396  320.649
 397  276.6745
 398  190.7336
 399  209.8911
 400  246.2774
 401  223.1653
 402  213.6188
 403  187.0672
 404  208.6354
 405  134.2754
 406  -87.43467
 407  -147.4952
 408  -53.74422
 409  -2.223108
 410  158.5852
 411  137.9572
 412  215.7794
 413  86.85367
 414  211.2494
 415  246.1679
 416  182.7474
 417  114.2193
 418  227.3643
 419  137.4632
 420  108.4107
 421  101.7949
 422  94.82308
 423  142.1981
 424  79.97941
 425  177.9995
 426  197.8422
 427  229.8344
 428  192.2156
 429  128.5362
 430  101.1996
 431  106.2862
 432  62.8
 433  86.06203
 434  151.7204
 435  119.9526
 436  117.5945
 437  112.1354
 438  132.4845
 439  223.2209
 440  257.4907
 441  158.4998
 442  97.14139
 443  33.7452
 444  149.0585
 445  130.7222
 446  106.5412
 447  15.45715
 448  204.1937
 449  151.6839
 450  99.23261
 451  62.00131
 452  81.03359
 453  198.9094
 454  170.2528
 455  220.73
 456  222.2658
 457  220.8154
 458  128.7611
 459  68.22516
 460  59.09712
 461  100.2861
 462  147.7904
 463  84.15392
 464  261.1982
 465  202.4261
 466  137.1953
 467  86.43388
 468  148.0702
 469  332.9325
 470  193.6079
 471  35.81143
 472  141.2662
 473  170.2917
 474  171.6421
 475  106.7849
 476  135.1571
 477  287.1508
 478  169.6313
 479  102.6023
 480  152.585
 481  122.3414
 482  227.3003
 483  292.3701
 484  228.0989
 485  195.2048
 486  45.13089
 487  -29.1161
 488  105.9398
 489  204.4008
 490  150.2524
 491  220.2888
 492  231.8841
 493  223.2583
 494  151.8311
 495  115.5807
 496  152.4342
 497  150.1976
 498  101.5475
 499  198.8212
 500  190.0232
 501  181.9296
 502  160.6017
 503  247.9048
 504  245.3341
 505  259.3423
 506  489.6982
 507  623.2913
 508  586.8895
 509  725.5549
 510  1001.063
 511  1219.996
