# Input file       =  1191811690.126897_cleaned.dat
# Candidate        =  PSR_0332+5434
# Telescope        =  AR
# Epoch_topo       =  58038.117003783533
# Epoch_bary       =  N/A
# T_sample         =  0.002
# Data Folded      =  7340032
# Data Avg         =  0.05311458012771 
# Data StdDev      =  2.9728423031339  
# Profile Bins     =  512
# Profile Avg      =  761.430229728347 
# Profile StdDev   =  355.94743562352  
# Reduced chi-sqr  =  1.514
# Prob(Noise)      <  4.54e-13   (~7.1 sigma)
# P_topo (ms)      =  714.479822246949  +/- 2.71e-05
# P'_topo (s/s)    =  -0                +/- 1.43e-11
# P''_topo (s/s^2) =  0                 +/- 6.32e-15
# P_bary (ms)      =  N/A
# P'_bary (s/s)    =  N/A
# P''_bary (s/s^2) =  N/A
# P_orb (s)        =  N/A
# asin(i)/c (s)    =  N/A
# eccentricity     =  N/A
# w (rad)          =  N/A
# T_peri           =  N/A
######################################################
   0  568.8315
   1  1019.777
   2  316.7084
   3  386.2433
   4  597.3678
   5  1258.31
   6  836.9171
   7  635.2189
   8  808.0744
   9  1267.121
  10  670.3272
  11  329.8854
  12  348.0409
  13  746.5162
  14  186.3883
  15  520.5434
  16  594.5833
  17  689.2859
  18  445.4995
  19  667.3735
  20  429.1363
  21  562.4865
  22  793.597
  23  877.5635
  24  1122.26
  25  955.2566
  26  887.2446
  27  885.5155
  28  694.4662
  29  636.3178
  30  816.2574
  31  806.6996
  32  328.6578
  33  631.5626
  34  650.972
  35  815.3625
  36  671.5342
  37  885.8056
  38  793.5128
  39  458.8275
  40  410.7204
  41  983.6125
  42  623.421
  43  686.4924
  44  616.4166
  45  520.833
  46  424.2247
  47  529.7228
  48  833.0817
  49  619.3882
  50  498.0118
  51  489.3076
  52  1003.008
  53  1126.052
  54  659.2181
  55  554.9025
  56  682.1909
  57  686.9995
  58  897.6823
  59  1187.972
  60  803.1854
  61  759.0082
  62  854.8104
  63  1331.917
  64  873.3752
  65  757.7812
  66  940.6153
  67  521.439
  68  972.6029
  69  868.9849
  70  690.3781
  71  681.0884
  72  568.9917
  73  379.2155
  74  577.6835
  75  676.2067
  76  945.2364
  77  460.8937
  78  523.0883
  79  673.5947
  80  622.4979
  81  607.8035
  82  725.8623
  83  703.0112
  84  648.8621
  85  222.357
  86  489.9108
  87  502.9761
  88  897.6176
  89  395.8641
  90  842.0021
  91  717.5361
  92  1123.303
  93  1095.678
  94  1042.642
  95  855.5754
  96  905.1271
  97  475.3043
  98  983.0701
  99  818.3159
 100  1038.015
 101  960.3993
 102  1053.796
 103  445.8307
 104  346.5242
 105  545.6064
 106  702.7542
 107  394.807
 108  720.9557
 109  397.8994
 110  597.8647
 111  482.6939
 112  986.8184
 113  561.1426
 114  639.4164
 115  874.6689
 116  1072.837
 117  552.1831
 118  623.3392
 119  670.7322
 120  664.5408
 121  581.3629
 122  998.2578
 123  1024.129
 124  988.3514
 125  871.2634
 126  1134.71
 127  693.8735
 128  793.4515
 129  732.0848
 130  836.9926
 131  345.0068
 132  510.6338
 133  852.3081
 134  1002.036
 135  759.4705
 136  730.5136
 137  809.6272
 138  715.0731
 139  804.5375
 140  575.5372
 141  1048.516
 142  963.899
 143  859.3425
 144  1130.402
 145  766.8911
 146  693.1684
 147  476.9923
 148  629.9521
 149  1081.079
 150  508.3274
 151  435.5903
 152  532.0101
 153  596.6368
 154  586.6414
 155  875.7938
 156  527.6271
 157  406.2282
 158  585.5776
 159  836.9637
 160  280.4759
 161  155.3314
 162  457.7826
 163  698.7245
 164  462.7445
 165  1106.137
 166  902.9386
 167  811.8483
 168  516.6348
 169  909.3661
 170  749.699
 171  827.803
 172  737.7933
 173  612.7831
 174  282.3362
 175  532.6956
 176  991.5222
 177  1227.801
 178  627.6071
 179  708.6642
 180  419.2115
 181  702.825
 182  878.8542
 183  852.6443
 184  695.5074
 185  1246.573
 186  453.1695
 187  505.719
 188  355.8414
 189  550.2277
 190  549.4381
 191  959.0078
 192  966.4543
 193  1020.474
 194  720.0448
 195  775.2459
 196  353.2244
 197  599.0981
 198  786.981
 199  539.6852
 200  636.4413
 201  964.0044
 202  741.4242
 203  1006.425
 204  628.728
 205  710.1832
 206  816.72
 207  807.2668
 208  768.0455
 209  982.4118
 210  654.0661
 211  415.4615
 212  499.7579
 213  795.576
 214  695.4476
 215  843.5551
 216  766.6614
 217  985.6156
 218  1105.197
 219  914.3514
 220  486.4539
 221  737.8604
 222  707.6287
 223  941.6509
 224  988.5542
 225  909.4597
 226  856.5465
 227  373.6913
 228  583.4108
 229  879.0092
 230  822.6894
 231  586.8951
 232  366.3977
 233  530.3759
 234  940.209
 235  681.98
 236  894.7922
 237  715.8198
 238  510.3876
 239  786.4442
 240  1033.896
 241  769.6025
 242  740.4968
 243  837.4836
 244  870.693
 245  709.7487
 246  650.2182
 247  540.0919
 248  1207.217
 249  652.4736
 250  400.9367
 251  379.1499
 252  959.6784
 253  739.962
 254  613.2902
 255  598.5927
 256  1106.466
 257  575.3193
 258  506.5909
 259  201.3166
 260  496.5375
 261  509.0597
 262  880.2167
 263  739.4597
 264  430.5655
 265  336.7651
 266  600.2598
 267  655.6971
 268  1056.044
 269  862.8107
 270  1199.485
 271  737.8745
 272  1002.366
 273  701.6874
 274  490.0675
 275  49.34053
 276  758.863
 277  992.3257
 278  980.8718
 279  729.8261
 280  1089.531
 281  715.6881
 282  978.4501
 283  795.783
 284  780.8725
 285  629.8212
 286  543.9373
 287  368.1706
 288  763.0366
 289  433.948
 290  687.8835
 291  559.6462
 292  299.742
 293  447.347
 294  1035.657
 295  1018.22
 296  749.093
 297  559.6428
 298  803.9611
 299  960.2863
 300  1359.044
 301  874.0582
 302  993.2689
 303  730.7417
 304  416.7873
 305  205.2283
 306  747.8201
 307  646.3042
 308  778.1398
 309  698.7733
 310  1114.137
 311  1014.236
 312  1081.53
 313  941.819
 314  928.849
 315  946.4797
 316  698.9329
 317  690.9583
 318  743.7561
 319  628.544
 320  906.266
 321  841.5139
 322  655.3312
 323  611.7851
 324  266.4253
 325  228.0659
 326  575.4323
 327  1035.612
 328  976.5995
 329  1139.552
 330  828.87
 331  1035.223
 332  396.2684
 333  628.6512
 334  1040.601
 335  1130.17
 336  1005.831
 337  1350.835
 338  908.9672
 339  792.4
 340  732.2667
 341  1079.51
 342  1043.046
 343  992.5275
 344  777.5446
 345  1179.811
 346  949.8744
 347  1213.045
 348  1078.469
 349  1154.937
 350  917.8938
 351  1069.632
 352  1346.493
 353  1520.353
 354  1515.862
 355  2614.146
 356  2893.631
 357  3240.031
 358  2714.478
 359  2334.559
 360  1636.087
 361  1244.655
 362  898.0244
 363  1212.19
 364  896.9493
 365  953.0909
 366  1013.254
 367  1092.437
 368  560.381
 369  451.4877
 370  699.2408
 371  1296.382
 372  1094
 373  1120.282
 374  1016.281
 375  777.5658
 376  811.6237
 377  1117.337
 378  967.4849
 379  868.0178
 380  697.6293
 381  1021.616
 382  748.7975
 383  1067.716
 384  835.6838
 385  617.2139
 386  826.4783
 387  694.8574
 388  933.2761
 389  1066.119
 390  658.637
 391  928.1127
 392  664.1227
 393  403.3808
 394  608.3785
 395  1038.461
 396  965.076
 397  539.1561
 398  647.7556
 399  1088.485
 400  828.7546
 401  733.66
 402  983.336
 403  1156.729
 404  749.9408
 405  490.975
 406  1206.931
 407  867.4478
 408  870.0941
 409  931.6757
 410  970.0306
 411  801.4587
 412  650.6309
 413  854.6079
 414  668.9338
 415  460.9091
 416  716.3699
 417  848.8297
 418  578.4959
 419  457.9032
 420  873.6495
 421  549.1279
 422  525.8205
 423  607.4315
 424  656.6509
 425  520.386
 426  337.2857
 427  590.0744
 428  1014.683
 429  640.2727
 430  728.0294
 431  863.0879
 432  968.2133
 433  1045.467
 434  1045.382
 435  618.0487
 436  648.8828
 437  562.2197
 438  471.8604
 439  505.1752
 440  490.3926
 441  641.4751
 442  924.1331
 443  724.8781
 444  1062.609
 445  791.8825
 446  703.6864
 447  288.3155
 448  664.7491
 449  824.289
 450  906.0974
 451  815.1021
 452  634.7822
 453  522.6702
 454  877.0264
 455  662.4509
 456  989.4247
 457  375.3316
 458  554.2661
 459  598.9858
 460  1029.409
 461  610.2429
 462  889.5611
 463  884.4501
 464  732.3636
 465  281.5887
 466  783.2304
 467  596.6052
 468  524.0322
 469  312.7015
 470  997.5759
 471  684.4429
 472  229.023
 473  476.2556
 474  830.9875
 475  671.0138
 476  584.2083
 477  783.9571
 478  919.0807
 479  439.9624
 480  301.8296
 481  529.5258
 482  683.7007
 483  596.9661
 484  747.6927
 485  755.7168
 486  749.0472
 487  693.403
 488  918.954
 489  547.7466
 490  605.0034
 491  723.3448
 492  784.1801
 493  821.5497
 494  529.5302
 495  603.0562
 496  570.5444
 497  488.3015
 498  525.9196
 499  684.4315
 500  612.2654
 501  887.6143
 502  1073.979
 503  976.8156
 504  727.4861
 505  563.5578
 506  320.7699
 507  384.4648
 508  92.06474
 509  324.3212
 510  109.8547
 511  375.3172
