# Input file       =  1191107527.118443_cleaned.dat
# Candidate        =  PSR_0332+5434
# Telescope        =  AR
# Epoch_topo       =  58029.966968963461
# Epoch_bary       =  N/A
# T_sample         =  0.002
# Data Folded      =  7340032
# Data Avg         =  0.0327189842033217
# Data StdDev      =  2.47986051059781 
# Profile Bins     =  1024
# Profile Avg      =  233.992936280751 
# Profile StdDev   =  209.955014309487 
# Reduced chi-sqr  =  1.367
# Prob(Noise)      <  3.81e-14   (~7.5 sigma)
# P_topo (ms)      =  714.474285258358  +/- 0.000221
# P'_topo (s/s)    =  -0                +/- 1.17e-10
# P''_topo (s/s^2) =  0                 +/- 5.15e-14
# P_bary (ms)      =  N/A
# P'_bary (s/s)    =  N/A
# P''_bary (s/s^2) =  N/A
# P_orb (s)        =  N/A
# asin(i)/c (s)    =  N/A
# eccentricity     =  N/A
# w (rad)          =  N/A
# T_peri           =  N/A
######################################################
   0  390.9895
   1  404.065
   2  387.7464
   3  286.24
   4  287.601
   5  319.0651
   6  376.9267
   7  281.4896
   8  238.3085
   9  249.9121
  10  385.4957
  11  391.5999
  12  306.2628
  13  131.5352
  14  75.17628
  15  99.62878
  16  125.1465
  17  170.6074
  18  181.849
  19  266.0364
  20  287.33
  21  324.4435
  22  398.2386
  23  322.6427
  24  340.8022
  25  235.7847
  26  337.651
  27  292.87
  28  324.0359
  29  236.2489
  30  299.619
  31  284.1646
  32  311.0654
  33  326.4116
  34  486.0489
  35  549.5315
  36  477.6672
  37  466.1926
  38  376.1612
  39  372.8202
  40  277.5752
  41  240.4344
  42  133.1899
  43  114.3671
  44  124.4044
  45  128.0983
  46  96.38535
  47  172.9183
  48  199.5774
  49  221.7771
  50  114.4792
  51  55.87093
  52  84.67107
  53  189.6711
  54  262.442
  55  290.8394
  56  233.2065
  57  241.9069
  58  171.5863
  59  337.5412
  60  402.5334
  61  432.5467
  62  369.4317
  63  434.9597
  64  462.5911
  65  336.6533
  66  190.8669
  67  97.36705
  68  144.5392
  69  108.8729
  70  183.1276
  71  194.1315
  72  264.5122
  73  265.4901
  74  384.5381
  75  397.8843
  76  327.943
  77  192.1394
  78  252.6998
  79  400.7231
  80  512.2535
  81  537.0897
  82  552.4988
  83  494.6339
  84  383.2408
  85  268.7823
  86  322.9265
  87  266.7036
  88  197.4275
  89  181.362
  90  338.8598
  91  432.1608
  92  364.1973
  93  159.4407
  94  -7.205705
  95  -32.3711
  96  95.65282
  97  163.5212
  98  238.9115
  99  156.6078
 100  142.7872
 101  160.8361
 102  322.5539
 103  369.3932
 104  259.2647
 105  160.7084
 106  120.8147
 107  187.8164
 108  196.7175
 109  253.6482
 110  329.8211
 111  358.4218
 112  311.0605
 113  234.4677
 114  239.698
 115  215.0916
 116  214.1297
 117  126.3492
 118  63.29502
 119  99.43471
 120  164.3336
 121  307.2845
 122  248.2433
 123  242.3086
 124  218.7648
 125  103.6342
 126  127.0273
 127  203.2082
 128  231.3025
 129  108.0801
 130  2.094065
 131  87.30959
 132  135.9296
 133  140.1027
 134  132.5408
 135  200.5036
 136  219.7282
 137  172.5456
 138  201.3658
 139  133.3126
 140  100.9131
 141  36.71974
 142  247.852
 143  298.829
 144  293.1188
 145  224.253
 146  197.2163
 147  170.1184
 148  159.114
 149  138.2455
 150  52.68653
 151  78.01352
 152  248.5591
 153  327.2792
 154  334.9962
 155  208.1491
 156  165.0847
 157  121.6025
 158  78.65234
 159  35.53216
 160  75.76525
 161  183.0679
 162  232.0996
 163  250.2664
 164  236.3536
 165  175.1883
 166  128.1678
 167  140.6461
 168  151.3412
 169  117.3107
 170  123.983
 171  159.5087
 172  176.4386
 173  154.6335
 174  197.509
 175  335.222
 176  370.5674
 177  317.5461
 178  174.5741
 179  125.9533
 180  100.4538
 181  115.6857
 182  190.9132
 183  240.1182
 184  274.7225
 185  287.9602
 186  405.4325
 187  384.5575
 188  349.5193
 189  226.4976
 190  250.3619
 191  175.0602
 192  138.4089
 193  199.7865
 194  254.9297
 195  226.9143
 196  171.889
 197  164.2947
 198  268.7294
 199  253.5961
 200  294.7581
 201  232.511
 202  300.2794
 203  285.31
 204  258.0932
 205  194.8078
 206  169.547
 207  309.0604
 208  389.4857
 209  368.9786
 210  317.1528
 211  290.251
 212  280.6747
 213  245.757
 214  189.0566
 215  219.0668
 216  143.3189
 217  108.8404
 218  79.62913
 219  93.48283
 220  165.871
 221  256.1312
 222  285.3796
 223  160.6766
 224  163.8589
 225  242.8065
 226  323.9522
 227  308.1763
 228  156.8463
 229  87.40434
 230  -6.1596
 231  60.57106
 232  120.5184
 233  173.6897
 234  215.5109
 235  178.8129
 236  172.3634
 237  150.7301
 238  181.5112
 239  157.9203
 240  73.79317
 241  -85.2849
 242  -55.3058
 243  69.15282
 244  257.7081
 245  310.8052
 246  464.0756
 247  393.1292
 248  387.6481
 249  353.5882
 250  402.6575
 251  296.8004
 252  83.39013
 253  168.7823
 254  206.2213
 255  326.8462
 256  192.1385
 257  151.6466
 258  39.87936
 259  158.8542
 260  237.2932
 261  264.9716
 262  203.6336
 263  240.9613
 264  312.1725
 265  246.8132
 266  171.9438
 267  153.9263
 268  272.3311
 269  337.7555
 270  353.3485
 271  241.0176
 272  50.33052
 273  -88.24527
 274  -69.63056
 275  125.2357
 276  369.6458
 277  414.0683
 278  353.0139
 279  217.3153
 280  203.481
 281  149.091
 282  185.1985
 283  276.283
 284  234.4022
 285  399.1417
 286  412.1907
 287  350.368
 288  139.8392
 289  67.16834
 290  378.4459
 291  387.7392
 292  408.5363
 293  258.9115
 294  252.4904
 295  119.9707
 296  65.96966
 297  123.2086
 298  152.0363
 299  167.1495
 300  157.2929
 301  198.7773
 302  215.8863
 303  236.8268
 304  254.5252
 305  168.7283
 306  127.9136
 307  162.3574
 308  140.6395
 309  59.66856
 310  39.51608
 311  151.0234
 312  238.7764
 313  114.0693
 314  84.17982
 315  144.8036
 316  209.9102
 317  167.1101
 318  119.8191
 319  174.1827
 320  158.0501
 321  163.0624
 322  78.7364
 323  120.8322
 324  189.6142
 325  302.1168
 326  290.4675
 327  177.7147
 328  132.3004
 329  131.4055
 330  123.5294
 331  155.8837
 332  139.7555
 333  289.5721
 334  309.4422
 335  271.1817
 336  136.1136
 337  289.8243
 338  381.2347
 339  338.2467
 340  157.8253
 341  148.3826
 342  48.72434
 343  -26.5756
 344  -42.35441
 345  114.4434
 346  86.58617
 347  118.9629
 348  85.32975
 349  109.1425
 350  169.2263
 351  252.6747
 352  303.3761
 353  309.3531
 354  234.187
 355  256.0481
 356  236.5127
 357  352.6031
 358  395.7358
 359  353.9675
 360  261.5674
 361  157.2305
 362  64.42525
 363  12.86874
 364  -46.50674
 365  37.97232
 366  24.38366
 367  4.898173
 368  -93.8083
 369  10.48508
 370  149.8559
 371  199.8505
 372  170.4755
 373  80.84791
 374  145.7025
 375  142.9195
 376  137.1926
 377  38.96371
 378  43.37918
 379  129.4897
 380  200.7791
 381  175.1937
 382  93.94014
 383  29.56504
 384  129.7007
 385  184.6848
 386  231.9429
 387  313.9292
 388  459.5237
 389  491.0178
 390  368.63
 391  214.3698
 392  156.0751
 393  222.4004
 394  198.7416
 395  192.4516
 396  171.9995
 397  179.8269
 398  175.1787
 399  172.838
 400  265.2205
 401  302.2202
 402  299.1597
 403  218.1778
 404  180.5767
 405  76.60789
 406  23.34601
 407  -35.6999
 408  71.15899
 409  146.8233
 410  289.5505
 411  249.0015
 412  191.2544
 413  157.4517
 414  45.48083
 415  134.1945
 416  162.6181
 417  275.2762
 418  238.4499
 419  190.6549
 420  197.4808
 421  332.4293
 422  273.9357
 423  122.2206
 424  -36.00255
 425  152.9396
 426  242.7543
 427  232.5063
 428  136.2561
 429  83.1614
 430  75.86569
 431  142.4219
 432  307.4256
 433  344.4391
 434  328.9226
 435  357.575
 436  428.8761
 437  388.7405
 438  347.3961
 439  274.0343
 440  131.1325
 441  119.4968
 442  146.6062
 443  201.0332
 444  246.2692
 445  354.3045
 446  465.2126
 447  322.9727
 448  157.8829
 449  134.9097
 450  191.346
 451  226.4463
 452  168.2214
 453  201.6794
 454  284.3488
 455  416.5027
 456  402.4333
 457  363.1467
 458  317.2335
 459  343.3682
 460  325.1436
 461  340.2039
 462  207.7669
 463  126.3832
 464  83.3028
 465  165.3438
 466  276.7245
 467  332.5518
 468  404.54
 469  310.7146
 470  291.0216
 471  264.1806
 472  256.3936
 473  314.5036
 474  391.1387
 475  368.2887
 476  332.2026
 477  220.5366
 478  180.1542
 479  166.6361
 480  286.1616
 481  287.5312
 482  268.7917
 483  150.5936
 484  194.3844
 485  134.4084
 486  109.4744
 487  173.1535
 488  165.6959
 489  196.5748
 490  39.84653
 491  18.93444
 492  3.713423
 493  -25.69685
 494  51.6741
 495  152.0212
 496  236.3278
 497  165.0697
 498  177.8025
 499  214.4283
 500  253.613
 501  264.2377
 502  257.2836
 503  272.6163
 504  157.9049
 505  145.8377
 506  151.8557
 507  58.6374
 508  97.95431
 509  53.77906
 510  158.1308
 511  48.10835
 512  121.5579
 513  161.5953
 514  263.4531
 515  267.3653
 516  324.4261
 517  345.3397
 518  314.1772
 519  280.5892
 520  200.6272
 521  224.7895
 522  218.0945
 523  227.3809
 524  251.0882
 525  292.7727
 526  424.7394
 527  440.2384
 528  284.6861
 529  134.9423
 530  118.6064
 531  195.786
 532  262.9227
 533  347.547
 534  434.5593
 535  316.9285
 536  232.1889
 537  195.0339
 538  200.11
 539  108.4976
 540  71.49479
 541  200.5244
 542  252.7361
 543  274.0458
 544  236.8448
 545  273.791
 546  245.8887
 547  110.6488
 548  34.94804
 549  5.782099
 550  60.83963
 551  96.28069
 552  68.2392
 553  70.98241
 554  199.261
 555  286.2567
 556  357.6493
 557  291.0074
 558  294.3038
 559  263.9018
 560  306.3171
 561  232.019
 562  242.5976
 563  224.4299
 564  288.9066
 565  278.4353
 566  309.7098
 567  378.8649
 568  335.8397
 569  213.2668
 570  211.1198
 571  257.7234
 572  285.6712
 573  220.8436
 574  245.9588
 575  273.8015
 576  230.674
 577  235.4275
 578  146.6168
 579  184.9845
 580  372.9162
 581  429.3171
 582  302.1625
 583  69.02924
 584  218.2249
 585  323.8997
 586  348.3044
 587  326.9085
 588  302.7104
 589  317.1034
 590  368.0895
 591  458.4532
 592  455.5286
 593  267.6665
 594  124.3849
 595  83.11171
 596  103.1056
 597  234.8152
 598  274.7039
 599  278.1925
 600  214.7939
 601  183.5211
 602  379.3473
 603  413.8414
 604  474.2884
 605  361.3014
 606  302.5995
 607  202.4259
 608  131.4602
 609  61.8987
 610  105.0026
 611  87.74748
 612  204.4724
 613  260.1163
 614  416.2694
 615  363.894
 616  384.3438
 617  328.7313
 618  332.565
 619  244.4239
 620  152.4862
 621  169.9187
 622  241.9584
 623  270.0163
 624  294.6373
 625  342.5648
 626  415.7034
 627  402.9353
 628  321.6642
 629  409.9677
 630  491.5874
 631  521.5774
 632  567.1011
 633  702.0072
 634  913.8079
 635  1018.18
 636  1084.571
 637  1049.469
 638  1045.619
 639  1034.215
 640  1047.508
 641  1075.15
 642  1029.589
 643  842.3746
 644  683.8041
 645  581.0345
 646  458.1768
 647  310.1424
 648  211.5628
 649  264.9572
 650  298.9484
 651  266.7985
 652  237.5469
 653  135.2203
 654  93.30308
 655  69.02586
 656  62.56448
 657  75.25374
 658  114.2203
 659  196.859
 660  212.6779
 661  175.7533
 662  167.8793
 663  211.5863
 664  265.6459
 665  313.176
 666  284.6853
 667  307.2406
 668  345.5866
 669  376.0112
 670  397.4839
 671  316.0768
 672  310.9201
 673  232.8535
 674  315.2085
 675  240.1582
 676  250.9404
 677  164.8096
 678  217.8907
 679  214.2953
 680  212.7144
 681  324.2433
 682  378.9052
 683  458.3308
 684  345.9627
 685  297.9954
 686  180.6208
 687  194.6543
 688  270.9448
 689  364.2611
 690  362.4168
 691  279.099
 692  147.0177
 693  41.84668
 694  62.8398
 695  105.5282
 696  217.0286
 697  261.4841
 698  250.1283
 699  284.9298
 700  242.9839
 701  264.8529
 702  178.5824
 703  159.5208
 704  152.4499
 705  106.421
 706  62.02467
 707  75.12183
 708  75.49508
 709  214.3371
 710  258.5654
 711  316.4215
 712  246.3008
 713  188.692
 714  201.9687
 715  283.5463
 716  324.0096
 717  367.95
 718  295.4866
 719  251.0013
 720  192.4469
 721  208.954
 722  251.7799
 723  249.4648
 724  274.3385
 725  254.6148
 726  287.5706
 727  180.5045
 728  116.3168
 729  61.52226
 730  -1.248522
 731  1.099793
 732  14.6012
 733  158.4241
 734  202.0477
 735  310.4154
 736  300.3716
 737  320.5912
 738  219.7459
 739  276.5513
 740  249.1782
 741  250.639
 742  221.7902
 743  134.1538
 744  177.6258
 745  225.2337
 746  309.4586
 747  291.6913
 748  342.3576
 749  338.1676
 750  270.4603
 751  232.5995
 752  222.1169
 753  314.3065
 754  330.4071
 755  382.2206
 756  321.2175
 757  228.0548
 758  162.6218
 759  147.0405
 760  98.92294
 761  146.506
 762  175.2881
 763  244.5546
 764  259.7003
 765  295.6714
 766  297.0828
 767  328.5845
 768  214.7973
 769  170.5182
 770  141.2443
 771  212.0644
 772  249.1893
 773  116.7985
 774  20.34747
 775  -18.93076
 776  163.2924
 777  210.1755
 778  232.5195
 779  13.69319
 780  21.89447
 781  72.38326
 782  226.9436
 783  316.8423
 784  247.5229
 785  214.6208
 786  126.2844
 787  55.25385
 788  59.53321
 789  95.24623
 790  231.4716
 791  165.5322
 792  126.3719
 793  193.1644
 794  308.5064
 795  291.6415
 796  230.7738
 797  124.1344
 798  144.8582
 799  173.9754
 800  262.9513
 801  315.8896
 802  367.1324
 803  374.3578
 804  331.7112
 805  148.8073
 806  107.378
 807  137.1492
 808  216.1883
 809  207.9453
 810  233.2438
 811  306.5369
 812  251.3278
 813  237.1971
 814  268.024
 815  356.936
 816  364.838
 817  351.167
 818  332.0692
 819  334.3879
 820  422.3651
 821  353.131
 822  223.4076
 823  135.8933
 824  155.5012
 825  325.2051
 826  298.5162
 827  322.9899
 828  325.3483
 829  364.0803
 830  267.175
 831  285.3291
 832  279.7932
 833  387.0591
 834  306.7331
 835  250.7356
 836  207.3141
 837  97.03424
 838  110.5283
 839  108.6271
 840  202.6926
 841  222.2156
 842  208.3883
 843  214.9285
 844  163.2343
 845  181.7597
 846  202.0717
 847  339.8907
 848  278.511
 849  193.1286
 850  182.3489
 851  232.6952
 852  287.8375
 853  320.8232
 854  289.4372
 855  316.2615
 856  220.8324
 857  273.624
 858  236.6949
 859  332.6233
 860  319.1251
 861  210.1956
 862  126.6527
 863  211.7291
 864  254.7813
 865  239.5712
 866  91.11572
 867  163.2915
 868  226.7995
 869  184.9783
 870  106.5998
 871  122.8539
 872  182.0799
 873  255.9303
 874  204.0887
 875  213.7326
 876  149.7555
 877  157.0897
 878  143.027
 879  193.4097
 880  238.7358
 881  385.0768
 882  306.3891
 883  133.717
 884  -71.93695
 885  -27.15907
 886  98.6211
 887  269.0794
 888  266.2376
 889  278.3362
 890  264.1544
 891  254.1593
 892  235.965
 893  250.9709
 894  271.9081
 895  275.7751
 896  381.9591
 897  407.7393
 898  286.7239
 899  49.66057
 900  -39.93236
 901  -12.08679
 902  138.4193
 903  175.3435
 904  211.3921
 905  138.7041
 906  101.7772
 907  72.71046
 908  202.266
 909  320.955
 910  233.9011
 911  149.7559
 912  144.2539
 913  181.1931
 914  250.305
 915  239.5453
 916  301.593
 917  231.5746
 918  129.3787
 919  150.6727
 920  224.2931
 921  347.5354
 922  364.2836
 923  342.5281
 924  228.42
 925  49.75903
 926  143.6375
 927  195.7737
 928  307.5833
 929  328.9715
 930  418.3882
 931  374.2819
 932  173.5245
 933  71.34679
 934  40.95204
 935  134.4457
 936  172.7265
 937  142.8114
 938  159.8672
 939  320.5828
 940  429.205
 941  484.4525
 942  272.0388
 943  195.4924
 944  211.3293
 945  339.773
 946  403.7132
 947  330.0377
 948  299.6347
 949  354.4693
 950  412.986
 951  380.9467
 952  257.7077
 953  140.8427
 954  213.4534
 955  270.2422
 956  236.4875
 957  86.14648
 958  94.30478
 959  90.8846
 960  102.5914
 961  76.45721
 962  119.8799
 963  182.8862
 964  176.1719
 965  280.9932
 966  268.8532
 967  277.1474
 968  232.6577
 969  204.9019
 970  224.5756
 971  267.4898
 972  285.7946
 973  301.2026
 974  260.844
 975  322.5943
 976  331.406
 977  338.0043
 978  232.1371
 979  222.2701
 980  139.8532
 981  78.24488
 982  8.729736
 983  30.89571
 984  162.1031
 985  222.9762
 986  300.8718
 987  217.5946
 988  148.7106
 989  187.7377
 990  272.5209
 991  219.4219
 992  186.3597
 993  211.9443
 994  293.2484
 995  310.9589
 996  299.1436
 997  208.9417
 998  89.74509
 999  65.91022
1000  104.0145
1001  193.9566
1002  200.3571
1003  244.903
1004  206.4304
1005  303.2137
1006  267.7034
1007  200.0138
1008  135.1445
1009  189.1334
1010  316.2426
1011  244.1051
1012  196.3614
1013  235.4522
1014  375.3093
1015  393.4076
1016  219.1151
1017  237.3611
1018  332.3039
1019  573.3483
1020  576.6404
1021  533.421
1022  357.0663
1023  303.7426
