# Input file       =  1191710613.127054_cleaned.dat
# Candidate        =  PSR_0332+5434
# Telescope        =  AR
# Epoch_topo       =  58036.947131100162
# Epoch_bary       =  N/A
# T_sample         =  0.002
# Data Folded      =  7340032
# Data Avg         =  0.0462245347703823
# Data StdDev      =  2.29042819246656 
# Profile Bins     =  512
# Profile Avg      =  663.196176973581 
# Profile StdDev   =  274.23992208697  
# Reduced chi-sqr  =  1.691
# Prob(Noise)      <  1.52e-20   (~9.2 sigma)
# P_topo (ms)      =  714.478685485119  +/- 0.000185
# P'_topo (s/s)    =  -0                +/- 9.74e-11
# P''_topo (s/s^2) =  0                 +/- 4.3e-14
# P_bary (ms)      =  N/A
# P'_bary (s/s)    =  N/A
# P''_bary (s/s^2) =  N/A
# P_orb (s)        =  N/A
# asin(i)/c (s)    =  N/A
# eccentricity     =  N/A
# w (rad)          =  N/A
# T_peri           =  N/A
######################################################
   0  395.018
   1  645.42
   2  628.8814
   3  467.4582
   4  711.4764
   5  775.1984
   6  915.472
   7  943.4564
   8  889.13
   9  527.5724
  10  635.9203
  11  973.3405
  12  483.0344
  13  259.7032
  14  752.5847
  15  632.3054
  16  591.8452
  17  418.037
  18  733.5092
  19  830.1432
  20  792.9836
  21  843.5304
  22  811.5289
  23  746.9967
  24  577.4587
  25  857.8255
  26  761.7417
  27  823.3515
  28  955.4741
  29  594.2452
  30  383.2081
  31  398.7567
  32  762.2587
  33  842.9914
  34  735.2531
  35  343.667
  36  376.2637
  37  394.9046
  38  801.6962
  39  883.681
  40  610.2255
  41  485.3176
  42  493.537
  43  572.8143
  44  430.5784
  45  330.2885
  46  563.0756
  47  741.9618
  48  749.7962
  49  727.5103
  50  827.5425
  51  625.3122
  52  546.3729
  53  1007.745
  54  926.58
  55  882.2446
  56  1022.669
  57  925.9518
  58  792.954
  59  791.5768
  60  547.8585
  61  627.5822
  62  834.5261
  63  1020.945
  64  1060.796
  65  1191.356
  66  1170.95
  67  1151.174
  68  1067.553
  69  1265.02
  70  1510.93
  71  1969.589
  72  2275.526
  73  2645.783
  74  2679.197
  75  2021.841
  76  1417.735
  77  837.8381
  78  749.5971
  79  817.4142
  80  554.9694
  81  625.427
  82  824.6436
  83  777.591
  84  873.3453
  85  895.9845
  86  521.8291
  87  721.2349
  88  879.7916
  89  1024.609
  90  667.0065
  91  527.8403
  92  406.8828
  93  605.0623
  94  703.5922
  95  761.3438
  96  888.4103
  97  972.5806
  98  1223.34
  99  934.1333
 100  402.7247
 101  588.6592
 102  514.3282
 103  636.3139
 104  602.685
 105  690.6054
 106  877.9542
 107  688.6477
 108  744.7534
 109  678.0727
 110  534.5828
 111  727.2863
 112  719.309
 113  485.9283
 114  721.1676
 115  864.0767
 116  838.6267
 117  684.3209
 118  952.762
 119  702.8649
 120  515.4373
 121  436.3404
 122  510.5295
 123  905.0176
 124  835.8885
 125  534.278
 126  399.614
 127  451.8435
 128  614.054
 129  775.7885
 130  865.6094
 131  765.2108
 132  711.5363
 133  586.965
 134  779.1501
 135  848.9238
 136  978.2805
 137  771.4358
 138  540.8901
 139  502.6706
 140  309.3622
 141  572.444
 142  676.9612
 143  612.353
 144  871.2499
 145  438.2346
 146  389.8807
 147  390.1227
 148  275.8845
 149  483.8544
 150  708.7535
 151  736.4191
 152  556.9286
 153  413.693
 154  348.0785
 155  526.3721
 156  557.2481
 157  525.7653
 158  487.1609
 159  447.3974
 160  720.2842
 161  787.1826
 162  791.4176
 163  708.4202
 164  491.7696
 165  545.292
 166  479.8523
 167  598.2153
 168  782.0422
 169  637.7108
 170  646.3221
 171  591.9861
 172  705.6185
 173  928.7625
 174  814.3822
 175  770.0049
 176  785.8148
 177  630.2236
 178  560.9971
 179  916.2717
 180  863.3738
 181  687.1129
 182  882.6586
 183  781.2983
 184  759.4697
 185  603.0385
 186  405.6707
 187  588.6696
 188  605.9449
 189  947.4436
 190  478.1378
 191  569.3727
 192  782.2058
 193  845.1193
 194  862.8906
 195  505.5049
 196  388.4114
 197  750.182
 198  866.9874
 199  940.259
 200  899.5664
 201  540.8212
 202  492.164
 203  624.6366
 204  882.525
 205  795.2433
 206  437.6825
 207  539.9296
 208  742.6064
 209  820.6255
 210  562.4658
 211  853.4869
 212  632.0405
 213  576.0345
 214  237.2511
 215  705.8499
 216  735.2338
 217  565.6879
 218  1002.454
 219  772.6896
 220  627.3867
 221  402.1031
 222  212.4847
 223  427.2221
 224  579.7526
 225  772.0977
 226  995.8273
 227  850.3291
 228  637.0951
 229  695.5217
 230  767.0002
 231  743.4622
 232  561.4962
 233  700.1088
 234  790.306
 235  387.058
 236  569.3845
 237  707.5663
 238  652.4933
 239  685.1818
 240  732.5081
 241  579.7166
 242  389.1829
 243  728.3555
 244  880.6005
 245  792.3826
 246  904.5286
 247  1026.279
 248  608.1387
 249  608.2078
 250  636.0555
 251  627.6357
 252  571.204
 253  761.8866
 254  740.564
 255  834.5829
 256  663.1672
 257  382.0976
 258  188.2559
 259  457.9437
 260  608.7117
 261  646.8901
 262  748.2853
 263  598.2769
 264  417.6695
 265  251.5839
 266  539.4907
 267  929.5393
 268  820.1362
 269  778.2888
 270  532.5985
 271  222.3282
 272  168.793
 273  416.6911
 274  579.7
 275  611.7177
 276  731.2592
 277  540.2358
 278  913.0921
 279  671.1309
 280  618.1661
 281  657.843
 282  478.885
 283  597.5702
 284  601.7189
 285  682.4525
 286  529.0292
 287  393.0116
 288  254.7382
 289  549.1451
 290  409.4554
 291  672.0646
 292  314.4381
 293  594.8139
 294  384.647
 295  416.0146
 296  380.1908
 297  243.0042
 298  373.9398
 299  539.8392
 300  751.8395
 301  815.1742
 302  624.7554
 303  765.0382
 304  323.1888
 305  192.2851
 306  298.1682
 307  394.684
 308  486.9127
 309  727.2538
 310  548.0245
 311  223.9421
 312  425.2423
 313  489.1593
 314  315.8145
 315  402.2242
 316  640.5764
 317  655.6792
 318  642.993
 319  475.3544
 320  510.4123
 321  480.9824
 322  637.1774
 323  545.0551
 324  502.3945
 325  640.0187
 326  479.0525
 327  218.615
 328  347.2224
 329  690.6711
 330  683.9295
 331  827.9446
 332  511.897
 333  647.0829
 334  783.8843
 335  767.6401
 336  919.6017
 337  805.6223
 338  531.913
 339  339.3557
 340  790.6661
 341  653.5065
 342  741.0034
 343  489.832
 344  674.4484
 345  759.8455
 346  651.1887
 347  368.6638
 348  465.1322
 349  606.614
 350  561.1248
 351  488.015
 352  591.0334
 353  553.0911
 354  466.5392
 355  409.5083
 356  494.0334
 357  564.7882
 358  388.0728
 359  612.3945
 360  746.331
 361  597.5955
 362  470.8217
 363  531.5782
 364  640.4899
 365  414.8576
 366  424.7639
 367  477.7699
 368  417.5523
 369  308.6256
 370  430.2912
 371  468.8308
 372  450.2913
 373  605.6925
 374  384.9975
 375  582.4648
 376  707.1606
 377  895.3243
 378  822.0825
 379  608.1144
 380  624.1785
 381  829.8445
 382  881.0038
 383  824.4761
 384  487.8681
 385  434.9481
 386  448.4925
 387  749.9124
 388  899.8172
 389  586.8499
 390  560.0217
 391  922.5129
 392  801.7775
 393  690.8893
 394  619.3709
 395  588.4465
 396  598.751
 397  801.4578
 398  684.7902
 399  419.6373
 400  459.2312
 401  799.4763
 402  921.0687
 403  848.6608
 404  568.3757
 405  428.8994
 406  697.8311
 407  616.65
 408  699.7083
 409  947.9753
 410  978.5331
 411  764.911
 412  501.673
 413  478.9783
 414  712.4836
 415  656.5487
 416  605.0471
 417  629.8068
 418  707.3734
 419  993.9901
 420  1091.719
 421  853.1017
 422  716.5908
 423  673.3546
 424  746.2879
 425  695.9315
 426  681.3896
 427  771.9351
 428  499.9576
 429  338.6525
 430  601.9979
 431  757.4164
 432  842.0083
 433  680.0279
 434  840.0931
 435  764.3524
 436  702.5333
 437  407.775
 438  413.1619
 439  653.4586
 440  675.4938
 441  290.8496
 442  305.1617
 443  214.8768
 444  348.4952
 445  622.7881
 446  845.772
 447  619.7394
 448  369.0094
 449  636.2639
 450  845.804
 451  567.4722
 452  449.1921
 453  457.2437
 454  556.5524
 455  829.6221
 456  855.2637
 457  743.1515
 458  494.8215
 459  648.114
 460  727.6575
 461  815.1476
 462  718.809
 463  309.3498
 464  570.2501
 465  625.3102
 466  558.7296
 467  387.5142
 468  538.2432
 469  711.9293
 470  526.3742
 471  467.7343
 472  533.3331
 473  580.6726
 474  772.5063
 475  720.6413
 476  781.1346
 477  769.6129
 478  579.1819
 479  589.0707
 480  386.8661
 481  666.5034
 482  458.683
 483  322.4095
 484  456.3565
 485  527.6658
 486  780.5117
 487  779.7672
 488  597.6033
 489  730.4156
 490  528.2584
 491  309.3982
 492  748.0952
 493  591.298
 494  448.8013
 495  440.6641
 496  799.7318
 497  728.4023
 498  1009.52
 499  996.5345
 500  827.5895
 501  485.4034
 502  832.5974
 503  960.3428
 504  907.0926
 505  624.848
 506  724.275
 507  1011.909
 508  700.3618
 509  623.8086
 510  627.7849
 511  438.7468
