# Input file       =  1191122437.116167_cleaned.dat
# Candidate        =  PSR_0332+5434
# Telescope        =  AR
# Epoch_topo       =  58030.139538381562
# Epoch_bary       =  N/A
# T_sample         =  0.002
# Data Folded      =  7340032
# Data Avg         =  0.0324593386321794
# Data StdDev      =  2.92981016987766 
# Profile Bins     =  512
# Profile Avg      =  465.204153448868 
# Profile StdDev   =  350.795067646981 
# Reduced chi-sqr  =  1.300
# Prob(Noise)      <  5.28e-06   (~4.4 sigma)
# P_topo (ms)      =  714.474721959186  +/- 9.2e-05
# P'_topo (s/s)    =  -0                +/- 4.86e-11
# P''_topo (s/s^2) =  0                 +/- 2.14e-14
# P_bary (ms)      =  N/A
# P'_bary (s/s)    =  N/A
# P''_bary (s/s^2) =  N/A
# P_orb (s)        =  N/A
# asin(i)/c (s)    =  N/A
# eccentricity     =  N/A
# w (rad)          =  N/A
# T_peri           =  N/A
######################################################
   0  101.6069
   1  177.0659
   2  241.1396
   3  117.2579
   4  457.4944
   5  458.5599
   6  557.0747
   7  439.424
   8  350.4034
   9  436.5338
  10  624.3737
  11  354.0203
  12  190.3631
  13  327.2957
  14  476.0132
  15  674.6617
  16  510.3441
  17  449.1504
  18  168.0503
  19  311.2154
  20  423.1214
  21  571.8362
  22  586.7853
  23  279.7913
  24  330.6194
  25  397.0822
  26  221.8517
  27  15.83374
  28  146.8197
  29  429.4591
  30  219.06
  31  334.4525
  32  508.9678
  33  86.4056
  34  37.99555
  35  227.3203
  36  159.1049
  37  71.65864
  38  592.3964
  39  793.0522
  40  660.0084
  41  248.4376
  42  149.9505
  43  125.9226
  44  303.8928
  45  414.5094
  46  598.4482
  47  534.6754
  48  614.5699
  49  594.4792
  50  490.482
  51  428.2565
  52  360.126
  53  -9.424306
  54  580.1133
  55  833.8309
  56  448.7058
  57  312.3723
  58  365.0724
  59  141.099
  60  401.086
  61  561.2712
  62  538.371
  63  786.3301
  64  392.1297
  65  468.2344
  66  350.8553
  67  -12.25391
  68  101.3017
  69  219.4709
  70  835.6601
  71  989.0984
  72  648.5624
  73  694.1064
  74  690.2509
  75  368.869
  76  176.1953
  77  607.6628
  78  904.3542
  79  639.0618
  80  730.8293
  81  628.1396
  82  432.0028
  83  306.6436
  84  111.3115
  85  173.5749
  86  396.8363
  87  294.9903
  88  269.8466
  89  51.89738
  90  6.92628
  91  233.8244
  92  392.9618
  93  702.8718
  94  507.4987
  95  322.6281
  96  377.6458
  97  242.7902
  98  474.4589
  99  625.5825
 100  792.9395
 101  337.2342
 102  453.1226
 103  567.4208
 104  503.5969
 105  724.2096
 106  817.4241
 107  841.4723
 108  501.3013
 109  332.0946
 110  311.0898
 111  276.2943
 112  996.893
 113  788.8019
 114  272.5361
 115  504.6331
 116  107.8055
 117  97.12258
 118  357.5444
 119  304.2183
 120  547.4856
 121  602.7292
 122  663.3193
 123  533.9955
 124  368.8817
 125  332.5996
 126  272.9331
 127  340.3613
 128  462.3715
 129  324.9009
 130  470.4955
 131  490.796
 132  315.3294
 133  583.7084
 134  382.4237
 135  532.9967
 136  677.9819
 137  580.7811
 138  560.9738
 139  261.4959
 140  136.1139
 141  556.4804
 142  572.8285
 143  307.7054
 144  277.6436
 145  756.1084
 146  633.7837
 147  477.0821
 148  203.0115
 149  28.50255
 150  134.164
 151  252.1514
 152  483.1522
 153  599.1285
 154  459.6779
 155  774.1622
 156  616.6547
 157  669.8966
 158  636.6614
 159  661.0485
 160  679.3122
 161  391.4597
 162  553.5603
 163  849.7569
 164  1010.866
 165  535.8887
 166  111.7261
 167  -49.73914
 168  626.4563
 169  912.86
 170  967.3657
 171  848.3797
 172  678.4456
 173  858.6659
 174  565.4504
 175  395.2448
 176  321.0488
 177  393.2549
 178  27.98547
 179  130.6435
 180  488.0742
 181  778.3464
 182  229.0647
 183  -120.839
 184  176.218
 185  406.6906
 186  219.9334
 187  187.2477
 188  254.7744
 189  237.3068
 190  271.605
 191  157.4566
 192  89.88224
 193  137.7139
 194  410.1138
 195  255.7794
 196  133.6292
 197  342.7421
 198  482.2579
 199  299.3555
 200  -123.8005
 201  293.333
 202  640.7507
 203  541.3445
 204  572.6304
 205  205.9931
 206  77.6759
 207  707.4673
 208  368.3618
 209  247.9478
 210  308.7148
 211  356.422
 212  166.0962
 213  310.6083
 214  705.5154
 215  294.3899
 216  117.3709
 217  246.924
 218  221.9194
 219  394.1003
 220  363.4687
 221  352.2534
 222  291.0641
 223  207.1284
 224  517.6865
 225  606.7173
 226  386.6171
 227  336.8921
 228  430.7958
 229  811.304
 230  427.6422
 231  123.2829
 232  356.6516
 233  579.3101
 234  269.2672
 235  -142.0224
 236  440.2315
 237  452.2452
 238  513.3768
 239  592.1017
 240  530.4747
 241  421.364
 242  458.443
 243  434.0283
 244  270.2189
 245  119.6794
 246  258.6187
 247  410.7666
 248  438.5278
 249  266.1198
 250  324.2977
 251  525.4655
 252  344.6452
 253  316.0775
 254  559.9659
 255  570.1132
 256  398.3728
 257  417.1645
 258  163.9762
 259  135.536
 260  -151.1198
 261  490.1393
 262  489.8717
 263  291.8044
 264  354.3206
 265  124.5853
 266  313.4388
 267  540.0414
 268  590.7896
 269  871.5822
 270  607.4906
 271  373.3049
 272  476.9189
 273  539.9112
 274  691.2849
 275  788.9291
 276  394.5964
 277  577.6978
 278  51.47293
 279  305.9704
 280  294.715
 281  58.875
 282  84.54912
 283  581.8644
 284  472.6824
 285  236.6905
 286  140.9257
 287  533.0589
 288  89.31828
 289  -161.7635
 290  203.7056
 291  218.1808
 292  93.40393
 293  217.2277
 294  557.0142
 295  731.8822
 296  551.825
 297  221.3815
 298  417.408
 299  523.536
 300  666.1569
 301  1139.629
 302  1009.074
 303  562.416
 304  541.76
 305  513.2442
 306  127.5266
 307  -231.8199
 308  351.6328
 309  779.5003
 310  820.1252
 311  788.6393
 312  853.3245
 313  685.6268
 314  407.7913
 315  837.9104
 316  1131.638
 317  1532.262
 318  2041.013
 319  2281.544
 320  2248.696
 321  1832.544
 322  1199.253
 323  1013.545
 324  838.7706
 325  341.6335
 326  660.9333
 327  618.8123
 328  187.0473
 329  382.7191
 330  496.5469
 331  570.2188
 332  780.2198
 333  891.7242
 334  1105.735
 335  601.9424
 336  840.6014
 337  741.4403
 338  482.201
 339  635.681
 340  339.1569
 341  596.3792
 342  689.9602
 343  444.7553
 344  378.5089
 345  523.1919
 346  722.1305
 347  470.14
 348  420.3375
 349  396.538
 350  436.1261
 351  558.791
 352  1084.334
 353  867.914
 354  654.861
 355  226.8852
 356  39.06053
 357  -266.6897
 358  36.10134
 359  345.4314
 360  591.0598
 361  344.3778
 362  166.7828
 363  148.091
 364  362.1977
 365  364.0073
 366  185.5163
 367  487.3266
 368  195.8422
 369  409.3002
 370  280.3694
 371  396.5557
 372  670.3794
 373  250.3864
 374  303.7314
 375  752.8355
 376  376.5265
 377  521.7673
 378  324.2952
 379  543.4846
 380  919.6472
 381  811.4637
 382  27.78496
 383  59.03501
 384  73.77656
 385  354.4896
 386  376.8171
 387  272.5255
 388  331.0064
 389  394.6124
 390  684.9944
 391  507.0289
 392  389.0305
 393  586.7283
 394  438.9462
 395  681.6817
 396  320.723
 397  -59.58218
 398  180.3048
 399  343.8468
 400  484.0948
 401  530.0014
 402  679.3607
 403  591.3478
 404  418.3246
 405  440.9007
 406  497.5288
 407  423.2178
 408  846.7567
 409  877.8539
 410  601.42
 411  733.8534
 412  699.3651
 413  867.5546
 414  444.2818
 415  659.7149
 416  734.6449
 417  685.4838
 418  627.0714
 419  321.4111
 420  139.9339
 421  348.1076
 422  483.1492
 423  370.5508
 424  943.0805
 425  660.0212
 426  656.6291
 427  853.7004
 428  469.4214
 429  391.4906
 430  350.2736
 431  387.247
 432  713.6229
 433  738.1345
 434  598.3944
 435  392.7945
 436  520.0734
 437  823.9052
 438  489.7472
 439  198.7509
 440  189.4827
 441  273.0562
 442  736.3509
 443  729.4387
 444  859.0626
 445  639.2847
 446  747.9045
 447  658.8446
 448  368.9474
 449  621.649
 450  640.3529
 451  596.8903
 452  684.0591
 453  519.7896
 454  771.0194
 455  771.7079
 456  524.0424
 457  768.0356
 458  1287.121
 459  1047.921
 460  990.0447
 461  707.0803
 462  372.9053
 463  386.3222
 464  477.7126
 465  803.0052
 466  689.8655
 467  599.6537
 468  575.155
 469  810.8888
 470  560.3192
 471  208.1836
 472  591.5206
 473  725.1729
 474  388.3596
 475  569.2292
 476  610.7559
 477  185.6952
 478  325.2532
 479  800.2103
 480  590.6194
 481  260.2093
 482  504.2197
 483  453.2886
 484  313.1202
 485  342.1722
 486  680.554
 487  472.8231
 488  509.6492
 489  619.8652
 490  279.4089
 491  357.1652
 492  152.4968
 493  401.9518
 494  367.9925
 495  353.5479
 496  78.96927
 497  138.2136
 498  265.027
 499  303.682
 500  559.0451
 501  483.4311
 502  800.7251
 503  469.0993
 504  103.7393
 505  222.9287
 506  208.2215
 507  417.1977
 508  210.8571
 509  -2.304807
 510  554.804
 511  468.9612
