# Input file       =  1191351389.132284_cleaned.dat
# Candidate        =  PSR_0332+5434
# Telescope        =  AR
# Epoch_topo       =  58032.789445975512
# Epoch_bary       =  N/A
# T_sample         =  0.002
# Data Folded      =  7208960
# Data Avg         =  0.0109782836216278
# Data StdDev      =  0.999994949497313
# Profile Bins     =  512
# Profile Avg      =  154.597197151548 
# Profile StdDev   =  118.658576505044 
# Reduced chi-sqr  =  1.260
# Prob(Noise)      <  5.64e-05   (~3.9 sigma)
# P_topo (ms)      =  714.475970517677  +/- 0.000115
# P'_topo (s/s)    =  -0                +/- 6.2e-11
# P''_topo (s/s^2) =  0                 +/- 2.79e-14
# P_bary (ms)      =  N/A
# P'_bary (s/s)    =  N/A
# P''_bary (s/s^2) =  N/A
# P_orb (s)        =  N/A
# asin(i)/c (s)    =  N/A
# eccentricity     =  N/A
# w (rad)          =  N/A
# T_peri           =  N/A
######################################################
   0  900.3671
   1  766.6308
   2  461.6926
   3  275.0147
   4  334.5292
   5  237.1714
   6  235.5527
   7  209.4296
   8  253.8646
   9  231.417
  10  285.2944
  11  314.1969
  12  293.6007
  13  295.6474
  14  203.3361
  15  122.2873
  16  105.657
  17  23.97471
  18  147.1211
  19  228.8447
  20  232.919
  21  229.3253
  22  258.0175
  23  53.17443
  24  129.8971
  25  92.28244
  26  75.36539
  27  149.7469
  28  255.3837
  29  249.1139
  30  248.0343
  31  114.7495
  32  -50.13036
  33  174.4282
  34  217.9164
  35  131.1781
  36  157.4156
  37  175.3225
  38  154.4521
  39  131.9136
  40  81.51315
  41  71.41203
  42  164.2599
  43  214.2103
  44  177.0543
  45  140.5455
  46  67.48742
  47  124.107
  48  201.0891
  49  198.4338
  50  130.7884
  51  85.94154
  52  54.24862
  53  159.1122
  54  220.8523
  55  89.8395
  56  120.0732
  57  104.3258
  58  181.317
  59  61.47059
  60  70.74097
  61  268.9124
  62  187.9986
  63  102.2083
  64  35.83846
  65  43.49536
  66  131.697
  67  249.3053
  68  346.5084
  69  255.2895
  70  227.6153
  71  181.573
  72  31.70808
  73  44.79161
  74  141.8592
  75  203.6832
  76  163.1563
  77  255.6372
  78  302.5387
  79  67.26789
  80  -1.639886
  81  80.42429
  82  109.1936
  83  114.9893
  84  148.6544
  85  210.2749
  86  176.0431
  87  168.6896
  88  72.87061
  89  88.53687
  90  150.9393
  91  167.5541
  92  169.1284
  93  201.0829
  94  74.06049
  95  132.7975
  96  121.1669
  97  181.5984
  98  47.97906
  99  -5.368129
 100  26.69022
 101  83.74027
 102  205.4209
 103  159.6386
 104  118.852
 105  113.1141
 106  -59.18993
 107  28.71814
 108  174.79
 109  178.8631
 110  219.2496
 111  45.98486
 112  108.9781
 113  126.474
 114  185.4415
 115  148.1933
 116  184.5063
 117  162.4138
 118  148.4264
 119  136.7143
 120  184.7998
 121  10.45915
 122  34.06909
 123  95.13878
 124  -13.45778
 125  11.54229
 126  117.0062
 127  190.9673
 128  59.29169
 129  60.17115
 130  132.7793
 131  51.93956
 132  168.1594
 133  183.6609
 134  151.9587
 135  110.1452
 136  133.6558
 137  100.1346
 138  197.84
 139  277.4032
 140  164.2634
 141  -52.40273
 142  -52.2589
 143  188.9856
 144  223.9221
 145  131.2803
 146  198.5095
 147  149.7113
 148  161.7759
 149  166.3775
 150  165.3214
 151  140.6652
 152  289.0524
 153  143.3869
 154  190.3279
 155  123.3084
 156  69.01167
 157  45.03764
 158  154.185
 159  319.347
 160  276.4201
 161  248.6614
 162  229.7493
 163  227.5118
 164  185.1768
 165  238.4386
 166  91.19728
 167  145.087
 168  171.1723
 169  224.6777
 170  195.71
 171  176.6711
 172  146.2453
 173  210.206
 174  126.3857
 175  -29.5895
 176  93.95129
 177  168.3651
 178  23.64355
 179  190.5889
 180  246.1973
 181  170.9197
 182  178.2254
 183  250.9726
 184  267.0467
 185  313.1238
 186  183.1702
 187  143.103
 188  -15.32767
 189  22.78416
 190  178.0795
 191  239.3465
 192  256.3035
 193  258.074
 194  167.7899
 195  168.3897
 196  179.7353
 197  116.576
 198  70.48827
 199  98.02183
 200  -1.849085
 201  131.9805
 202  233.1225
 203  101.4988
 204  10.58206
 205  -26.00202
 206  25.85834
 207  169.8604
 208  328.0176
 209  225.1556
 210  95.22861
 211  19.0176
 212  -41.70209
 213  32.00851
 214  218.7221
 215  214.8161
 216  173.2542
 217  221.7716
 218  167.9773
 219  209.2969
 220  206.2961
 221  240.9552
 222  222.4531
 223  214.6673
 224  182.6701
 225  178.9792
 226  169.266
 227  174.4171
 228  207.0561
 229  107.472
 230  145.8827
 231  211.3251
 232  196.2645
 233  310.4128
 234  310.1386
 235  151.5495
 236  201.1308
 237  157.0917
 238  239.9294
 239  32.12405
 240  75.20415
 241  148.9539
 242  292.3492
 243  151.8944
 244  93.93771
 245  58.24185
 246  90.18985
 247  123.4177
 248  59.87875
 249  215.89
 250  333.4249
 251  244.3363
 252  88.51399
 253  122.0545
 254  266.2197
 255  264.9066
 256  76.64588
 257  131.1806
 258  259.1939
 259  239.75
 260  105.2931
 261  187.2711
 262  232.4399
 263  133.1651
 264  254.3945
 265  296.747
 266  328.413
 267  139.3922
 268  200.6964
 269  118.7506
 270  141.7452
 271  191.968
 272  255.6931
 273  141.7977
 274  120.234
 275  217.5179
 276  218.4177
 277  163.0205
 278  54.42083
 279  146.7364
 280  22.92606
 281  41.12103
 282  77.53974
 283  36.1498
 284  183.7157
 285  126.3486
 286  127.2039
 287  19.88842
 288  41.4695
 289  187.4176
 290  217.9947
 291  226.3911
 292  151.8632
 293  84.93787
 294  40.04398
 295  80.80626
 296  127.9592
 297  162.8131
 298  109.8078
 299  170.2762
 300  126.9667
 301  116.8324
 302  115.3615
 303  167.5777
 304  146.5997
 305  146.2534
 306  204.1705
 307  157.3251
 308  167.7
 309  235.8739
 310  218.6886
 311  232.5641
 312  236.1059
 313  184.4912
 314  159.6656
 315  236.2245
 316  266.966
 317  253.884
 318  30.82256
 319  -18.58554
 320  67.66706
 321  142.8872
 322  80.20447
 323  119.3945
 324  251.6203
 325  267.201
 326  91.27458
 327  152.2609
 328  182.9655
 329  138.72
 330  234.8497
 331  275.1199
 332  211.7345
 333  174.1181
 334  94.77326
 335  136.1656
 336  119.2059
 337  84.36919
 338  81.3249
 339  157.7242
 340  65.51857
 341  110.4587
 342  175.5514
 343  262.917
 344  154.3372
 345  18.17346
 346  8.825201
 347  213.1253
 348  291.456
 349  139.6973
 350  144.3415
 351  153.2726
 352  145.4209
 353  92.72765
 354  114.88
 355  221.336
 356  229.7127
 357  215.3491
 358  111.238
 359  189.4456
 360  96.11377
 361  0.9610891
 362  102.557
 363  97.78355
 364  173.3881
 365  41.70205
 366  103.6035
 367  97.73127
 368  106.2171
 369  62.40346
 370  99.21212
 371  132.7763
 372  135.3375
 373  115.7589
 374  93.28286
 375  76.45925
 376  131.5939
 377  202.1331
 378  168.9204
 379  124.6107
 380  140.0018
 381  157.5705
 382  107.1437
 383  149.3466
 384  180.5154
 385  102.2233
 386  58.40157
 387  100.9229
 388  143.6019
 389  233.2179
 390  118.8463
 391  187.8173
 392  128.3731
 393  165.3354
 394  135.0124
 395  152.2479
 396  299.4444
 397  162.4938
 398  70.53828
 399  5.240355
 400  187.3747
 401  189.8074
 402  120.6575
 403  47.20216
 404  20.88308
 405  19.78677
 406  78.57285
 407  202.1855
 408  276.2798
 409  213.944
 410  78.24195
 411  127.5457
 412  121.9988
 413  78.63154
 414  54.27042
 415  192.275
 416  235.9087
 417  206.8281
 418  378.3727
 419  255.3515
 420  109.0507
 421  150.4041
 422  254.7126
 423  195.369
 424  39.26793
 425  75.60407
 426  145.0603
 427  213.7221
 428  208.6902
 429  146.6953
 430  126.117
 431  134.0732
 432  61.04428
 433  81.34691
 434  159.9299
 435  133.8579
 436  91.91853
 437  63.57633
 438  92.45081
 439  196.2491
 440  338.5831
 441  313.4786
 442  117.3185
 443  89.72812
 444  67.53636
 445  94.67846
 446  136.0457
 447  119.2445
 448  146.6419
 449  56.01019
 450  195.895
 451  179.6905
 452  186.399
 453  95.84282
 454  118.059
 455  206.5495
 456  160.6709
 457  129.9774
 458  125.4033
 459  21.73523
 460  46.21255
 461  142.7773
 462  72.18071
 463  -28.29045
 464  36.01626
 465  67.72885
 466  196.8436
 467  189.5393
 468  86.25775
 469  18.11163
 470  3.99922
 471  115.6328
 472  157.6114
 473  136.9792
 474  214.5074
 475  210.2452
 476  118.2375
 477  127.138
 478  229.5851
 479  268.3988
 480  83.70486
 481  59.48303
 482  129.9815
 483  149.4512
 484  2.393302
 485  111.4761
 486  45.24075
 487  -90.99187
 488  33.78966
 489  165.3754
 490  281.3076
 491  210.9117
 492  227.2529
 493  196.4071
 494  142.8492
 495  106.0157
 496  153.2615
 497  154.4974
 498  154.1288
 499  223.2113
 500  125.7056
 501  200.4707
 502  128.7845
 503  79.79581
 504  182.3074
 505  233.2015
 506  266.9637
 507  368.902
 508  259.7959
 509  409.4326
 510  500.9868
 511  743.0525
