# Input file       =  1191380902.120259_cleaned.dat
# Candidate        =  PSR_0332+5434
# Telescope        =  AR
# Epoch_topo       =  58033.131031484481
# Epoch_bary       =  N/A
# T_sample         =  0.002
# Data Folded      =  7340032
# Data Avg         =  0.0130869878278869
# Data StdDev      =  1.00002993374954 
# Profile Bins     =  512
# Profile Avg      =  187.593352364629 
# Profile StdDev   =  119.736620435489 
# Reduced chi-sqr  =  1.496
# Prob(Noise)      <  2.21e-12   (~6.9 sigma)
# P_topo (ms)      =  714.476535732769  +/- 0.00021
# P'_topo (s/s)    =  -0                +/- 1.11e-10
# P''_topo (s/s^2) =  0                 +/- 4.88e-14
# P_bary (ms)      =  N/A
# P'_bary (s/s)    =  N/A
# P''_bary (s/s^2) =  N/A
# P_orb (s)        =  N/A
# asin(i)/c (s)    =  N/A
# eccentricity     =  N/A
# w (rad)          =  N/A
# T_peri           =  N/A
######################################################
   0  -4.440411
   1  74.48732
   2  138.6139
   3  175.0775
   4  228.7507
   5  155.2849
   6  108.6746
   7  24.30249
   8  87.01745
   9  65.72912
  10  40.51302
  11  246.4648
  12  344.5261
  13  205.916
  14  86.92237
  15  219.358
  16  259.3
  17  221.2178
  18  313.8415
  19  263.5216
  20  210.1964
  21  181.385
  22  179.7811
  23  163.978
  24  113.634
  25  167.9938
  26  234.4604
  27  282.9764
  28  53.4895
  29  106.5897
  30  172.7416
  31  149.428
  32  199.491
  33  266.6804
  34  189.6265
  35  112.303
  36  102.931
  37  28.59118
  38  160.6013
  39  302.076
  40  222.0345
  41  278.7419
  42  121.2928
  43  236.6251
  44  286.9044
  45  137.6769
  46  159.9959
  47  172.1214
  48  269.8218
  49  262.56
  50  186.3594
  51  197.055
  52  224.823
  53  189.143
  54  196.5909
  55  105.9812
  56  243.75
  57  295.2884
  58  174.6868
  59  128.4438
  60  72.77295
  61  72.41125
  62  96.83699
  63  100.6799
  64  242.9934
  65  109.3117
  66  81.5165
  67  81.02431
  68  87.06526
  69  197.1406
  70  284.703
  71  322.1029
  72  114.6194
  73  265.8066
  74  395.9265
  75  375.1041
  76  300.4871
  77  234.4391
  78  53.17462
  79  162.7406
  80  322.2962
  81  288.8497
  82  285.8346
  83  208.0343
  84  90.69049
  85  185.077
  86  221.4218
  87  204.8193
  88  219.9297
  89  253.2971
  90  246.7331
  91  181.9565
  92  217.9004
  93  287.3576
  94  115.7144
  95  92.23012
  96  81.29557
  97  146.3994
  98  182.5192
  99  208.4398
 100  243.575
 101  138.8046
 102  158.1621
 103  312.2318
 104  175.9057
 105  116.0471
 106  134.7296
 107  295.9973
 108  208.4983
 109  259.7189
 110  313.6405
 111  236.4663
 112  190.8749
 113  93.50273
 114  61.92544
 115  158.3128
 116  147.1247
 117  69.12743
 118  59.07061
 119  39.48167
 120  -11.44624
 121  46.29419
 122  268.5486
 123  204.9336
 124  110.5784
 125  92.38027
 126  51.72278
 127  156.991
 128  130.0011
 129  7.960015
 130  54.85184
 131  212.6577
 132  256.2975
 133  278.4794
 134  211.2607
 135  239.0035
 136  215.1823
 137  300.1721
 138  375.3801
 139  410.5513
 140  251.2636
 141  209.4276
 142  111.7347
 143  203.257
 144  179.4392
 145  172.0509
 146  101.1129
 147  88.90966
 148  247.1951
 149  185.7474
 150  24.26122
 151  109.5599
 152  155.8648
 153  222.1311
 154  251.3981
 155  156.3996
 156  212.3452
 157  417.3301
 158  273.9182
 159  190.2495
 160  69.26006
 161  13.00486
 162  -34.37789
 163  107.2373
 164  276.0038
 165  187.4333
 166  248.7413
 167  261.6424
 168  237.5398
 169  276.2732
 170  194.6259
 171  273.7733
 172  98.65849
 173  187.8472
 174  284.7007
 175  301.984
 176  260.7587
 177  307.5735
 178  124.0299
 179  129.4186
 180  135.6351
 181  278.5896
 182  252.1122
 183  151.3826
 184  191.7271
 185  100.7756
 186  156.3721
 187  204.1763
 188  257.9586
 189  271.9655
 190  195.4698
 191  332.1182
 192  251.8621
 193  144.7825
 194  42.31719
 195  175.3724
 196  223.029
 197  209.7788
 198  181.9815
 199  30.28388
 200  67.68271
 201  157.0657
 202  231.5691
 203  277.0781
 204  327.9634
 205  106.4534
 206  54.24559
 207  32.6876
 208  37.24734
 209  150.1272
 210  217.4333
 211  202.7251
 212  296.9365
 213  302.5943
 214  220.6397
 215  205.7667
 216  196.8076
 217  150.4176
 218  149.6263
 219  168.7935
 220  184.1698
 221  90.25727
 222  161.5677
 223  186.5612
 224  199.6258
 225  275.3332
 226  280.3792
 227  178.6561
 228  166.3445
 229  272.5066
 230  240.9287
 231  155.5714
 232  309.0325
 233  351.4226
 234  282.6524
 235  297.9412
 236  379.7958
 237  314.392
 238  286.9039
 239  272.3003
 240  83.44324
 241  144.1971
 242  126.227
 243  259.6411
 244  363.5542
 245  298.7134
 246  251.3831
 247  306.7224
 248  368.2534
 249  349.6442
 250  360.3888
 251  560.9792
 252  775.8976
 253  827.3148
 254  783.8628
 255  665.2561
 256  722.8459
 257  559.3865
 258  481.3548
 259  286.1624
 260  187.1644
 261  177.2214
 262  197.0907
 263  153.2516
 264  130.9058
 265  233.1882
 266  224.7284
 267  261.2772
 268  315.4524
 269  202.325
 270  112.3364
 271  56.39413
 272  315.5388
 273  227.1945
 274  238.4977
 275  69.75475
 276  17.26809
 277  70.02743
 278  159.2765
 279  228.2991
 280  196.5979
 281  169.945
 282  245.106
 283  130.2629
 284  95.87943
 285  178.272
 286  248.5596
 287  196.1824
 288  109.4463
 289  289.5028
 290  245.1148
 291  38.62005
 292  161.3278
 293  136.3917
 294  67.83542
 295  71.85184
 296  111.504
 297  63.34571
 298  167.3993
 299  174.235
 300  276.9961
 301  256.0648
 302  163.1494
 303  95.59161
 304  177.1607
 305  122.3401
 306  22.93223
 307  162.2363
 308  248.978
 309  306.7157
 310  236.4541
 311  182.0564
 312  126.1383
 313  210.4183
 314  257.6573
 315  150.86
 316  196.2537
 317  197.1651
 318  92.8044
 319  160
 320  296.5669
 321  142.5684
 322  119.8703
 323  85.52369
 324  200.8362
 325  155.4845
 326  248.8101
 327  310.2884
 328  225.286
 329  -26.84744
 330  61.35902
 331  127.6928
 332  60.49065
 333  109.3499
 334  279.9574
 335  130.2821
 336  -29.1555
 337  36.61967
 338  193.135
 339  207.4995
 340  177.1891
 341  252.2744
 342  59.38077
 343  157.748
 344  143.9706
 345  239.8766
 346  311.5742
 347  275.065
 348  130.8998
 349  148.2334
 350  199.3153
 351  197.7907
 352  206.1445
 353  213.6841
 354  255.7942
 355  346.5918
 356  225.5278
 357  205.5812
 358  207.9701
 359  180.8394
 360  174.7693
 361  129.5363
 362  174.3272
 363  377.959
 364  213.4886
 365  176.024
 366  153.0586
 367  178.5203
 368  208.2378
 369  208.0775
 370  327.6973
 371  363.5781
 372  195.3568
 373  172.8241
 374  281.1253
 375  236.0938
 376  195.7467
 377  166.7572
 378  218.4552
 379  147.5807
 380  100.1104
 381  86.78165
 382  245.9599
 383  283.8404
 384  169.303
 385  104.0949
 386  33.46565
 387  35.5087
 388  55.44991
 389  47.0392
 390  88.93595
 391  253.038
 392  265.2658
 393  310.2337
 394  224.0438
 395  305.2376
 396  265.2035
 397  145.0875
 398  149.6593
 399  180.8954
 400  157.8983
 401  143.177
 402  90.61935
 403  183.4314
 404  223.4254
 405  169.6086
 406  114.7564
 407  282.4598
 408  173.8002
 409  93.75201
 410  267.8287
 411  174.8252
 412  25.50534
 413  -28.27472
 414  57.99631
 415  240.6735
 416  220.8281
 417  228.0836
 418  109.6248
 419  228.5258
 420  261.0267
 421  265.0595
 422  176.6322
 423  150.6895
 424  315.5202
 425  125.9525
 426  192.2297
 427  191.8225
 428  186.3505
 429  141.9255
 430  137.0913
 431  202.9825
 432  153.8985
 433  226.4299
 434  294.099
 435  279.4686
 436  196.3088
 437  5.482582
 438  -100.411
 439  -21.34362
 440  77.39931
 441  273.0689
 442  260.7664
 443  280.2374
 444  177.6232
 445  90.75784
 446  -15.73841
 447  10.20457
 448  60.36438
 449  126.2439
 450  113.2277
 451  82.13318
 452  181.8011
 453  316.7513
 454  231.9948
 455  176.0356
 456  205.5614
 457  186.832
 458  72.232
 459  124.3052
 460  269.2177
 461  191.6993
 462  172.3119
 463  134.4529
 464  113.0512
 465  176.2318
 466  235.9352
 467  205.7649
 468  163.3951
 469  113.6029
 470  102.0188
 471  190.8988
 472  85.4995
 473  134.1783
 474  167.5298
 475  133.0723
 476  260.6778
 477  264.1946
 478  174.1003
 479  103.2005
 480  54.0465
 481  234.4728
 482  247.9949
 483  247.2082
 484  147.038
 485  140.3814
 486  133.0255
 487  103.1464
 488  7.428072
 489  132.5359
 490  185.3088
 491  122.0047
 492  98.86246
 493  152.1112
 494  183.1799
 495  173.2934
 496  134.3494
 497  110.5004
 498  26.48432
 499  127.3929
 500  176.4627
 501  158.0741
 502  108.9576
 503  161.5467
 504  158.991
 505  88.82101
 506  11.44631
 507  127.202
 508  178.6217
 509  156.0078
 510  95.43781
 511  53.46138
