# Input file       =  1191695979.111746_cleaned.dat
# Candidate        =  PSR_0332+5434
# Telescope        =  AR
# Epoch_topo       =  58036.777755922987
# Epoch_bary       =  N/A
# T_sample         =  0.002
# Data Folded      =  7208960
# Data Avg         =  0.036435271491497
# Data StdDev      =  1.00006580224088 
# Profile Bins     =  512
# Profile Avg      =  513.005814034293 
# Profile StdDev   =  118.666983833199 
# Reduced chi-sqr  =  1.156
# Prob(Noise)      <  0.00847   (~2.4 sigma)
# P_topo (ms)      =  714.478556635194  +/- 0.000243
# P'_topo (s/s)    =  -0                +/- 1.3e-10
# P''_topo (s/s^2) =  0                 +/- 5.86e-14
# P_bary (ms)      =  N/A
# P'_bary (s/s)    =  N/A
# P''_bary (s/s^2) =  N/A
# P_orb (s)        =  N/A
# asin(i)/c (s)    =  N/A
# eccentricity     =  N/A
# w (rad)          =  N/A
# T_peri           =  N/A
######################################################
   0  486.2673
   1  577.3684
   2  482.3095
   3  620.3354
   4  455.2541
   5  486.0295
   6  473.5463
   7  484.6397
   8  389.119
   9  357.7462
  10  450.5232
  11  512.6116
  12  554.6893
  13  441.9492
  14  447.7862
  15  426.977
  16  467.5457
  17  542.3658
  18  451.3152
  19  461.9796
  20  542.557
  21  662.0342
  22  533.861
  23  440.8192
  24  575.8925
  25  617.762
  26  505.286
  27  418.4314
  28  388.4254
  29  645.209
  30  610.7501
  31  520.2501
  32  615.1829
  33  628.9655
  34  547.2805
  35  511.2656
  36  536.3121
  37  474.7882
  38  398.7483
  39  397.5442
  40  540.9039
  41  554.4506
  42  575.1881
  43  602.0046
  44  477.4392
  45  468.6374
  46  489.9333
  47  514.6214
  48  558.8307
  49  569.4332
  50  503.5414
  51  453.7705
  52  435.3264
  53  481.1437
  54  570.437
  55  447.98
  56  339.0009
  57  416.5551
  58  455.0615
  59  590.2859
  60  584.8158
  61  449.9144
  62  414.6868
  63  587.9589
  64  541.7691
  65  454.3557
  66  449.7334
  67  442.406
  68  460.3597
  69  518.3563
  70  513.781
  71  539.6492
  72  535.6354
  73  536.9178
  74  584.5363
  75  523.5099
  76  493.8218
  77  503.1883
  78  530.1043
  79  482.1761
  80  476.4953
  81  524.9866
  82  569.54
  83  606.03
  84  552.9005
  85  555.7276
  86  514.9425
  87  656.356
  88  588.4596
  89  425.131
  90  543.4323
  91  565.8128
  92  571.4852
  93  527.0657
  94  446.347
  95  405.3898
  96  473.9558
  97  483.8846
  98  553.1553
  99  548.5619
 100  479.7123
 101  494.3402
 102  418.0799
 103  396.5002
 104  477.5416
 105  443.1297
 106  409.519
 107  535.366
 108  510.8193
 109  463.8222
 110  492.9102
 111  577.1078
 112  654.7553
 113  635.3144
 114  686.0292
 115  616.8901
 116  661.5344
 117  709.8868
 118  972.8368
 119  1111.371
 120  1143.047
 121  1060.744
 122  850.4871
 123  689.3298
 124  731.7
 125  555.5571
 126  583.4595
 127  582.3349
 128  372.341
 129  331.1905
 130  495.7494
 131  573.3167
 132  663.3809
 133  640.0132
 134  476.7492
 135  497.0195
 136  436.8922
 137  435.2063
 138  526.922
 139  492.1935
 140  496.0099
 141  465.3787
 142  549.4048
 143  549.9179
 144  490.767
 145  417.1653
 146  385.752
 147  382.383
 148  401.2443
 149  461.442
 150  551.5018
 151  536.7693
 152  526.5602
 153  385.8664
 154  401.138
 155  389.3673
 156  443.7471
 157  597.3644
 158  544.2995
 159  657.6203
 160  537.7151
 161  462.5549
 162  418.1058
 163  474.9716
 164  319.1207
 165  354.6202
 166  421.4722
 167  526.1627
 168  476.0838
 169  380.5461
 170  459.5746
 171  535.8323
 172  542.1861
 173  575.0554
 174  579.3761
 175  487.3957
 176  498.5393
 177  621.5116
 178  606.3295
 179  509.9061
 180  567.7621
 181  636.1548
 182  533.8674
 183  555.6573
 184  468.0876
 185  421.1589
 186  430.0312
 187  551.501
 188  577.5723
 189  479.9683
 190  522.5181
 191  477.4987
 192  444.7571
 193  571.0436
 194  594.7485
 195  561.2264
 196  466.0372
 197  585.5787
 198  597.8282
 199  408.6467
 200  498.5081
 201  519.2756
 202  521.7099
 203  521.8275
 204  438.9301
 205  468.8663
 206  495.1959
 207  585.8068
 208  615.9364
 209  545.2824
 210  466.4125
 211  372.939
 212  438.4373
 213  423.5824
 214  546.4381
 215  377.3792
 216  421.4733
 217  431.9086
 218  561.6554
 219  541.0157
 220  433.1391
 221  419.387
 222  550.1349
 223  568.4285
 224  620.0007
 225  573.3918
 226  555.5107
 227  575.7111
 228  572.1837
 229  468.7746
 230  465.1505
 231  386.0345
 232  445.49
 233  601.4602
 234  592.667
 235  505.9102
 236  494.5124
 237  391.6783
 238  451.0342
 239  513.5647
 240  573.2886
 241  530.5071
 242  371.0817
 243  611.7532
 244  536.9542
 245  408.8476
 246  494.5522
 247  512.4864
 248  499.0342
 249  507.6635
 250  549.2444
 251  577.0695
 252  546.0529
 253  474.1514
 254  409.3589
 255  553.7972
 256  581.788
 257  521.4548
 258  468.6593
 259  530.4484
 260  520.7083
 261  633.2381
 262  542.9796
 263  565.601
 264  471.0842
 265  472.0906
 266  542.9391
 267  575.2822
 268  535.57
 269  598.968
 270  600.9625
 271  446.498
 272  497.7544
 273  620.4557
 274  620.9644
 275  547.0812
 276  480.7138
 277  460.35
 278  456.9822
 279  462.0363
 280  480.6353
 281  608.6294
 282  586.7222
 283  422.4709
 284  355.6423
 285  440.202
 286  347.817
 287  453.8793
 288  411.2153
 289  487.9016
 290  538.6649
 291  584.2991
 292  537.9605
 293  446.3414
 294  480.5516
 295  509.6968
 296  486.7404
 297  473.3984
 298  543.6746
 299  567.5317
 300  618.9437
 301  551.7378
 302  490.8053
 303  453.4911
 304  508.029
 305  596.5258
 306  614.0863
 307  580.2343
 308  536.6305
 309  557.6797
 310  442.3603
 311  416.5657
 312  573.5413
 313  602.551
 314  564.8333
 315  490.6971
 316  577.7519
 317  610.9424
 318  589.566
 319  536.7925
 320  386.6031
 321  478.3222
 322  593.8493
 323  620.1509
 324  628.1159
 325  518.3184
 326  566.444
 327  618.6762
 328  618.0536
 329  630.6667
 330  571.3178
 331  604.7329
 332  672.5527
 333  602.9453
 334  535.4209
 335  575.7853
 336  649.8444
 337  656.7197
 338  557.911
 339  513.0206
 340  555.9868
 341  613.0883
 342  451.0608
 343  407.2714
 344  543.7681
 345  448.4593
 346  484.8944
 347  478.3259
 348  548.469
 349  542.4662
 350  610.1324
 351  624.6342
 352  347.5298
 353  434.7422
 354  513.0012
 355  605.4519
 356  549.5812
 357  539.9063
 358  569.7709
 359  487.4973
 360  590.0775
 361  565.1463
 362  533.859
 363  550.7523
 364  587.7841
 365  709.2154
 366  599.7286
 367  469.7994
 368  415.3141
 369  432.9491
 370  538.7651
 371  639.8337
 372  650.0983
 373  465.3765
 374  476.3998
 375  498.795
 376  569.9576
 377  583.2793
 378  587.5472
 379  661.1474
 380  574.8705
 381  591.2634
 382  576.4846
 383  458.8674
 384  441.7176
 385  457.1468
 386  395.6272
 387  432.5507
 388  571.6649
 389  532.8359
 390  434.4258
 391  393.0623
 392  546.6367
 393  348.336
 394  429.0973
 395  376.8855
 396  455.8739
 397  544.6363
 398  530.3939
 399  618.801
 400  498.9083
 401  436.9214
 402  461.0109
 403  519.0009
 404  517.0017
 405  476.4829
 406  503.9639
 407  457.2297
 408  576.0858
 409  512.7482
 410  511.8792
 411  536.1199
 412  545.0466
 413  514.9861
 414  470.9321
 415  518.0223
 416  470.7015
 417  514.4525
 418  582.8676
 419  605.9203
 420  551.4236
 421  452.2101
 422  443.9237
 423  603.5991
 424  500.7539
 425  486.2207
 426  409.2569
 427  354.9482
 428  273.6939
 429  377.012
 430  375.2644
 431  424.5218
 432  476.6447
 433  464.7782
 434  490.8717
 435  484.8642
 436  407.893
 437  372.2918
 438  403.52
 439  504.2238
 440  529.7204
 441  399.2216
 442  499.1785
 443  458.4318
 444  483.2782
 445  414.9267
 446  421.8895
 447  408.1687
 448  303.7932
 449  463.5695
 450  497.256
 451  438.422
 452  561.1812
 453  561.1243
 454  611.0811
 455  514.0363
 456  401.6398
 457  455.327
 458  474.8756
 459  497.8467
 460  547.8061
 461  513.884
 462  565.6314
 463  586.8896
 464  591.178
 465  551.6887
 466  493.7401
 467  585.2957
 468  627.6781
 469  604.2101
 470  475.5682
 471  413.4594
 472  467.2013
 473  611.7209
 474  484.0797
 475  486.8598
 476  439.5556
 477  533.9401
 478  512.8215
 479  537.8151
 480  453.1367
 481  484.1664
 482  465.0393
 483  522.9512
 484  553.3873
 485  522.9392
 486  484.544
 487  505.2598
 488  513.0455
 489  396.8651
 490  371.6955
 491  393.2004
 492  480.9046
 493  426.8344
 494  438.8042
 495  429.0408
 496  382.893
 497  422.9092
 498  282.2333
 499  427.2893
 500  529.2678
 501  579.0582
 502  541.7164
 503  424.0398
 504  380.4837
 505  435.8064
 506  456.9664
 507  483.8754
 508  439.4191
 509  437.4851
 510  432.1861
 511  408.8086
