# Input file       =  1191639351.117412_cleaned.dat
# Candidate        =  PSR_0332+5434
# Telescope        =  AR
# Epoch_topo       =  58036.122339321897
# Epoch_bary       =  N/A
# T_sample         =  0.002
# Data Folded      =  7340032
# Data Avg         =  0.0469039186947547
# Data StdDev      =  2.70868182711814 
# Profile Bins     =  512
# Profile Avg      =  672.373488808004 
# Profile StdDev   =  324.318699739422 
# Reduced chi-sqr  =  1.518
# Prob(Noise)      <  3.36e-13   (~7.2 sigma)
# P_topo (ms)      =  714.478466307463  +/- 0.000197
# P'_topo (s/s)    =  -0                +/- 1.04e-10
# P''_topo (s/s^2) =  0                 +/- 4.59e-14
# P_bary (ms)      =  N/A
# P'_bary (s/s)    =  N/A
# P''_bary (s/s^2) =  N/A
# P_orb (s)        =  N/A
# asin(i)/c (s)    =  N/A
# eccentricity     =  N/A
# w (rad)          =  N/A
# T_peri           =  N/A
######################################################
   0  297.2241
   1  636.5193
   2  973.6683
   3  745.0421
   4  840.644
   5  852.7899
   6  617.16
   7  823.4006
   8  719.3611
   9  872.9825
  10  849.2322
  11  871.6287
  12  754.9348
  13  420.7505
  14  522.8188
  15  627.049
  16  462.5943
  17  569.4283
  18  623.3811
  19  1008.65
  20  1361.693
  21  881.4836
  22  669.0623
  23  659.5798
  24  885.7895
  25  773.8917
  26  598.7305
  27  724.7632
  28  876.1592
  29  708.9008
  30  466.5027
  31  283.0083
  32  682.0776
  33  979.8521
  34  884.2438
  35  878.1172
  36  763.3898
  37  613.0594
  38  578.033
  39  493.3869
  40  302.7517
  41  709.0911
  42  913.3506
  43  911.3708
  44  855.7272
  45  689.7827
  46  1034.803
  47  920.2964
  48  1056.782
  49  827.1079
  50  764.1209
  51  645.5381
  52  496.9936
  53  472.7939
  54  592.2798
  55  689.8995
  56  578.6741
  57  447.1852
  58  568.2184
  59  496.3087
  60  663.9409
  61  457.2685
  62  641.3544
  63  577.3141
  64  363.4942
  65  170.4718
  66  297.2741
  67  611.0741
  68  511.4586
  69  563.1835
  70  411.6624
  71  339.292
  72  591.1617
  73  728.7205
  74  734.6249
  75  901.4608
  76  484.985
  77  368.3047
  78  573.9977
  79  628.4548
  80  392.1704
  81  637.8337
  82  860.0156
  83  660.3557
  84  900.4175
  85  731.4919
  86  865.6056
  87  429.6969
  88  331.61
  89  507.4158
  90  662.2735
  91  566.9866
  92  27.33544
  93  105.7781
  94  303.6642
  95  569.1105
  96  670.6987
  97  526.4275
  98  804.8135
  99  658.505
 100  570.3278
 101  1067.109
 102  709.3647
 103  465.4123
 104  767.7197
 105  788.633
 106  364.5899
 107  593.9271
 108  880.7034
 109  765.1176
 110  936.1745
 111  726.0276
 112  323.0332
 113  459.2622
 114  1107.083
 115  550.6666
 116  157.0304
 117  598.7967
 118  827.4798
 119  781.1088
 120  365.3055
 121  112.0435
 122  212.2354
 123  581.1254
 124  596.3806
 125  310.1439
 126  717.1364
 127  844.3953
 128  542.215
 129  366.9817
 130  279.1883
 131  437.7683
 132  245.5858
 133  432.1321
 134  551.5449
 135  723.3158
 136  1078.126
 137  781.0618
 138  704.9418
 139  679.8696
 140  647.7123
 141  732.8163
 142  893.1212
 143  674.3359
 144  151.4683
 145  300.1931
 146  937.0103
 147  783.4103
 148  422.1926
 149  520.7537
 150  806.0968
 151  592.8079
 152  259.6877
 153  294.5932
 154  125.0655
 155  338.6313
 156  941.8204
 157  598.04
 158  510.654
 159  425.7162
 160  757.845
 161  963.777
 162  951.4461
 163  540.4484
 164  415.6819
 165  645.783
 166  485.7712
 167  557.0314
 168  576.4673
 169  597.9598
 170  716.0696
 171  549.2202
 172  424.6223
 173  426.8296
 174  815.6865
 175  508.0196
 176  403.8231
 177  614.4
 178  766.7837
 179  517.7664
 180  402.3459
 181  266.0258
 182  511.8716
 183  585.0579
 184  372.9207
 185  679.9474
 186  840.9294
 187  736.1108
 188  768.5057
 189  736.5816
 190  806.6339
 191  888.7576
 192  358.8343
 193  279.582
 194  461.7008
 195  945.9423
 196  940.7548
 197  721.4439
 198  599.1673
 199  407.8456
 200  595.9926
 201  985.2701
 202  690.934
 203  802.3892
 204  1076.739
 205  1003.523
 206  559.5045
 207  315.0882
 208  357.0554
 209  459.9665
 210  625.5058
 211  434.7897
 212  592.8935
 213  647.0971
 214  473.019
 215  155.2946
 216  608.3629
 217  1260.141
 218  1083.718
 219  984.6235
 220  372.5828
 221  383.4467
 222  437.7727
 223  735.9686
 224  698.1661
 225  624.0194
 226  812.3218
 227  759.8231
 228  553.7125
 229  807.4388
 230  642.2961
 231  584.8539
 232  765.1519
 233  469.3273
 234  560.9927
 235  543.7771
 236  804.703
 237  682.7905
 238  773.0288
 239  899.9526
 240  927.1931
 241  929.0988
 242  704.6371
 243  860.5712
 244  547.1938
 245  844.251
 246  1186.333
 247  1007.14
 248  840.0717
 249  988.8989
 250  609.5762
 251  436.0109
 252  497.6997
 253  597.2849
 254  933.1323
 255  656.4109
 256  710.1091
 257  168.4858
 258  7.632233
 259  399.3202
 260  458.1898
 261  317.9712
 262  725.1722
 263  945.2814
 264  722.27
 265  650.2296
 266  826.0862
 267  669.5488
 268  883.569
 269  690.1006
 270  980.7725
 271  870.0591
 272  764.0245
 273  930.2631
 274  954.3919
 275  959.9275
 276  660.0266
 277  603.73
 278  655.4879
 279  712.6975
 280  1093.172
 281  814.7131
 282  546.553
 283  497.5724
 284  726.8308
 285  816.1928
 286  672.9617
 287  965.9187
 288  716.5127
 289  631.5594
 290  581.3667
 291  465.0664
 292  917.0527
 293  1076.535
 294  841.6679
 295  627.5108
 296  699.3948
 297  1145.337
 298  1305.953
 299  1047.509
 300  912.3083
 301  907.6239
 302  650.3962
 303  1019.284
 304  1363.612
 305  715.0262
 306  416.7745
 307  508.1935
 308  580.3759
 309  741.4433
 310  963.7319
 311  967.2899
 312  560.9498
 313  666.8551
 314  1273.312
 315  1024.637
 316  1404.017
 317  2223.181
 318  2288.511
 319  2275.679
 320  2618.881
 321  2275.741
 322  1477.636
 323  972.2457
 324  918.4164
 325  634.098
 326  314.1929
 327  601.8012
 328  898.445
 329  735.8423
 330  861.6998
 331  778.1293
 332  505.1403
 333  590.893
 334  775.8987
 335  962.9316
 336  859.2387
 337  727.5537
 338  605.3354
 339  384.6635
 340  659.8185
 341  622.3837
 342  456.8229
 343  632.6733
 344  621.6809
 345  670.4255
 346  867.6747
 347  724.9268
 348  740.813
 349  762.0876
 350  997.3408
 351  870.9729
 352  793.7723
 353  952.8063
 354  1157.672
 355  989.0582
 356  597.4467
 357  769.8829
 358  815.9861
 359  666.2589
 360  547.4991
 361  850.6891
 362  518.2292
 363  741.2983
 364  856.7866
 365  799.551
 366  454.4998
 367  229.0874
 368  207.0714
 369  397.6292
 370  613.6879
 371  142.8923
 372  61.02784
 373  269.8521
 374  633.6135
 375  645.3339
 376  598.9608
 377  792.7767
 378  402.1616
 379  576.2502
 380  685.2103
 381  726.7405
 382  806.3121
 383  784.8738
 384  626.7355
 385  794.4102
 386  573.9088
 387  756.0967
 388  751.2167
 389  301.6955
 390  615.9246
 391  385.1193
 392  415.2537
 393  559.0886
 394  705.1748
 395  617.1918
 396  783.861
 397  520.2787
 398  494.3987
 399  867.5135
 400  635.9125
 401  543.5718
 402  423.3372
 403  629.3821
 404  809.0256
 405  736.9641
 406  599.2672
 407  503.8402
 408  353.8456
 409  451.3524
 410  537.1707
 411  82.47636
 412  226.2296
 413  329.5579
 414  580.473
 415  588.1318
 416  81.74863
 417  45.38227
 418  603.2202
 419  622.0345
 420  476.6335
 421  319.8414
 422  737.7926
 423  660.7614
 424  524.0461
 425  463.0226
 426  501.7626
 427  694.5338
 428  423.4383
 429  189.9533
 430  218.1105
 431  716.1235
 432  779.5783
 433  599.8872
 434  722.4374
 435  912.2876
 436  959.1069
 437  943.3681
 438  819.5655
 439  562.5221
 440  685.8695
 441  1050.142
 442  881.2402
 443  408.121
 444  176.5861
 445  377.5701
 446  675.3716
 447  1042.277
 448  475.3866
 449  572.5132
 450  702.0319
 451  517.5237
 452  576.4736
 453  474.3394
 454  292.2258
 455  296.1799
 456  374.655
 457  887.7025
 458  703.0056
 459  195.685
 460  297.54
 461  747.6702
 462  764.611
 463  123.6467
 464  135.9981
 465  913.3778
 466  1096.389
 467  1045.363
 468  801.1288
 469  912.4926
 470  977.6754
 471  851.7611
 472  914.8625
 473  931.267
 474  664.9946
 475  813.7955
 476  731.8311
 477  593.8806
 478  489.5324
 479  618.0861
 480  815.6133
 481  821.8165
 482  496.7493
 483  443.6113
 484  608.9853
 485  754.585
 486  595.2386
 487  385.2077
 488  694.4626
 489  651.0421
 490  621.2945
 491  651.594
 492  874.3571
 493  815.3908
 494  760.0789
 495  535.7339
 496  456.9218
 497  620.7598
 498  818.497
 499  632.6412
 500  797.4873
 501  644.4862
 502  664.0685
 503  635.0071
 504  829.8417
 505  765.3476
 506  1072.487
 507  1057.534
 508  806.7339
 509  767.5925
 510  862.8108
 511  652.7466
