# Input file       =  1191021321.110226_cleaned.dat
# Candidate        =  PSR_0332+5434
# Telescope        =  AR
# Epoch_topo       =  58028.969214238728
# Epoch_bary       =  N/A
# T_sample         =  0.002
# Data Folded      =  7340032
# Data Avg         =  0.0279908903082417
# Data StdDev      =  2.5577372972     
# Profile Bins     =  1024
# Profile Avg      =  201.995383929721 
# Profile StdDev   =  216.548377837622 
# Reduced chi-sqr  =  1.240
# Prob(Noise)      <  2.16e-07   (~5.1 sigma)
# P_topo (ms)      =  714.473707848654  +/- 0.000342
# P'_topo (s/s)    =  -0                +/- 1.81e-10
# P''_topo (s/s^2) =  0                 +/- 7.97e-14
# P_bary (ms)      =  N/A
# P'_bary (s/s)    =  N/A
# P''_bary (s/s^2) =  N/A
# P_orb (s)        =  N/A
# asin(i)/c (s)    =  N/A
# eccentricity     =  N/A
# w (rad)          =  N/A
# T_peri           =  N/A
######################################################
   0  -39.17621
   1  34.42301
   2  164.3916
   3  203.9792
   4  167.0819
   5  170.4614
   6  298.3876
   7  351.9911
   8  274.112
   9  146.6703
  10  109.2743
  11  105.8639
  12  34.85158
  13  -1.752093
  14  12.45319
  15  96.60912
  16  146.0877
  17  143.329
  18  36.9468
  19  49.61855
  20  97.87872
  21  257.8204
  22  198.8219
  23  144.6407
  24  173.7765
  25  275.5258
  26  341.5454
  27  284.1623
  28  222.5172
  29  204.9465
  30  299.1187
  31  367.5023
  32  286.4885
  33  139.1145
  34  70.7383
  35  215.2622
  36  334.7352
  37  420.389
  38  301.3286
  39  213.1827
  40  105.2891
  41  148.0011
  42  95.74844
  43  83.87977
  44  117.2877
  45  142.2305
  46  233.1296
  47  169.7209
  48  170.9243
  49  137.9838
  50  196.1427
  51  105.962
  52  78.56726
  53  57.7066
  54  109.4788
  55  114.4522
  56  178.2782
  57  252.135
  58  259.2162
  59  198.1279
  60  123.8012
  61  32.2345
  62  8.699652
  63  -11.2619
  64  -31.71929
  65  -134.9256
  66  -206.4202
  67  -48.92635
  68  161.2533
  69  261.7281
  70  132.6268
  71  226.2605
  72  237.8191
  73  196.6112
  74  80.53239
  75  35.57227
  76  -15.56465
  77  -98.92719
  78  106.846
  79  286.4296
  80  303.2842
  81  144.9612
  82  45.02391
  83  78.17419
  84  130.0082
  85  162.3955
  86  190.3616
  87  97.58121
  88  14.31079
  89  -13.19151
  90  92.43919
  91  174.8603
  92  159.4654
  93  107.9435
  94  134.0173
  95  275.7267
  96  325.2786
  97  282.7686
  98  183.6156
  99  168.8338
 100  224.6169
 101  258.66
 102  307.3972
 103  332.1902
 104  253.6918
 105  125.1274
 106  62.85685
 107  60.65794
 108  47.65925
 109  100.5773
 110  213.0751
 111  309.7239
 112  197.3415
 113  8.894309
 114  38.92319
 115  135.1597
 116  256.0342
 117  257.7582
 118  366.8244
 119  443.4018
 120  450.0508
 121  274.7821
 122  65.68304
 123  -94.28336
 124  32.08005
 125  178.1806
 126  222.4117
 127  185.0929
 128  190.799
 129  261.4865
 130  231.9321
 131  129.7856
 132  114.9959
 133  96.16531
 134  52.26249
 135  58.29912
 136  77.84951
 137  177.415
 138  194.9347
 139  238.7899
 140  276.5445
 141  302.7155
 142  336.1863
 143  341.9035
 144  348.5717
 145  370.9468
 146  330.7817
 147  244.4112
 148  232.0969
 149  285.1258
 150  388.9296
 151  441.9194
 152  438.2387
 153  390.1009
 154  290.4154
 155  219.3808
 156  208.5762
 157  207.3533
 158  111.8489
 159  118.5633
 160  198.5271
 161  234.9949
 162  218.9325
 163  190.374
 164  210.3048
 165  51.14091
 166  18.49876
 167  88.97168
 168  205.2848
 169  218.0516
 170  197.1693
 171  174.4696
 172  229.0594
 173  219.672
 174  154.6234
 175  11.81339
 176  -44.48434
 177  -56.72926
 178  -57.91806
 179  111.5703
 180  238.4958
 181  221.9572
 182  152.8741
 183  217.578
 184  272.7611
 185  327.1547
 186  209.3185
 187  185.6281
 188  106.0874
 189  209.1815
 190  252.61
 191  331.4265
 192  325.3218
 193  294.9821
 194  236.8295
 195  97.32124
 196  89.95292
 197  193.1227
 198  300.0142
 199  324.7449
 200  220.4994
 201  185.3953
 202  214.1418
 203  226.9035
 204  188.2528
 205  58.82817
 206  -18.06749
 207  -63.80776
 208  -42.86565
 209  -6.167337
 210  -7.517849
 211  37.20241
 212  133.6605
 213  157.9677
 214  161.4819
 215  118.7988
 216  101.1334
 217  84.39984
 218  131.5677
 219  155.3848
 220  92.04837
 221  47.7825
 222  44.44757
 223  193.7177
 224  203.1357
 225  183.5113
 226  197.6795
 227  209.6909
 228  321.2194
 229  259.4054
 230  323.3356
 231  367.0703
 232  402.3031
 233  346.6205
 234  282.8382
 235  355.4296
 236  359.3666
 237  277.035
 238  154.4367
 239  135.043
 240  205.5817
 241  166.4885
 242  170.5543
 243  182.121
 244  214.1209
 245  254.9745
 246  259.3067
 247  294.5466
 248  176.9398
 249  161.8408
 250  320.3024
 251  326.0867
 252  245.2351
 253  158.8849
 254  193.9578
 255  326.7098
 256  303.7303
 257  309.8829
 258  200.6225
 259  203.0562
 260  263.9414
 261  302.4512
 262  227.9273
 263  195.8725
 264  181.8368
 265  236.6223
 266  197.3034
 267  102.0483
 268  129.9218
 269  184.7869
 270  354.0218
 271  335.4747
 272  318.9125
 273  164.9067
 274  134.0317
 275  195.3475
 276  280.4103
 277  223.2915
 278  102.8463
 279  133.8165
 280  218.7193
 281  359.3759
 282  364.6878
 283  403.9425
 284  352.7406
 285  265.1163
 286  237.2379
 287  166.7831
 288  114.0726
 289  101.1781
 290  138.3215
 291  206.8094
 292  176.8224
 293  43.48584
 294  40.46582
 295  195.9592
 296  373.3979
 297  455.9474
 298  493.3628
 299  415.4547
 300  319.6522
 301  298.6723
 302  215.9153
 303  197.9131
 304  94.56346
 305  254.8479
 306  282.1988
 307  330.5111
 308  213.8202
 309  169.877
 310  198.4114
 311  282.7867
 312  261.0828
 313  122.3381
 314  158.394
 315  271.9153
 316  390.8163
 317  300.8909
 318  238.4926
 319  243.0068
 320  270.4689
 321  184.3515
 322  132.5841
 323  94.9497
 324  132.1668
 325  108.3227
 326  51.3215
 327  145.7149
 328  235.1836
 329  203.2082
 330  193.656
 331  220.1458
 332  277.1784
 333  293.7572
 334  298.0363
 335  316.7069
 336  243.8774
 337  200.4614
 338  160.1166
 339  156.4403
 340  187.2385
 341  216.2595
 342  286.3667
 343  322.1227
 344  233.1731
 345  124.3479
 346  132.5395
 347  330.819
 348  461.4489
 349  520.7295
 350  359.05
 351  240.7213
 352  275.8061
 353  362.2729
 354  358.3505
 355  314.7797
 356  318.705
 357  320.8568
 358  224.2525
 359  220.3698
 360  292.4968
 361  334.0811
 362  245.4547
 363  149.3022
 364  127.9672
 365  107.1962
 366  198.3192
 367  211.8771
 368  325.1031
 369  238.7326
 370  320.7953
 371  336.4754
 372  370.1984
 373  320.2979
 374  325.4358
 375  281.1988
 376  211.9428
 377  257.1859
 378  385.5536
 379  499.3246
 380  367.6274
 381  233.4797
 382  173.2133
 383  256.023
 384  286.5287
 385  320.3114
 386  321.3216
 387  375.0557
 388  398.3244
 389  303.0363
 390  262.1246
 391  217.3073
 392  334.1575
 393  405.0134
 394  435.0316
 395  385.8669
 396  345.4677
 397  457.0278
 398  514.166
 399  536.8225
 400  346.0261
 401  188.2059
 402  73.90144
 403  115.0476
 404  298.9797
 405  375.0169
 406  291.95
 407  343.7529
 408  386.5778
 409  303.2834
 410  90.74712
 411  53.50734
 412  146.0471
 413  236.7387
 414  212.6131
 415  185.3735
 416  251.3201
 417  202.8173
 418  212.969
 419  182.9597
 420  256.1532
 421  293.3342
 422  288.8574
 423  242.1939
 424  150.1901
 425  139.9147
 426  188.2375
 427  197.3623
 428  137.6325
 429  51.78821
 430  202.3416
 431  179.1046
 432  199.5658
 433  98.21161
 434  152.3909
 435  116.7475
 436  123.9012
 437  185.6603
 438  187.4617
 439  217.9254
 440  263.5624
 441  300.7964
 442  266.1028
 443  205.7071
 444  134.6109
 445  44.07531
 446  117.3077
 447  288.032
 448  304.1661
 449  247.1488
 450  236.6104
 451  308.7836
 452  294.1727
 453  385.8873
 454  429.9731
 455  476.7369
 456  353.1794
 457  266.8075
 458  148.4175
 459  25.34196
 460  6.164265
 461  69.36386
 462  194.0305
 463  256.613
 464  231.0119
 465  221.5744
 466  121.1589
 467  106.2238
 468  96.23813
 469  139.1801
 470  182.2441
 471  175.2283
 472  249.3786
 473  230.7425
 474  73.26038
 475  -18.1537
 476  -10.06566
 477  85.90292
 478  151.4382
 479  88.45551
 480  36.69157
 481  -42.90042
 482  69.3423
 483  156.8078
 484  129.6473
 485  57.03765
 486  13.25825
 487  66.14164
 488  87.97089
 489  -25.56636
 490  4.336555
 491  177.1599
 492  274.522
 493  244.2872
 494  181.9784
 495  144.7412
 496  57.49318
 497  -51.31259
 498  89.79585
 499  162.456
 500  190.655
 501  88.75376
 502  59.01499
 503  90.78194
 504  42.29535
 505  57.35215
 506  148.2505
 507  218.2818
 508  260.8155
 509  158.9814
 510  155.8138
 511  75.10402
 512  113.8609
 513  35.31793
 514  120.5681
 515  262.39
 516  268.4769
 517  283.6514
 518  201.9692
 519  246.2971
 520  293.8855
 521  283.1776
 522  299.6584
 523  235.2866
 524  295.1641
 525  315.089
 526  291.8385
 527  239.183
 528  153.0524
 529  197.6389
 530  245.9879
 531  229.2673
 532  149.6665
 533  108.3776
 534  216.173
 535  305.2328
 536  354.2979
 537  264.7846
 538  275.8818
 539  301.368
 540  360.9017
 541  315.6477
 542  287.4493
 543  264.5788
 544  193.2636
 545  196.633
 546  145.0275
 547  132.1788
 548  132.3561
 549  257.8654
 550  342.825
 551  391.7442
 552  278.9521
 553  185.3351
 554  118.8021
 555  107.427
 556  129.0012
 557  258.5141
 558  248.3385
 559  195.8599
 560  236.6149
 561  390.9642
 562  327.5063
 563  195.8976
 564  65.96704
 565  141.7203
 566  39.35039
 567  124.5465
 568  174.5034
 569  181.248
 570  246.0819
 571  312.8592
 572  415.8945
 573  332.3758
 574  252.0351
 575  197.2762
 576  213.5782
 577  224.3569
 578  202.2365
 579  193.5134
 580  222.1174
 581  243.1282
 582  168.5483
 583  92.25897
 584  25.77408
 585  78.55906
 586  -24.83165
 587  102.678
 588  98.97218
 589  197.5182
 590  152.9834
 591  143.4955
 592  164.7278
 593  198.9387
 594  309.2303
 595  118.5695
 596  7.440165
 597  54.275
 598  260.4994
 599  247.2428
 600  117.2465
 601  75.37955
 602  193.4099
 603  257.6787
 604  252.226
 605  216.422
 606  231.7743
 607  289.0949
 608  318.3851
 609  231.642
 610  119.1558
 611  65.83354
 612  141.6931
 613  217.6473
 614  356.5011
 615  363.5795
 616  250.8235
 617  262.9184
 618  319.2528
 619  342.0623
 620  273.9766
 621  192.0108
 622  194.9763
 623  162.7778
 624  262.5565
 625  378.6273
 626  451.2014
 627  420.6883
 628  302.5882
 629  293.2136
 630  382.598
 631  410.4928
 632  385.2384
 633  472.6365
 634  652.0504
 635  738.2338
 636  751.2116
 637  753.6332
 638  826.8616
 639  901.7018
 640  951.2643
 641  854.0478
 642  749.1699
 643  740.573
 644  772.3414
 645  799.7968
 646  619.3655
 647  470.8195
 648  284.5585
 649  150.0079
 650  159.5044
 651  214.14
 652  281.4943
 653  280.266
 654  234.9528
 655  283.5406
 656  255.402
 657  218.3029
 658  261.5915
 659  259.0909
 660  186.2367
 661  153.9616
 662  132.5833
 663  257.5688
 664  253.7399
 665  415.0244
 666  408.2929
 667  359.3987
 668  196.7161
 669  230.3378
 670  258.0377
 671  232.1039
 672  254.3521
 673  386.1344
 674  440.9448
 675  440.5834
 676  275.066
 677  277.7449
 678  204.2197
 679  276.9149
 680  140.8078
 681  177.0259
 682  183.0643
 683  203.3186
 684  57.50845
 685  -34.66661
 686  -9.060524
 687  113.0836
 688  188.9257
 689  294.1616
 690  343.5299
 691  233.2013
 692  91.63071
 693  -24.76283
 694  -38.60648
 695  28.99274
 696  149.9161
 697  265.0663
 698  313.519
 699  403.9905
 700  405.5381
 701  220.1572
 702  116.8259
 703  106.7766
 704  187.5706
 705  -4.53616
 706  27.83323
 707  130.3967
 708  271.6442
 709  317.1393
 710  213.3751
 711  212.2703
 712  88.41521
 713  37.16386
 714  62.48111
 715  101.6387
 716  57.5974
 717  -17.2493
 718  36.79614
 719  167.2012
 720  229.6515
 721  170.3277
 722  172.3547
 723  244.2322
 724  367.1195
 725  380.5762
 726  351.4857
 727  312.1555
 728  276.4808
 729  233.115
 730  259.0786
 731  288.1507
 732  273.0457
 733  272.4786
 734  326.4497
 735  331.1405
 736  260.5111
 737  141.2679
 738  -12.75388
 739  -26.09413
 740  -79.50465
 741  118.9703
 742  111.2712
 743  189.8836
 744  251.2768
 745  352.7252
 746  329.9741
 747  154.6834
 748  173.6808
 749  232.3895
 750  271.9481
 751  230.2752
 752  227.7776
 753  232.2205
 754  202.7203
 755  160.169
 756  88.72349
 757  36.2823
 758  2.49332
 759  132.3273
 760  176.1637
 761  238.8519
 762  120.7376
 763  178.6988
 764  47.96672
 765  -16.48886
 766  -10.04098
 767  39.70375
 768  107.1311
 769  183.4021
 770  230.1097
 771  291.1597
 772  163.8925
 773  257.6635
 774  278.7876
 775  408.9875
 776  294.5544
 777  161.9702
 778  53.78152
 779  128.0294
 780  198.6699
 781  137.2177
 782  36.00115
 783  -14.45455
 784  119.3826
 785  351.5685
 786  345.6567
 787  337.8635
 788  263.1759
 789  302.2959
 790  143.5963
 791  121.5972
 792  211.0738
 793  367.1618
 794  344.6326
 795  157.1992
 796  67.2638
 797  149.4393
 798  232.8709
 799  242.2138
 800  128.153
 801  40.38046
 802  110.2786
 803  164.3646
 804  150.0581
 805  146.9784
 806  249.1662
 807  324.6963
 808  316.8573
 809  305.3515
 810  101.7284
 811  2.293059
 812  72.73997
 813  195.9464
 814  184.0114
 815  128.5676
 816  54.38305
 817  -23.81454
 818  -95.13817
 819  -169.2074
 820  -175.9364
 821  -45.91785
 822  127.4149
 823  224.9118
 824  149.191
 825  120.003
 826  51.7671
 827  146.175
 828  180.234
 829  202.0968
 830  192.8614
 831  197.3278
 832  142.5753
 833  -80.87817
 834  -82.34452
 835  99.68798
 836  423.0727
 837  382.5571
 838  293.4322
 839  118.2534
 840  98.83549
 841  120.368
 842  285.4959
 843  307.2466
 844  150.411
 845  75.04675
 846  117.6993
 847  289.2262
 848  307.3906
 849  330.74
 850  346.0805
 851  395.6958
 852  366.6089
 853  238.9019
 854  74.84732
 855  21.83785
 856  54.42048
 857  63.96627
 858  111.0306
 859  82.04536
 860  109.7466
 861  44.32677
 862  74.8798
 863  102.9638
 864  195.6585
 865  207.5261
 866  129.6749
 867  55.36058
 868  117.506
 869  240.2136
 870  184.4763
 871  184.5792
 872  200.3152
 873  321.2958
 874  269.7435
 875  204.9841
 876  93.99441
 877  80.59057
 878  -18.96453
 879  -2.94265
 880  41.20502
 881  189.7337
 882  90.40277
 883  -49.16565
 884  -35.2503
 885  170.3342
 886  325.0999
 887  267.6142
 888  174.8456
 889  55.43776
 890  77.2195
 891  64.74471
 892  97.57622
 893  182.3587
 894  180.0201
 895  146.4256
 896  15.57015
 897  85.63947
 898  103.3215
 899  94.69434
 900  177.7262
 901  265.018
 902  354.0559
 903  209.0677
 904  237.5155
 905  135.0252
 906  167.1366
 907  113.595
 908  198.3763
 909  201.4375
 910  155.5657
 911  54.14267
 912  105.7408
 913  131.0616
 914  167.3726
 915  111.9106
 916  141.8785
 917  160.8632
 918  95.50096
 919  15.58054
 920  114.0083
 921  190.5661
 922  352.4232
 923  283.0497
 924  226.2217
 925  107.2491
 926  56.71854
 927  93.72631
 928  138.0356
 929  204.7612
 930  256.646
 931  288.8466
 932  323.3197
 933  257.3646
 934  163.5374
 935  227.8369
 936  291.2941
 937  326.3881
 938  144.9617
 939  42.21424
 940  45.43356
 941  102.1525
 942  53.29263
 943  148.3888
 944  118.8714
 945  221.3407
 946  173.9205
 947  336.4354
 948  320.9816
 949  215.6234
 950  110.3877
 951  64.32861
 952  136.5721
 953  283.4056
 954  273.166
 955  292.9341
 956  64.47516
 957  56.98445
 958  -48.88287
 959  68.4959
 960  45.13369
 961  84.74808
 962  205.581
 963  307.8644
 964  353.1983
 965  234.1746
 966  180.1684
 967  28.26739
 968  46.92293
 969  78.66348
 970  250.1155
 971  315.8735
 972  226.1446
 973  226.1431
 974  254.7413
 975  347.4923
 976  213.6067
 977  24.6684
 978  54.42936
 979  113.2056
 980  169.7269
 981  124.8301
 982  164.0705
 983  222.3789
 984  354.1696
 985  367.4012
 986  348.597
 987  261.0644
 988  383.317
 989  513.746
 990  375.7409
 991  185.4231
 992  88.39233
 993  115.0634
 994  89.88909
 995  160.1778
 996  275.859
 997  347.9654
 998  246.769
 999  161.9208
1000  88.12904
1001  19.57561
1002  -48.31961
1003  -95.3858
1004  -185.7375
1005  -112.279
1006  -54.83623
1007  53.19753
1008  223.7287
1009  331.9697
1010  363.1517
1011  265.0312
1012  240.662
1013  310.2749
1014  327.5406
1015  285.654
1016  194.1572
1017  136.2647
1018  102.9386
1019  259.5797
1020  345.4978
1021  379.2852
1022  208.3757
1023  24.48098
