# Input file       =  1191782146.121926_cleaned.dat
# Candidate        =  PSR_0332+5434
# Telescope        =  AR
# Epoch_topo       =  58037.775059281550
# Epoch_bary       =  N/A
# T_sample         =  0.002
# Data Folded      =  7208960
# Data Avg         =  0.200304355680815
# Data StdDev      =  4.42723536497778 
# Profile Bins     =  1024
# Profile Avg      =  1410.12536676121 
# Profile StdDev   =  371.46588989764  
# Reduced chi-sqr  =  0.456
# Prob(Noise)      <  1   (~0.0 sigma)
# P_topo (ms)      =  714.479236781181  +/- 0.000109
# P'_topo (s/s)    =  -0                +/- 5.85e-11
# P''_topo (s/s^2) =  0                 +/- 2.63e-14
# P_bary (ms)      =  N/A
# P'_bary (s/s)    =  N/A
# P''_bary (s/s^2) =  N/A
# P_orb (s)        =  N/A
# asin(i)/c (s)    =  N/A
# eccentricity     =  N/A
# w (rad)          =  N/A
# T_peri           =  N/A
######################################################
   0  1442.701
   1  1417.844
   2  1458.493
   3  1474.665
   4  1465.86
   5  1358.027
   6  1335.449
   7  1303.061
   8  1378.748
   9  1511.496
  10  1600.147
  11  1590.959
  12  1535.152
  13  1369.661
  14  1254.227
  15  1271.101
  16  1323.46
  17  1412.561
  18  1380.13
  19  1311.632
  20  1232.415
  21  1267.791
  22  1321.291
  23  1352.452
  24  1339.052
  25  1441.828
  26  1379.075
  27  1342.587
  28  1262.678
  29  1325.153
  30  1333.595
  31  1340.521
  32  1260.24
  33  1325.36
  34  1341.639
  35  1414.727
  36  1427.375
  37  1376.972
  38  1315.17
  39  1277.246
  40  1307.395
  41  1381.839
  42  1431.249
  43  1389.399
  44  1282.269
  45  1185.002
  46  1296.468
  47  1361.354
  48  1428.722
  49  1340.385
  50  1428.542
  51  1446.102
  52  1595.842
  53  1538.074
  54  1475.347
  55  1297.072
  56  1206.862
  57  1128.298
  58  1328.918
  59  1459.37
  60  1609.367
  61  1506.146
  62  1548.702
  63  1540.857
  64  1516.096
  65  1426.35
  66  1259.681
  67  1255.597
  68  1307.166
  69  1231.737
  70  1141.547
  71  1132.693
  72  1213.25
  73  1346.239
  74  1411.976
  75  1440.23
  76  1460.868
  77  1514.631
  78  1492.644
  79  1446.372
  80  1365.686
  81  1462.071
  82  1330.708
  83  1406.047
  84  1243.311
  85  1423.589
  86  1326.298
  87  1365.015
  88  1264.758
  89  1375.931
  90  1449.57
  91  1347.425
  92  1418.945
  93  1386.71
  94  1412.543
  95  1497.624
  96  1516.49
  97  1485.198
  98  1312.851
  99  1352.41
 100  1373.181
 101  1480.12
 102  1357.719
 103  1362.207
 104  1285.097
 105  1336.023
 106  1237.626
 107  1204.543
 108  1330.721
 109  1399.246
 110  1416.806
 111  1432.279
 112  1362.598
 113  1313.38
 114  1395.724
 115  1498.768
 116  1500.38
 117  1265.296
 118  1263.344
 119  1311.792
 120  1462.167
 121  1567.851
 122  1569.934
 123  1696.484
 124  1593.875
 125  1538.93
 126  1315.043
 127  1336.666
 128  1301.652
 129  1467.9
 130  1548.683
 131  1564.066
 132  1514.707
 133  1489.079
 134  1410.197
 135  1381.124
 136  1358.648
 137  1414.237
 138  1422.319
 139  1407.165
 140  1313.33
 141  1287.215
 142  1356.584
 143  1397.505
 144  1360.353
 145  1298.707
 146  1408.909
 147  1421.296
 148  1326.033
 149  1326.458
 150  1440.315
 151  1495.318
 152  1400.549
 153  1313.574
 154  1207.531
 155  1290.538
 156  1352.388
 157  1586.802
 158  1579.763
 159  1519.278
 160  1571.826
 161  1538.386
 162  1526.844
 163  1411.72
 164  1416.615
 165  1336.819
 166  1268.656
 167  1132.705
 168  1187.837
 169  1185.26
 170  1211.393
 171  1271.685
 172  1307.923
 173  1274.76
 174  1292.769
 175  1329.269
 176  1433.62
 177  1440.817
 178  1468.578
 179  1494.71
 180  1534.374
 181  1505.372
 182  1484.741
 183  1422.946
 184  1389.233
 185  1412.609
 186  1469.541
 187  1572.915
 188  1374.258
 189  1328.644
 190  1259.535
 191  1436.519
 192  1353.982
 193  1325.663
 194  1273.482
 195  1279.21
 196  1300.835
 197  1364.139
 198  1450.34
 199  1522.344
 200  1498.624
 201  1523.283
 202  1544.569
 203  1520.563
 204  1502.204
 205  1443.24
 206  1294.043
 207  1288.795
 208  1296.375
 209  1370.56
 210  1370.687
 211  1320.417
 212  1283.272
 213  1215.941
 214  1276.456
 215  1284.889
 216  1502.088
 217  1533.146
 218  1556.244
 219  1419.084
 220  1319.219
 221  1234.184
 222  1354.78
 223  1458.636
 224  1528.162
 225  1496.527
 226  1504.534
 227  1463.243
 228  1421.746
 229  1374.777
 230  1266.154
 231  1153.448
 232  1075.594
 233  1265.726
 234  1416.529
 235  1512.089
 236  1464.636
 237  1409.326
 238  1421.422
 239  1562.448
 240  1547.593
 241  1495.658
 242  1360.787
 243  1432.549
 244  1480.573
 245  1372.185
 246  1284.512
 247  1181.858
 248  1319.694
 249  1501.288
 250  1616.059
 251  1564.559
 252  1421.212
 253  1474.875
 254  1512.661
 255  1508.512
 256  1460.175
 257  1458.242
 258  1416.23
 259  1409.548
 260  1383.222
 261  1465.557
 262  1617.83
 263  1666.853
 264  1525.74
 265  1254.268
 266  1174.262
 267  1130.342
 268  1130.012
 269  1125.552
 270  1278.627
 271  1369.149
 272  1567.699
 273  1504.781
 274  1459.213
 275  1401.313
 276  1570.04
 277  1517.607
 278  1449.062
 279  1120.682
 280  1265.259
 281  1279.268
 282  1458.101
 283  1469.426
 284  1489.846
 285  1394.141
 286  1398.376
 287  1442.276
 288  1562.264
 289  1468.967
 290  1395.527
 291  1396.418
 292  1311.641
 293  1343.662
 294  1360.883
 295  1475.325
 296  1402.03
 297  1408.466
 298  1342.632
 299  1313.944
 300  1307.916
 301  1423.751
 302  1441.267
 303  1470.037
 304  1464.141
 305  1473.591
 306  1475.335
 307  1547.365
 308  1512.785
 309  1644.074
 310  1585.733
 311  1553.019
 312  1467.381
 313  1552.737
 314  1605.17
 315  1564.249
 316  1499.018
 317  1329.437
 318  1306.545
 319  1380.624
 320  1496.557
 321  1518.476
 322  1530.732
 323  1498.966
 324  1494.945
 325  1397.341
 326  1340.113
 327  1324.493
 328  1381.425
 329  1379.39
 330  1257.632
 331  1277.892
 332  1223.003
 333  1130.271
 334  1214.939
 335  1328.867
 336  1397.662
 337  1385.17
 338  1362.246
 339  1307.171
 340  1239.957
 341  1275.861
 342  1477.126
 343  1640.66
 344  1598.41
 345  1498.846
 346  1415.576
 347  1411.318
 348  1393.44
 349  1508.835
 350  1575.342
 351  1492.035
 352  1311.178
 353  1323.51
 354  1219.534
 355  1181.424
 356  1168.476
 357  1270.885
 358  1375.941
 359  1378.756
 360  1394.256
 361  1291.78
 362  1314.759
 363  1380.098
 364  1468.737
 365  1452.688
 366  1493.764
 367  1282.626
 368  1276.36
 369  1116.077
 370  1194.639
 371  1243.479
 372  1427.541
 373  1495.438
 374  1527.172
 375  1459.192
 376  1371.374
 377  1285.217
 378  1381.151
 379  1448.505
 380  1379.785
 381  1232.437
 382  1171.984
 383  1187.093
 384  1282.823
 385  1364.733
 386  1389.81
 387  1355.574
 388  1423.338
 389  1453.563
 390  1448.178
 391  1460.896
 392  1429.743
 393  1482.367
 394  1419.705
 395  1360.079
 396  1411.986
 397  1408.061
 398  1365.659
 399  1335.762
 400  1243.557
 401  1270.249
 402  1342.822
 403  1502.479
 404  1515.661
 405  1503.967
 406  1509.096
 407  1572.313
 408  1502.099
 409  1514.134
 410  1415.377
 411  1435.13
 412  1452.608
 413  1418.603
 414  1380.011
 415  1448.979
 416  1432.93
 417  1428.485
 418  1339.502
 419  1366.971
 420  1238.778
 421  1287.187
 422  1467.119
 423  1508.562
 424  1460.86
 425  1315.361
 426  1376.279
 427  1401.895
 428  1459.93
 429  1416.805
 430  1344.352
 431  1322.428
 432  1282.846
 433  1327.988
 434  1289.708
 435  1227.555
 436  1238.75
 437  1307.978
 438  1421.013
 439  1423.303
 440  1451.907
 441  1401.521
 442  1327.338
 443  1289.342
 444  1345.396
 445  1362.006
 446  1214.196
 447  1096.159
 448  1106.853
 449  1236.692
 450  1243.588
 451  1254.356
 452  1364.958
 453  1466.516
 454  1488.247
 455  1440.668
 456  1378.96
 457  1313.553
 458  1247.655
 459  1385.817
 460  1303.958
 461  1376.743
 462  1366.533
 463  1472.289
 464  1465.067
 465  1306.526
 466  1033.373
 467  1018.057
 468  1215.831
 469  1454.528
 470  1491.469
 471  1348.222
 472  1288.371
 473  1177.265
 474  1354.432
 475  1543.91
 476  1641.018
 477  1635.864
 478  1503.089
 479  1482.314
 480  1524.18
 481  1513.857
 482  1554.646
 483  1448.2
 484  1457.964
 485  1283.263
 486  1285.981
 487  1301.317
 488  1269.721
 489  1315.805
 490  1369.284
 491  1456.973
 492  1509.128
 493  1527.683
 494  1577.601
 495  1608.849
 496  1583.756
 497  1545.085
 498  1398.126
 499  1313.375
 500  1267.548
 501  1268.72
 502  1301.889
 503  1272.26
 504  1398.051
 505  1515.792
 506  1543.573
 507  1385.882
 508  1308.026
 509  1228.651
 510  1305.276
 511  1395.378
 512  1612.075
 513  1618.112
 514  1539.712
 515  1376.84
 516  1317.126
 517  1381.817
 518  1491.904
 519  1487.144
 520  1403.048
 521  1247.904
 522  1250.122
 523  1456.93
 524  1489.865
 525  1366.901
 526  1294.072
 527  1351.514
 528  1519.195
 529  1467.859
 530  1481.245
 531  1352.591
 532  1376.073
 533  1354.141
 534  1431.585
 535  1340.867
 536  1435.766
 537  1453.273
 538  1502.71
 539  1509.81
 540  1619.491
 541  1724.371
 542  1610.488
 543  1485.004
 544  1324.794
 545  1290.648
 546  1304.157
 547  1369.12
 548  1391.691
 549  1235.361
 550  1264.992
 551  1406.165
 552  1579.365
 553  1464.943
 554  1385.493
 555  1412.759
 556  1442.91
 557  1415.728
 558  1358.995
 559  1265.082
 560  1242.351
 561  1314.632
 562  1392.502
 563  1355.901
 564  1352.709
 565  1433.126
 566  1451.948
 567  1446.392
 568  1365.079
 569  1376.055
 570  1335.414
 571  1485.586
 572  1450.375
 573  1545.165
 574  1435.38
 575  1313.402
 576  1222.158
 577  1292.584
 578  1404.079
 579  1406.987
 580  1279.957
 581  1200.653
 582  1101.69
 583  1185.648
 584  1143.862
 585  1218.965
 586  1207.087
 587  1339.484
 588  1486.881
 589  1585.521
 590  1600.82
 591  1315.567
 592  1299.088
 593  1271.702
 594  1418.063
 595  1348.635
 596  1295.24
 597  1212.044
 598  1332.226
 599  1342.558
 600  1370.385
 601  1409.336
 602  1484.196
 603  1547.78
 604  1528.168
 605  1583.78
 606  1537.504
 607  1500.395
 608  1455.42
 609  1516.243
 610  1531.695
 611  1471.51
 612  1417.569
 613  1257.935
 614  1247.181
 615  1149.681
 616  1305.669
 617  1421.328
 618  1444.758
 619  1431.524
 620  1432.069
 621  1594.797
 622  1663.181
 623  1743.066
 624  1664.088
 625  1518.799
 626  1397.853
 627  1429.146
 628  1370.785
 629  1376.701
 630  1547.628
 631  1761.653
 632  1802.463
 633  1785.606
 634  1865.945
 635  2086.543
 636  2213.15
 637  2303.86
 638  2386.693
 639  2196.456
 640  2175.83
 641  2163.821
 642  2153.915
 643  1992.703
 644  1801.472
 645  1724.532
 646  1565.951
 647  1464.69
 648  1458.597
 649  1428.222
 650  1432.467
 651  1425.709
 652  1454.026
 653  1476.788
 654  1539.339
 655  1539.464
 656  1522.149
 657  1620.908
 658  1705.136
 659  1703.114
 660  1674.654
 661  1702.573
 662  1620.068
 663  1496.212
 664  1477.168
 665  1446.707
 666  1437.917
 667  1448.046
 668  1463.252
 669  1461.169
 670  1440.933
 671  1526.608
 672  1646.404
 673  1743.675
 674  1769.967
 675  1672.274
 676  1563.323
 677  1434.727
 678  1489.808
 679  1469.173
 680  1458.1
 681  1383.447
 682  1337.361
 683  1235.732
 684  1261.161
 685  1333.304
 686  1338.885
 687  1233.45
 688  1155.131
 689  1292.343
 690  1308.101
 691  1401.213
 692  1408.632
 693  1505.718
 694  1446.628
 695  1443.68
 696  1451.794
 697  1620.286
 698  1700.131
 699  1649.643
 700  1511.619
 701  1420.266
 702  1465.005
 703  1552.162
 704  1653.515
 705  1714.199
 706  1630.53
 707  1467.69
 708  1348.523
 709  1379.141
 710  1455.94
 711  1430.922
 712  1358.919
 713  1269.48
 714  1258.151
 715  1247.276
 716  1329.222
 717  1516.202
 718  1550.326
 719  1482.078
 720  1323.097
 721  1300.506
 722  1352.484
 723  1452.074
 724  1573.393
 725  1566.285
 726  1525.35
 727  1315.3
 728  1188.654
 729  1222.191
 730  1166.563
 731  1311.545
 732  1315.241
 733  1417.539
 734  1467.286
 735  1515.044
 736  1502.96
 737  1349.229
 738  1407.254
 739  1441.745
 740  1542.138
 741  1499.56
 742  1455.483
 743  1346.348
 744  1324.629
 745  1318.197
 746  1288.358
 747  1387.898
 748  1363.929
 749  1359.145
 750  1310.734
 751  1469.68
 752  1470.116
 753  1579.323
 754  1626.713
 755  1602.941
 756  1659.856
 757  1582.963
 758  1613.066
 759  1479.539
 760  1581.207
 761  1572.336
 762  1433.614
 763  1223.318
 764  1231.362
 765  1344.46
 766  1444.095
 767  1398.095
 768  1418.578
 769  1382.663
 770  1368.824
 771  1425.136
 772  1532.549
 773  1501.175
 774  1368.1
 775  1432.931
 776  1330.438
 777  1243.645
 778  1176.624
 779  1290.97
 780  1367.584
 781  1458.729
 782  1534.123
 783  1576.831
 784  1431.529
 785  1419.205
 786  1427.064
 787  1539.443
 788  1548.978
 789  1526.996
 790  1523.571
 791  1388.036
 792  1329.896
 793  1310.823
 794  1423.821
 795  1332.171
 796  1390.623
 797  1416.252
 798  1381.492
 799  1324.09
 800  1388.701
 801  1447.684
 802  1397.361
 803  1502.109
 804  1579.894
 805  1490.48
 806  1405.739
 807  1321.831
 808  1296.564
 809  1219.093
 810  1301.265
 811  1326.876
 812  1416.947
 813  1364.114
 814  1343.561
 815  1305.721
 816  1319.197
 817  1360.629
 818  1548.364
 819  1646.449
 820  1624.477
 821  1489.134
 822  1375.431
 823  1398.67
 824  1505.167
 825  1614.425
 826  1458.267
 827  1361.896
 828  1289.412
 829  1437.863
 830  1468.406
 831  1499.017
 832  1429.07
 833  1367.419
 834  1391.286
 835  1430.426
 836  1411.471
 837  1392.472
 838  1419.891
 839  1513.591
 840  1438.829
 841  1396.776
 842  1302.223
 843  1412.955
 844  1433.446
 845  1427.011
 846  1366.559
 847  1394.765
 848  1382.368
 849  1371.981
 850  1457.67
 851  1482.414
 852  1447.273
 853  1296.361
 854  1268.179
 855  1341.305
 856  1416.978
 857  1387.579
 858  1382.332
 859  1495.29
 860  1587.051
 861  1544.438
 862  1450.142
 863  1337.004
 864  1330.053
 865  1223.378
 866  1426.958
 867  1520.784
 868  1602.52
 869  1461.715
 870  1483.567
 871  1537.965
 872  1601.766
 873  1557.677
 874  1508.754
 875  1498.395
 876  1386.916
 877  1320.134
 878  1294.741
 879  1475.632
 880  1489.951
 881  1432.731
 882  1385.759
 883  1485.604
 884  1572.738
 885  1608.113
 886  1553.031
 887  1499.779
 888  1410.88
 889  1392.482
 890  1281.138
 891  1243.271
 892  1127.297
 893  1198.387
 894  1187.94
 895  1304.419
 896  1297.523
 897  1366.678
 898  1297.928
 899  1348.625
 900  1321.522
 901  1342.581
 902  1378.045
 903  1461.724
 904  1433.971
 905  1399.606
 906  1466.926
 907  1538.447
 908  1534.209
 909  1397.928
 910  1405.195
 911  1447.833
 912  1395.622
 913  1275.659
 914  1353.214
 915  1515.7
 916  1564.09
 917  1546.728
 918  1482.134
 919  1326.698
 920  1252.578
 921  1352.651
 922  1435.347
 923  1395.939
 924  1358.588
 925  1361.526
 926  1377.901
 927  1407.929
 928  1333.194
 929  1319.311
 930  1269.781
 931  1383.87
 932  1314.503
 933  1289.873
 934  1284.13
 935  1320.303
 936  1362.238
 937  1366.118
 938  1368.632
 939  1334.656
 940  1262.477
 941  1253.205
 942  1307.083
 943  1391.101
 944  1390.453
 945  1400.717
 946  1372.809
 947  1378.868
 948  1376.294
 949  1422.286
 950  1421.144
 951  1390.888
 952  1386.594
 953  1390.743
 954  1399.917
 955  1509.903
 956  1511.918
 957  1475.851
 958  1394.246
 959  1342.424
 960  1349.803
 961  1389.287
 962  1374.152
 963  1295.348
 964  1401.446
 965  1341.52
 966  1334.786
 967  1231.226
 968  1401.541
 969  1319.343
 970  1314.701
 971  1289.762
 972  1382.981
 973  1422.188
 974  1444.907
 975  1501.056
 976  1470.545
 977  1369.699
 978  1261.945
 979  1296.318
 980  1421.012
 981  1509.422
 982  1462.874
 983  1366.723
 984  1319.734
 985  1431.928
 986  1530.887
 987  1489.043
 988  1390.627
 989  1352.877
 990  1367.411
 991  1438.811
 992  1433.999
 993  1515.284
 994  1406.941
 995  1372.645
 996  1254.097
 997  1249.711
 998  1337.32
 999  1475.103
1000  1428.77
1001  1407.45
1002  1255.785
1003  1405.234
1004  1384.391
1005  1398.405
1006  1284.057
1007  1312.049
1008  1299.529
1009  1326.548
1010  1336.811
1011  1305.039
1012  1261.553
1013  1282.972
1014  1356.734
1015  1290.154
1016  1301.508
1017  1383.859
1018  1577.645
1019  1452.995
1020  1333.365
1021  1216.813
1022  1296.149
1023  1355.188
