# Input file       =  1191639351.117412_cleaned.dat
# Candidate        =  PSR_0332+5434
# Telescope        =  AR
# Epoch_topo       =  58036.122339321897
# Epoch_bary       =  N/A
# T_sample         =  0.002
# Data Folded      =  7340032
# Data Avg         =  0.0469039186947547
# Data StdDev      =  2.70868182711814 
# Profile Bins     =  512
# Profile Avg      =  672.373488681883 
# Profile StdDev   =  324.318699739422 
# Reduced chi-sqr  =  1.536
# Prob(Noise)      <  6.17e-14   (~7.4 sigma)
# P_topo (ms)      =  714.478466306929  +/- 0.000277
# P'_topo (s/s)    =  -0                +/- 1.46e-10
# P''_topo (s/s^2) =  0                 +/- 6.45e-14
# P_bary (ms)      =  N/A
# P'_bary (s/s)    =  N/A
# P''_bary (s/s^2) =  N/A
# P_orb (s)        =  N/A
# asin(i)/c (s)    =  N/A
# eccentricity     =  N/A
# w (rad)          =  N/A
# T_peri           =  N/A
######################################################
   0  2408.25
   1  2158.452
   2  2573.865
   3  2473.606
   4  1881.537
   5  1063.073
   6  983.3182
   7  786.9127
   8  440.7343
   9  399.2822
  10  815.7651
  11  826.3577
  12  757.0421
  13  869.8525
  14  651.1429
  15  474.5604
  16  740.5204
  17  817.1668
  18  1013.267
  19  716.5961
  20  696.3438
  21  420.7082
  22  524.0952
  23  697.4991
  24  516.2534
  25  507.3179
  26  666.1509
  27  575.8697
  28  841.5927
  29  819.2277
  30  727.8906
  31  747.6912
  32  868.3198
  33  989.7733
  34  769.0665
  35  855.1928
  36  1076.315
  37  1124.333
  38  777.3541
  39  639.2918
  40  819.1148
  41  772.5137
  42  545.9985
  43  728.6745
  44  697.5208
  45  544.8632
  46  876.9065
  47  857.8763
  48  646.2946
  49  275.8657
  50  203.8478
  51  263.2798
  52  598.2473
  53  374.9163
  54  39.92865
  55  132.7994
  56  467.7594
  57  682.5519
  58  567.219
  59  755.2778
  60  643.4747
  61  356.8292
  62  769.8768
  63  640.7704
  64  784.5308
  65  803.14
  66  682.5848
  67  730.5648
  68  708.0947
  69  556.1027
  70  891.5484
  71  377.3984
  72  528.6569
  73  510.1626
  74  429.1821
  75  394.2053
  76  761.0309
  77  563.3198
  78  763.6717
  79  668.8926
  80  386.2372
  81  802.5282
  82  714.8903
  83  612.6878
  84  442.6384
  85  523.5135
  86  742.7469
  87  785.6328
  88  663.9247
  89  534.1414
  90  444.9706
  91  294.6326
  92  642.5369
  93  254.0557
  94  107.7014
  95  304.2415
  96  401.1805
  97  696.2095
  98  332.6825
  99  -72.72413
 100  432.5775
 101  599.6736
 102  632.939
 103  273.5839
 104  557.7964
 105  740.9184
 106  574.7214
 107  469.6671
 108  469.3902
 109  612.8564
 110  631.2086
 111  249.837
 112  135.769
 113  470.7598
 114  851.0021
 115  653.6255
 116  608.9117
 117  856.6519
 118  928.9069
 119  1010.332
 120  850.4203
 121  728.8257
 122  533.3789
 123  905.8893
 124  1036.009
 125  607.6289
 126  262.795
 127  235.2769
 128  514.3641
 129  947.2627
 130  785.1191
 131  410.2727
 132  737.0424
 133  594.0416
 134  517.4962
 135  572.0796
 136  284.4929
 137  374.8583
 138  197.4218
 139  732.5176
 140  827.4115
 141  462.0394
 142  129.9293
 143  603.7153
 144  787.022
 145  507.1897
 146  -105.277
 147  603.0135
 148  1075.795
 149  1112.375
 150  902.3317
 151  774.0446
 152  1040.416
 153  837.8758
 154  937.6744
 155  913.6854
 156  816.8761
 157  685.2479
 158  806.3505
 159  668.001
 160  492.7402
 161  588.909
 162  695.3043
 163  947.0558
 164  609.7067
 165  420.7664
 166  498.4897
 167  702.9197
 168  758.8721
 169  413.0792
 170  509.9654
 171  741.4435
 172  562.8345
 173  639.548
 174  781.8746
 175  886.0068
 176  808.8846
 177  611.3616
 178  453.4599
 179  470.1743
 180  830.2372
 181  703.7907
 182  711.206
 183  736.3651
 184  632.1176
 185  673.8359
 186  702.9344
 187  801.1224
 188  886.7401
 189  1125.156
 190  933.6778
 191  726.1787
 192  901.8972
 193  790.7664
 194  415.1534
 195  441.9773
 196  857.0543
 197  912.4548
 198  665.617
 199  970.7661
 200  619.7349
 201  780.1047
 202  751.4794
 203  757.3981
 204  899.5308
 205  825.8037
 206  928.1499
 207  484.45
 208  516.2686
 209  545.7338
 210  547.7467
 211  476.1801
 212  586.7504
 213  812.3612
 214  1282.816
 215  1132.854
 216  739.4456
 217  596.7931
 218  808.97
 219  885.0182
 220  603.3647
 221  669.8009
 222  779.1174
 223  869.8846
 224  565.1773
 225  322.3233
 226  432.8427
 227  921.0907
 228  956.8444
 229  857.4876
 230  807.8446
 231  716.5635
 232  528.7191
 233  621.6641
 234  317.1113
 235  496.8015
 236  863.869
 237  862.7452
 238  955.6064
 239  700.6196
 240  903.52
 241  988.2095
 242  973.7169
 243  990.0367
 244  788.1072
 245  713.5323
 246  574.1418
 247  445.5804
 248  532.0077
 249  610.2563
 250  722.5613
 251  426.9139
 252  555.6749
 253  488.4286
 254  596.3687
 255  567.6553
 256  506.3113
 257  669.9468
 258  445.1865
 259  258.2047
 260  200.1954
 261  510.8255
 262  600.9788
 263  455.8747
 264  567.4318
 265  320.4701
 266  435.958
 267  739.3842
 268  614.3934
 269  990.3619
 270  642.858
 271  360.3096
 272  438.7245
 273  666.2346
 274  538.059
 275  415.3464
 276  872.6881
 277  682.9728
 278  812.1842
 279  822.191
 280  765.3884
 281  710.8438
 282  284.3756
 283  506.0196
 284  513.0944
 285  752.5534
 286  158.2939
 287  72.04374
 288  165.4355
 289  466.7823
 290  676.1463
 291  554.2897
 292  679.5189
 293  832.3901
 294  474.3092
 295  878.2245
 296  959.5964
 297  488.1272
 298  609.9554
 299  867.473
 300  500.8239
 301  434.6492
 302  809.9282
 303  820.227
 304  860.0513
 305  913.1472
 306  453.3781
 307  289.7622
 308  811.3935
 309  989.3001
 310  122.4141
 311  468.3351
 312  717.9084
 313  907.6552
 314  520.8713
 315  199.7817
 316  128.445
 317  409.0682
 318  671.8328
 319  391.5952
 320  461.0379
 321  874.3375
 322  677.5438
 323  434.0627
 324  326.4639
 325  345.7405
 326  365.7469
 327  295.3803
 328  531.3049
 329  580.2112
 330  1008.421
 331  914.0082
 332  763.9338
 333  633.041
 334  669.5321
 335  653.6895
 336  811.2919
 337  850.2485
 338  370.5375
 339  128.9115
 340  689.0329
 341  959.213
 342  525.299
 343  425.5002
 344  758.0516
 345  711.8314
 346  414.8773
 347  186.0589
 348  305.5269
 349  60.41289
 350  807.7306
 351  779.3858
 352  529.8472
 353  437.4523
 354  536.2963
 355  916.5797
 356  1016.516
 357  760.1208
 358  385.6602
 359  533.8948
 360  584.1154
 361  502.3945
 362  592.6112
 363  557.7092
 364  724.2441
 365  571.364
 366  541.6869
 367  286.1685
 368  764.744
 369  629.5557
 370  441.0468
 371  428.5834
 372  818.5566
 373  573.4329
 374  497.6277
 375  268.785
 376  401.758
 377  560.0826
 378  536.8206
 379  395.5556
 380  909.9241
 381  730.0419
 382  786.0155
 383  738.3679
 384  735.4794
 385  909.2847
 386  616.123
 387  268.5027
 388  307.3542
 389  745.7982
 390  1002.038
 391  817.0364
 392  675.5757
 393  484.4508
 394  434.9025
 395  864.6995
 396  871.6693
 397  661.8791
 398  997.0714
 399  1094.982
 400  740.0105
 401  434.7862
 402  243.9854
 403  476.2484
 404  519.4801
 405  577.6448
 406  406.3865
 407  725.6287
 408  532.1545
 409  299.4814
 410  248.5929
 411  1119.282
 412  1178.021
 413  1062.915
 414  611.1921
 415  335.1021
 416  420.6602
 417  602.4435
 418  725.8425
 419  693.6738
 420  636.8387
 421  902.0409
 422  555.9594
 423  736.3256
 424  767.3429
 425  527.4451
 426  740.3864
 427  587.6655
 428  502.7861
 429  530.5939
 430  722.1585
 431  766.8815
 432  703.8577
 433  835.8857
 434  890.4327
 435  976.0334
 436  792.6334
 437  797.1454
 438  675.6578
 439  641.0686
 440  1056.697
 441  1185.015
 442  810.127
 443  1013.013
 444  817.4545
 445  466.713
 446  466.0889
 447  458.0642
 448  859.8856
 449  753.68
 450  757.961
 451  422.008
 452  15.35535
 453  187.0865
 454  483.9977
 455  351.2517
 456  461.348
 457  979.2535
 458  812.7896
 459  617.827
 460  795.5477
 461  690.6711
 462  834.9296
 463  779.7303
 464  797.9901
 465  1019.271
 466  711.6257
 467  890.5052
 468  875.8107
 469  1026.53
 470  802.9797
 471  626.6867
 472  603.334
 473  673.7651
 474  911.0474
 475  1082.937
 476  580.3516
 477  531.8627
 478  501.252
 479  918.972
 480  618.8112
 481  927.1845
 482  829.9152
 483  635.3305
 484  650.8603
 485  467.0677
 486  700.2103
 487  1078.583
 488  977.2921
 489  697.6442
 490  623.6307
 491  916.7982
 492  1305.918
 493  1159.145
 494  932.4269
 495  889.4465
 496  791.2554
 497  719.2695
 498  1362.332
 499  1117.362
 500  430.3001
 501  503.091
 502  447.0812
 503  711.6644
 504  830.4166
 505  1053.505
 506  735.4099
 507  501.8431
 508  1057.394
 509  1215.541
 510  1090.977
 511  1826.368
