# Input file       =  1191193657.11263_cleaned.dat
# Candidate        =  PSR_0332+5434
# Telescope        =  AR
# Epoch_topo       =  58030.963843896177
# Epoch_bary       =  N/A
# T_sample         =  0.002
# Data Folded      =  7340032
# Data Avg         =  0.0130013494165003
# Data StdDev      =  1.00009040190526 
# Profile Bins     =  512
# Profile Avg      =  186.411730226307 
# Profile StdDev   =  119.743860471377 
# Reduced chi-sqr  =  1.741
# Prob(Noise)      <  6.41e-23   (~9.8 sigma)
# P_topo (ms)      =  714.474874294082  +/- 0.000173
# P'_topo (s/s)    =  -0                +/- 9.14e-11
# P''_topo (s/s^2) =  0                 +/- 4.04e-14
# P_bary (ms)      =  N/A
# P'_bary (s/s)    =  N/A
# P''_bary (s/s^2) =  N/A
# P_orb (s)        =  N/A
# asin(i)/c (s)    =  N/A
# eccentricity     =  N/A
# w (rad)          =  N/A
# T_peri           =  N/A
######################################################
   0  219.722
   1  209.7169
   2  160.7082
   3  176.4333
   4  147.1183
   5  101.858
   6  137.795
   7  320.1797
   8  194.3573
   9  186.3195
  10  157.8434
  11  244.9598
  12  177.86
  13  187.9531
  14  239.4746
  15  150.7152
  16  181.5312
  17  190.2265
  18  132.7471
  19  -1.044559
  20  137.061
  21  225.2488
  22  253.9043
  23  198.2037
  24  172.2544
  25  117.633
  26  30.06853
  27  149.3313
  28  223.8488
  29  66.57375
  30  34.90242
  31  100.9054
  32  104.491
  33  -20.75661
  34  128.3202
  35  209.0782
  36  136.2749
  37  160.6661
  38  232.5298
  39  180.2931
  40  141.8558
  41  119.6684
  42  137.4338
  43  195.3871
  44  175.497
  45  373.6082
  46  184.5287
  47  94.59064
  48  22.99008
  49  -85.61311
  50  68.49866
  51  145.6079
  52  211.6634
  53  145.2918
  54  175.0108
  55  202.5348
  56  130.831
  57  163.8144
  58  167.5103
  59  109.6641
  60  138.6175
  61  285.057
  62  262.2371
  63  156
  64  163.6236
  65  116.6119
  66  155.2619
  67  75.87145
  68  33.08042
  69  161.8819
  70  210.3871
  71  193.3041
  72  165.7744
  73  176.7561
  74  71.52416
  75  -57.30587
  76  58.4084
  77  123.9402
  78  185.7199
  79  185.9566
  80  145.0025
  81  144.7294
  82  94.51722
  83  121.9186
  84  127.3513
  85  140.1593
  86  220.4249
  87  273.6368
  88  169.5763
  89  218.2743
  90  196.2365
  91  253.965
  92  214.6447
  93  202.4152
  94  132.0962
  95  168.3649
  96  243.747
  97  141.039
  98  130.2937
  99  255.0566
 100  141.9357
 101  162.8219
 102  78.35094
 103  275.0072
 104  243.9968
 105  197.5793
 106  207.7256
 107  326.7786
 108  186.01
 109  234.5043
 110  340.5452
 111  376.0218
 112  182.8257
 113  123.0191
 114  176.084
 115  211.2786
 116  215.8319
 117  265.8182
 118  110.1973
 119  31.06353
 120  155.6416
 121  245.2867
 122  143.0019
 123  101.2297
 124  258.4847
 125  95.08306
 126  88.83926
 127  202.2305
 128  349.7153
 129  317.2345
 130  159.109
 131  138.1277
 132  260.4752
 133  366.9251
 134  240.4367
 135  226.6731
 136  213.4519
 137  131.71
 138  181.1937
 139  207.5443
 140  86.61062
 141  146.583
 142  184.769
 143  145.0664
 144  204.9431
 145  230.8743
 146  122.2444
 147  144.4749
 148  224.3676
 149  286.8744
 150  219.9893
 151  154.3552
 152  190.5122
 153  136.2495
 154  185.7028
 155  245.2422
 156  291.8926
 157  153.1214
 158  25.68641
 159  83.27576
 160  174.1891
 161  288.8288
 162  235.9095
 163  127.9549
 164  130.9644
 165  214.923
 166  178.2487
 167  200.8766
 168  232.5576
 169  198.0661
 170  166.5526
 171  85.97725
 172  178.0068
 173  246.5165
 174  292.7467
 175  163.6393
 176  54.72207
 177  60.78219
 178  -29.07821
 179  69.15989
 180  163.0693
 181  198.3482
 182  241.0698
 183  126.2944
 184  210.9726
 185  193.201
 186  184.0633
 187  185.5992
 188  93.59543
 189  211.5468
 190  244.3055
 191  254.6158
 192  186.7058
 193  111.1192
 194  239.1686
 195  415.1601
 196  318.1657
 197  172.7691
 198  174.9001
 199  73.50827
 200  11.31225
 201  61.12674
 202  219.0401
 203  83.39803
 204  35.87372
 205  28.26458
 206  54.25034
 207  144.2141
 208  131.7031
 209  156.6397
 210  242.3112
 211  223.0135
 212  101.4818
 213  50.48741
 214  231.131
 215  154.5027
 216  69.70177
 217  163.3938
 218  221.1658
 219  228.715
 220  273.7432
 221  217.6772
 222  204.3956
 223  151.0313
 224  131.5864
 225  150.4969
 226  173.2265
 227  143.2691
 228  307.0976
 229  305.6505
 230  243.9376
 231  255.309
 232  158.3522
 233  44.09469
 234  11.5555
 235  290.6257
 236  373.7276
 237  247.6979
 238  212.9279
 239  175.6008
 240  222.8289
 241  143.1309
 242  172.9105
 243  222.7071
 244  130.3305
 245  171.9243
 246  246.5354
 247  217.8497
 248  172.4557
 249  201.9487
 250  299.731
 251  158.719
 252  172.5137
 253  232.7288
 254  123.6664
 255  -4.39995
 256  163.4634
 257  196.659
 258  61.97209
 259  -52.18917
 260  73.31258
 261  246.0751
 262  213.5982
 263  237.5505
 264  229.266
 265  167.0511
 266  -2.008738
 267  -37.72453
 268  -21.70909
 269  24.15071
 270  197.4478
 271  161.2656
 272  181.4668
 273  203.6718
 274  224.6223
 275  157.0013
 276  197.1242
 277  129.7406
 278  112.2698
 279  82.93394
 280  19.44688
 281  18.32878
 282  229.7621
 283  180.4603
 284  54.1389
 285  133.9935
 286  241.6012
 287  244.5477
 288  188.6081
 289  212.1357
 290  99.06763
 291  101.6502
 292  176.9471
 293  318.2716
 294  177.0626
 295  193.0696
 296  217.0543
 297  178.9212
 298  320.3663
 299  258.3788
 300  126.6776
 301  183.0221
 302  228.0423
 303  305.7955
 304  213.74
 305  257.2894
 306  155.2565
 307  80.44305
 308  135.7772
 309  242.5397
 310  274.1327
 311  263.3081
 312  228.683
 313  181.5158
 314  255.0621
 315  257.2603
 316  167.2479
 317  120.325
 318  276.4116
 319  177.1516
 320  119.6422
 321  209.7103
 322  283.1008
 323  208.0638
 324  155.0096
 325  227.6118
 326  292.6076
 327  219.9512
 328  223.8233
 329  257.8574
 330  206.0228
 331  280.6128
 332  157.1674
 333  289.0383
 334  175.1119
 335  206.0647
 336  148.222
 337  143.1519
 338  269.9341
 339  111.0313
 340  193.8039
 341  270.2744
 342  276.4711
 343  228.7831
 344  85.95997
 345  67.51788
 346  173.5525
 347  234.9697
 348  177.8135
 349  99.74416
 350  294.4774
 351  260.096
 352  165.502
 353  207.8037
 354  190.4262
 355  112.6129
 356  204.7727
 357  335.9515
 358  137.1225
 359  -43.1217
 360  73.14417
 361  225.7806
 362  62.57185
 363  70.24842
 364  203.303
 365  139.8921
 366  212.1952
 367  254.3163
 368  186.3655
 369  136.8377
 370  255.3746
 371  275.8295
 372  70.67615
 373  53.79224
 374  0.714079
 375  109.1155
 376  166.0353
 377  187.2606
 378  235.5409
 379  379.6303
 380  340.2955
 381  362.2318
 382  298.9509
 383  540.3703
 384  748.3337
 385  758.3885
 386  933.539
 387  1028.045
 388  1021.95
 389  706.4211
 390  459.5834
 391  356.4259
 392  441.5658
 393  270.562
 394  155.7875
 395  188.0863
 396  220.7427
 397  307.5776
 398  336.1416
 399  281.7081
 400  351.8287
 401  439.461
 402  436.2469
 403  394.7482
 404  255.802
 405  185.4373
 406  147.3978
 407  180.5405
 408  154.9277
 409  172.7855
 410  245.1743
 411  204.4962
 412  125.3049
 413  136.0249
 414  152.9363
 415  156.1776
 416  206.6297
 417  152.0173
 418  127.3775
 419  223.7249
 420  227.0903
 421  202.0425
 422  276.9682
 423  131.0457
 424  36.89073
 425  223.5803
 426  214.7403
 427  76.82311
 428  -37.63596
 429  101.0093
 430  110.6919
 431  27.58541
 432  212.1002
 433  188.6603
 434  135.391
 435  217.4167
 436  225.5314
 437  200.4385
 438  177.6687
 439  283.2861
 440  199.8548
 441  106.9748
 442  220.4887
 443  238.3954
 444  96.01305
 445  158.0464
 446  254.9264
 447  154.5543
 448  18.60569
 449  63.42264
 450  93.83631
 451  -58.6355
 452  -13.19166
 453  124.2597
 454  89.97517
 455  99.57742
 456  249.5847
 457  253.01
 458  134.2732
 459  115.5429
 460  133.8311
 461  141.0111
 462  231.0172
 463  252.9828
 464  200.8443
 465  304.6225
 466  199.9478
 467  153.1702
 468  97.03307
 469  22.91979
 470  86.99083
 471  176.8982
 472  171.6027
 473  154.9021
 474  267.4785
 475  98.40961
 476  127.5083
 477  36.9641
 478  -31.86649
 479  74.77989
 480  178.6644
 481  304.8337
 482  258.9782
 483  285.8271
 484  309.1113
 485  192.7594
 486  170.2969
 487  197.4014
 488  196.9537
 489  280.968
 490  184.0487
 491  141.2964
 492  271.7215
 493  221.606
 494  155.5083
 495  135.9537
 496  161.1672
 497  215.9992
 498  159.4019
 499  174.3158
 500  125.2913
 501  109.366
 502  102.5255
 503  268.4779
 504  319.0927
 505  289.9364
 506  198.3986
 507  306.7537
 508  157.3898
 509  47.74343
 510  93.75169
 511  126.7405
