# Input file       =  1191811690.126897_cleaned.dat
# Candidate        =  PSR_0332+5434
# Telescope        =  AR
# Epoch_topo       =  58038.117003783533
# Epoch_bary       =  N/A
# T_sample         =  0.002
# Data Folded      =  7340032
# Data Avg         =  0.0170956384920629
# Data StdDev      =  1.00003946201605 
# Profile Bins     =  512
# Profile Avg      =  245.072966039159 
# Profile StdDev   =  119.73776128377  
# Reduced chi-sqr  =  1.632
# Prob(Noise)      <  6.51e-18   (~8.5 sigma)
# P_topo (ms)      =  714.479822246949  +/- 2.7e-05
# P'_topo (s/s)    =  -0                +/- 1.42e-11
# P''_topo (s/s^2) =  0                 +/- 6.28e-15
# P_bary (ms)      =  N/A
# P'_bary (s/s)    =  N/A
# P''_bary (s/s^2) =  N/A
# P_orb (s)        =  N/A
# asin(i)/c (s)    =  N/A
# eccentricity     =  N/A
# w (rad)          =  N/A
# T_peri           =  N/A
######################################################
   0  194.8256
   1  335.2198
   2  83.70978
   3  108.9726
   4  184.2054
   5  399.9465
   6  256.7255
   7  207.9599
   8  249.5744
   9  405.7959
  10  211.0594
  11  79.55524
  12  70.04734
  13  224.8355
  14  64.86238
  15  165.0978
  16  190.642
  17  240.7357
  18  140.9911
  19  226.8151
  20  120.9365
  21  185.413
  22  276.7761
  23  309.7302
  24  379.0487
  25  330.808
  26  261.002
  27  258.5498
  28  224.6574
  29  200.0649
  30  251.4231
  31  252.1761
  32  85.80846
  33  210.706
  34  201.2918
  35  273.7116
  36  210.3066
  37  286.2869
  38  263.5626
  39  161.0342
  40  128.6078
  41  327.2722
  42  199.6101
  43  235.4937
  44  230.2839
  45  186.8313
  46  149.2719
  47  158.3483
  48  258.2744
  49  195.6647
  50  172.3433
  51  180.7073
  52  346.0439
  53  370.3674
  54  193.5682
  55  148.3078
  56  178.5214
  57  197.8974
  58  289.3666
  59  385.2298
  60  231.4807
  61  225.1947
  62  287.3373
  63  463.5251
  64  292.993
  65  252.1173
  66  276.3478
  67  145.5083
  68  329.8491
  69  304.3876
  70  227.8236
  71  218.047
  72  166.1161
  73  97.12054
  74  180.5471
  75  244.0244
  76  305.2679
  77  102.501
  78  158.7994
  79  207.9938
  80  195.2552
  81  212.2164
  82  223.9526
  83  214.355
  84  171.165
  85  47.32818
  86  150.5401
  87  146.1254
  88  282.3546
  89  105.6168
  90  239.9929
  91  190.8213
  92  362.4452
  93  404.153
  94  368.8965
  95  281.0202
  96  296.2376
  97  151.1239
  98  312.7793
  99  261.0198
 100  333.6885
 101  316.5968
 102  359.3897
 103  143.784
 104  112.5312
 105  130.909
 106  189.3584
 107  103.2276
 108  229.9185
 109  133.2959
 110  211.4085
 111  171.0279
 112  344.4865
 113  178.5205
 114  176.5978
 115  239.8475
 116  357.8739
 117  197.1866
 118  233.1287
 119  220.9319
 120  200.2861
 121  166.6581
 122  314.1306
 123  328.6026
 124  345.146
 125  309.9439
 126  405.5411
 127  231.3876
 128  259.065
 129  213.2134
 130  237.0139
 131  72.02637
 132  134.6337
 133  284.3266
 134  309.6517
 135  217.0579
 136  225.261
 137  261.5586
 138  259.668
 139  265.083
 140  155.86
 141  340.7067
 142  337.8733
 143  298.0927
 144  365.6772
 145  215.4784
 146  227.9084
 147  161.7962
 148  197.4751
 149  324.4301
 150  157.7705
 151  135.8868
 152  196.3681
 153  220.3491
 154  184.2805
 155  275.5833
 156  152.0758
 157  133.4392
 158  196.7169
 159  278.0255
 160  68.22663
 161  47.31709
 162  163.8409
 163  252.6894
 164  149.3397
 165  367.4821
 166  320.01
 167  261.2972
 168  151.4742
 169  285.3762
 170  234.0992
 171  284.0171
 172  290.4492
 173  201.3536
 174  48.51368
 175  156.5694
 176  309.2849
 177  405.5701
 178  200.8937
 179  228.2015
 180  141.2993
 181  209.4594
 182  287.683
 183  288.2039
 184  210.105
 185  388.0046
 186  118.1077
 187  139.9603
 188  95.84914
 189  169.4899
 190  203.3135
 191  334.9637
 192  324.5967
 193  366.4481
 194  239.7579
 195  258.9183
 196  113.9674
 197  199.7987
 198  243.9
 199  144.6302
 200  185.2904
 201  320.234
 202  231.6229
 203  334.5965
 204  221.7823
 205  247.0475
 206  235.8392
 207  265.1968
 208  253.31
 209  322.3579
 210  195.39
 211  133.1544
 212  157.6714
 213  268.1518
 214  228.0497
 215  270.2181
 216  239.6071
 217  347.3636
 218  372.5472
 219  278.4778
 220  121.5813
 221  225.2768
 222  212.8214
 223  301.4227
 224  303.3556
 225  310.6735
 226  282.287
 227  93.06997
 228  201.3836
 229  288.9352
 230  259.2706
 231  188.9366
 232  114.1921
 233  170.0428
 234  293.6616
 235  203.4732
 236  287.9851
 237  235.1048
 238  186.8905
 239  288.0036
 240  362.9149
 241  252.145
 242  219.8688
 243  258.154
 244  280.7042
 245  222.0801
 246  196.6144
 247  164.3577
 248  417.581
 249  229.084
 250  124.1218
 251  104.8131
 252  294.2784
 253  259.7759
 254  215.422
 255  202.4078
 256  357.3514
 257  172.3959
 258  154.1382
 259  46.89989
 260  154.3173
 261  181.2999
 262  311.4398
 263  244.3989
 264  136.5638
 265  109.8968
 266  204.0977
 267  191.626
 268  330.9394
 269  281.1103
 270  390.1888
 271  232.9557
 272  348.2318
 273  236.1793
 274  159.5396
 275  -1.730519
 276  259.0095
 277  333.2451
 278  325.737
 279  244.4394
 280  392.6773
 281  229.2337
 282  314.8381
 283  250.4864
 284  246.5284
 285  215.4621
 286  204.35
 287  125.1733
 288  256.5188
 289  167.3034
 290  262.4112
 291  187.5544
 292  57.37495
 293  98.88626
 294  310.0349
 295  305.4376
 296  248.4898
 297  207.0415
 298  301.6563
 299  346.5429
 300  440.6352
 301  266.6205
 302  350.632
 303  249.6178
 304  162.1046
 305  65.05041
 306  218.2754
 307  211.7185
 308  241.9789
 309  232.5634
 310  392.5283
 311  346.9141
 312  360.4279
 313  305.8249
 314  328.2328
 315  318.957
 316  212.0353
 317  208.6823
 318  264.02
 319  193.9936
 320  274.1073
 321  279.6471
 322  248.4655
 323  205.8477
 324  77.45959
 325  59.1255
 326  198.4438
 327  321.2299
 328  301.914
 329  361.9128
 330  262.0697
 331  331.5739
 332  130.9392
 333  205.3787
 334  310.2271
 335  346.5031
 336  302.9528
 337  438.6968
 338  287.1248
 339  256.5786
 340  236.8552
 341  314.7259
 342  312.943
 343  321.7177
 344  245.2642
 345  363.584
 346  280.1463
 347  411.1569
 348  369.9753
 349  404.0124
 350  281.0378
 351  331.3714
 352  428.8449
 353  508.2943
 354  519.7597
 355  903.8754
 356  1012.594
 357  1129.963
 358  946.4245
 359  762.6722
 360  521.7415
 361  425.4093
 362  310.7888
 363  428.1641
 364  305.9983
 365  317.6647
 366  332.2865
 367  353.8185
 368  191.6105
 369  172.8698
 370  224.7214
 371  418.737
 372  368.1966
 373  388.1935
 374  359.7567
 375  248.1443
 376  234.097
 377  335.7925
 378  305.1553
 379  281.7969
 380  211.2328
 381  334.134
 382  243.2562
 383  341.2039
 384  269.1723
 385  171.6868
 386  241.4284
 387  211.8691
 388  291.9672
 389  357.3021
 390  203.323
 391  302.7509
 392  195.6265
 393  113.9053
 394  171.3379
 395  287.3031
 396  265.5851
 397  166.3361
 398  217.3902
 399  326.5392
 400  230.8196
 401  186.1752
 402  261.5045
 403  328.534
 404  190.9563
 405  121.2068
 406  389.1828
 407  263.5521
 408  264.3312
 409  281.7988
 410  304.4237
 411  254.361
 412  191.0346
 413  249.8024
 414  201.106
 415  135.5584
 416  190.6419
 417  246.323
 418  177.3858
 419  145.9426
 420  271.0496
 421  144.4782
 422  151.4633
 423  196.1218
 424  223.5117
 425  159.6971
 426  90.32831
 427  184.5787
 428  341.033
 429  204.8826
 430  221.2264
 431  296.9633
 432  308.7436
 433  347.0166
 434  368.275
 435  191.0257
 436  195.5978
 437  170.2367
 438  146.0892
 439  179.7453
 440  170.5149
 441  196.2577
 442  307.8603
 443  241.819
 444  337.1879
 445  239.537
 446  215.1292
 447  77.81741
 448  198.9783
 449  249.8979
 450  306.2044
 451  259.5305
 452  202.986
 453  170.3251
 454  300.6719
 455  242.6229
 456  322.4675
 457  152.9277
 458  222.7527
 459  197.9963
 460  345.4867
 461  223.5566
 462  277.3665
 463  231.7153
 464  225.9156
 465  83.69439
 466  240.0086
 467  190.6376
 468  188.816
 469  132.6677
 470  352.9041
 471  244.9336
 472  113.5552
 473  183.4958
 474  291.647
 475  220.0193
 476  188.1062
 477  234.8183
 478  272.067
 479  131.1469
 480  115.0762
 481  181.3839
 482  250.4179
 483  189.0519
 484  237.971
 485  218.1883
 486  220.2054
 487  212.4959
 488  318.1298
 489  198.0861
 490  220.8078
 491  236.1803
 492  263.3965
 493  274.3603
 494  180.1397
 495  196.2644
 496  197.9938
 497  165.8568
 498  147.9767
 499  215.046
 500  197.9211
 501  284.4736
 502  363.8722
 503  321.3295
 504  252.3663
 505  188.3071
 506  95.98847
 507  111.7331
 508  13.05088
 509  81.3001
 510  1.401176
 511  80.96063
