# Input file       =  1191983994.125854_cleaned.dat
# Candidate        =  PSR_0332+5434
# Telescope        =  AR
# Epoch_topo       =  58040.111263030718
# Epoch_bary       =  N/A
# T_sample         =  0.002
# Data Folded      =  7340032
# Data Avg         =  0.0152571218351677
# Data StdDev      =  0.999913943001134
# Profile Bins     =  512
# Profile Avg      =  218.678344042505 
# Profile StdDev   =  119.72273251099  
# Reduced chi-sqr  =  1.859
# Prob(Noise)      <  8.83e-29   (~11.1 sigma)
# P_topo (ms)      =  714.481231687195  +/- 0.000223
# P'_topo (s/s)    =  -0                +/- 1.18e-10
# P''_topo (s/s^2) =  0                 +/- 5.2e-14
# P_bary (ms)      =  N/A
# P'_bary (s/s)    =  N/A
# P''_bary (s/s^2) =  N/A
# P_orb (s)        =  N/A
# asin(i)/c (s)    =  N/A
# eccentricity     =  N/A
# w (rad)          =  N/A
# T_peri           =  N/A
######################################################
   0  952.0309
   1  971.2973
   2  788.0092
   3  609.8717
   4  528.2562
   5  325.6914
   6  360.9665
   7  330.6581
   8  405.6274
   9  387.2124
  10  255.1536
  11  268.9502
  12  331.5167
  13  371.7098
  14  310.4355
  15  287.9905
  16  280.4329
  17  262.4282
  18  266.7664
  19  195.3387
  20  278.864
  21  244.4998
  22  229.9459
  23  223.3152
  24  288.0029
  25  264.6787
  26  419.7276
  27  334.8757
  28  244.2661
  29  258.0516
  30  330.8259
  31  148.3875
  32  162.0949
  33  59.58792
  34  243.0933
  35  222.0667
  36  27.66369
  37  124.0692
  38  154.2646
  39  263.082
  40  309.2884
  41  212.4812
  42  232.9784
  43  200.7218
  44  226.0959
  45  136.2473
  46  134.7962
  47  183.5982
  48  318.3444
  49  350.3055
  50  282.7883
  51  158.8584
  52  162.5201
  53  178.3755
  54  164.8206
  55  252.2639
  56  158.1137
  57  125.0144
  58  193.9868
  59  233.0145
  60  182.7802
  61  264.7328
  62  359.1808
  63  289.8927
  64  197.5189
  65  245.4697
  66  155.5407
  67  23.54595
  68  262.2645
  69  310.0855
  70  159.0576
  71  34.66304
  72  52.45646
  73  43.29843
  74  129.2166
  75  314.4061
  76  396.3073
  77  289.6601
  78  223.2857
  79  236.5701
  80  136.7731
  81  182.145
  82  272.8128
  83  296.2341
  84  134.7842
  85  52.74642
  86  116.1087
  87  267.7018
  88  232.1689
  89  234.0454
  90  250.2264
  91  316.4284
  92  137.8499
  93  121.0956
  94  225.645
  95  302.5253
  96  279.2195
  97  263.564
  98  248.1164
  99  221.0815
 100  235.2925
 101  224.9591
 102  289.9975
 103  297.1624
 104  393.162
 105  355.7331
 106  186.2533
 107  64.63811
 108  120.3625
 109  177.6877
 110  226.003
 111  188.5952
 112  104.6176
 113  169.2848
 114  165.0127
 115  187.1369
 116  275.9559
 117  213.1702
 118  126.1949
 119  210.0561
 120  329.5519
 121  173.8033
 122  144.0256
 123  215.5417
 124  102.9781
 125  165.4694
 126  273.6533
 127  293.1821
 128  174.5083
 129  97.98891
 130  175.8368
 131  107.3146
 132  170.3415
 133  187.7346
 134  114.4287
 135  151.0267
 136  229.2571
 137  115.9838
 138  76.23326
 139  222.7538
 140  159.7755
 141  131.9268
 142  326.4285
 143  376.6565
 144  161.9435
 145  196.44
 146  250.6584
 147  265.4701
 148  187.8446
 149  217.009
 150  254.7198
 151  304.2219
 152  149.3145
 153  129.5477
 154  103.2797
 155  318.3463
 156  152.5186
 157  248.7713
 158  167.5147
 159  165.9182
 160  184.276
 161  225.1317
 162  98.98773
 163  190.0663
 164  222.4807
 165  226.7523
 166  364.5069
 167  210.4499
 168  68.25982
 169  96.10557
 170  117.5566
 171  123.667
 172  168.76
 173  130.2395
 174  4.142482
 175  81.70786
 176  223.4687
 177  200.7341
 178  205.912
 179  175.6565
 180  201.9053
 181  223.6042
 182  97.4671
 183  97.52785
 184  259.092
 185  136.1848
 186  70.0033
 187  91.0547
 188  223.3885
 189  241.6064
 190  115.1478
 191  140.8841
 192  208.9651
 193  129.0354
 194  216.2683
 195  373.3173
 196  239.333
 197  246.5736
 198  218.0594
 199  171.6531
 200  149.4128
 201  164.3491
 202  230.6537
 203  131.1979
 204  206.9583
 205  262.5567
 206  313.844
 207  301.5022
 208  148.4605
 209  151.0672
 210  117.4968
 211  64.21398
 212  -12.98512
 213  70.63197
 214  160.409
 215  111.6067
 216  60.27322
 217  74.42983
 218  83.01741
 219  245.4716
 220  325.0023
 221  105.6706
 222  126.9369
 223  198.9118
 224  40.76975
 225  96.67867
 226  176.2869
 227  126.9435
 228  188.3312
 229  317.4934
 230  179.144
 231  69.37186
 232  59.55971
 233  176.7346
 234  454.5955
 235  276.5807
 236  117.5546
 237  198.3144
 238  164.0463
 239  124.1441
 240  155.1508
 241  229.682
 242  275.8908
 243  189.083
 244  197.5218
 245  180.5907
 246  194.4312
 247  287.1962
 248  264.3781
 249  212.7555
 250  210.362
 251  125.5383
 252  83.43797
 253  103.082
 254  90.99952
 255  105.8795
 256  200.394
 257  170.6788
 258  124.215
 259  198.5044
 260  231.5851
 261  99.73296
 262  158.5102
 263  132.572
 264  120.2152
 265  145.6817
 266  137.9673
 267  66.81752
 268  92.32919
 269  218.3948
 270  268.3824
 271  255.4473
 272  338.5584
 273  197.3025
 274  90.75036
 275  59.67156
 276  164.0468
 277  277.5889
 278  185.3723
 279  82.37978
 280  62.35122
 281  168.097
 282  204.3563
 283  227.5036
 284  168.0635
 285  180.449
 286  129.5386
 287  21.3642
 288  115.5718
 289  134.9506
 290  183.3667
 291  165.0269
 292  167.6318
 293  199.5729
 294  214.7118
 295  262.1184
 296  282.5034
 297  90.48972
 298  296.8967
 299  332.1501
 300  225.6171
 301  275.2203
 302  133.0077
 303  173.1001
 304  213.3451
 305  47.99918
 306  71.07536
 307  5.797286
 308  163.3989
 309  304.8915
 310  256.584
 311  224.166
 312  249.6481
 313  224.115
 314  186.7632
 315  144.3237
 316  214.8334
 317  224.5088
 318  127.2786
 319  195.4417
 320  174.4507
 321  168.9049
 322  200.04
 323  224.1992
 324  212.4689
 325  232.5041
 326  251.3536
 327  260.9226
 328  177.8766
 329  154.8559
 330  306.6722
 331  272.6766
 332  174.0723
 333  204.152
 334  400.101
 335  359.0297
 336  176.4498
 337  217.2631
 338  203.0875
 339  135.6576
 340  157.1801
 341  166.3297
 342  293.3633
 343  131.8303
 344  82.1665
 345  97.36663
 346  110.0015
 347  108.5747
 348  87.21364
 349  203.0948
 350  261.3915
 351  294.0789
 352  196.4259
 353  217.678
 354  303.9453
 355  294.1211
 356  337.0044
 357  164.0602
 358  298.1275
 359  296.3343
 360  228.5164
 361  217.6822
 362  312.1275
 363  231.3665
 364  149.6386
 365  170.2901
 366  41.94624
 367  162.4393
 368  207.2851
 369  199.1196
 370  322.5024
 371  272.9087
 372  153.7988
 373  240.9799
 374  188.6734
 375  139.798
 376  83.91772
 377  124.1852
 378  234.5534
 379  116.7624
 380  92.12711
 381  102.321
 382  209.2309
 383  223.4351
 384  261.1671
 385  283.1167
 386  290.0074
 387  188.6905
 388  148.6101
 389  170.4111
 390  297.6647
 391  210.1198
 392  381.0166
 393  226.5095
 394  209.6724
 395  189.7672
 396  243.4522
 397  234.1259
 398  344.196
 399  316.3347
 400  387.9651
 401  169.3657
 402  58.42806
 403  175.5704
 404  221.5189
 405  240.3292
 406  121.3548
 407  264.5564
 408  275.4576
 409  230.1081
 410  227.6801
 411  97.64064
 412  15.40331
 413  204.0612
 414  339.8481
 415  236.3222
 416  125.9476
 417  153.0806
 418  175.7071
 419  235.2724
 420  301.2137
 421  172.3339
 422  263.8458
 423  174.2675
 424  224.3892
 425  319.3878
 426  338.9189
 427  175.8803
 428  200.2112
 429  242.461
 430  304.4687
 431  308.927
 432  324.9141
 433  178.4005
 434  275.7881
 435  269.1515
 436  254.7756
 437  274.8638
 438  286.0965
 439  173.5024
 440  134.5322
 441  238.047
 442  137.4056
 443  110.0073
 444  252.618
 445  228.7452
 446  237.9411
 447  224.7936
 448  359.0241
 449  208.1682
 450  247.7179
 451  439.6384
 452  354.2619
 453  227.5916
 454  303.4962
 455  165.6639
 456  162.1306
 457  165.0794
 458  201.327
 459  241.5279
 460  216.4388
 461  287.4092
 462  266.0706
 463  241.558
 464  251.6072
 465  276.1879
 466  293.6271
 467  142.1767
 468  19.29969
 469  174.5564
 470  199.3146
 471  226.128
 472  216.7869
 473  231.6253
 474  271.1278
 475  311.0333
 476  250.6753
 477  308.1689
 478  286.5351
 479  260.4992
 480  227.1769
 481  336.0505
 482  297.5721
 483  226.3911
 484  168.4216
 485  353.9735
 486  276.7245
 487  141.1734
 488  163.0647
 489  216.1969
 490  259.2172
 491  322.3138
 492  392.2679
 493  342.5301
 494  178.8603
 495  95.09328
 496  51.1323
 497  134.3136
 498  297.0132
 499  304.7821
 500  275.1775
 501  432.4749
 502  421.4095
 503  194.2039
 504  219.2728
 505  343.6643
 506  503.8919
 507  467.7821
 508  613.3517
 509  823.3958
 510  1037.653
 511  972.1141
