# Input file       =  1191897833.137104_cleaned.dat
# Candidate        =  PSR_0332+5434
# Telescope        =  AR
# Epoch_topo       =  58039.114029364631
# Epoch_bary       =  N/A
# T_sample         =  0.002
# Data Folded      =  7340032
# Data Avg         =  0.0265116302512719
# Data StdDev      =  2.87921204345658 
# Profile Bins     =  1024
# Profile Avg      =  189.780801340938 
# Profile StdDev   =  243.765729241863 
# Reduced chi-sqr  =  1.590
# Prob(Noise)      <  2.74e-30   (~11.4 sigma)
# P_topo (ms)      =  714.480520167145  +/- 0.000267
# P'_topo (s/s)    =  -0                +/- 1.41e-10
# P''_topo (s/s^2) =  0                 +/- 6.23e-14
# P_bary (ms)      =  N/A
# P'_bary (s/s)    =  N/A
# P''_bary (s/s^2) =  N/A
# P_orb (s)        =  N/A
# asin(i)/c (s)    =  N/A
# eccentricity     =  N/A
# w (rad)          =  N/A
# T_peri           =  N/A
######################################################
   0  132.2886
   1  176.6955
   2  159.421
   3  150.385
   4  100.4266
   5  187.4644
   6  269.774
   7  309.0729
   8  242.7079
   9  204.9868
  10  225.5811
  11  126.5345
  12  162.9784
  13  127.7661
  14  262.8011
  15  193.1406
  16  198.6412
  17  98.85938
  18  163.5205
  19  236.8438
  20  311.8776
  21  257.6071
  22  225.3342
  23  148.8112
  24  61.96794
  25  -1.057686
  26  56.69852
  27  45.94817
  28  158.3755
  29  156.9977
  30  240.3228
  31  143.4587
  32  62.59314
  33  204.0576
  34  194.3806
  35  227.5526
  36  190.6337
  37  190.694
  38  304.7479
  39  276.5124
  40  342.938
  41  317.4482
  42  338.8347
  43  307.7284
  44  242.1946
  45  221.9815
  46  249.8955
  47  277.7788
  48  267.1098
  49  286.0194
  50  254.9812
  51  170.9926
  52  38.49505
  53  102.4633
  54  218.578
  55  284.1663
  56  221.3578
  57  200.8332
  58  188.2267
  59  202.7922
  60  249.2997
  61  136.6303
  62  45.35532
  63  76.02142
  64  158.0638
  65  155.1
  66  67.72475
  67  77.4368
  68  111.4645
  69  210.9422
  70  180.7706
  71  157.7217
  72  155.5713
  73  212.7303
  74  271.4924
  75  245.1607
  76  185.923
  77  -23.68997
  78  -50.91574
  79  -10.66722
  80  91.42417
  81  23.35709
  82  -58.52589
  83  2.434659
  84  81.41465
  85  228.758
  86  194.1888
  87  173.5942
  88  63.36016
  89  91.48825
  90  209.3671
  91  287.8526
  92  275.187
  93  249.7645
  94  245.3965
  95  247.1226
  96  258.0044
  97  111.872
  98  44.28726
  99  -123.0883
 100  2.135966
 101  95.2883
 102  304.1647
 103  263.0113
 104  116.2552
 105  -8.068659
 106  -3.542639
 107  130.8788
 108  198.8295
 109  191.2979
 110  157.4203
 111  15.65006
 112  -79.58559
 113  -149.4214
 114  -75.59769
 115  67.58479
 116  97.2711
 117  133.3192
 118  67.26576
 119  169.8771
 120  244.6761
 121  316.7784
 122  222.9322
 123  225.5534
 124  204.4946
 125  302.0315
 126  210.1406
 127  171.6808
 128  66.92855
 129  -110.6337
 130  -105.4069
 131  95.77175
 132  219.1311
 133  201.2864
 134  129.8699
 135  130.8041
 136  58.6839
 137  48.8699
 138  49.56984
 139  55.76025
 140  89.96958
 141  142.1811
 142  182.4667
 143  140.9584
 144  137.8725
 145  138.6066
 146  157.7576
 147  67.29297
 148  -14.53336
 149  59.56627
 150  126.5819
 151  58.71862
 152  -79.71301
 153  -144.9475
 154  -41.1703
 155  137.5945
 156  200.6516
 157  138.3914
 158  -18.7468
 159  -53.25605
 160  -4.492266
 161  -79.54841
 162  -137.6987
 163  -197.1855
 164  -145.5149
 165  16.88179
 166  93.83546
 167  64.78199
 168  38.12511
 169  55.97777
 170  190.0573
 171  117.8796
 172  16.25629
 173  -93.98214
 174  11.03232
 175  142.374
 176  243.076
 177  234.1686
 178  141.6368
 179  76.47549
 180  20.81621
 181  54.53842
 182  128.5695
 183  145.0737
 184  119.9636
 185  42.52436
 186  155.4865
 187  157.1589
 188  74.60535
 189  56.79641
 190  102.9864
 191  188.3907
 192  119.3248
 193  23.60069
 194  56.98536
 195  118.2208
 196  269.1183
 197  211.8153
 198  210.8076
 199  195.7469
 200  168.7815
 201  74.61546
 202  -2.155567
 203  60.67535
 204  139.9273
 205  280.5056
 206  323.3723
 207  281.4046
 208  203.3534
 209  222.7343
 210  219.0456
 211  221.6165
 212  93.98374
 213  146.6476
 214  143.2565
 215  172.8277
 216  59.88704
 217  72.51415
 218  12.72369
 219  -29.86325
 220  -90.68363
 221  -101.7613
 222  -20.24742
 223  -28.06668
 224  91.11676
 225  83.38235
 226  203.12
 227  104.3468
 228  8.005287
 229  -217.7356
 230  -309.2068
 231  -264.6544
 232  -133.8739
 233  37.59147
 234  99.72125
 235  51.05987
 236  10.49223
 237  53.80892
 238  219.7859
 239  166.0663
 240  -37.39193
 241  -99.02288
 242  26.71759
 243  60.74989
 244  75.23415
 245  130.0752
 246  267.069
 247  245.0103
 248  117.598
 249  75.49198
 250  -24.15947
 251  2.176356
 252  -61.28097
 253  2.735546
 254  15.07847
 255  22.5099
 256  40.12919
 257  43.65038
 258  -22.40821
 259  -136.9281
 260  -146.8965
 261  -116.6232
 262  39.56241
 263  68.25621
 264  193.3933
 265  216.697
 266  147.2787
 267  13.01029
 268  -10.26849
 269  6.168644
 270  54.51248
 271  31.89929
 272  34.0578
 273  46.31125
 274  65.19541
 275  42.63297
 276  12.89229
 277  -36.13368
 278  -74.81606
 279  -47.47662
 280  -13.96841
 281  55.86052
 282  74.54446
 283  23.17163
 284  17.79775
 285  71.65548
 286  206.4949
 287  169.6021
 288  193.6325
 289  184.4422
 290  220.0658
 291  137.4034
 292  97.63107
 293  45.69907
 294  37.73194
 295  -44.49356
 296  -111.8623
 297  -87.05074
 298  38.88585
 299  204.4272
 300  186.9565
 301  70.6903
 302  -111.8502
 303  -100.4346
 304  69.10418
 305  123.6568
 306  123.2403
 307  105.4885
 308  182.3113
 309  143.98
 310  40.2731
 311  69.06876
 312  88.21513
 313  137.2583
 314  125.6684
 315  145.5915
 316  131.0302
 317  151.8392
 318  186.7034
 319  183.6012
 320  159.0331
 321  208.3216
 322  159.0992
 323  112.5212
 324  103.167
 325  121.7448
 326  124.1251
 327  155.1849
 328  180.9605
 329  285.7017
 330  194.7984
 331  142.5937
 332  51.79637
 333  -0.9012134
 334  -92.85162
 335  -121.0105
 336  -34.79398
 337  76.71262
 338  147.4157
 339  182.1319
 340  150.5756
 341  72.73174
 342  138.0339
 343  228.6893
 344  276.0823
 345  147.8426
 346  178.9161
 347  258.9238
 348  303.8492
 349  219.1454
 350  63.97593
 351  106.6887
 352  245.8861
 353  400.1814
 354  405.8948
 355  243.7853
 356  189.9203
 357  164.7711
 358  198.9341
 359  133.7187
 360  215.5409
 361  206.925
 362  315.2921
 363  220.0006
 364  147.0279
 365  2.262878
 366  -39.50051
 367  -16.45682
 368  15.21965
 369  129.4436
 370  172.4679
 371  237.5514
 372  279.7264
 373  285.8524
 374  169.4
 375  -70.42796
 376  -48.58453
 377  111.0069
 378  243.4651
 379  230.2639
 380  190.6686
 381  138.9955
 382  46.1739
 383  70.9509
 384  191.1389
 385  344.2809
 386  373.5893
 387  342.4908
 388  230.2322
 389  173.3603
 390  187.4144
 391  242.426
 392  258.1482
 393  227.7515
 394  164.1558
 395  73.55369
 396  16.22252
 397  -12.63572
 398  82.84048
 399  233.6673
 400  182.8107
 401  -50.68663
 402  -177.5658
 403  -79.37055
 404  18.27421
 405  14.17767
 406  11.86747
 407  13.95852
 408  53.29786
 409  92.43964
 410  257.8202
 411  281.5853
 412  213.0414
 413  20.42534
 414  -168.6781
 415  -35.20652
 416  159.6582
 417  273.0464
 418  187.9641
 419  161.5712
 420  192.0098
 421  228.5062
 422  282.7426
 423  314.1121
 424  302.8073
 425  325.6559
 426  408.4631
 427  433.1339
 428  339.7545
 429  125.2241
 430  174.0405
 431  154.5593
 432  127.416
 433  18.96869
 434  2.312618
 435  96.14981
 436  95.54286
 437  258.1092
 438  202.3117
 439  159.1481
 440  29.42346
 441  89.33337
 442  251.5286
 443  369.9222
 444  319.4837
 445  307.1034
 446  214.9298
 447  117.8343
 448  168.9127
 449  221.4053
 450  182.4901
 451  73.78821
 452  48.66151
 453  53.57773
 454  90.3732
 455  171.4182
 456  270.0508
 457  287.9977
 458  303.3806
 459  143.6848
 460  91.67384
 461  161.8396
 462  280.8446
 463  271.9105
 464  211.4957
 465  112.8227
 466  143.8299
 467  49.16922
 468  73.49588
 469  145.6076
 470  269.8208
 471  288.215
 472  214.8174
 473  110.5016
 474  192.4962
 475  242.8216
 476  350.7045
 477  251.9977
 478  192.529
 479  160.1373
 480  165.8341
 481  188.8594
 482  202.4428
 483  275.3554
 484  365.3178
 485  360.4989
 486  295.2066
 487  245.1736
 488  205.6917
 489  141.9775
 490  263.4548
 491  371.0745
 492  430.1824
 493  248.9818
 494  320.0816
 495  278.4639
 496  268.0714
 497  201.2877
 498  76.0374
 499  -3.768042
 500  41.14141
 501  254.5412
 502  405.7511
 503  434.9357
 504  519.658
 505  503.9276
 506  535.3806
 507  438.4579
 508  312.4804
 509  311.514
 510  485.5034
 511  599.2105
 512  499.4912
 513  366.9523
 514  279.9483
 515  156.493
 516  194.715
 517  177.84
 518  225.6777
 519  127.426
 520  197.4767
 521  117.3963
 522  173.8349
 523  288.2289
 524  521.3728
 525  460.9258
 526  385.6068
 527  59.38318
 528  12.98464
 529  -69.44948
 530  20.66256
 531  30.54065
 532  204.7809
 533  248.3103
 534  186.9635
 535  73.201
 536  76.21365
 537  71.61299
 538  49.61567
 539  230.2719
 540  394.7571
 541  346.636
 542  137.58
 543  37.60074
 544  235.5827
 545  298.9792
 546  232.7059
 547  1.325323
 548  -44.84129
 549  65.23911
 550  102.7836
 551  111.4646
 552  195.6919
 553  287.3565
 554  204.3971
 555  73.03774
 556  72.68436
 557  73.22349
 558  136.3912
 559  115.2171
 560  115.7137
 561  22.42792
 562  126.6052
 563  178.5891
 564  222.48
 565  226.3064
 566  242.7487
 567  267.3516
 568  336.1822
 569  504.7453
 570  437.3341
 571  398.71
 572  357.8931
 573  348.9623
 574  230.3974
 575  190.5154
 576  211.3687
 577  340.2758
 578  341.7536
 579  330.2958
 580  238.9249
 581  194.7821
 582  105.0884
 583  115.5619
 584  135.4428
 585  289.7055
 586  294.5611
 587  217.2028
 588  180.5572
 589  262.7232
 590  341.7157
 591  358.2863
 592  269.2466
 593  372.5251
 594  378.8986
 595  380.6329
 596  340.3629
 597  372.5588
 598  392.0644
 599  292.4425
 600  175.9314
 601  303.0209
 602  287.2465
 603  195.5953
 604  202.9447
 605  241.277
 606  457.0939
 607  436.0529
 608  414.3363
 609  389.6543
 610  320.7077
 611  341.4045
 612  300.7823
 613  322.8438
 614  444.1993
 615  499.4794
 616  408.1237
 617  292.6133
 618  324.2896
 619  356.2176
 620  309.6608
 621  228.8399
 622  339.6825
 623  531.4023
 624  571.2099
 625  630.5184
 626  597.6447
 627  654.419
 628  667.5188
 629  637.4739
 630  703.5303
 631  738.7394
 632  805.2336
 633  882.0989
 634  1099.088
 635  1135.044
 636  1108.797
 637  1084.904
 638  1352.297
 639  1445.178
 640  1368.448
 641  1091.899
 642  836.7698
 643  615.4922
 644  553.3742
 645  482.1417
 646  330.2064
 647  228.2098
 648  219.1412
 649  229.1003
 650  191.0336
 651  185.2775
 652  238.2847
 653  337.8159
 654  402.3624
 655  349.7579
 656  265.7644
 657  349.234
 658  427.3987
 659  572.64
 660  601.3851
 661  540.9912
 662  415.3441
 663  249.2321
 664  158.6913
 665  139.2369
 666  273.2206
 667  397.4157
 668  467.6041
 669  421.4319
 670  383.5499
 671  389.0466
 672  485.2528
 673  415.0713
 674  471.4805
 675  408.8965
 676  405.1382
 677  266.2235
 678  202.5724
 679  225.091
 680  197.2529
 681  267.8805
 682  280.736
 683  315.4486
 684  240.5112
 685  193.0759
 686  179.8957
 687  191.3459
 688  270.9186
 689  273.5744
 690  357.3141
 691  297.4392
 692  358.5825
 693  169.2189
 694  65.14717
 695  89.95435
 696  205.8517
 697  299.682
 698  292.7863
 699  343.9342
 700  292.3899
 701  216.3824
 702  240.659
 703  254.0155
 704  164.3995
 705  110.7379
 706  211.9059
 707  383.9168
 708  431.9045
 709  386.2398
 710  179.2858
 711  49.91238
 712  51.07949
 713  220.4999
 714  341.4232
 715  310.3474
 716  247.1877
 717  79.16815
 718  47.66619
 719  124.0555
 720  210.2287
 721  215.1412
 722  172.4748
 723  245.0389
 724  211.8355
 725  255.9203
 726  228.8295
 727  276.9168
 728  237.4133
 729  156.1151
 730  218.7249
 731  262.6372
 732  284.399
 733  158.0258
 734  199.879
 735  333.5885
 736  384.2803
 737  297.9506
 738  248.1264
 739  294.1393
 740  463.818
 741  569.389
 742  518.6219
 743  392.8144
 744  208.7619
 745  198.2977
 746  170.1969
 747  65.8757
 748  36.67791
 749  36.97039
 750  132.6653
 751  86.09021
 752  54.99788
 753  -31.66019
 754  -5.63699
 755  44.62517
 756  104.1175
 757  142.3453
 758  165.0075
 759  233.8369
 760  217.2925
 761  109.9581
 762  46.76742
 763  213.9693
 764  262.8608
 765  256.9807
 766  81.95285
 767  165.5806
 768  244.8128
 769  261.0254
 770  328.6602
 771  297.5532
 772  334.7728
 773  297.561
 774  269.2013
 775  162.6825
 776  7.077561
 777  -128.6388
 778  -9.737034
 779  103.8606
 780  215.4856
 781  278.4525
 782  207.9874
 783  182.6625
 784  28.73981
 785  6.639154
 786  56.42833
 787  64.94358
 788  13.45904
 789  -113.6589
 790  -57.10124
 791  53.04922
 792  125.0255
 793  82.41694
 794  95.51733
 795  197.945
 796  214.6074
 797  160.9807
 798  67.03971
 799  156.1273
 800  268.1924
 801  261.2162
 802  208.757
 803  201.2287
 804  194.7751
 805  288.2196
 806  295.1145
 807  411.7508
 808  382.432
 809  289.5668
 810  192.6404
 811  218.0927
 812  270.2153
 813  327.9089
 814  321.4816
 815  353.5614
 816  341.4027
 817  238.7641
 818  184.1075
 819  102.6742
 820  127.2349
 821  79.89558
 822  -6.577707
 823  -3.080125
 824  18.93512
 825  67.75084
 826  116.0527
 827  204.0226
 828  136.7277
 829  88.72541
 830  -11.57747
 831  18.31302
 832  -37.2897
 833  -45.11246
 834  40.72895
 835  80.39063
 836  43.01009
 837  -35.06855
 838  -71.99685
 839  47.70428
 840  71.23827
 841  174.0167
 842  129.1447
 843  214.6646
 844  28.32707
 845  -24.41076
 846  48.8898
 847  275.8178
 848  235.1585
 849  138.9788
 850  98.29052
 851  180.0381
 852  74.8659
 853  115.0515
 854  205.5765
 855  347.2806
 856  365.1515
 857  369.7267
 858  378.2973
 859  327.3125
 860  157.4156
 861  80.7598
 862  157.0016
 863  185.8364
 864  257.12
 865  133.5529
 866  214.3518
 867  232.2853
 868  369.7938
 869  383.0628
 870  370.964
 871  378.2987
 872  322.4114
 873  221.3666
 874  31.25348
 875  91.09268
 876  194.5829
 877  273.5186
 878  195.974
 879  90.9438
 880  172.3557
 881  210.4689
 882  251.9456
 883  287.6998
 884  260.6197
 885  127.1821
 886  168.8006
 887  255.0694
 888  327.0492
 889  160.1062
 890  157.9524
 891  315.0757
 892  372.3132
 893  350.1248
 894  182.3307
 895  150.8481
 896  107.2201
 897  189.4822
 898  165.1826
 899  165.0824
 900  166.6831
 901  299.563
 902  359.1872
 903  294.3544
 904  272.1834
 905  264.1374
 906  275.3104
 907  147.0027
 908  113.1156
 909  47.4468
 910  56.15591
 911  57.79062
 912  76.05622
 913  58.64558
 914  47.07192
 915  94.51585
 916  97.20222
 917  48.66164
 918  114.3718
 919  222.0995
 920  221.6075
 921  265.1376
 922  278.9579
 923  259.4127
 924  110.3247
 925  86.22559
 926  267.3664
 927  370.802
 928  404.0737
 929  382.1905
 930  366.7693
 931  276.3658
 932  244.3731
 933  252.3941
 934  257.1564
 935  149.7357
 936  181.3436
 937  155.144
 938  188.0361
 939  103.3175
 940  232.113
 941  223.4543
 942  302.6285
 943  229.2355
 944  149.8009
 945  107.1973
 946  142.1316
 947  201.4113
 948  266.1636
 949  248.8
 950  215.1725
 951  85.17857
 952  17.06186
 953  45.06295
 954  101.8335
 955  177.0289
 956  183.224
 957  277.7595
 958  309.7015
 959  249.2027
 960  193.6053
 961  134.4358
 962  219.9186
 963  247.4826
 964  272.039
 965  287.2792
 966  415.0469
 967  435.8869
 968  391.9085
 969  328.4572
 970  309.7075
 971  277.5324
 972  252.5424
 973  227.2318
 974  222.3684
 975  116.12
 976  -7.587423
 977  -22.16147
 978  123.1885
 979  197.8273
 980  298.7997
 981  223.9408
 982  234.4574
 983  195.3215
 984  199.713
 985  203.4594
 986  119.8896
 987  145.7874
 988  171.8802
 989  93.18404
 990  92.67403
 991  146.214
 992  237.2303
 993  270.7408
 994  242.0261
 995  217.6951
 996  43.56634
 997  -22.45496
 998  61.79296
 999  203.1395
1000  204.5452
1001  290.7386
1002  271.4426
1003  183.0293
1004  182.1721
1005  280.6405
1006  346.0618
1007  255.7059
1008  214.0112
1009  79.17032
1010  139.669
1011  31.57211
1012  163.1814
1013  188.7585
1014  236.5896
1015  296.2991
1016  271.8531
1017  211.246
1018  -6.710979
1019  54.69372
1020  212.3418
1021  290.5535
1022  234.467
1023  184.965
