# Input file       =  1191954469.124143_cleaned.dat
# Candidate        =  PSR_0332+5434
# Telescope        =  AR
# Epoch_topo       =  58039.769538473876
# Epoch_bary       =  N/A
# T_sample         =  0.002
# Data Folded      =  7208960
# Data Avg         =  0.0728060162255796
# Data StdDev      =  3.07966339258352 
# Profile Bins     =  512
# Profile Avg      =  1025.01593267412 
# Profile StdDev   =  365.430319885469 
# Reduced chi-sqr  =  1.155
# Prob(Noise)      <  0.00858   (~2.4 sigma)
# P_topo (ms)      =  714.480638536522  +/- 0.000165
# P'_topo (s/s)    =  -0                +/- 8.86e-11
# P''_topo (s/s^2) =  0                 +/- 3.98e-14
# P_bary (ms)      =  N/A
# P'_bary (s/s)    =  N/A
# P''_bary (s/s^2) =  N/A
# P_orb (s)        =  N/A
# asin(i)/c (s)    =  N/A
# eccentricity     =  N/A
# w (rad)          =  N/A
# T_peri           =  N/A
######################################################
   0  1033.781
   1  714.7022
   2  988.4734
   3  1046.589
   4  947.093
   5  1063.571
   6  1285.401
   7  1030.349
   8  680.8827
   9  662.7252
  10  900.8698
  11  1192.559
  12  1312.938
  13  1421.962
  14  1180.893
  15  944.8185
  16  987.3092
  17  864.4659
  18  1105
  19  756.5546
  20  655.3806
  21  902.611
  22  993.9047
  23  880.9944
  24  1091.694
  25  983.9839
  26  885.3445
  27  1070.598
  28  1158.169
  29  1027.623
  30  1056.728
  31  1335.425
  32  1246.994
  33  1116.966
  34  1437.727
  35  908.3458
  36  724.9727
  37  998.5844
  38  926.9672
  39  763.1494
  40  732.3975
  41  640.2744
  42  686.6963
  43  768.0961
  44  758.6467
  45  1156.595
  46  964.3911
  47  1152.556
  48  1339.633
  49  1005.32
  50  787.7163
  51  857.77
  52  844.857
  53  722.9081
  54  931.1968
  55  934.1334
  56  1113.255
  57  1157.992
  58  1008.046
  59  844.2134
  60  498.6754
  61  749.2515
  62  563.8735
  63  607.5314
  64  773.532
  65  891.6646
  66  976.9868
  67  1022.25
  68  903.6988
  69  966.4977
  70  1231.849
  71  1093.441
  72  980.5079
  73  989.2055
  74  805.2961
  75  620.9199
  76  725.0048
  77  1041.901
  78  1074.518
  79  1125.978
  80  807.701
  81  874.8012
  82  1076.589
  83  924.921
  84  764.0425
  85  1016.466
  86  1065.687
  87  867.8728
  88  850.9115
  89  902.1034
  90  1144.906
  91  1041.047
  92  789.8534
  93  704.0861
  94  687.9897
  95  620.7775
  96  903.4952
  97  919.2792
  98  1060.352
  99  877.2586
 100  1143.509
 101  1219.739
 102  1199.821
 103  1244.856
 104  1204.592
 105  1025.018
 106  1043.435
 107  816.5439
 108  711.7853
 109  1013.167
 110  1198.767
 111  841.9588
 112  1043.628
 113  800.1943
 114  840.5405
 115  747.4939
 116  685.344
 117  784.8342
 118  982.7585
 119  1007.474
 120  1120.622
 121  930.3487
 122  858.4821
 123  771.0219
 124  944.6569
 125  1088.921
 126  1019.494
 127  937.3377
 128  1351.021
 129  1101.294
 130  971.2559
 131  1168.63
 132  1033.309
 133  1157.931
 134  1243.566
 135  1232.47
 136  1195.047
 137  867.2601
 138  847.9336
 139  1348.106
 140  958.0239
 141  867.3004
 142  700.1434
 143  974.1716
 144  1171.656
 145  1261.753
 146  1063.901
 147  1144.01
 148  1128.882
 149  1235.501
 150  925.2894
 151  926.2723
 152  1343.564
 153  1055.892
 154  1001.19
 155  1029.25
 156  785.2574
 157  880.2004
 158  1129.836
 159  1066.894
 160  1322.831
 161  955.3403
 162  878.0021
 163  939.3983
 164  1027.93
 165  900.0012
 166  784.5632
 167  800.9607
 168  1063.959
 169  1364.9
 170  953.8393
 171  927.7036
 172  757.5009
 173  894.1716
 174  984.4985
 175  994.9577
 176  1275.575
 177  993.2751
 178  727.6269
 179  1112.967
 180  824.6715
 181  751.2267
 182  969.3626
 183  926.8539
 184  840.3806
 185  969.7007
 186  1258.706
 187  1324.269
 188  1113.301
 189  999.8673
 190  976.2322
 191  732.7189
 192  952.1111
 193  933.5569
 194  772.9308
 195  913.1156
 196  1024.397
 197  914.7783
 198  918.0839
 199  724.6387
 200  715.9741
 201  1025.902
 202  1141.45
 203  1180.925
 204  1140.081
 205  1092.38
 206  1192.137
 207  1239.465
 208  1044.474
 209  857.9324
 210  788.5952
 211  939.4204
 212  1322.153
 213  1505.796
 214  936.7847
 215  931.0189
 216  787.4998
 217  909.3914
 218  954.4092
 219  1084.882
 220  1406.393
 221  1342.471
 222  1008.542
 223  439.3665
 224  347.7285
 225  699.5651
 226  737.6207
 227  1042.815
 228  1113.521
 229  847.2519
 230  1077.403
 231  787.1272
 232  805.0499
 233  726.3956
 234  897.7734
 235  683.8223
 236  912.6978
 237  992.8953
 238  1115.494
 239  1262.75
 240  961.3477
 241  1119.729
 242  922.5765
 243  849.8815
 244  995.9602
 245  1148.419
 246  1133.751
 247  741.1517
 248  1066.44
 249  1351.415
 250  1199.217
 251  1113.157
 252  807.2715
 253  1054.938
 254  1225.882
 255  1494.651
 256  1313.503
 257  1065.494
 258  935.733
 259  786.2155
 260  988.7791
 261  1171.323
 262  1443.712
 263  1193.165
 264  1017.716
 265  1218.005
 266  1007.922
 267  1169.396
 268  1004.555
 269  1001.015
 270  1124.907
 271  1075.134
 272  1008.547
 273  1074.86
 274  1017.806
 275  1083.741
 276  1054.212
 277  1015.758
 278  1298.39
 279  1109.567
 280  1103.906
 281  915.3715
 282  953.9937
 283  1233.558
 284  1023.564
 285  1316.23
 286  1640.667
 287  1624.016
 288  1188.89
 289  1296.217
 290  1626.968
 291  2019.09
 292  2828.096
 293  3083.899
 294  3492.091
 295  2937.535
 296  2465.452
 297  2103.75
 298  1482.502
 299  1338.614
 300  1441.052
 301  1213.552
 302  1113.862
 303  1249.77
 304  1333.954
 305  1243.713
 306  1071.43
 307  1101.599
 308  1403.45
 309  1229.988
 310  1488.898
 311  1497.921
 312  1289.625
 313  1125.928
 314  1030.495
 315  798.1766
 316  918.8451
 317  1142.313
 318  1064.865
 319  1034.368
 320  755.9732
 321  1057.923
 322  1120.545
 323  1004.381
 324  544.5403
 325  745.924
 326  1052.506
 327  1365.096
 328  1132.626
 329  1074.092
 330  1218.798
 331  782.3918
 332  792.2755
 333  759.8121
 334  736.8755
 335  1014.041
 336  1106.982
 337  949.5496
 338  927.6376
 339  917.6393
 340  715.6541
 341  542.1319
 342  890.3204
 343  807.1078
 344  821.7643
 345  1146.122
 346  1238.674
 347  1243.698
 348  1091.666
 349  945.7429
 350  847.5507
 351  727.3599
 352  945.6498
 353  1105.792
 354  1013.516
 355  952.4282
 356  1117.949
 357  851.9585
 358  871.594
 359  917.4405
 360  1021.869
 361  950.0416
 362  902.967
 363  967.0933
 364  829.6012
 365  1236.003
 366  1327.457
 367  1133.602
 368  1349.458
 369  1226.385
 370  1071.299
 371  820.2732
 372  515.9291
 373  714.918
 374  987.5999
 375  1433.167
 376  849.0164
 377  967.4652
 378  714.8697
 379  698.3196
 380  635.6013
 381  481.3125
 382  669.2744
 383  975.6776
 384  1060.698
 385  1087.802
 386  1006.561
 387  1102.777
 388  1004.026
 389  1013.967
 390  751.5773
 391  850.9567
 392  867.0398
 393  900.1346
 394  933.8793
 395  939.5374
 396  1143.901
 397  1265.461
 398  1139.742
 399  865.9619
 400  545.6761
 401  1159.787
 402  1048.742
 403  1038.283
 404  901.4775
 405  942.6944
 406  860.2307
 407  988.2526
 408  963.2624
 409  930.0237
 410  1009.66
 411  965.1204
 412  1308.068
 413  890.9526
 414  1066.961
 415  1175.493
 416  1195.685
 417  966.3085
 418  1074.91
 419  954.1945
 420  1256.534
 421  1353.094
 422  1072.685
 423  913.2087
 424  596.5646
 425  934.1728
 426  1070.982
 427  878.1916
 428  1213.797
 429  1121.716
 430  977.3715
 431  1016.17
 432  1234.196
 433  1089.599
 434  1139.865
 435  1069.864
 436  896.8492
 437  1033.36
 438  896.014
 439  993.2332
 440  836.1622
 441  999.6528
 442  1095.895
 443  1076.355
 444  1188.324
 445  1052.627
 446  1201.454
 447  902.2087
 448  707.634
 449  783.0343
 450  1107.471
 451  1268.2
 452  1393.264
 453  1198.596
 454  731.3587
 455  830.5715
 456  929.8435
 457  863.6611
 458  1133.366
 459  1004.036
 460  1032.955
 461  778.7081
 462  770.6282
 463  963.6909
 464  964.9448
 465  956.8763
 466  1101.132
 467  1022.329
 468  1031.801
 469  876.3014
 470  990.8044
 471  1077.342
 472  868.8262
 473  911.9265
 474  1101.417
 475  841.2124
 476  916.7769
 477  1031.622
 478  911.4948
 479  1079.559
 480  924.0115
 481  1096.171
 482  929.4048
 483  994.5303
 484  1284.269
 485  1332.451
 486  957.2837
 487  925.3408
 488  815.1788
 489  781.5371
 490  1027.734
 491  1163.019
 492  1269.073
 493  1220.044
 494  877.8561
 495  737.9078
 496  772.1864
 497  1156.54
 498  1044.955
 499  937.407
 500  1032.862
 501  1055.026
 502  872.2356
 503  1320.743
 504  1298.545
 505  922.3765
 506  916.447
 507  848.6638
 508  772.8382
 509  958.1871
 510  1053.682
 511  963.9914
