# Input file       =  1191725510.105498_cleaned.dat
# Candidate        =  PSR_0332+5434
# Telescope        =  AR
# Epoch_topo       =  58037.119549832154
# Epoch_bary       =  N/A
# T_sample         =  0.002
# Data Folded      =  7340032
# Data Avg         =  0.064353766961306
# Data StdDev      =  2.86458059235493 
# Profile Bins     =  512
# Profile Avg      =  922.479333673963 
# Profile StdDev   =  342.984932268611 
# Reduced chi-sqr  =  1.419
# Prob(Noise)      <  1.27e-09   (~6.0 sigma)
# P_topo (ms)      =  714.479137081415  +/- 0.00029
# P'_topo (s/s)    =  -0                +/- 1.53e-10
# P''_topo (s/s^2) =  0                 +/- 6.75e-14
# P_bary (ms)      =  N/A
# P'_bary (s/s)    =  N/A
# P''_bary (s/s^2) =  N/A
# P_orb (s)        =  N/A
# asin(i)/c (s)    =  N/A
# eccentricity     =  N/A
# w (rad)          =  N/A
# T_peri           =  N/A
######################################################
   0  344.3695
   1  791.2534
   2  636.587
   3  911.9626
   4  779.4234
   5  623.9669
   6  598.2998
   7  529.857
   8  529.0107
   9  612.3396
  10  788.2471
  11  660.0026
  12  611.9498
  13  926.6768
  14  971.2725
  15  974.2322
  16  941.3813
  17  1099.462
  18  1096.652
  19  924.4626
  20  570.7686
  21  654.5032
  22  938.2337
  23  853.506
  24  1099.66
  25  1295.395
  26  915.072
  27  1028.779
  28  1012.773
  29  965.0875
  30  1206.49
  31  1034.668
  32  793.3648
  33  1036.942
  34  946.6323
  35  825.5246
  36  986.3231
  37  757.6064
  38  1000.036
  39  1050.581
  40  828.6243
  41  1235.648
  42  1220.16
  43  1030.587
  44  896.7753
  45  680.0721
  46  899.427
  47  897.5883
  48  977.229
  49  786.931
  50  1040.678
  51  809.1533
  52  864.1387
  53  632.4379
  54  948.0352
  55  1107.614
  56  1048.92
  57  837.2033
  58  1210.501
  59  875.1973
  60  655.2499
  61  740.7532
  62  875.0739
  63  726.6219
  64  705.8148
  65  602.4094
  66  982.0169
  67  618.9329
  68  698.298
  69  763.2828
  70  807.8776
  71  959.0652
  72  1002.946
  73  879.4059
  74  940.8331
  75  1084.964
  76  1411.511
  77  1177.201
  78  782.0519
  79  747.6218
  80  731.9974
  81  779.4859
  82  862.017
  83  1089.056
  84  764.1467
  85  653.9518
  86  600.6516
  87  401.393
  88  379.3933
  89  597.9582
  90  964.7125
  91  816.7455
  92  779.8873
  93  972.1304
  94  965.6445
  95  925.0463
  96  1143.434
  97  1300.768
  98  1152.336
  99  1087.774
 100  948.2495
 101  1098.97
 102  1071.146
 103  859.8605
 104  714.2099
 105  793.6078
 106  1009.592
 107  921.7883
 108  683.9281
 109  755.6703
 110  777.0291
 111  860.5486
 112  765.3738
 113  687.1299
 114  420.5918
 115  698.735
 116  747.9256
 117  526.3218
 118  914.0167
 119  1107.126
 120  1146.146
 121  718.8077
 122  430.6192
 123  468.2776
 124  52.49121
 125  481.981
 126  718.5068
 127  901.9395
 128  680.148
 129  604.9423
 130  639.2001
 131  693.6049
 132  725.4907
 133  1166.178
 134  1138.622
 135  855.6999
 136  700.8049
 137  1025.375
 138  1122.326
 139  893.2737
 140  734.9029
 141  891.2192
 142  1092.26
 143  1055.573
 144  812.2739
 145  1268.37
 146  896.5531
 147  474.26
 148  746.5156
 149  696.0706
 150  926.2338
 151  986.1337
 152  866.0649
 153  750.4545
 154  945.6013
 155  1038.077
 156  986.0004
 157  579.4692
 158  535.8951
 159  1185.647
 160  969.0562
 161  1220.965
 162  811.3654
 163  1145.489
 164  1260.795
 165  1168.843
 166  1350.057
 167  1110.63
 168  1044.049
 169  1186.762
 170  1284.648
 171  962.1685
 172  921.9071
 173  993.3098
 174  703.359
 175  672.4822
 176  936.6157
 177  684.78
 178  672.3008
 179  829.736
 180  977.0151
 181  575.5872
 182  347.4363
 183  778.8271
 184  1094.207
 185  1027.855
 186  995.4222
 187  802.4809
 188  1010.263
 189  889.4928
 190  856.5896
 191  625.8
 192  574.6082
 193  667.4031
 194  679.7444
 195  1036.562
 196  1134.858
 197  1159.265
 198  726.7569
 199  521.1141
 200  585.999
 201  1194.11
 202  977.4042
 203  809.723
 204  969.9214
 205  592.5209
 206  858.1904
 207  670.6403
 208  791.4487
 209  773.2609
 210  764.1367
 211  1113.259
 212  1006.741
 213  637.5093
 214  816.1416
 215  943.4707
 216  972.397
 217  1304.55
 218  1204.764
 219  892.2714
 220  1047.384
 221  939.1387
 222  1070.06
 223  953.0071
 224  937.2496
 225  754.1089
 226  794.0967
 227  639.2648
 228  720.1682
 229  943.0004
 230  1132.552
 231  1299.749
 232  1146.602
 233  1428.14
 234  1376.993
 235  1224.048
 236  1211.545
 237  1314.919
 238  914.605
 239  754.1144
 240  1022.176
 241  1123.025
 242  1099.147
 243  1265.416
 244  1100.949
 245  998.7269
 246  891.7697
 247  1269.223
 248  1273.596
 249  1137.292
 250  1378.884
 251  1093.455
 252  1021.964
 253  933.2031
 254  1027.17
 255  898.2797
 256  752.796
 257  570.1302
 258  816.1454
 259  947.4899
 260  555.1816
 261  782.4604
 262  550.7867
 263  834.9415
 264  785.1714
 265  1077.236
 266  1466.921
 267  1368.953
 268  1133.915
 269  1229.344
 270  1474.145
 271  1501.2
 272  1199.707
 273  1190.907
 274  1106.854
 275  1207.102
 276  1025.726
 277  678.1068
 278  946.2407
 279  952.2089
 280  878.0886
 281  1084.784
 282  998.7336
 283  1156.701
 284  1273.191
 285  1021.86
 286  896.5352
 287  938.6979
 288  754.5389
 289  862.6088
 290  962.9202
 291  1065.32
 292  1140.092
 293  915.7378
 294  897.9376
 295  1157.67
 296  873.3439
 297  802.9078
 298  1038.019
 299  1495.682
 300  1440.431
 301  1131.173
 302  679.736
 303  660.9464
 304  714.0064
 305  727.532
 306  821.4216
 307  954.2018
 308  847.1015
 309  937.1396
 310  974.9223
 311  1011.392
 312  1061.643
 313  1260.415
 314  1512.77
 315  1913.475
 316  2130.681
 317  2477.184
 318  2872.729
 319  2910.611
 320  2698.545
 321  2240.03
 322  1720.884
 323  1211.6
 324  575.1989
 325  764.6874
 326  1075.794
 327  1055.043
 328  1040.447
 329  1005.861
 330  923.5782
 331  786.1245
 332  997.6964
 333  1076.843
 334  1139.07
 335  1207.755
 336  1095.518
 337  866.5266
 338  817.8472
 339  749.1544
 340  847.1469
 341  1030.432
 342  1018.276
 343  755.8295
 344  831.1677
 345  929.8362
 346  1225.507
 347  915.1498
 348  921.7305
 349  946.5188
 350  907.3289
 351  1025.087
 352  1131.372
 353  881.5685
 354  784.166
 355  751.0688
 356  838.2368
 357  757.6085
 358  851.8226
 359  893.0602
 360  1259.483
 361  919.0136
 362  331.1824
 363  576.9984
 364  1051.437
 365  1131.344
 366  1400.311
 367  1092.399
 368  1098.266
 369  809.6687
 370  911.5807
 371  1182.319
 372  1321.532
 373  1211.725
 374  1367.373
 375  1163.051
 376  1396.808
 377  1387.076
 378  987.5898
 379  953.4974
 380  880.1163
 381  932.9941
 382  1038.334
 383  1069.127
 384  1051.983
 385  1184.449
 386  1091.212
 387  781.6379
 388  1052.417
 389  870.4708
 390  834.8337
 391  1055.968
 392  1269.886
 393  1142.598
 394  901.4169
 395  772.7109
 396  1120.746
 397  1008.865
 398  897.9042
 399  843.0468
 400  809.6392
 401  791.7777
 402  466.8574
 403  466.1313
 404  745.2576
 405  813.5658
 406  871.6125
 407  892.072
 408  1043.549
 409  1008.795
 410  723.3719
 411  589.6854
 412  802.4774
 413  887.6639
 414  1051.684
 415  844.0286
 416  767.8042
 417  1041.98
 418  1031.647
 419  1189.446
 420  877.6329
 421  1086.885
 422  923.4642
 423  786.0212
 424  998.222
 425  883.4022
 426  796.8188
 427  481.9306
 428  857.6779
 429  779.0098
 430  1013.169
 431  865.627
 432  770.0868
 433  557.6575
 434  812.8766
 435  781.0292
 436  653.8007
 437  466.7548
 438  496.4996
 439  960.3195
 440  793.0922
 441  732.9064
 442  774.6715
 443  1023.91
 444  877.7605
 445  858.6265
 446  1176.189
 447  1224.64
 448  1172.5
 449  784.5604
 450  642.9212
 451  702.0552
 452  1131.043
 453  1223.683
 454  830.6965
 455  886.4945
 456  846.5177
 457  984.6719
 458  768.4428
 459  844.3788
 460  1035.297
 461  958.8146
 462  1055.551
 463  1130.268
 464  1056.837
 465  845.6906
 466  489.0155
 467  555.5775
 468  867.5137
 469  924.2346
 470  875.3188
 471  875.8607
 472  815.4346
 473  685.3069
 474  744.3271
 475  1039.514
 476  619.8768
 477  452.7612
 478  508.791
 479  602.3762
 480  784.9985
 481  664.1715
 482  675.134
 483  691.0104
 484  734.4812
 485  953.8628
 486  645.4839
 487  592.7181
 488  1036.128
 489  860.1569
 490  962.4616
 491  537.2216
 492  418.0251
 493  484.0146
 494  747.5561
 495  1208.133
 496  531.1322
 497  330.4433
 498  483.2532
 499  408.0037
 500  469.4547
 501  731.4088
 502  577.1219
 503  867.9745
 504  806.5347
 505  570.8086
 506  845.1934
 507  938.7446
 508  1107.718
 509  740.5826
 510  452.9814
 511  594.7533
