# Input file       =  1192055239.118371_cleaned.dat
# Candidate        =  PSR_0332+5434
# Telescope        =  AR
# Epoch_topo       =  58040.935857851517
# Epoch_bary       =  N/A
# T_sample         =  0.002
# Data Folded      =  7340032
# Data Avg         =  0.0423471628205985
# Data StdDev      =  2.9199574453867  
# Profile Bins     =  1024
# Profile Avg      =  303.534961724524 
# Profile StdDev   =  247.215399660309 
# Reduced chi-sqr  =  1.076
# Prob(Noise)      <  0.0457   (~1.7 sigma)
# P_topo (ms)      =  714.481497566481  +/- 0.000152
# P'_topo (s/s)    =  -0                +/- 8.01e-11
# P''_topo (s/s^2) =  0                 +/- 3.54e-14
# P_bary (ms)      =  N/A
# P'_bary (s/s)    =  N/A
# P''_bary (s/s^2) =  N/A
# P_orb (s)        =  N/A
# asin(i)/c (s)    =  N/A
# eccentricity     =  N/A
# w (rad)          =  N/A
# T_peri           =  N/A
######################################################
   0  252.399
   1  164.2416
   2  197.1346
   3  175.4227
   4  261.8165
   5  249.3601
   6  151.7525
   7  165.6048
   8  151.3763
   9  151.0175
  10  70.28844
  11  123.2786
  12  235.0784
  13  391.7674
  14  318.7081
  15  244.5832
  16  270.9986
  17  436.8133
  18  457.7116
  19  405.0861
  20  294.7561
  21  299.8572
  22  181.3539
  23  55.82533
  24  160.2005
  25  184.1911
  26  329.2318
  27  287.9868
  28  245.0466
  29  204.6449
  30  108.1653
  31  181.2219
  32  178.9679
  33  218.676
  34  235.0625
  35  291.0939
  36  306.6763
  37  298.7025
  38  237.3882
  39  157.003
  40  286.4502
  41  315.0763
  42  296.0148
  43  259.6897
  44  237.8004
  45  366.7612
  46  353.4923
  47  376.595
  48  361.4054
  49  330.359
  50  328.4588
  51  217.6729
  52  299.8453
  53  307.1241
  54  349.6638
  55  260.4507
  56  212.4762
  57  135.8412
  58  138.9043
  59  159.4572
  60  257.4207
  61  261.6154
  62  252.52
  63  206.8643
  64  233.0939
  65  237.3167
  66  244.203
  67  235.5476
  68  190.9453
  69  164.2371
  70  261.927
  71  281.5421
  72  332.7152
  73  241.2011
  74  296.5035
  75  381.7945
  76  434.9106
  77  285.424
  78  232.1302
  79  214.9494
  80  281.1064
  81  179.7636
  82  191.965
  83  190.7529
  84  200.0437
  85  198.256
  86  255.3265
  87  198.6906
  88  255.7909
  89  193.4449
  90  307.1523
  91  366.5852
  92  406.1763
  93  276.4413
  94  88.62738
  95  -16.15401
  96  45.58195
  97  76.52399
  98  98.10515
  99  158.7682
 100  220.4899
 101  225.9462
 102  257.1418
 103  267.1171
 104  333.1136
 105  329.1889
 106  312.5769
 107  283.4319
 108  252.7884
 109  219.2386
 110  354.7683
 111  335.706
 112  258.8441
 113  83.85177
 114  72.95851
 115  72.15299
 116  -9.426699
 117  3.389442
 118  179.6795
 119  234.2943
 120  214.8573
 121  142.5326
 122  186.0532
 123  219.4532
 124  256.1288
 125  299.8473
 126  359.0497
 127  373.9699
 128  269.0317
 129  225.6742
 130  152.1517
 131  246.5939
 132  293.183
 133  352.0085
 134  368.6653
 135  301.5088
 136  252.7775
 137  162.5403
 138  157.4383
 139  188.2157
 140  311.888
 141  328.6235
 142  370.5145
 143  307.3669
 144  257.7979
 145  250.4868
 146  320.8452
 147  463.3579
 148  453.4683
 149  258.9426
 150  216.7588
 151  212.1584
 152  242.5783
 153  254.63
 154  213.4736
 155  189.9959
 156  99.73435
 157  187.7704
 158  196.032
 159  224.0873
 160  243.973
 161  363.6701
 162  378.1216
 163  337.1617
 164  393.6051
 165  441.112
 166  416.4092
 167  419.6387
 168  368.1858
 169  418.2552
 170  318.018
 171  339.8017
 172  374.2332
 173  362.6861
 174  468.2461
 175  465.0463
 176  458.1654
 177  298.7529
 178  109.9426
 179  72.09042
 180  159.8305
 181  226.8374
 182  146.0135
 183  163.1514
 184  176.4879
 185  265.5465
 186  294.1954
 187  365.0493
 188  456.8162
 189  327.8108
 190  353.1819
 191  265.5406
 192  285.2542
 193  287.3127
 194  314.5727
 195  385.5038
 196  372.0396
 197  310.364
 198  421.1674
 199  428.9102
 200  496.1219
 201  353.4339
 202  351.1957
 203  381.0028
 204  503.7752
 205  517.4156
 206  410.7545
 207  322.5465
 208  267.9213
 209  224.8802
 210  197.5168
 211  183.7025
 212  242.1418
 213  171.0719
 214  125.2005
 215  154.8244
 216  289.2817
 217  373.989
 218  418.3812
 219  448.5923
 220  440.2915
 221  369.048
 222  272.4338
 223  218.9984
 224  309.442
 225  342.1029
 226  396.7544
 227  277.325
 228  342.5326
 229  307.6407
 230  389.7921
 231  376.2623
 232  269.8904
 233  187.8882
 234  1.946765
 235  18.91607
 236  122.5038
 237  370.7184
 238  317.8965
 239  162.687
 240  69.70277
 241  200.5734
 242  264.3061
 243  185.0366
 244  190.627
 245  254.6465
 246  241.0776
 247  156.9121
 248  147.8164
 249  200.3181
 250  196.3186
 251  53.44005
 252  34.01785
 253  81.28059
 254  43.29748
 255  222.2034
 256  369.2014
 257  530.2089
 258  338.4519
 259  129.5774
 260  163.8333
 261  258.0839
 262  328.4259
 263  303.0132
 264  176.6154
 265  81.95876
 266  22.42084
 267  41.69014
 268  62.59267
 269  92.6606
 270  91.19069
 271  124.6845
 272  106.8215
 273  135.9108
 274  130.928
 275  82.80035
 276  107.925
 277  250.9861
 278  308.393
 279  329.5226
 280  178.1307
 281  144.6512
 282  164.0341
 283  201.3958
 284  267.4611
 285  318.9404
 286  391.9673
 287  441.8808
 288  406.4846
 289  393.3598
 290  351.2013
 291  292.7041
 292  291.1599
 293  269.9255
 294  299.9933
 295  221.559
 296  291.9774
 297  392.5381
 298  437.0866
 299  443.1406
 300  374.3637
 301  468.814
 302  473.377
 303  478.7321
 304  384.0725
 305  250.6188
 306  185.3778
 307  95.53228
 308  138.0917
 309  235.2415
 310  266.0276
 311  371.9042
 312  384.4008
 313  453.3163
 314  400.4113
 315  332.1982
 316  301.0753
 317  345.007
 318  492.8172
 319  526.8309
 320  449.5448
 321  262.2475
 322  239.0591
 323  213.3401
 324  162.7306
 325  208.6209
 326  277.9468
 327  359.7336
 328  413.0069
 329  447.2036
 330  461.3159
 331  294.9305
 332  162.4415
 333  153.5031
 334  251.9819
 335  329.4487
 336  282.9673
 337  124.165
 338  101.9543
 339  145.6182
 340  178.8278
 341  248.7393
 342  329.5799
 343  444.1143
 344  383.3665
 345  306.5413
 346  383.007
 347  346.9591
 348  299.7488
 349  180.5622
 350  199.4265
 351  158.8301
 352  199.0853
 353  218.3758
 354  276.4702
 355  229.3603
 356  294.6829
 357  438.0666
 358  501.6169
 359  411.7741
 360  401.2394
 361  415.7949
 362  499.355
 363  366.6668
 364  238.9928
 365  89.70391
 366  25.50094
 367  37.08257
 368  149.2756
 369  277.9426
 370  449.422
 371  417.081
 372  434.8627
 373  425.8277
 374  424.1282
 375  364.4228
 376  277.6208
 377  307.2272
 378  249.1736
 379  254.2966
 380  125.9957
 381  156.8429
 382  162.762
 383  192.768
 384  269.1316
 385  264.9725
 386  340.5467
 387  392.9104
 388  384.6643
 389  367.7726
 390  255.5513
 391  230.2219
 392  206.3164
 393  313.6032
 394  347.842
 395  245.3495
 396  191.9182
 397  241.1402
 398  347.6116
 399  301.6859
 400  282.6974
 401  328.1649
 402  437.3917
 403  456.5134
 404  330.4702
 405  288.4445
 406  260.0995
 407  267.5403
 408  224.0773
 409  192.11
 410  76.43655
 411  117.4716
 412  136.0262
 413  182.0217
 414  288.8027
 415  267.3822
 416  324.5764
 417  234.1702
 418  294.5855
 419  357.1942
 420  250.0371
 421  149.5564
 422  6.664119
 423  79.93936
 424  131.9119
 425  263.8349
 426  283.8646
 427  133.6631
 428  106.8246
 429  216.3712
 430  466.9986
 431  472.0032
 432  495.2348
 433  488.0762
 434  504.9338
 435  387.7981
 436  260.4367
 437  224.9068
 438  294.9023
 439  191.9246
 440  125.6964
 441  142.8074
 442  190.5844
 443  217.8634
 444  162.2406
 445  213.4921
 446  298.5993
 447  354.7751
 448  269.5123
 449  225.4482
 450  276.2207
 451  366.5218
 452  198.3123
 453  119.1729
 454  85.74053
 455  107.3513
 456  85.99717
 457  166.9721
 458  237.6997
 459  328.2794
 460  223.3063
 461  193.7108
 462  242.7451
 463  270.3568
 464  249.7156
 465  237.1465
 466  276.9318
 467  402.5531
 468  405.5632
 469  380.1922
 470  258.4246
 471  187.8876
 472  239.5796
 473  242.069
 474  232.4835
 475  198.3708
 476  357.3973
 477  280.0736
 478  151.036
 479  71.08007
 480  182.5992
 481  229.8193
 482  288.0468
 483  340.818
 484  333.1075
 485  235.5736
 486  280.2955
 487  464.6273
 488  521.4938
 489  563.7817
 490  479.9453
 491  395.2107
 492  267.5674
 493  140.6798
 494  231.4262
 495  236.166
 496  218.3926
 497  182.011
 498  130.7128
 499  195.6284
 500  283.8589
 501  362.2822
 502  437.0385
 503  381.1276
 504  323.2733
 505  283.5397
 506  269.5346
 507  265.5958
 508  309.4771
 509  319.6894
 510  340.9222
 511  276.188
 512  204.0061
 513  224.267
 514  229.4771
 515  323.201
 516  315.0945
 517  299.3742
 518  339.9098
 519  390.2253
 520  343.7381
 521  283.3151
 522  334.7129
 523  467.1082
 524  495.0606
 525  332.5036
 526  399.9344
 527  462.2054
 528  500.1697
 529  415.3175
 530  317.4457
 531  369.6243
 532  349.5589
 533  346.2798
 534  329.8855
 535  239.8528
 536  194.1334
 537  127.7659
 538  142.4344
 539  211.7388
 540  278.6718
 541  419.3089
 542  448.7823
 543  398.8692
 544  304.1089
 545  316.7092
 546  334.7393
 547  327.4787
 548  274.1268
 549  329.2233
 550  333.6244
 551  366.1173
 552  377.1303
 553  391.9043
 554  400.3019
 555  391.8203
 556  400.6389
 557  362.8079
 558  331.272
 559  353.4109
 560  258.5317
 561  278.3576
 562  362.437
 563  405.1909
 564  352.2405
 565  217.1032
 566  145.3947
 567  197.6898
 568  250.7663
 569  379.7108
 570  471.4213
 571  475.0305
 572  509.5038
 573  356.7717
 574  283.4931
 575  182.3974
 576  224.1496
 577  254.1862
 578  259.6613
 579  152.8543
 580  216.8893
 581  209.098
 582  351.922
 583  338.6258
 584  462.3687
 585  449.2522
 586  466.7089
 587  271.351
 588  275.8004
 589  258.4836
 590  318.4536
 591  364.1081
 592  387.8241
 593  420.979
 594  428.8514
 595  404.8896
 596  331.4008
 597  297.2552
 598  246.1692
 599  248.1813
 600  300.1348
 601  353.9609
 602  480.8594
 603  427.9778
 604  480.609
 605  382.825
 606  339.5373
 607  308.5984
 608  347.922
 609  373.6335
 610  395.9039
 611  294.9556
 612  257.1152
 613  261.2121
 614  240.1167
 615  257.5986
 616  231.0807
 617  373.6729
 618  450.9586
 619  448.4319
 620  526.2005
 621  452.8718
 622  423.5735
 623  353.0329
 624  325.6851
 625  296.7228
 626  374.8095
 627  370.4145
 628  503.2525
 629  542.9956
 630  704.2014
 631  714.6801
 632  865.1619
 633  997.821
 634  1160.173
 635  1267.036
 636  1360.195
 637  1321.579
 638  1223.085
 639  1295.853
 640  1278.233
 641  1066.765
 642  794.8507
 643  610.2588
 644  505.7805
 645  427.3221
 646  494.5718
 647  567.7649
 648  539.071
 649  387.9843
 650  409.3694
 651  377.3663
 652  383.4838
 653  295.4331
 654  279.7255
 655  294.4081
 656  352.124
 657  395.1221
 658  430.0305
 659  329.405
 660  237.9589
 661  199.043
 662  159.3516
 663  199.2616
 664  193.2815
 665  301.4503
 666  390.6489
 667  484.5548
 668  465.8671
 669  476.9965
 670  298.5073
 671  253.1258
 672  248.4798
 673  311.4341
 674  281.3039
 675  227.3677
 676  232.4173
 677  312.1839
 678  305.0529
 679  323.2581
 680  162.1276
 681  78.72551
 682  97.68382
 683  271.7207
 684  337.174
 685  431.2158
 686  366.4938
 687  344.913
 688  270.86
 689  321.1393
 690  296.19
 691  225.9382
 692  122.1015
 693  258.1144
 694  277.541
 695  313.7727
 696  255.496
 697  288.5916
 698  262.9219
 699  141.9418
 700  204.9287
 701  381.0047
 702  401.347
 703  336.6493
 704  244.869
 705  276.144
 706  243.6534
 707  245.438
 708  209.066
 709  333.1436
 710  156.4739
 711  51.70065
 712  28.5218
 713  210.9064
 714  376.0406
 715  418.4583
 716  437.9509
 717  450.2763
 718  395.5995
 719  321.4604
 720  294.5395
 721  232.8872
 722  227.9366
 723  317.8903
 724  251.6732
 725  247.626
 726  260.0952
 727  319.6312
 728  411.9544
 729  400.9777
 730  493.7777
 731  410.7519
 732  374.6677
 733  299.0334
 734  347.2751
 735  337.3068
 736  399.2154
 737  376.3091
 738  336.2865
 739  250.0508
 740  163.1842
 741  326.5327
 742  393.8613
 743  433.9953
 744  461.0334
 745  506.0345
 746  508.8288
 747  462.1531
 748  504.6729
 749  588.2808
 750  515.1503
 751  433.5829
 752  351.1378
 753  416.1492
 754  361.4599
 755  425.3787
 756  370.7613
 757  461.5672
 758  369.9168
 759  298.0194
 760  325.4907
 761  297.6847
 762  293.8561
 763  223.4482
 764  274.2988
 765  284.3804
 766  377.3701
 767  340.2088
 768  326.6077
 769  314.1701
 770  385.1815
 771  406.7972
 772  357.3065
 773  323.2985
 774  417.6138
 775  425.9497
 776  363.8636
 777  349.1374
 778  359.6848
 779  462.6872
 780  435.3147
 781  388.1495
 782  285.2704
 783  191.9024
 784  331.0944
 785  476.3812
 786  544.6371
 787  473.2278
 788  339.0276
 789  310.2072
 790  260.2533
 791  173.6926
 792  240.6724
 793  291.959
 794  311.2678
 795  210.3461
 796  58.41029
 797  141.862
 798  224.0699
 799  265.8236
 800  228.3807
 801  235.077
 802  261.4752
 803  305.446
 804  319.925
 805  350.4837
 806  309.5753
 807  325.1631
 808  268.1898
 809  260.2633
 810  224.1996
 811  225.9707
 812  165.501
 813  175.0262
 814  218.2984
 815  242.9151
 816  254.4595
 817  201.1015
 818  259.882
 819  327.3088
 820  445.078
 821  426.4435
 822  301.0535
 823  163.4996
 824  56.2534
 825  172.8778
 826  134.3773
 827  220.484
 828  235.6228
 829  335.6099
 830  293.5417
 831  196.0052
 832  130.7463
 833  120.4908
 834  173.8236
 835  278.5372
 836  260.0056
 837  271.6011
 838  306.6621
 839  404.6391
 840  285.0341
 841  243.295
 842  261.6393
 843  355.1607
 844  379.709
 845  399.0154
 846  414.993
 847  378.0947
 848  335.1242
 849  297.4149
 850  269.4218
 851  234.2497
 852  313.1967
 853  243.5531
 854  170.1259
 855  125.4464
 856  264.1542
 857  427.9662
 858  445.7562
 859  401.7854
 860  418.4546
 861  444.3854
 862  471.3624
 863  383.3797
 864  342.1985
 865  326.9626
 866  337.0932
 867  358.7467
 868  404.3546
 869  399.837
 870  373.2243
 871  421.0665
 872  359.0396
 873  284.3707
 874  258.2354
 875  279.6568
 876  323.7305
 877  290.1769
 878  327.7208
 879  350.5034
 880  362.6051
 881  490.9556
 882  445.1041
 883  403.1508
 884  395.0255
 885  375.0548
 886  397.7584
 887  299.0368
 888  362.6701
 889  376.8496
 890  357.3723
 891  303.1892
 892  263.6527
 893  315.6143
 894  365.6174
 895  283.5962
 896  273.4822
 897  235.8149
 898  295.1118
 899  323.7039
 900  430.0805
 901  412.2872
 902  446.6094
 903  528.1707
 904  561.1903
 905  517.6821
 906  360.6403
 907  266.752
 908  300.9362
 909  235.8354
 910  293.7463
 911  224.7242
 912  239.6591
 913  269.3693
 914  282.4295
 915  376.3383
 916  494.1902
 917  592.4044
 918  505.2121
 919  420.0099
 920  355.8022
 921  377.2995
 922  405.5281
 923  381.3878
 924  435.7657
 925  391.5784
 926  325.3472
 927  249.9003
 928  237.2843
 929  237.6222
 930  237.0397
 931  304.6604
 932  437.6902
 933  428.8686
 934  377.3558
 935  405.683
 936  361.2452
 937  303.3786
 938  309.5231
 939  345.3386
 940  286.2935
 941  266.9699
 942  226.0937
 943  271.4464
 944  195.8221
 945  239.8127
 946  284.0814
 947  342.634
 948  388.5724
 949  355.7789
 950  247.536
 951  307.6247
 952  302.9725
 953  378.6432
 954  290.1922
 955  213.599
 956  154.7684
 957  202.8692
 958  294.2124
 959  438.2855
 960  471.2067
 961  572.7874
 962  510.1515
 963  380.4813
 964  290.6571
 965  297.3102
 966  290.7929
 967  388.0911
 968  378.2899
 969  399.2577
 970  347.3731
 971  351.819
 972  336.2379
 973  266.9108
 974  147.5815
 975  202.0066
 976  222.2712
 977  284.4529
 978  300.2328
 979  318.8397
 980  239.5607
 981  78.27268
 982  92.51729
 983  182.9573
 984  261.9149
 985  274.3997
 986  382.0381
 987  386.1791
 988  356.6046
 989  295.3569
 990  339.1744
 991  279.8513
 992  234.4468
 993  164.7593
 994  200.3931
 995  267.4856
 996  234.6048
 997  257.3771
 998  298.8474
 999  322.7064
1000  360.6559
1001  273.9882
1002  366.7308
1003  404.5195
1004  396.6808
1005  317.7371
1006  120.1602
1007  153.0078
1008  255.3871
1009  300.3289
1010  210.4535
1011  101.0802
1012  18.13799
1013  22.1382
1014  113.7075
1015  191.7762
1016  225.6631
1017  290.5256
1018  363.8823
1019  343.8449
1020  233.963
1021  229.0188
1022  183.0942
1023  258.3142
