# Input file       =  1192759393.134662_cleaned.dat
# Candidate        =  PSR_0332+5434
# Telescope        =  AR
# Epoch_topo       =  58049.085788595621
# Epoch_bary       =  N/A
# T_sample         =  0.002
# Data Folded      =  7340032
# Data Avg         =  0.0524283150620506
# Data StdDev      =  2.6634030484251  
# Profile Bins     =  512
# Profile Avg      =  751.601499412216 
# Profile StdDev   =  318.897334083072 
# Reduced chi-sqr  =  1.463
# Prob(Noise)      <  3.82e-11   (~6.5 sigma)
# P_topo (ms)      =  714.488234098081  +/- 0.000125
# P'_topo (s/s)    =  -0                +/- 6.57e-11
# P''_topo (s/s^2) =  0                 +/- 2.9e-14
# P_bary (ms)      =  N/A
# P'_bary (s/s)    =  N/A
# P''_bary (s/s^2) =  N/A
# P_orb (s)        =  N/A
# asin(i)/c (s)    =  N/A
# eccentricity     =  N/A
# w (rad)          =  N/A
# T_peri           =  N/A
######################################################
   0  1003.893
   1  789.9298
   2  543.7795
   3  958.852
   4  1004.427
   5  649.2663
   6  930.7762
   7  1230.78
   8  968.321
   9  965.0388
  10  800.0682
  11  513.9932
  12  710.6579
  13  715.4085
  14  561.6319
  15  657.2766
  16  688.6371
  17  652.3221
  18  826.8557
  19  568.2872
  20  619.5821
  21  446.3283
  22  504.5256
  23  770.4559
  24  1009.641
  25  832.8986
  26  763.9957
  27  777.1324
  28  661.6755
  29  708.9887
  30  580.8638
  31  395.6386
  32  735.5098
  33  965.2566
  34  498.5454
  35  233.8026
  36  422.958
  37  825.1436
  38  789.8917
  39  776.0498
  40  686.9167
  41  430.8142
  42  417.255
  43  627.5262
  44  839.5041
  45  932.4297
  46  736.8819
  47  740.222
  48  923.2578
  49  791.2582
  50  607.7037
  51  870.6273
  52  794.8495
  53  498.3865
  54  291.3665
  55  578.0571
  56  895.7004
  57  776.5697
  58  972.9486
  59  1045.844
  60  721.5584
  61  753.9023
  62  572.2923
  63  544.9596
  64  851.7112
  65  1003.159
  66  516.5431
  67  319.8272
  68  290.8984
  69  353.4027
  70  671.5661
  71  680.2746
  72  757.5331
  73  806.4047
  74  474.5168
  75  659.6633
  76  415.1696
  77  343.5181
  78  382.5481
  79  403.8758
  80  619.5779
  81  173.5753
  82  293.7326
  83  767.6399
  84  694.2587
  85  510.3005
  86  825.9159
  87  1019.755
  88  879.2435
  89  725.845
  90  805.3321
  91  624.9923
  92  848.9361
  93  580.5136
  94  650.0507
  95  623.1847
  96  583.9861
  97  584.0416
  98  411.996
  99  359.5739
 100  483.436
 101  425.8061
 102  315.8371
 103  607.3983
 104  708.6828
 105  1008.601
 106  1128.497
 107  920.5305
 108  1113.122
 109  769.5712
 110  628.7914
 111  548.8221
 112  519.6026
 113  594.5325
 114  934.5659
 115  999.3705
 116  1092.33
 117  1090.425
 118  797.9891
 119  470.8394
 120  535.8933
 121  774.425
 122  777.8225
 123  484.7263
 124  462.21
 125  490.7731
 126  467.8917
 127  584.8848
 128  536.2484
 129  673.4694
 130  486.0501
 131  563.7781
 132  463.0076
 133  541.1986
 134  748.0913
 135  722.8162
 136  586.1393
 137  359.5998
 138  568.5539
 139  603.2792
 140  337.6057
 141  443.5504
 142  361.8249
 143  584.2387
 144  870.8665
 145  531.8378
 146  374.557
 147  843.7633
 148  798.945
 149  538.9017
 150  539.9896
 151  545.4246
 152  577.2815
 153  799.9147
 154  565.9886
 155  761.9877
 156  434.8546
 157  442.6434
 158  665.6554
 159  679.2303
 160  649.5726
 161  861.664
 162  1132.657
 163  762.3419
 164  674.6013
 165  856.7516
 166  845.6791
 167  587.6917
 168  1104.292
 169  1628.691
 170  1144.715
 171  602.9434
 172  856.5418
 173  843.353
 174  914.7213
 175  548.0781
 176  536.0173
 177  637.0072
 178  690.6588
 179  783.819
 180  773.7029
 181  693.7918
 182  506.7104
 183  379.2155
 184  372.1039
 185  421.7588
 186  1131.939
 187  1209.107
 188  904.3018
 189  565.1194
 190  405.8394
 191  627.9776
 192  799.5156
 193  598.2792
 194  739.4808
 195  594.202
 196  791.5693
 197  571.6069
 198  598.1218
 199  584.103
 200  712.1831
 201  698.5872
 202  719.4337
 203  817.554
 204  642.0826
 205  435.5944
 206  483.7582
 207  926.4703
 208  774.0546
 209  752.1984
 210  657.199
 211  350.1664
 212  449.9474
 213  387.9736
 214  492.5391
 215  810.5082
 216  989.6364
 217  571.1597
 218  562.5105
 219  630.697
 220  657.9827
 221  786.5547
 222  688.1274
 223  842.9199
 224  802.0041
 225  871.7037
 226  650.7252
 227  487.6758
 228  552.3861
 229  938.2988
 230  594.5836
 231  347.1617
 232  322.8831
 233  557.9576
 234  534.9778
 235  849.3185
 236  831.1428
 237  722.0455
 238  693.7114
 239  439.5233
 240  386.0229
 241  693.7377
 242  519.4458
 243  912.1236
 244  756.0488
 245  620.7299
 246  490.1408
 247  510.4612
 248  980.6489
 249  984.9607
 250  905.7984
 251  1032.705
 252  981.6896
 253  722.9772
 254  845.9323
 255  677.4929
 256  779.6956
 257  624.8781
 258  853.0818
 259  821.9441
 260  667.2405
 261  836.687
 262  1032.965
 263  636.2851
 264  597.1944
 265  599.7811
 266  372.7869
 267  157.9075
 268  707.7353
 269  912.0612
 270  1009.298
 271  739.248
 272  799.4308
 273  1039.681
 274  773.3293
 275  867.4846
 276  914.0851
 277  1009.135
 278  1108.393
 279  628.4955
 280  675.8528
 281  232.3783
 282  352.8252
 283  540.8906
 284  1008.158
 285  868.2837
 286  741.2554
 287  552.6658
 288  692.9032
 289  566.9465
 290  607.6895
 291  859.0101
 292  794.108
 293  673.0232
 294  826.1862
 295  834.9632
 296  798.9117
 297  634.2244
 298  684.0289
 299  402.6031
 300  684.0625
 301  1034.285
 302  1054.844
 303  809.1423
 304  940.0128
 305  462.9963
 306  312.3062
 307  973.6451
 308  1135.889
 309  858.4379
 310  893.9154
 311  1232.718
 312  878.8801
 313  761.8521
 314  1080.231
 315  1588.969
 316  2223.429
 317  2131.024
 318  2225.273
 319  2757.357
 320  2419.481
 321  1508.97
 322  1258.065
 323  1048.114
 324  672.1859
 325  987.7959
 326  763.37
 327  748.6691
 328  898.7492
 329  1183.912
 330  1286.672
 331  1270.269
 332  925.2511
 333  892.8865
 334  1161.815
 335  1256.187
 336  972.3939
 337  1010.266
 338  938.6459
 339  780.4061
 340  592.323
 341  760.913
 342  495.9465
 343  765.4872
 344  1192.763
 345  1142.695
 346  1120.993
 347  1027.575
 348  1151.028
 349  1150.348
 350  728.3335
 351  1096.371
 352  1168.345
 353  705.6761
 354  585.0938
 355  708.1034
 356  600.4858
 357  769.0594
 358  1056.477
 359  1175.354
 360  1021.254
 361  864.7664
 362  1167.72
 363  785.1505
 364  849.7798
 365  1012.483
 366  1087.228
 367  1096.541
 368  933.7629
 369  674.2194
 370  506.6464
 371  721.2689
 372  890.4484
 373  1007.55
 374  740.9171
 375  813.5961
 376  818.4117
 377  693.9976
 378  631.7253
 379  938.3796
 380  877.998
 381  405.4337
 382  274.4438
 383  690.331
 384  917.5435
 385  787.7173
 386  701.1584
 387  904.3439
 388  911.614
 389  782.5735
 390  920.4066
 391  779.9539
 392  349.0511
 393  349.8732
 394  833.822
 395  977.4861
 396  1022.261
 397  1278.529
 398  865.7707
 399  667.695
 400  827.8577
 401  836.2141
 402  1034.634
 403  1042.822
 404  672.0974
 405  429.8778
 406  636.7538
 407  577.8389
 408  565.9811
 409  456.8051
 410  246.4387
 411  492.6123
 412  512.5209
 413  453.5934
 414  432.5739
 415  889.0604
 416  985.2505
 417  863.3744
 418  815.7259
 419  699.9846
 420  863.3644
 421  932.6717
 422  891.0457
 423  681.7811
 424  742.6221
 425  1034.802
 426  896.1732
 427  743.2644
 428  504.3733
 429  427.5527
 430  648.4841
 431  491.9321
 432  567.6152
 433  882.7219
 434  813.9417
 435  898.8989
 436  635.6661
 437  655.9378
 438  614.8297
 439  571.5071
 440  655.1924
 441  937.8022
 442  1004.793
 443  775.7783
 444  800.167
 445  1084.018
 446  939.4818
 447  773.1868
 448  569.837
 449  808.261
 450  1087.86
 451  711.1486
 452  611.7506
 453  822.5208
 454  1097.258
 455  610.7876
 456  700.118
 457  279.967
 458  535.0237
 459  524.0214
 460  988.2675
 461  820.8925
 462  882.2366
 463  880.2451
 464  197.5261
 465  634.1212
 466  1099.961
 467  987.8459
 468  638.2065
 469  737.0327
 470  900.4371
 471  939.6617
 472  870.4313
 473  874.7991
 474  717.2238
 475  598.5109
 476  493.2026
 477  612.0703
 478  621.6821
 479  703.3563
 480  911.6777
 481  971.6323
 482  664.4174
 483  781.182
 484  1014.68
 485  968.4064
 486  710.9901
 487  605.2453
 488  671.1385
 489  588.0786
 490  666.8113
 491  751.1844
 492  854.6531
 493  617.5239
 494  832.5679
 495  692.9317
 496  540.3446
 497  792.2256
 498  710.6239
 499  751.0756
 500  690.1469
 501  803.1008
 502  1162.891
 503  571.9652
 504  185.9444
 505  611.5807
 506  587.3686
 507  722.687
 508  668.3541
 509  812.5457
 510  1034.108
 511  1068.924
