# Input file       =  1192673223.132615_cleaned.dat
# Candidate        =  PSR_0332+5434
# Telescope        =  AR
# Epoch_topo       =  58048.088450608971
# Epoch_bary       =  N/A
# T_sample         =  0.002
# Data Folded      =  7340032
# Data Avg         =  0.0392694540465269
# Data StdDev      =  2.55302831842881 
# Profile Bins     =  256
# Profile Avg      =  1125.94478413524 
# Profile StdDev   =  432.299393322755 
# Reduced chi-sqr  =  1.494
# Prob(Noise)      <  5.19e-07   (~4.9 sigma)
# P_topo (ms)      =  714.487407427427  +/- 0.000237
# P'_topo (s/s)    =  -0                +/- 1.25e-10
# P''_topo (s/s^2) =  0                 +/- 5.53e-14
# P_bary (ms)      =  N/A
# P'_bary (s/s)    =  N/A
# P''_bary (s/s^2) =  N/A
# P_orb (s)        =  N/A
# asin(i)/c (s)    =  N/A
# eccentricity     =  N/A
# w (rad)          =  N/A
# T_peri           =  N/A
######################################################
   0  912.3118
   1  798.9211
   2  1510.683
   3  1272.769
   4  1148.398
   5  947.428
   6  1554.263
   7  1736.426
   8  1675.469
   9  1417.149
  10  1374.561
  11  1062.21
  12  774.6038
  13  1414.855
  14  1105.187
  15  1039.606
  16  1223.573
  17  1167.895
  18  1164.983
  19  718.2282
  20  551.7668
  21  1390.891
  22  1142.631
  23  261.7308
  24  1459.726
  25  910.5897
  26  957.2209
  27  748.3967
  28  1520.906
  29  1517.053
  30  1391.765
  31  601.5415
  32  1087.619
  33  1134.056
  34  1283.221
  35  1685.262
  36  953.9809
  37  1121.219
  38  510.2716
  39  856.435
  40  1177.971
  41  480.5122
  42  373.5365
  43  912.4324
  44  406.979
  45  924.275
  46  1060.081
  47  1390.959
  48  1429.041
  49  807.5868
  50  716.4053
  51  1358.644
  52  923.4838
  53  792.3825
  54  1204.901
  55  1144.607
  56  1057.965
  57  1165.19
  58  1071.564
  59  1411.276
  60  380.3168
  61  473.0674
  62  703.6107
  63  1189.896
  64  1224.738
  65  588.9271
  66  682.3462
  67  1613.526
  68  1647.176
  69  830.8839
  70  587.0389
  71  625.1063
  72  564.9414
  73  1055.677
  74  1163.859
  75  893.9684
  76  1137.129
  77  1291.079
  78  1000.253
  79  1469.553
  80  1732.795
  81  783.4128
  82  524.8745
  83  863.7913
  84  1198.738
  85  1418.994
  86  1195.278
  87  975.0482
  88  1143.495
  89  236.1472
  90  979.8589
  91  806.7532
  92  1759.977
  93  952.0441
  94  1297.852
  95  1210.045
  96  1359.774
  97  1386.108
  98  1031.986
  99  1154.449
 100  1020.045
 101  967.5587
 102  1805.461
 103  1096.695
 104  826.7688
 105  881.1414
 106  1103.802
 107  653.8519
 108  1178.856
 109  1304.15
 110  1409.725
 111  1417.138
 112  1034.794
 113  873.0244
 114  1436.232
 115  1473.364
 116  1494.79
 117  1142.311
 118  994.4288
 119  984.0114
 120  1336.373
 121  1049.872
 122  775.8636
 123  1444.263
 124  1149.789
 125  1447.575
 126  663.6092
 127  726.0301
 128  910.769
 129  556.2758
 130  878.5455
 131  1730.242
 132  1116.944
 133  1334.59
 134  1364.896
 135  1671.752
 136  1738.344
 137  1417.671
 138  1510.758
 139  1516.944
 140  1263.928
 141  1212.873
 142  1867.318
 143  1189.3
 144  494.8842
 145  1143.137
 146  1011.824
 147  679.0432
 148  708.9008
 149  1269.833
 150  1401.413
 151  1095.984
 152  1343.203
 153  1067.247
 154  1463.566
 155  1408.994
 156  1871.615
 157  2716.154
 158  4041.455
 159  4354.978
 160  2983.529
 161  1630.233
 162  1171.072
 163  832.4534
 164  961.6224
 165  1375.837
 166  1558.326
 167  1129.797
 168  737.0015
 169  855.0601
 170  574.3972
 171  1090.333
 172  967.6183
 173  1205.436
 174  980.8973
 175  708.9593
 176  736.9899
 177  1085.989
 178  1188.405
 179  600.6481
 180  1048.937
 181  1156.396
 182  1054.233
 183  835.1963
 184  930.9022
 185  1438.602
 186  1051.205
 187  1629.953
 188  1517.771
 189  1627.105
 190  1036.018
 191  684.0859
 192  1078.617
 193  1467.034
 194  1069.818
 195  1557.866
 196  1798.49
 197  664.3105
 198  953.3057
 199  1099.383
 200  1257.836
 201  941.3657
 202  903.4843
 203  977.7899
 204  1008.462
 205  1296.721
 206  1012.358
 207  454.5019
 208  1258.635
 209  499.8541
 210  1564.069
 211  1345.888
 212  799.1025
 213  1053.129
 214  1163.2
 215  1154.018
 216  1105.241
 217  565.714
 218  1286.555
 219  829.425
 220  911.5363
 221  753.5417
 222  1020.752
 223  1624.014
 224  891.2324
 225  1261.842
 226  1277.335
 227  1580.329
 228  1615.024
 229  1056.711
 230  950.2731
 231  948.1124
 232  949.4431
 233  1159.838
 234  1080.988
 235  990.8271
 236  1101.521
 237  1163.475
 238  1139.302
 239  1207.177
 240  938.4074
 241  1297.737
 242  601.799
 243  1223.718
 244  1096.738
 245  442.1855
 246  1061.698
 247  699.0927
 248  738.7255
 249  600.1854
 250  633.9222
 251  1047.184
 252  991.1763
 253  760.4504
 254  373.8212
 255  1405.553
