# Input file       =  1192729877.127806_cleaned.dat
# Candidate        =  PSR_0332+5434
# Telescope        =  AR
# Epoch_topo       =  58048.744168145902
# Epoch_bary       =  N/A
# T_sample         =  0.002
# Data Folded      =  7143424
# Data Avg         =  0.00775433913717976
# Data StdDev      =  1.00008137291809 
# Profile Bins     =  512
# Profile Avg      =  108.100171748652 
# Profile StdDev   =  118.128196135767 
# Reduced chi-sqr  =  1.487
# Prob(Noise)      <  4.89e-12   (~6.8 sigma)
# P_topo (ms)      =  714.487602972762  +/- 0.000211
# P'_topo (s/s)    =  -0                +/- 1.15e-10
# P''_topo (s/s^2) =  0                 +/- 5.2e-14
# P_bary (ms)      =  N/A
# P'_bary (s/s)    =  N/A
# P''_bary (s/s^2) =  N/A
# P_orb (s)        =  N/A
# asin(i)/c (s)    =  N/A
# eccentricity     =  N/A
# w (rad)          =  N/A
# T_peri           =  N/A
######################################################
   0  730.5775
   1  720.1451
   2  470.232
   3  211.1592
   4  125.0161
   5  120.1522
   6  80.98172
   7  11.15847
   8  5.753596
   9  110.2957
  10  195.2416
  11  182.8285
  12  203.6108
  13  210.0484
  14  140.9443
  15  291.9347
  16  295.0327
  17  186.6553
  18  178.5072
  19  123.0886
  20  7.421406
  21  -22.18509
  22  93.38895
  23  130.5006
  24  87.18044
  25  49.50839
  26  62.11543
  27  47.39845
  28  29.75271
  29  91.18317
  30  -7.95797
  31  -89.80042
  32  -80.38345
  33  74.24712
  34  -15.41725
  35  -109.1744
  36  59.0865
  37  119.3141
  38  49.87209
  39  196.2135
  40  40.73532
  41  43.19869
  42  92.42721
  43  24.68577
  44  113.5709
  45  113.8569
  46  119.9338
  47  82.8008
  48  23.00831
  49  128.5079
  50  99.23367
  51  31.96398
  52  80.7341
  53  116.7662
  54  121.6117
  55  189.3361
  56  100.8877
  57  25.69425
  58  -12.0639
  59  138.8417
  60  160.8341
  61  74.423
  62  192.7439
  63  266.0376
  64  52.83698
  65  36.615
  66  81.68816
  67  95.96699
  68  53.13554
  69  110.6051
  70  184.1721
  71  213.5906
  72  162.5512
  73  42.2052
  74  175.5004
  75  86.57597
  76  12.36507
  77  9.176125
  78  173.637
  79  91.79823
  80  -28.44928
  81  -63.3196
  82  90.45074
  83  140.2182
  84  120.9283
  85  220.6126
  86  196.2145
  87  144.0951
  88  58.78199
  89  104.564
  90  196.2839
  91  151.9636
  92  244.4617
  93  224.0536
  94  136.847
  95  106.0843
  96  96.9956
  97  129.339
  98  67.00817
  99  158.5526
 100  191.8007
 101  208.5973
 102  132.8072
 103  119.9987
 104  114.7275
 105  185.3224
 106  79.16001
 107  78.78886
 108  168.5395
 109  201.4839
 110  103.8722
 111  56.59273
 112  55.45758
 113  -7.8158
 114  -114.8331
 115  32.76185
 116  140.6562
 117  136.3561
 118  113.6838
 119  77.37409
 120  -25.41522
 121  20.23621
 122  -33.77244
 123  91.54007
 124  136.7335
 125  151.8019
 126  145.9792
 127  57.2755
 128  38.9708
 129  110.6113
 130  230.757
 131  169.9404
 132  121.0537
 133  25.03966
 134  83.49545
 135  356.373
 136  234.2845
 137  75.75707
 138  120.4255
 139  111.4294
 140  4.343111
 141  -9.078235
 142  80.50013
 143  62.51823
 144  194.8023
 145  164.6659
 146  159.5343
 147  76.04294
 148  82.08833
 149  -10.5744
 150  98.16802
 151  129.6494
 152  36.5595
 153  106.0222
 154  194.2514
 155  67.50407
 156  116.9521
 157  158.5762
 158  87.47646
 159  70.66864
 160  110.0472
 161  185.242
 162  78.89655
 163  16.10363
 164  137.0639
 165  206.0845
 166  186.4509
 167  242.1588
 168  227.0051
 169  30.78764
 170  126.1177
 171  142.7322
 172  112.5164
 173  211.7483
 174  238.2756
 175  262.4018
 176  143.9691
 177  62.30158
 178  128.7891
 179  86.68089
 180  25.88235
 181  94.69099
 182  164.926
 183  165.1566
 184  90.28487
 185  100.7181
 186  65.95434
 187  56.20422
 188  90.78333
 189  90.05659
 190  15.85767
 191  235.2948
 192  262.5153
 193  204.1277
 194  171.7296
 195  96.59342
 196  -34.18317
 197  -65.523
 198  -84.97267
 199  15.54092
 200  -8.859138
 201  -12.01261
 202  40.2674
 203  -45.95253
 204  40.09407
 205  66.24111
 206  122.6676
 207  66.63251
 208  25.44268
 209  26.73431
 210  33.29705
 211  19.88113
 212  71.83427
 213  89.84813
 214  139.9659
 215  172.4891
 216  164.0285
 217  121.8372
 218  184.1927
 219  278.1233
 220  230.6074
 221  185.2499
 222  -35.83495
 223  138.9702
 224  167.4481
 225  141.243
 226  269.0684
 227  158.4801
 228  247.1347
 229  127.2078
 230  4.545202
 231  128.1657
 232  265.1756
 233  144.0084
 234  80.43298
 235  131.7652
 236  4.41834
 237  58.15707
 238  20.02508
 239  62.77953
 240  125.8714
 241  90.43813
 242  27.94473
 243  48.95298
 244  151.1931
 245  112.8663
 246  29.27641
 247  96.60721
 248  -104.6997
 249  -109.8847
 250  -42.63335
 251  40.39758
 252  85.15906
 253  72.73201
 254  177.6242
 255  87.87421
 256  63.98793
 257  -56.48902
 258  39.08801
 259  101.2207
 260  143.4674
 261  128.0188
 262  -89.55448
 263  -80.37283
 264  0.6689512
 265  9.080228
 266  28.89471
 267  76.30082
 268  50.40463
 269  118.0577
 270  112.6527
 271  99.73383
 272  136.0997
 273  318.4048
 274  190.1922
 275  28.74422
 276  143.9924
 277  215.7424
 278  159.8472
 279  -17.19748
 280  100.1262
 281  82.79185
 282  -55.11614
 283  -62.49423
 284  139.6877
 285  70.85336
 286  63.42411
 287  57.60824
 288  76.65073
 289  116.5403
 290  117.7915
 291  163.9146
 292  179.1678
 293  67.14764
 294  -47.17779
 295  -53.96935
 296  -57.09291
 297  7.993589
 298  84.37215
 299  16.63157
 300  -20.8203
 301  -87.24021
 302  -25.27267
 303  -101.1956
 304  -19.21237
 305  -14.7242
 306  16.6965
 307  115.8973
 308  110.3206
 309  192.7444
 310  162.6291
 311  62.26268
 312  157.143
 313  283.3059
 314  209.6378
 315  122.9967
 316  67.43083
 317  62.14657
 318  123.5826
 319  109.8074
 320  79.97117
 321  15.38957
 322  -17.51896
 323  83.93953
 324  185.3792
 325  182.8654
 326  75.10956
 327  139.6636
 328  109.1681
 329  68.01309
 330  133.1293
 331  118.6163
 332  209.964
 333  125.3411
 334  95.55172
 335  42.15844
 336  -55.61745
 337  -88.83865
 338  -17.63241
 339  57.26799
 340  92.6861
 341  130.6744
 342  168.563
 343  121.2589
 344  240.6966
 345  250.4442
 346  183.4534
 347  108.3503
 348  181.0328
 349  112.4079
 350  149.8715
 351  148.8239
 352  73.35559
 353  53.84089
 354  55.4827
 355  157.5403
 356  205.378
 357  157.8922
 358  8.030423
 359  20.80278
 360  110.4976
 361  57.43542
 362  73.94102
 363  241.6417
 364  78.40832
 365  131.7663
 366  261.3751
 367  114.1907
 368  65.48019
 369  20.15792
 370  -26.11396
 371  79.3714
 372  201.4838
 373  210.0552
 374  124.6657
 375  52.54907
 376  -23.62426
 377  64.20159
 378  160.2733
 379  143.4932
 380  12.80997
 381  64.31455
 382  100.9604
 383  72.32935
 384  90.86095
 385  -0.9285461
 386  40.24646
 387  105.8044
 388  30.71746
 389  98.2674
 390  213.6131
 391  242.2611
 392  190.5738
 393  70.41814
 394  -24.10932
 395  14.40134
 396  8.19517
 397  77.40145
 398  -42.89389
 399  83.70717
 400  147.6674
 401  161.2034
 402  240.3437
 403  248.8813
 404  277.3188
 405  138.0158
 406  139.4546
 407  266.5307
 408  243.0734
 409  165.5996
 410  112.2216
 411  63.75524
 412  75.43095
 413  52.40557
 414  115.3194
 415  184.9054
 416  181.2969
 417  215.7003
 418  195.5534
 419  10.08645
 420  24.96611
 421  168.7248
 422  113.3651
 423  36.66237
 424  28.32008
 425  110.7002
 426  206.22
 427  174.3761
 428  43.02576
 429  78.15299
 430  -8.084667
 431  80.16578
 432  233.4306
 433  151.1636
 434  140.4224
 435  70.81654
 436  199.5894
 437  245.9756
 438  136.2595
 439  165.3216
 440  174.2664
 441  105.8907
 442  106.7486
 443  108.9967
 444  34.55562
 445  -6.008948
 446  -53.2294
 447  -32.62513
 448  148.9438
 449  69.60914
 450  -46.4272
 451  71.6131
 452  70.67448
 453  109.6966
 454  178.578
 455  121.7735
 456  210.8875
 457  266.4945
 458  255.3157
 459  77.81018
 460  -50.52827
 461  10.70638
 462  163.954
 463  -9.946258
 464  -8.953244
 465  76.97008
 466  81.55334
 467  175.8948
 468  209.774
 469  126.2393
 470  51.66504
 471  117.5638
 472  111.7879
 473  122.6668
 474  237.2382
 475  160.7075
 476  -36.14896
 477  139.5647
 478  184.4633
 479  137.9699
 480  152.1959
 481  121.1413
 482  104.9854
 483  35.42643
 484  60.76118
 485  109.3684
 486  153.4632
 487  -14.68637
 488  -117.6205
 489  -9.938783
 490  72.58146
 491  177.6192
 492  292.8408
 493  270.7971
 494  186.1218
 495  107.491
 496  178.2297
 497  93.62734
 498  105.1613
 499  85.64286
 500  3.989397
 501  43.34696
 502  84.75018
 503  158.4212
 504  145.4702
 505  161.8594
 506  258.0875
 507  402.5858
 508  401.0139
 509  454.3816
 510  705.5197
 511  786.3774
