# Input file       =  1192243009.129_cleaned.dat
# Candidate        =  PSR_0332+5434
# Telescope        =  AR
# Epoch_topo       =  58043.109121863425
# Epoch_bary       =  N/A
# T_sample         =  0.002
# Data Folded      =  7340032
# Data Avg         =  0.038134125956276
# Data StdDev      =  3.0525490028585  
# Profile Bins     =  512
# Profile Avg      =  546.66353715126  
# Profile StdDev   =  365.490960801118 
# Reduced chi-sqr  =  0.997
# Prob(Noise)      <  0.512   (~0.0 sigma)
# P_topo (ms)      =  714.483471025633  +/- 0.000302
# P'_topo (s/s)    =  -0                +/- 1.59e-10
# P''_topo (s/s^2) =  0                 +/- 7.04e-14
# P_bary (ms)      =  N/A
# P'_bary (s/s)    =  N/A
# P''_bary (s/s^2) =  N/A
# P_orb (s)        =  N/A
# asin(i)/c (s)    =  N/A
# eccentricity     =  N/A
# w (rad)          =  N/A
# T_peri           =  N/A
######################################################
   0  880.8832
   1  831.7218
   2  704.8936
   3  808.421
   4  678.7347
   5  658.2599
   6  246.1152
   7  280.769
   8  568.5439
   9  539.7318
  10  367.6409
  11  380.7402
  12  501.1484
  13  138.8625
  14  241.0396
  15  231.024
  16  572.2261
  17  290.4061
  18  492.7946
  19  468.8101
  20  428.9162
  21  379.3085
  22  463.9213
  23  481.974
  24  387.9662
  25  258.0007
  26  278.4499
  27  576.962
  28  571.2167
  29  450.6264
  30  488.4661
  31  425.8466
  32  538.0818
  33  417.8214
  34  685.9059
  35  580.4907
  36  296.4751
  37  396.3863
  38  465.7082
  39  517.0231
  40  621.2001
  41  864.8009
  42  825.8944
  43  723.7062
  44  786.912
  45  729.1374
  46  659.2298
  47  913.3239
  48  925.673
  49  905.8794
  50  985.0571
  51  999.0897
  52  550.1896
  53  441.3974
  54  716.3831
  55  935.3478
  56  861.9764
  57  646.8713
  58  820.4509
  59  724.17
  60  660.2971
  61  987.3245
  62  684.353
  63  479.6625
  64  557.6055
  65  355.0604
  66  667.0336
  67  584.2938
  68  418.6772
  69  323.9682
  70  877.1028
  71  760.1174
  72  706.7256
  73  688.1814
  74  635.4717
  75  695.058
  76  730.6506
  77  1092.709
  78  820.3464
  79  652.8673
  80  782.6044
  81  639.9585
  82  651.666
  83  685.8425
  84  767.8486
  85  525.4492
  86  646.8887
  87  709.4341
  88  843.469
  89  533.3438
  90  456.7892
  91  631.7684
  92  792.7978
  93  674.8282
  94  454.3047
  95  524.3286
  96  813.3092
  97  908.202
  98  916.348
  99  940.1024
 100  882.9008
 101  770.6332
 102  651.2936
 103  492.9292
 104  640.2194
 105  607.4543
 106  698.5241
 107  637.1609
 108  395.5811
 109  744.5536
 110  697.1743
 111  1001.546
 112  751.6489
 113  704.5771
 114  624.8672
 115  819.1457
 116  919.6956
 117  591.1252
 118  397.7915
 119  395.6978
 120  534.3512
 121  318.6382
 122  206.6704
 123  418.0463
 124  382.0006
 125  903.7263
 126  892.0155
 127  542.4275
 128  747.6946
 129  704.2349
 130  634.8174
 131  465.0608
 132  768.1741
 133  891.0405
 134  790.0711
 135  640.5305
 136  806.2021
 137  813.2994
 138  922.1005
 139  880.7184
 140  560.4522
 141  590.4148
 142  537.8054
 143  422.1904
 144  806.7056
 145  665.1212
 146  519.2445
 147  612.8696
 148  652.0055
 149  542.7286
 150  459.3593
 151  429.2857
 152  348.6078
 153  712.6556
 154  878.5335
 155  901.4118
 156  477.4422
 157  216.7081
 158  302.7123
 159  779.0135
 160  698.0707
 161  449.412
 162  683.9459
 163  876.0229
 164  895.8009
 165  553.4489
 166  532.437
 167  358.7914
 168  690.6736
 169  678.6236
 170  754.2754
 171  692.55
 172  542.9349
 173  532.5477
 174  710.4086
 175  530.5627
 176  631.6224
 177  722.0067
 178  340.4516
 179  415.5733
 180  421.6949
 181  497.9849
 182  427.3744
 183  463.6129
 184  1020.743
 185  1297.13
 186  909.4646
 187  589.3179
 188  330.5237
 189  415.3528
 190  472.4465
 191  441.9274
 192  475.8311
 193  402.3368
 194  157.2026
 195  433.6078
 196  475.2101
 197  669.4676
 198  640.3936
 199  914.6472
 200  832.7443
 201  735.2654
 202  782.1876
 203  641.5357
 204  871.3979
 205  959.2736
 206  722.81
 207  687.6282
 208  950.2948
 209  677.2769
 210  172.9538
 211  288.5006
 212  542.6783
 213  543.9695
 214  480.1277
 215  546.6171
 216  366.3882
 217  604.0294
 218  563.1225
 219  498.1961
 220  636.373
 221  458.2614
 222  311.0162
 223  283.7298
 224  371.2286
 225  492.9919
 226  610.1115
 227  725.623
 228  500.1502
 229  121.349
 230  265.5337
 231  249.2607
 232  743.9863
 233  977.0541
 234  784.7337
 235  432.0393
 236  289.2804
 237  624.9716
 238  519.1415
 239  456.1337
 240  342.3867
 241  336.3843
 242  611.6953
 243  383.4828
 244  261.2055
 245  37.38407
 246  417.3015
 247  471.4455
 248  464.1971
 249  165.3116
 250  157.5882
 251  386.3463
 252  214.0533
 253  372.7388
 254  175.2207
 255  395.2736
 256  234.0662
 257  185.7582
 258  22.78715
 259  147.5458
 260  444.9941
 261  576.9212
 262  452.6982
 263  371.5008
 264  529.6595
 265  585.7801
 266  353.969
 267  213.1903
 268  55.90078
 269  834.1796
 270  661.0067
 271  344.3962
 272  228.9798
 273  468.1781
 274  212.9847
 275  271.0255
 276  171.4484
 277  214.5615
 278  349.9794
 279  425.9326
 280  267.0809
 281  354.5436
 282  426.9412
 283  663.5169
 284  392.2838
 285  258.5079
 286  286.126
 287  117.3141
 288  50.26915
 289  76.95127
 290  173.8398
 291  506.3448
 292  478.1123
 293  134.9377
 294  213.9402
 295  311.9809
 296  662.5091
 297  580.4144
 298  573.0718
 299  876.0778
 300  506.1426
 301  508.8067
 302  633.2155
 303  700.105
 304  983.4142
 305  1030.786
 306  736.3049
 307  195.8148
 308  577.4655
 309  553.8995
 310  390.4488
 311  544.6821
 312  800.5432
 313  903.1274
 314  981.384
 315  1010.107
 316  691.3023
 317  614.8141
 318  775.2466
 319  1119.643
 320  1457.687
 321  2121.64
 322  2075.137
 323  2027.061
 324  1679.385
 325  918.6388
 326  473.8166
 327  292.4295
 328  275.5814
 329  257.9824
 330  388.537
 331  406.907
 332  399.6437
 333  935.1193
 334  780.0897
 335  737.6561
 336  621.9504
 337  761.8867
 338  877.8127
 339  637.7254
 340  474.9547
 341  400.9405
 342  715.7331
 343  609.1648
 344  816.2887
 345  967.5519
 346  529.2336
 347  491.4619
 348  634.5029
 349  722.1284
 350  311.2392
 351  497.9775
 352  685.9067
 353  519.5041
 354  171.8053
 355  332.7191
 356  567.0162
 357  508.7318
 358  404.2551
 359  358.5804
 360  319.5445
 361  180.4222
 362  363.041
 363  915.2235
 364  559.6315
 365  462.9497
 366  455.0116
 367  410.7419
 368  451.6506
 369  597.5372
 370  903.894
 371  669.4354
 372  490.0146
 373  442.1245
 374  348.6474
 375  293.6877
 376  291.0317
 377  513.7269
 378  471.1563
 379  259.5176
 380  448.9234
 381  135.5004
 382  305.5371
 383  222.6456
 384  169.3315
 385  317.7897
 386  497.3963
 387  713.5034
 388  582.2009
 389  733.0292
 390  522.8088
 391  472.654
 392  453.5681
 393  403.5372
 394  455.854
 395  381.2253
 396  515.2446
 397  250.4985
 398  338.3612
 399  234.1823
 400  66.67154
 401  66.67023
 402  647.1946
 403  911.0369
 404  896.8776
 405  710.1726
 406  793.1232
 407  505.6936
 408  461.8853
 409  446.6835
 410  414.403
 411  548.0359
 412  665.5176
 413  714.6016
 414  544.5482
 415  502.7629
 416  389.6334
 417  636.8163
 418  343.4573
 419  538.3349
 420  665.8123
 421  443.8489
 422  486.5069
 423  595.4006
 424  608.3209
 425  405.0559
 426  191.7857
 427  304.795
 428  350.6012
 429  456.3985
 430  309.0033
 431  379.2175
 432  545.0184
 433  520.7703
 434  340.4729
 435  305.5324
 436  123.5033
 437  663.2937
 438  638.1562
 439  394.0706
 440  514.1846
 441  669.0784
 442  448.8326
 443  442.9823
 444  628.5037
 445  841.4473
 446  497.0407
 447  492.0508
 448  179.1381
 449  142.8069
 450  313.2929
 451  229.0462
 452  368.6783
 453  181.5588
 454  153.3814
 455  263.0889
 456  137.3727
 457  193.2875
 458  346.0051
 459  341.7405
 460  602.8169
 461  244.4909
 462  -113.2129
 463  -14.22388
 464  574.5356
 465  413.0488
 466  410.9709
 467  280.3504
 468  93.80981
 469  -17.60355
 470  -30.41791
 471  216.1932
 472  427.2048
 473  532.4556
 474  615.7926
 475  682.0529
 476  657.0323
 477  436.9278
 478  363.3501
 479  706.8081
 480  747.6938
 481  562.9993
 482  322.7845
 483  322.6403
 484  429.8417
 485  563.6378
 486  870.9357
 487  553.822
 488  507.9073
 489  658.8194
 490  823.226
 491  598.9105
 492  498.4383
 493  493.2608
 494  342.7552
 495  224.7112
 496  136.0567
 497  682.486
 498  748.009
 499  493.8954
 500  662.2931
 501  417.3922
 502  336.0538
 503  681.8405
 504  950.2169
 505  370.1546
 506  560.4557
 507  668.8265
 508  512.2911
 509  833.8065
 510  855.6857
 511  797.861
