# Input file       =  1192557560.121388_cleaned.dat
# Candidate        =  PSR_0332+5434
# Telescope        =  AR
# Epoch_topo       =  58046.749758349397
# Epoch_bary       =  N/A
# T_sample         =  0.002
# Data Folded      =  7143424
# Data Avg         =  0.0389452793960347
# Data StdDev      =  1.00017377550213 
# Profile Bins     =  512
# Profile Avg      =  543.28821591799  
# Profile StdDev   =  118.139110598197 
# Reduced chi-sqr  =  1.349
# Prob(Noise)      <  2.11e-07   (~5.1 sigma)
# P_topo (ms)      =  714.485969857757  +/- 0.000236
# P'_topo (s/s)    =  -0                +/- 1.28e-10
# P''_topo (s/s^2) =  0                 +/- 5.8e-14
# P_bary (ms)      =  N/A
# P'_bary (s/s)    =  N/A
# P''_bary (s/s^2) =  N/A
# P_orb (s)        =  N/A
# asin(i)/c (s)    =  N/A
# eccentricity     =  N/A
# w (rad)          =  N/A
# T_peri           =  N/A
######################################################
   0  460.9372
   1  445.9021
   2  546.1054
   3  485.3331
   4  498.3328
   5  515.1855
   6  623.6733
   7  689.468
   8  561.536
   9  604.8112
  10  563.052
  11  551.2213
  12  414.8279
  13  357.4423
  14  485.8749
  15  508.1619
  16  577.5961
  17  533.6823
  18  586.452
  19  586.1639
  20  532.9267
  21  527.819
  22  590.2823
  23  519.1103
  24  587.991
  25  596.6428
  26  559.6836
  27  542.1072
  28  625.3665
  29  508.4574
  30  444.8336
  31  530.1569
  32  512.8425
  33  456.5146
  34  445.421
  35  495.4675
  36  470.5515
  37  427.9312
  38  438.758
  39  552.075
  40  529.9022
  41  455.2438
  42  360.0416
  43  448.261
  44  479.8676
  45  466.1894
  46  521.6946
  47  625.353
  48  540.211
  49  409.9032
  50  465.9988
  51  539.2371
  52  490.5176
  53  482.9659
  54  573.0775
  55  495.1681
  56  518.5587
  57  477.3924
  58  434.2544
  59  395.1371
  60  438.299
  61  473.512
  62  492.8174
  63  535.1595
  64  497.4329
  65  472.8541
  66  465.3145
  67  441.0674
  68  497.4755
  69  405.499
  70  354.8504
  71  483.3579
  72  488.4976
  73  417.4277
  74  435.3748
  75  522.3596
  76  469.6987
  77  455.1397
  78  528.9912
  79  566.8983
  80  508.8448
  81  399.654
  82  468.7553
  83  590.4721
  84  631.2245
  85  573.9901
  86  469.59
  87  454.4301
  88  436.7405
  89  372.5576
  90  428.7325
  91  531.8705
  92  489.9344
  93  416.9655
  94  393.548
  95  518.0161
  96  540.7869
  97  485.5248
  98  419.9043
  99  409.3418
 100  475.4234
 101  456.8435
 102  359.9268
 103  404.5953
 104  372.9097
 105  436.3055
 106  458.8594
 107  412.1472
 108  558.1947
 109  574.9446
 110  597.6122
 111  584.0941
 112  581.7227
 113  490.0694
 114  368.147
 115  492.942
 116  629.6711
 117  525.506
 118  518.0518
 119  601.4929
 120  689.2285
 121  660.3441
 122  665.7426
 123  614.4312
 124  493.3372
 125  465.5193
 126  534.322
 127  582.9875
 128  534.0281
 129  499.8622
 130  484.5053
 131  435.9757
 132  547.3434
 133  483.4957
 134  473.9162
 135  597.8309
 136  583.262
 137  518.5091
 138  579.4276
 139  454.525
 140  390.2477
 141  402.7056
 142  423.5312
 143  548.5787
 144  491.1892
 145  508.4813
 146  559.221
 147  518.2331
 148  673.8167
 149  696.1297
 150  625.4154
 151  564.7238
 152  568.1623
 153  536.5865
 154  431.7059
 155  475.7896
 156  576.6815
 157  690.631
 158  544.0546
 159  547.6993
 160  513.5114
 161  535.7195
 162  542.9326
 163  564.092
 164  454.296
 165  454.9579
 166  543.1248
 167  678.9736
 168  624.4576
 169  585.2125
 170  667.7421
 171  663.9865
 172  616.9887
 173  573.3378
 174  537.0533
 175  595.1752
 176  557.4751
 177  489.8965
 178  426.4789
 179  556.3962
 180  520.6191
 181  642.8868
 182  565.3277
 183  464.7945
 184  522.6583
 185  536.8555
 186  559.5571
 187  552.3621
 188  533.3156
 189  445.685
 190  492.3694
 191  694.6034
 192  685.3914
 193  509.1335
 194  508.6611
 195  438.3827
 196  379.4859
 197  472.6061
 198  636.2255
 199  519.1837
 200  483.7434
 201  463.9615
 202  457.4632
 203  490.9802
 204  579.5728
 205  574.5965
 206  581.1556
 207  527.8922
 208  496.6877
 209  697.6383
 210  660.519
 211  563.0363
 212  555.1168
 213  663.4633
 214  580.577
 215  589.4474
 216  602.9954
 217  546.774
 218  565.1632
 219  577.1359
 220  438.7213
 221  597.1406
 222  609.9758
 223  614.0895
 224  696.2086
 225  608.7017
 226  568.9615
 227  522.6124
 228  524.4934
 229  612.1271
 230  582.9886
 231  603.4575
 232  522.5527
 233  511.7743
 234  587.6106
 235  586.3547
 236  559.3439
 237  551.1946
 238  499.0433
 239  500.6179
 240  574.7579
 241  508.4331
 242  480.6759
 243  574.4893
 244  456.6551
 245  532.4877
 246  447.4295
 247  513.7286
 248  576.4414
 249  506.0211
 250  459.4225
 251  570.803
 252  585.3384
 253  502.3947
 254  398.0605
 255  494.76
 256  472.7997
 257  358.4147
 258  403.5733
 259  475.3515
 260  528.8962
 261  706.1214
 262  548.7995
 263  454.4647
 264  472.0732
 265  485.2283
 266  537.9283
 267  520.7444
 268  489.9221
 269  552.2872
 270  554.98
 271  472.8052
 272  568.022
 273  714.5104
 274  637.1382
 275  518.1606
 276  496.8702
 277  600.7137
 278  536.3198
 279  570.1537
 280  511.2461
 281  405.4222
 282  502.8062
 283  476.5254
 284  424.4817
 285  477.9243
 286  529.4068
 287  506.8908
 288  576.3533
 289  630.2869
 290  500.847
 291  537.4194
 292  436.5595
 293  357.4959
 294  437.6544
 295  638.3258
 296  572.6525
 297  540.2681
 298  580.1126
 299  570.8945
 300  656.1833
 301  713.5497
 302  614.8143
 303  559.1318
 304  714.6807
 305  649.9762
 306  523.8815
 307  644.0576
 308  671.8353
 309  602.7411
 310  510.4233
 311  382.2641
 312  555.8144
 313  626.6705
 314  590.7328
 315  597.5027
 316  708.2775
 317  741.859
 318  635.1624
 319  547.8813
 320  546.9219
 321  656.1811
 322  653.8842
 323  692.9771
 324  615.254
 325  530.248
 326  497.1554
 327  519.1665
 328  659.9799
 329  475.1281
 330  481.9514
 331  660.6932
 332  556.3699
 333  523.5347
 334  452.463
 335  515.7902
 336  517.1458
 337  436.3299
 338  482.6587
 339  501.6236
 340  447.2647
 341  488.3555
 342  609.1948
 343  473.3715
 344  531.8142
 345  626.4887
 346  428.4047
 347  434.9198
 348  513.7333
 349  523.9974
 350  522.8211
 351  546.9631
 352  635.3646
 353  551.5263
 354  409.1923
 355  388.7289
 356  520.1025
 357  642.6536
 358  642.1338
 359  551.1174
 360  478.6028
 361  464.8542
 362  442.2941
 363  437.7368
 364  528.4409
 365  598.3089
 366  743.028
 367  604.6156
 368  619.9332
 369  642.0826
 370  595.2307
 371  688.852
 372  601.4415
 373  598.9449
 374  664.2231
 375  412.9079
 376  419.2266
 377  383.0056
 378  445.1736
 379  491.606
 380  586.9114
 381  613.9968
 382  600.5883
 383  576.5076
 384  611.0959
 385  614.056
 386  535.5126
 387  563.9475
 388  630.1789
 389  587.9491
 390  544.7077
 391  648.9448
 392  588.3411
 393  500.3109
 394  515.8097
 395  603.8406
 396  554.6594
 397  663.6112
 398  670.2045
 399  580.9074
 400  554.9612
 401  564.2582
 402  557.6474
 403  527.6677
 404  572.0851
 405  586.2924
 406  568.8624
 407  559.8256
 408  426.4356
 409  473.8456
 410  519.8571
 411  428.6328
 412  498.0399
 413  453.6334
 414  533.5808
 415  606.1775
 416  569.1696
 417  475.9346
 418  522.8574
 419  533.0557
 420  482.705
 421  388.0542
 422  558.7532
 423  596.4646
 424  500.4611
 425  562.4526
 426  548.0789
 427  384.0945
 428  466.7919
 429  647.9471
 430  684.2806
 431  717.6368
 432  710.4596
 433  663.7686
 434  717.9459
 435  656.3298
 436  713.2809
 437  564.8445
 438  576.9322
 439  540.0244
 440  459.2191
 441  522.7623
 442  592.1573
 443  576.4131
 444  566.6315
 445  576.8083
 446  520.4581
 447  530.5291
 448  595.9504
 449  471.6601
 450  514.4664
 451  604.91
 452  622.9023
 453  558.8236
 454  626.9959
 455  643.2992
 456  580.3411
 457  410.3411
 458  472.6848
 459  484.0518
 460  410.4882
 461  547.8371
 462  621.3984
 463  649.1936
 464  534.6295
 465  448.9694
 466  554.7252
 467  578.806
 468  491.8893
 469  568.2208
 470  429.0317
 471  478.665
 472  566.4988
 473  523.8643
 474  488.4305
 475  431.6099
 476  427.0294
 477  526.5275
 478  572.47
 479  588.9359
 480  553.4042
 481  550.2795
 482  522.7911
 483  540.3072
 484  500.6537
 485  487.8549
 486  622.0045
 487  698.3909
 488  610.5329
 489  582.6918
 490  584.7102
 491  489.2492
 492  436.3519
 493  448.5333
 494  499.1246
 495  590.9587
 496  661.9631
 497  721.4919
 498  678.039
 499  555.455
 500  657.028
 501  636.6234
 502  936.8048
 503  1194.105
 504  1211.346
 505  1179.429
 506  1083.549
 507  904.9225
 508  647.636
 509  583.5283
 510  614.5683
 511  517.0784
