# Input file       =  1192557560.121388_cleaned.dat
# Candidate        =  PSR_0332+5434
# Telescope        =  AR
# Epoch_topo       =  58046.749758349397
# Epoch_bary       =  N/A
# T_sample         =  0.002
# Data Folded      =  7143424
# Data Avg         =  0.193702881684774
# Data StdDev      =  3.78320039892607 
# Profile Bins     =  1024
# Profile Avg      =  1351.17508544912 
# Profile StdDev   =  315.982173995367 
# Reduced chi-sqr  =  0.585
# Prob(Noise)      <  1   (~0.0 sigma)
# P_topo (ms)      =  714.485969857757  +/- 9.68e-05
# P'_topo (s/s)    =  -0                +/- 5.25e-11
# P''_topo (s/s^2) =  0                 +/- 2.38e-14
# P_bary (ms)      =  N/A
# P'_bary (s/s)    =  N/A
# P''_bary (s/s^2) =  N/A
# P_orb (s)        =  N/A
# asin(i)/c (s)    =  N/A
# eccentricity     =  N/A
# w (rad)          =  N/A
# T_peri           =  N/A
######################################################
   0  1351.548
   1  1407.396
   2  1391.248
   3  1361.998
   4  1293.87
   5  1291.62
   6  1278.294
   7  1345.965
   8  1419.451
   9  1619.182
  10  1582.772
  11  1467.814
  12  1294.309
  13  1287.431
  14  1311.385
  15  1349.23
  16  1210.208
  17  1106.41
  18  1035.491
  19  1055.924
  20  1102.088
  21  1247.818
  22  1419.105
  23  1462.782
  24  1455.431
  25  1383.386
  26  1461.074
  27  1402.8
  28  1408.942
  29  1314.615
  30  1308.007
  31  1272.785
  32  1200.767
  33  1291.851
  34  1326.681
  35  1352.171
  36  1309.075
  37  1258.73
  38  1275.302
  39  1280.523
  40  1279.625
  41  1270.557
  42  1255.16
  43  1406.343
  44  1536.8
  45  1588.806
  46  1451.574
  47  1415.318
  48  1386.907
  49  1357.797
  50  1366.024
  51  1351.852
  52  1482.127
  53  1458.849
  54  1384.22
  55  1288.667
  56  1301.492
  57  1426.661
  58  1451.542
  59  1462.21
  60  1425.832
  61  1397.99
  62  1383.779
  63  1473.029
  64  1513.802
  65  1394.508
  66  1219.896
  67  1258.468
  68  1345
  69  1455.653
  70  1384.322
  71  1402.905
  72  1397.595
  73  1429.718
  74  1555.958
  75  1535.399
  76  1471.252
  77  1469.825
  78  1415.627
  79  1394.948
  80  1253.935
  81  1267.078
  82  1223.331
  83  1307.954
  84  1302.048
  85  1386.675
  86  1287.438
  87  1337.924
  88  1356.937
  89  1460.817
  90  1411.444
  91  1410.81
  92  1404.315
  93  1413.957
  94  1456.857
  95  1423.94
  96  1440.227
  97  1322.236
  98  1345.592
  99  1286.005
 100  1357.927
 101  1306.037
 102  1221.956
 103  1219.416
 104  1237.795
 105  1281.553
 106  1309.081
 107  1310.483
 108  1323.209
 109  1283.401
 110  1247.379
 111  1233.198
 112  1338.249
 113  1292.087
 114  1174.496
 115  1130.409
 116  1265.439
 117  1340.327
 118  1293.48
 119  1163.106
 120  1290.924
 121  1349.629
 122  1408.443
 123  1363.764
 124  1319.101
 125  1290.334
 126  1299.855
 127  1309.665
 128  1409.239
 129  1444.003
 130  1494.951
 131  1416.767
 132  1419.876
 133  1269.472
 134  1148.648
 135  1086.36
 136  1164.42
 137  1287.693
 138  1306.229
 139  1277.274
 140  1153.292
 141  1075.565
 142  1120.181
 143  1286.398
 144  1359.62
 145  1331.302
 146  1193.04
 147  1296.564
 148  1410.483
 149  1457.462
 150  1331.444
 151  1245.222
 152  1249.131
 153  1252.696
 154  1305.668
 155  1335.661
 156  1329.146
 157  1370.538
 158  1386.015
 159  1446.808
 160  1314.968
 161  1299.203
 162  1253.832
 163  1296.15
 164  1307.877
 165  1333.141
 166  1377.091
 167  1279.314
 168  1286.078
 169  1275.161
 170  1355.016
 171  1439.159
 172  1608.254
 173  1629.01
 174  1512.444
 175  1401.547
 176  1377.182
 177  1253.297
 178  1253.862
 179  1259.244
 180  1389.436
 181  1335.594
 182  1323.115
 183  1313.607
 184  1323.68
 185  1353.892
 186  1384.72
 187  1280.534
 188  1228.441
 189  1259.465
 190  1347.428
 191  1415.555
 192  1377.526
 193  1306.838
 194  1298.609
 195  1269.426
 196  1342.43
 197  1358.76
 198  1413.758
 199  1399.555
 200  1425.142
 201  1279.803
 202  1310.296
 203  1422.109
 204  1545.967
 205  1420.539
 206  1347.635
 207  1400.774
 208  1385.461
 209  1282.057
 210  1172.384
 211  1143.86
 212  1133.203
 213  1105.449
 214  1179.044
 215  1230.03
 216  1409.947
 217  1475.723
 218  1433.041
 219  1294.482
 220  1352.867
 221  1333.532
 222  1465.863
 223  1408.473
 224  1399.193
 225  1364.79
 226  1434.322
 227  1535.494
 228  1636.698
 229  1567.915
 230  1529.458
 231  1407.276
 232  1351.38
 233  1359.131
 234  1426.562
 235  1531.285
 236  1510.283
 237  1436.75
 238  1337.883
 239  1343.571
 240  1374.782
 241  1531.2
 242  1524.795
 243  1551.099
 244  1414.849
 245  1418.551
 246  1357.2
 247  1231.94
 248  1077.733
 249  1094.165
 250  1234.278
 251  1394.777
 252  1361.733
 253  1384.212
 254  1369.752
 255  1393.132
 256  1531.849
 257  1598.12
 258  1614.626
 259  1562.701
 260  1538.811
 261  1487.197
 262  1426.069
 263  1452.11
 264  1404.256
 265  1370.087
 266  1258.604
 267  1322.05
 268  1427.023
 269  1406.434
 270  1454.491
 271  1478.581
 272  1507.747
 273  1454.686
 274  1415.388
 275  1356.193
 276  1296.486
 277  1226.887
 278  1305.227
 279  1244.733
 280  1239.119
 281  1177.266
 282  1390.885
 283  1430.061
 284  1362.871
 285  1184.77
 286  1229.757
 287  1294.107
 288  1468.905
 289  1507.973
 290  1452.967
 291  1354.468
 292  1326.641
 293  1376.468
 294  1323.371
 295  1290.293
 296  1343.922
 297  1329.139
 298  1312.022
 299  1149.09
 300  1095.565
 301  1100.678
 302  1292.375
 303  1313.207
 304  1300.251
 305  1297.671
 306  1324.27
 307  1212.575
 308  1194.237
 309  1360.677
 310  1445.643
 311  1392.356
 312  1237.45
 313  1207.607
 314  1316.711
 315  1298.939
 316  1417.921
 317  1299.508
 318  1217.31
 319  1131.884
 320  1167.522
 321  1343.742
 322  1411.232
 323  1325.684
 324  1393.283
 325  1482.814
 326  1467.039
 327  1350.747
 328  1377.16
 329  1426.313
 330  1487.906
 331  1431.399
 332  1483.125
 333  1341.8
 334  1214.57
 335  1198.667
 336  1228.582
 337  1216.574
 338  1184.949
 339  1307.03
 340  1306.6
 341  1343.858
 342  1308.855
 343  1393.31
 344  1354.469
 345  1338.1
 346  1224.915
 347  1287.695
 348  1274.706
 349  1302.068
 350  1300.347
 351  1224.89
 352  1254.958
 353  1297.189
 354  1419.56
 355  1354.807
 356  1371.878
 357  1487.995
 358  1636.97
 359  1674.321
 360  1488.396
 361  1451.106
 362  1456.052
 363  1468.922
 364  1455.594
 365  1448.475
 366  1345.781
 367  1472.713
 368  1554.361
 369  1606.135
 370  1441.015
 371  1435.329
 372  1429.577
 373  1533.82
 374  1619.214
 375  1549.209
 376  1337.777
 377  1166.301
 378  1132.379
 379  1249.855
 380  1155.501
 381  1137.965
 382  1134.267
 383  1221.512
 384  1326.441
 385  1356.612
 386  1524.096
 387  1504.284
 388  1584.442
 389  1547.107
 390  1544.918
 391  1425.053
 392  1413.509
 393  1435.792
 394  1446.351
 395  1436.999
 396  1438.74
 397  1414.533
 398  1363.461
 399  1321.769
 400  1291.74
 401  1415.977
 402  1499.623
 403  1513.744
 404  1519.451
 405  1475.826
 406  1396.587
 407  1340.362
 408  1452.935
 409  1518.471
 410  1461.355
 411  1340.762
 412  1308.955
 413  1182.52
 414  1107.119
 415  1303.772
 416  1443.389
 417  1471.22
 418  1402.96
 419  1505.474
 420  1505.824
 421  1618.595
 422  1518.105
 423  1554.909
 424  1390.684
 425  1347.483
 426  1414.887
 427  1508.423
 428  1465.937
 429  1384.881
 430  1372.414
 431  1398.763
 432  1376.169
 433  1388.135
 434  1456.4
 435  1417.981
 436  1479.403
 437  1503.216
 438  1447.203
 439  1410.378
 440  1352.815
 441  1399.182
 442  1267.712
 443  1203.691
 444  1203.711
 445  1327.848
 446  1329.236
 447  1286.958
 448  1214.549
 449  1281.995
 450  1299.515
 451  1314.059
 452  1328.586
 453  1382.458
 454  1416.999
 455  1454.907
 456  1437.507
 457  1443.161
 458  1440.334
 459  1393.536
 460  1330.249
 461  1279.674
 462  1315.748
 463  1343.434
 464  1310.309
 465  1200.018
 466  1168.363
 467  1159.524
 468  1098.787
 469  1181.422
 470  1310.747
 471  1491.883
 472  1484.459
 473  1405.254
 474  1284.551
 475  1251.723
 476  1347.266
 477  1441.47
 478  1477.707
 479  1354.601
 480  1231.071
 481  1121.763
 482  1169.076
 483  1336.439
 484  1484.382
 485  1480.716
 486  1538.612
 487  1546.909
 488  1571.994
 489  1489.571
 490  1554.975
 491  1578.277
 492  1581.461
 493  1559.393
 494  1642.433
 495  1635.531
 496  1562.367
 497  1546.606
 498  1604.525
 499  1580.604
 500  1418.691
 501  1414.922
 502  1438.302
 503  1442.435
 504  1452.099
 505  1280.898
 506  1298.399
 507  1216.704
 508  1333.39
 509  1335.833
 510  1354.349
 511  1367.976
 512  1322.003
 513  1285.774
 514  1278.41
 515  1373.653
 516  1374.255
 517  1408.541
 518  1350.649
 519  1336.337
 520  1332.234
 521  1408.528
 522  1526.637
 523  1480.745
 524  1367.25
 525  1237.938
 526  1305.397
 527  1297.607
 528  1383.766
 529  1471.842
 530  1426.349
 531  1401.243
 532  1299.794
 533  1368.002
 534  1358.788
 535  1477.858
 536  1449.989
 537  1482.48
 538  1514.135
 539  1479.603
 540  1271.61
 541  1164.183
 542  1215.994
 543  1311.73
 544  1269.461
 545  1241.047
 546  1115.607
 547  1145.791
 548  1181.19
 549  1435.12
 550  1462.081
 551  1540.689
 552  1469.209
 553  1538.484
 554  1436.757
 555  1394.909
 556  1343.195
 557  1352.121
 558  1335.327
 559  1394.236
 560  1517.655
 561  1416.47
 562  1326.044
 563  1321.518
 564  1427.343
 565  1256.844
 566  1135.028
 567  1121.743
 568  1217.096
 569  1325.127
 570  1401.174
 571  1491.668
 572  1453.75
 573  1319.852
 574  1304.773
 575  1236.246
 576  1209.672
 577  1204.894
 578  1201.979
 579  1264.128
 580  1296.99
 581  1273.895
 582  1292.775
 583  1378.23
 584  1418.046
 585  1415.466
 586  1407.54
 587  1460.888
 588  1510.574
 589  1441.977
 590  1351.147
 591  1337.587
 592  1372.857
 593  1421.428
 594  1332.704
 595  1224.276
 596  1178.673
 597  1239.859
 598  1323.801
 599  1474.778
 600  1526.764
 601  1504.945
 602  1360.926
 603  1471.643
 604  1455.77
 605  1386.309
 606  1360.859
 607  1343.926
 608  1314.137
 609  1234.675
 610  1204.9
 611  1244.384
 612  1227.458
 613  1165.722
 614  1250.73
 615  1304.268
 616  1380.176
 617  1373.277
 618  1444.738
 619  1518.877
 620  1584.27
 621  1652.161
 622  1608.613
 623  1578.942
 624  1405.308
 625  1471.897
 626  1461.706
 627  1492.41
 628  1382.383
 629  1384.041
 630  1584.257
 631  1893.237
 632  2009.369
 633  2061.829
 634  2112.676
 635  2121.634
 636  2104.318
 637  2018.01
 638  2013.511
 639  1998.29
 640  1897.976
 641  1738.662
 642  1598.28
 643  1359.367
 644  1299.741
 645  1314.783
 646  1439.534
 647  1423.86
 648  1366.966
 649  1321.401
 650  1292.77
 651  1309.843
 652  1273.249
 653  1328.345
 654  1300.069
 655  1331.217
 656  1267.793
 657  1283.361
 658  1240.797
 659  1260.674
 660  1232.984
 661  1203.856
 662  1286.237
 663  1411.539
 664  1477.044
 665  1495.887
 666  1379.725
 667  1349.471
 668  1410.713
 669  1428.191
 670  1417.801
 671  1350.916
 672  1375.077
 673  1382.62
 674  1245.349
 675  1132.496
 676  1032.37
 677  1049.283
 678  1029.979
 679  1206.014
 680  1209.547
 681  1199.163
 682  1213.99
 683  1305.245
 684  1427.181
 685  1356.186
 686  1355.949
 687  1412.168
 688  1449.975
 689  1349.52
 690  1316.208
 691  1259.993
 692  1278.207
 693  1334.83
 694  1438.644
 695  1379.066
 696  1196.316
 697  1172.532
 698  1280.73
 699  1430.538
 700  1393.869
 701  1435.52
 702  1373.664
 703  1389.898
 704  1329.332
 705  1392.525
 706  1450.932
 707  1457.4
 708  1355.986
 709  1333.797
 710  1228.359
 711  1244.069
 712  1270.551
 713  1361.501
 714  1342.537
 715  1197
 716  1232.21
 717  1295.466
 718  1291.534
 719  1353.047
 720  1316.205
 721  1382.32
 722  1290.145
 723  1292.352
 724  1245.411
 725  1191.466
 726  1190.47
 727  1305.943
 728  1329.5
 729  1361.623
 730  1311.969
 731  1268.51
 732  1210.576
 733  1169.847
 734  1159.055
 735  1098.65
 736  1211.229
 737  1374.246
 738  1419.01
 739  1284.131
 740  1204.228
 741  1223.146
 742  1246.413
 743  1230.348
 744  1384.624
 745  1419.055
 746  1351.542
 747  1247.328
 748  1214.073
 749  1243.758
 750  1240.413
 751  1302.091
 752  1432.255
 753  1428.035
 754  1421.051
 755  1391.216
 756  1327.71
 757  1391.735
 758  1460.688
 759  1570.195
 760  1377.906
 761  1255.76
 762  1269.598
 763  1264.748
 764  1247.009
 765  1225.083
 766  1244.552
 767  1132.724
 768  1127.99
 769  1136.35
 770  1229.572
 771  1231.746
 772  1300.768
 773  1295.929
 774  1246.182
 775  1272.55
 776  1335.791
 777  1325.187
 778  1294.418
 779  1253.235
 780  1224.611
 781  1246.209
 782  1243.325
 783  1232.35
 784  1220.212
 785  1280.901
 786  1353.095
 787  1289.82
 788  1221.957
 789  1206.357
 790  1225.154
 791  1172.979
 792  1236.765
 793  1312.846
 794  1367.012
 795  1225.33
 796  1168.851
 797  1138.836
 798  1147.559
 799  1149.316
 800  1254.823
 801  1456.605
 802  1407.859
 803  1252.793
 804  1124.302
 805  1186.852
 806  1195.205
 807  1265.923
 808  1280.396
 809  1335.943
 810  1218.581
 811  1214.723
 812  1139.3
 813  1176.782
 814  1207.18
 815  1343.078
 816  1425.73
 817  1479.834
 818  1554.578
 819  1558.77
 820  1471.599
 821  1381.536
 822  1420.128
 823  1312.982
 824  1346.431
 825  1229.79
 826  1248.155
 827  1215.661
 828  1100.016
 829  1136.267
 830  1147.612
 831  1263.042
 832  1410.12
 833  1370.277
 834  1373.999
 835  1259.406
 836  1242.246
 837  1147.2
 838  1068.888
 839  1128.514
 840  1244.521
 841  1324.249
 842  1392.673
 843  1304.455
 844  1289.469
 845  1222.525
 846  1184.132
 847  1177.388
 848  1112.296
 849  1229.883
 850  1296.125
 851  1382.935
 852  1326.444
 853  1261.854
 854  1178.567
 855  1184.031
 856  1209.348
 857  1239.329
 858  1173.315
 859  1138.586
 860  1204.141
 861  1314.618
 862  1262.111
 863  1179.326
 864  1107.859
 865  1157.289
 866  1320.984
 867  1448.819
 868  1432.015
 869  1400.439
 870  1380.725
 871  1372.677
 872  1318.606
 873  1378.532
 874  1366.727
 875  1411.149
 876  1318.708
 877  1313.969
 878  1246.339
 879  1169.877
 880  1152.328
 881  1265.548
 882  1426.284
 883  1547.823
 884  1475.572
 885  1402.838
 886  1394.299
 887  1430.898
 888  1421.221
 889  1478.015
 890  1511.289
 891  1489.241
 892  1508.508
 893  1372.161
 894  1408.714
 895  1325.44
 896  1357.776
 897  1379.172
 898  1323.588
 899  1372.291
 900  1250.233
 901  1336.208
 902  1388.483
 903  1394.959
 904  1443.705
 905  1424.291
 906  1436.736
 907  1358.124
 908  1303.877
 909  1233.058
 910  1224.675
 911  1229.463
 912  1201.975
 913  1163.236
 914  1256.84
 915  1349.267
 916  1368.811
 917  1205.313
 918  1262.001
 919  1312.88
 920  1542.794
 921  1578.926
 922  1530.831
 923  1437.081
 924  1375.346
 925  1393.259
 926  1446.312
 927  1358.539
 928  1263.694
 929  1166.588
 930  1153.182
 931  1134.642
 932  1206.451
 933  1239.985
 934  1226.524
 935  1252.624
 936  1247.511
 937  1311.842
 938  1251.961
 939  1283.313
 940  1255.108
 941  1317.201
 942  1407.171
 943  1383.442
 944  1291.635
 945  1252.127
 946  1424.211
 947  1515.32
 948  1641.547
 949  1584.244
 950  1546.975
 951  1433.17
 952  1429.705
 953  1402.738
 954  1418.867
 955  1388.548
 956  1412.705
 957  1451.521
 958  1314.244
 959  1209.073
 960  1233.951
 961  1268.302
 962  1282.308
 963  1338.71
 964  1528.035
 965  1489.481
 966  1365.084
 967  1309.341
 968  1321.128
 969  1307.636
 970  1297.12
 971  1273.104
 972  1297.255
 973  1261.238
 974  1294.993
 975  1342.266
 976  1267.566
 977  1233.26
 978  1132.12
 979  1171.005
 980  1191.345
 981  1198.038
 982  1290.658
 983  1435.047
 984  1540.167
 985  1641.767
 986  1541.483
 987  1445.398
 988  1413.361
 989  1393.644
 990  1403.239
 991  1415.618
 992  1398.902
 993  1385.671
 994  1403.163
 995  1432.347
 996  1418.011
 997  1317.519
 998  1291.352
 999  1379.401
1000  1464.963
1001  1407.196
1002  1304.925
1003  1240.908
1004  1240.268
1005  1170.406
1006  1099.455
1007  1176.372
1008  1380.03
1009  1443.575
1010  1400.555
1011  1369.043
1012  1447.562
1013  1511.818
1014  1460.945
1015  1370.424
1016  1312.536
1017  1336.101
1018  1401.794
1019  1371.631
1020  1352.994
1021  1256.43
1022  1284.942
1023  1341.16
