# Input file       =  1192313732.119416_cleaned.dat
# Candidate        =  PSR_0332+5434
# Telescope        =  AR
# Epoch_topo       =  58043.927674993240
# Epoch_bary       =  N/A
# T_sample         =  0.002
# Data Folded      =  7340032
# Data Avg         =  0.0167312584553897
# Data StdDev      =  1.00002755489681 
# Profile Bins     =  512
# Profile Avg      =  239.866355295736 
# Profile StdDev   =  119.736335608228 
# Reduced chi-sqr  =  1.999
# Prob(Noise)      <  2.37e-36   (~12.5 sigma)
# P_topo (ms)      =  714.483749953964  +/- 0.000214
# P'_topo (s/s)    =  -0                +/- 1.13e-10
# P''_topo (s/s^2) =  0                 +/- 4.98e-14
# P_bary (ms)      =  N/A
# P'_bary (s/s)    =  N/A
# P''_bary (s/s^2) =  N/A
# P_orb (s)        =  N/A
# asin(i)/c (s)    =  N/A
# eccentricity     =  N/A
# w (rad)          =  N/A
# T_peri           =  N/A
######################################################
   0  1196.281
   1  1060.413
   2  800.9272
   3  546.1638
   4  370.1418
   5  286.569
   6  386.4362
   7  284.8788
   8  290.5478
   9  472.4758
  10  412.2326
  11  385.4023
  12  428.7686
  13  417.6462
  14  380.38
  15  257.5223
  16  178.5008
  17  315.6986
  18  332.6931
  19  316.4161
  20  153.4194
  21  154.4662
  22  255.6124
  23  418.0605
  24  342.0982
  25  158.7849
  26  156.1216
  27  120.3129
  28  140.831
  29  232.9504
  30  243.6011
  31  205.5632
  32  115.2504
  33  212.6375
  34  190.8781
  35  125.939
  36  201.5041
  37  336.3716
  38  363.5457
  39  206.8513
  40  236.6534
  41  248.6073
  42  96.44004
  43  187.96
  44  298.026
  45  383.2037
  46  362.5265
  47  341.5208
  48  371.4441
  49  409.5276
  50  287.0486
  51  229.2896
  52  365.3934
  53  413.7425
  54  333.7564
  55  296.0704
  56  196.8708
  57  184.6244
  58  272.6285
  59  204.364
  60  258.4908
  61  258.8775
  62  105.1377
  63  116.8288
  64  211.0293
  65  250.779
  66  189.7165
  67  169.8148
  68  139.7634
  69  86.58359
  70  179.5841
  71  136.4627
  72  167.1523
  73  205.6729
  74  170.9029
  75  228.7059
  76  268.8992
  77  235.3352
  78  282.4155
  79  160.9887
  80  182.06
  81  142.1681
  82  297.3733
  83  285.6384
  84  253.401
  85  309.6943
  86  379.1045
  87  217.139
  88  243.7695
  89  331.4569
  90  234.9453
  91  345.3169
  92  271.2561
  93  223.145
  94  370.419
  95  329.305
  96  281.0784
  97  210.5661
  98  271.51
  99  330.7703
 100  332.9396
 101  246.8464
 102  274.8649
 103  307.4153
 104  315.092
 105  151.6787
 106  135.9554
 107  206.0846
 108  257.7836
 109  246.1428
 110  65.27467
 111  74.87923
 112  146.6535
 113  193.8396
 114  322.3838
 115  324.8734
 116  122.3867
 117  81.41985
 118  339.0491
 119  291.4636
 120  222.2237
 121  237.1586
 122  226.1235
 123  177.5447
 124  371.4342
 125  315.6131
 126  79.17646
 127  164.5854
 128  168.853
 129  83.14548
 130  163.0198
 131  107.6368
 132  153.8945
 133  223.4027
 134  225.2841
 135  153.5778
 136  54.92357
 137  67.99499
 138  31.96864
 139  77.17278
 140  216.8153
 141  87.12128
 142  163.7238
 143  319.0786
 144  331.1712
 145  158.7132
 146  232.6889
 147  349.9575
 148  369.6677
 149  159.8991
 150  145.9375
 151  163.5944
 152  186.7795
 153  307.5553
 154  423.0536
 155  369.0054
 156  346.0217
 157  290.0892
 158  139.2251
 159  178.3918
 160  211.4432
 161  256.0863
 162  275.4679
 163  99.78085
 164  138.4635
 165  194.3365
 166  317.0015
 167  183.0204
 168  135.2509
 169  271.7835
 170  184.8241
 171  91.03957
 172  27.89112
 173  167.6203
 174  267.2871
 175  189.1766
 176  148.2613
 177  104.112
 178  208.7876
 179  235.417
 180  271.1307
 181  228.3894
 182  331.8844
 183  309.2628
 184  261.1785
 185  139.2847
 186  225.8667
 187  223.5682
 188  162.8587
 189  320.7828
 190  254.1732
 191  205.4398
 192  136.9857
 193  233.5371
 194  237.6734
 195  263.0046
 196  280.5971
 197  257.097
 198  250.9981
 199  137.0923
 200  136.5796
 201  152.035
 202  224.7128
 203  321.0108
 204  238.0906
 205  109.322
 206  221.632
 207  361.7139
 208  394.5952
 209  347.6224
 210  242.5622
 211  195.6593
 212  232.442
 213  301.0949
 214  155.8187
 215  254.267
 216  226.3444
 217  189.3004
 218  220.1234
 219  224.1911
 220  334.4368
 221  141.2368
 222  68.13882
 223  175.7458
 224  283.4399
 225  223.2467
 226  169.624
 227  135.9987
 228  139.1264
 229  181.8504
 230  251.8456
 231  199.9436
 232  293.7052
 233  307.8875
 234  257.1753
 235  246.4985
 236  189.2361
 237  257.823
 238  236.731
 239  221.4666
 240  226.7165
 241  316.4365
 242  327.9697
 243  353.5122
 244  317.6567
 245  270.0442
 246  315.0532
 247  361.298
 248  146.309
 249  177.2582
 250  158.8069
 251  41.56584
 252  149.8953
 253  126.5727
 254  280.3481
 255  241.0502
 256  242.3237
 257  365.067
 258  234.4559
 259  195.0481
 260  247.906
 261  208.6154
 262  202.0838
 263  320.2936
 264  271.9146
 265  206.9431
 266  286.4957
 267  260.4174
 268  249.2802
 269  91.98939
 270  19.47316
 271  76.87368
 272  209.3743
 273  255.3464
 274  312.83
 275  308.5137
 276  323.5155
 277  289.7351
 278  223.604
 279  229.4929
 280  259.3871
 281  232.2033
 282  123.7804
 283  131.6913
 284  192.2012
 285  188.145
 286  79.33549
 287  191.3114
 288  233.1526
 289  298.6732
 290  234.2666
 291  201.2266
 292  317.608
 293  369.1235
 294  354.594
 295  189.4047
 296  212.5497
 297  160.1291
 298  169.7754
 299  143.2923
 300  153.3709
 301  150.855
 302  206.8469
 303  208.9777
 304  376.3381
 305  274.2571
 306  246.5131
 307  295.1745
 308  294.6591
 309  227.6922
 310  196.7903
 311  160.5487
 312  176.6436
 313  276.2939
 314  225.7612
 315  224.1537
 316  219.5664
 317  213.7673
 318  166.2989
 319  262.0081
 320  351.7954
 321  287.6287
 322  151.1869
 323  274.9751
 324  229.9321
 325  296.6471
 326  316.1356
 327  208.7666
 328  272.4298
 329  223.3647
 330  118.1071
 331  96.85147
 332  110.6953
 333  226.6794
 334  215.4952
 335  54.02934
 336  162.1334
 337  155.8988
 338  308.483
 339  257.0319
 340  273.9999
 341  401.8571
 342  366.7828
 343  215.2588
 344  118.8516
 345  121.2029
 346  40.49199
 347  45.6126
 348  92.62458
 349  167.8923
 350  279.4646
 351  334.8281
 352  318.0054
 353  158.5056
 354  135.1345
 355  206.2138
 356  298.4491
 357  180.5352
 358  252.6696
 359  176.5162
 360  210.2389
 361  219.9966
 362  199.0389
 363  155.1405
 364  210.6587
 365  320.9404
 366  241.8835
 367  238.3232
 368  246.1971
 369  182.3895
 370  387.6974
 371  298.9312
 372  238.5076
 373  186.0774
 374  211.5999
 375  153.7524
 376  235.9689
 377  239.8667
 378  244.1196
 379  76.81809
 380  42.63238
 381  176.7205
 382  290.6635
 383  211.729
 384  160.0527
 385  65.68694
 386  139.7639
 387  188.2158
 388  157.9064
 389  278.6511
 390  267.052
 391  143.9965
 392  215.0569
 393  213.156
 394  191.4477
 395  125.2208
 396  -26.52683
 397  61.53133
 398  90.84631
 399  185.6397
 400  191.7076
 401  131.3704
 402  171.9904
 403  275.8551
 404  193.4174
 405  152.3099
 406  298.4965
 407  286.4659
 408  165.6624
 409  266.9798
 410  290.338
 411  234.5327
 412  185.2045
 413  182.3832
 414  337.33
 415  235.7771
 416  85.10535
 417  115.0459
 418  113.7407
 419  221.7142
 420  198.6733
 421  76.17786
 422  267.7862
 423  228.0933
 424  250.3899
 425  222.2133
 426  149.7289
 427  175.7075
 428  155.1151
 429  124.9906
 430  227.2203
 431  234.6844
 432  233.1166
 433  230.9506
 434  175.7619
 435  154.7969
 436  131.9051
 437  37.47155
 438  259.1118
 439  413.3457
 440  331.7502
 441  265.0103
 442  280.0363
 443  301.3097
 444  346.4655
 445  107.9612
 446  179.3302
 447  358.5485
 448  319.968
 449  381.1364
 450  244.9231
 451  395.7277
 452  326.1331
 453  149.8034
 454  237.3124
 455  298.0739
 456  319.1257
 457  371.3877
 458  307.9477
 459  264.3022
 460  174.2789
 461  159.3366
 462  258.3628
 463  327.7815
 464  470.2896
 465  288.0506
 466  216.8683
 467  334.7935
 468  243.6776
 469  315.2203
 470  368.6071
 471  395.0816
 472  226.8259
 473  63.58009
 474  231.1831
 475  241.8034
 476  95.44826
 477  67.65959
 478  163.6296
 479  203.9225
 480  78.4075
 481  49.77306
 482  174.8954
 483  252.2166
 484  286.8034
 485  334.8288
 486  259.3962
 487  187.9677
 488  247.8514
 489  251.4974
 490  334.9813
 491  381.2638
 492  410.4001
 493  416.1194
 494  299.2172
 495  116.7623
 496  240.4133
 497  211.6808
 498  247.4304
 499  246.5704
 500  200.8483
 501  256.7638
 502  309.9717
 503  250.4867
 504  304.0283
 505  351.9075
 506  397.8398
 507  377.1837
 508  481.9221
 509  846.9244
 510  965.2972
 511  1173.164
