# Input file       =  1192212944.130537_cleaned.dat
# Candidate        =  PSR_0332+5434
# Telescope        =  AR
# Epoch_topo       =  58042.761147344179
# Epoch_bary       =  N/A
# T_sample         =  0.002
# Data Folded      =  7405568
# Data Avg         =  0.0809519367109143
# Data StdDev      =  3.09444023445352 
# Profile Bins     =  1024
# Profile Avg      =  585.269067240165 
# Profile StdDev   =  263.15480720827  
# Reduced chi-sqr  =  0.848
# Prob(Noise)      <  1   (~0.0 sigma)
# P_topo (ms)      =  714.482844676302  +/- 0.000139
# P'_topo (s/s)    =  -0                +/- 7.29e-11
# P''_topo (s/s^2) =  0                 +/- 3.19e-14
# P_bary (ms)      =  N/A
# P'_bary (s/s)    =  N/A
# P''_bary (s/s^2) =  N/A
# P_orb (s)        =  N/A
# asin(i)/c (s)    =  N/A
# eccentricity     =  N/A
# w (rad)          =  N/A
# T_peri           =  N/A
######################################################
   0  628.4846
   1  710.9926
   2  779.6006
   3  630.0489
   4  485.9666
   5  575.6436
   6  618.9079
   7  659.5791
   8  594.6774
   9  611.3988
  10  581.4464
  11  522.1799
  12  553.2115
  13  502.7846
  14  493.8404
  15  551.0871
  16  697.3577
  17  748.5765
  18  681.3217
  19  726.4767
  20  675.2454
  21  763.8559
  22  599.1919
  23  618.8852
  24  526.5835
  25  461.6759
  26  448.5182
  27  543.8929
  28  647.3688
  29  578.2525
  30  465.2794
  31  373.7586
  32  369.8628
  33  400.1285
  34  517.7553
  35  604.4225
  36  497.377
  37  483.5123
  38  354.3007
  39  337.4938
  40  485.1537
  41  662.8514
  42  737.0086
  43  623.0617
  44  608.476
  45  748.8019
  46  776.3592
  47  760.7769
  48  685.3232
  49  623.9831
  50  529.2168
  51  490.4815
  52  607.572
  53  624.8072
  54  546.7294
  55  540.5474
  56  628.3126
  57  564.5553
  58  535.5765
  59  584.4375
  60  660.7343
  61  643.5085
  62  629.9928
  63  601.4211
  64  688.0303
  65  707.9364
  66  738.8507
  67  692.2065
  68  700.3036
  69  713.3184
  70  746.7537
  71  753.162
  72  614.3661
  73  596.5214
  74  595.864
  75  622.5959
  76  576.6923
  77  672.9874
  78  605.5662
  79  509.7389
  80  466.2425
  81  612.4762
  82  651.2336
  83  674.5854
  84  618.4271
  85  632.8368
  86  630.0033
  87  656.9209
  88  730.7897
  89  728.8719
  90  655.0871
  91  529.5038
  92  425.6279
  93  477.5086
  94  624.58
  95  621.3173
  96  586.7697
  97  448.0691
  98  644.3427
  99  761.3301
 100  793.6366
 101  794.7639
 102  858.3823
 103  876.1179
 104  689.5772
 105  623.1554
 106  619.4008
 107  698.1266
 108  669.5401
 109  649.738
 110  632.6844
 111  613.7166
 112  566.347
 113  520.394
 114  487.1978
 115  555.7812
 116  554.6275
 117  636.0508
 118  615.694
 119  597.3624
 120  562.2946
 121  511.057
 122  582.7379
 123  586.108
 124  595.4408
 125  526.8658
 126  500.0641
 127  459.2241
 128  381.5341
 129  519.1348
 130  552.3621
 131  631.334
 132  670.7476
 133  835.5112
 134  813.3613
 135  716.7788
 136  764.2932
 137  783.1293
 138  616.7484
 139  481.0744
 140  309.5364
 141  335.5043
 142  395.7182
 143  633.6597
 144  588.0215
 145  635.3842
 146  624.5553
 147  696.4271
 148  690.0551
 149  792.9503
 150  881.4878
 151  929.9429
 152  659.954
 153  629.3596
 154  511.9839
 155  540.0783
 156  384.0811
 157  294.091
 158  376.8719
 159  446.9958
 160  586.6196
 161  604.1762
 162  560.4626
 163  484.922
 164  532.2919
 165  520.9231
 166  502.9038
 167  522.1472
 168  603.0036
 169  592.1411
 170  563.8536
 171  599.3375
 172  535.9055
 173  362.7366
 174  366.3024
 175  502.4254
 176  525.5593
 177  478.3656
 178  502.4342
 179  619.6006
 180  626.5311
 181  496.5759
 182  356.8649
 183  286.9557
 184  320.0795
 185  461.2622
 186  402.757
 187  375.58
 188  383.9101
 189  511.2661
 190  677.9888
 191  596.922
 192  525.3308
 193  497.2616
 194  560.2473
 195  543.8821
 196  434.0935
 197  427.5077
 198  341.8409
 199  365.0117
 200  466.7679
 201  564.9898
 202  526.5505
 203  482.5667
 204  555.4625
 205  495.6492
 206  371.6646
 207  378.618
 208  470.7456
 209  535.2083
 210  618.3333
 211  743.8284
 212  735.2143
 213  620.6525
 214  651.6868
 215  769.9907
 216  864.1066
 217  855.6616
 218  783.7965
 219  721.1833
 220  635.1537
 221  661.3456
 222  746.3527
 223  741.0499
 224  616.2043
 225  509.9129
 226  432.9565
 227  405.9829
 228  439.3285
 229  496.1338
 230  486.0455
 231  461.8347
 232  574.9198
 233  634.2917
 234  643.178
 235  610.6339
 236  635.2146
 237  645.6234
 238  573.2592
 239  628.0815
 240  528.235
 241  593.1337
 242  436.8701
 243  392.9322
 244  342.9592
 245  437.7875
 246  484.0248
 247  607.1922
 248  598.6439
 249  688.1643
 250  565.9265
 251  624.213
 252  515.3505
 253  554.0492
 254  605.2656
 255  723.136
 256  618.9735
 257  575.3043
 258  564.1484
 259  603.3402
 260  576.9153
 261  539.5057
 262  560.5015
 263  507.7328
 264  498.2693
 265  540.5099
 266  552.4923
 267  499.5084
 268  515.2139
 269  629.6672
 270  691.6335
 271  649.6556
 272  738.8469
 273  644.7484
 274  510.1543
 275  411.0637
 276  547.7828
 277  597.2986
 278  519.0694
 279  607.7
 280  608.7256
 281  684.0754
 282  688.9561
 283  719.2253
 284  683.2984
 285  679.0967
 286  627.9958
 287  611.3583
 288  566.77
 289  517.3362
 290  397.4939
 291  335.9369
 292  384.2799
 293  450.3426
 294  588.147
 295  633.2515
 296  661.0977
 297  660.989
 298  650.8581
 299  629.241
 300  614.2015
 301  636.053
 302  648.7133
 303  650.0305
 304  596.8917
 305  549.2106
 306  563.5117
 307  592.633
 308  594.5818
 309  552.0815
 310  433.2613
 311  465.7827
 312  534.879
 313  693.6992
 314  761.8133
 315  702.7426
 316  571.0937
 317  468.4842
 318  546.8699
 319  560.6035
 320  503.7415
 321  376.6844
 322  438.6539
 323  554.4606
 324  648.0375
 325  553.6475
 326  506.4924
 327  599.1666
 328  682.0788
 329  626.8886
 330  531.1321
 331  536.8218
 332  531.223
 333  661.3061
 334  714.2431
 335  817.9177
 336  699.1353
 337  627.4174
 338  637.9841
 339  529.2294
 340  448.0824
 341  465.4517
 342  583.4801
 343  612.9608
 344  482.5989
 345  504.9648
 346  627.2161
 347  689.3772
 348  583.9967
 349  571.5262
 350  630.9886
 351  682.846
 352  614.7268
 353  441.3713
 354  381.0345
 355  431.2647
 356  505.2419
 357  556.9268
 358  419.5928
 359  400.6387
 360  320.9872
 361  348.2905
 362  398.7536
 363  462.3309
 364  554.0312
 365  495.5981
 366  545.6676
 367  512.0731
 368  498.6472
 369  498.1649
 370  627.8763
 371  748.3243
 372  681.9343
 373  509.4473
 374  446.3181
 375  419.8719
 376  525.3105
 377  457.5819
 378  583.1863
 379  672.8092
 380  780.536
 381  791.7317
 382  751.7463
 383  775.5118
 384  789.5861
 385  667.555
 386  564.4246
 387  525.1406
 388  655.2499
 389  621.374
 390  556.5325
 391  515.0097
 392  475.0257
 393  402.7585
 394  345.701
 395  552.8648
 396  652.41
 397  703.597
 398  637.1196
 399  653.7861
 400  694.2122
 401  722.1708
 402  743.7834
 403  807.017
 404  665.0881
 405  672.2864
 406  579.9255
 407  606.0444
 408  475.4417
 409  488.6486
 410  589.0526
 411  729.0283
 412  825.5007
 413  878.1626
 414  724.9858
 415  685.8732
 416  647.7164
 417  624.5222
 418  533.6891
 419  442.2768
 420  501.2257
 421  448.5706
 422  460.3025
 423  541.2129
 424  609.2916
 425  602.4697
 426  433.7592
 427  358.4704
 428  317.1378
 429  397.484
 430  521.6807
 431  501.1664
 432  547.6718
 433  432.1692
 434  452.7053
 435  336.8718
 436  258.9824
 437  305.4014
 438  485.2975
 439  571.4245
 440  545.4748
 441  458.2278
 442  552.2604
 443  594.2006
 444  591.3696
 445  415.7335
 446  394.8395
 447  509.4001
 448  546.369
 449  558.3592
 450  474.8621
 451  530.0404
 452  524.7719
 453  660.3586
 454  600.6813
 455  506.617
 456  345.6344
 457  407.4732
 458  397.2549
 459  417.7459
 460  406.7504
 461  512.7875
 462  567.1864
 463  559.1945
 464  584.3354
 465  702.0002
 466  630.9586
 467  529.5455
 468  378.8856
 469  453.5467
 470  522.3428
 471  680.0947
 472  743.8864
 473  679.3341
 474  559.941
 475  551.0107
 476  645.6298
 477  633.7592
 478  593.3301
 479  548.238
 480  545.8168
 481  542.6071
 482  605.3912
 483  714.3108
 484  694.1716
 485  681.328
 486  672.6018
 487  592.488
 488  466.2441
 489  488.3464
 490  621.0518
 491  685.0632
 492  634.4954
 493  693.3448
 494  686.0667
 495  655.0797
 496  595.0726
 497  563.3854
 498  523.4687
 499  524.5872
 500  529.3245
 501  531.4408
 502  492.6547
 503  611.6518
 504  634.0221
 505  622.2251
 506  435.1707
 507  522.2771
 508  637.6654
 509  737.0206
 510  639.0471
 511  591.4351
 512  563.2492
 513  549.9325
 514  535.6937
 515  510.024
 516  472.948
 517  496.6603
 518  475.8272
 519  436.1114
 520  510.5319
 521  598.1031
 522  669.605
 523  627.8781
 524  645.2138
 525  611.7632
 526  633.7629
 527  508.9532
 528  529.1424
 529  502.1884
 530  503.8123
 531  426.3195
 532  430.1142
 533  439.1498
 534  408.0244
 535  445.4802
 536  593.5554
 537  534.1332
 538  536.4133
 539  481.4519
 540  493.8138
 541  407.5248
 542  438.9843
 543  528.8088
 544  644.259
 545  717.4296
 546  826.6085
 547  735.1266
 548  694.6001
 549  534.3276
 550  545.296
 551  577.613
 552  539.4163
 553  572.3284
 554  621.3952
 555  648.4849
 556  565.2897
 557  456.399
 558  494.9651
 559  539.1522
 560  652.7501
 561  692.6085
 562  695.6246
 563  805.1522
 564  893.812
 565  808.7587
 566  669.1998
 567  710.9844
 568  703.3718
 569  655.0586
 570  533.6497
 571  650.975
 572  657.5887
 573  719.4013
 574  620.5701
 575  521.7573
 576  573.2458
 577  722.3418
 578  795.4225
 579  816.0481
 580  794.9588
 581  764.7003
 582  676.0381
 583  653.7437
 584  554.4823
 585  511.9586
 586  468.9579
 587  446.3626
 588  522.3978
 589  541.584
 590  545.2297
 591  513.616
 592  539.3073
 593  618.8059
 594  609.1069
 595  628.7422
 596  759.3943
 597  757.6905
 598  663.2233
 599  543.9896
 600  590.0028
 601  731.7686
 602  690.1766
 603  585.3477
 604  467.8718
 605  508.6755
 606  486.8537
 607  477.5872
 608  524.4258
 609  591.105
 610  693.8363
 611  782.1266
 612  692.9742
 613  500.8332
 614  382.0943
 615  451.7799
 616  569.0039
 617  615.3007
 618  618.4797
 619  592.4404
 620  537.4626
 621  475.5448
 622  434.5954
 623  458.86
 624  537.3708
 625  534.4221
 626  563.5144
 627  641.1443
 628  756.9274
 629  774.6955
 630  680.7079
 631  730.274
 632  931.9996
 633  1090.13
 634  1198.447
 635  1219.957
 636  1386.649
 637  1527.055
 638  1535.44
 639  1377.901
 640  1202.197
 641  1070.164
 642  1073.64
 643  934.7523
 644  821.6341
 645  644.4636
 646  527.3842
 647  532.4149
 648  620.1133
 649  627.3521
 650  594.499
 651  452.5196
 652  430.6735
 653  558.92
 654  666.4791
 655  575.2484
 656  429.8175
 657  416.9742
 658  415.28
 659  293.8174
 660  363.8171
 661  574.0085
 662  607.5884
 663  510.4963
 664  401.8336
 665  612.0089
 666  671.4316
 667  816.0475
 668  615.7895
 669  609.4376
 670  409.6057
 671  567.7209
 672  652.2317
 673  687.8773
 674  580.9711
 675  529.8626
 676  544.6859
 677  504.3228
 678  479.457
 679  648.8406
 680  615.5183
 681  548.7607
 682  521.4792
 683  596.0661
 684  658.7006
 685  649.855
 686  626.7849
 687  686.4164
 688  630.8017
 689  569.8163
 690  594.2198
 691  714.8193
 692  723.6564
 693  586.0778
 694  488.8846
 695  427.3213
 696  381.3794
 697  420.0028
 698  468.8001
 699  460.0826
 700  467.2903
 701  593.0247
 702  768.9592
 703  789.643
 704  792.4474
 705  726.9774
 706  747.5326
 707  736.6616
 708  766.6236
 709  666.5025
 710  640.322
 711  695.0762
 712  781.1665
 713  737.8272
 714  645.7401
 715  631.4831
 716  687.0504
 717  696.2557
 718  708.2599
 719  751.0567
 720  699.9887
 721  453.1326
 722  313.3539
 723  336.6499
 724  417.0078
 725  503.4781
 726  615.4624
 727  840.4836
 728  795.0336
 729  654.2068
 730  525.2287
 731  569.577
 732  584.3726
 733  595.628
 734  633.1604
 735  592.5057
 736  601.1256
 737  640.864
 738  792.1945
 739  679.8726
 740  615.3115
 741  500.5387
 742  499.6174
 743  415.1994
 744  555.697
 745  685.5372
 746  653.7277
 747  584.184
 748  517.201
 749  468.9667
 750  630.2219
 751  683.0182
 752  640.7072
 753  405.7561
 754  352.6157
 755  416.4917
 756  446.55
 757  553.7709
 758  645.3193
 759  675.0563
 760  589.6174
 761  551.199
 762  493.4099
 763  535.0875
 764  539.717
 765  575.8061
 766  514.8838
 767  449.4349
 768  332.1122
 769  309.1967
 770  288.5788
 771  390.3946
 772  479.8347
 773  626.1405
 774  644.608
 775  655.5769
 776  625.9179
 777  654.9338
 778  741.2072
 779  782.2317
 780  637.7431
 781  524.679
 782  529.9475
 783  639.5037
 784  724.0383
 785  670.4033
 786  720.2526
 787  639.7732
 788  621.8081
 789  591.5089
 790  587.6165
 791  532.8916
 792  486.6529
 793  647.4127
 794  784.6518
 795  776.9824
 796  555.6263
 797  459.3432
 798  469.2239
 799  538.1909
 800  554.6655
 801  476.0765
 802  403.9027
 803  365.1942
 804  438.4374
 805  481.2597
 806  518.14
 807  539.6566
 808  605.4993
 809  697.6409
 810  703.3861
 811  725.1467
 812  680.5231
 813  629.2299
 814  603.7006
 815  615.0117
 816  598.4512
 817  547.0143
 818  524.1507
 819  475.8028
 820  453.2399
 821  506.4447
 822  489.1957
 823  427.5237
 824  439.8709
 825  560.7169
 826  567.3128
 827  617.0027
 828  699.2896
 829  726.6147
 830  732.5667
 831  725.1788
 832  731.1807
 833  642.313
 834  569.9836
 835  718.4832
 836  662.4636
 837  579.6418
 838  587.5953
 839  718.1118
 840  755.7964
 841  709.3494
 842  580.2546
 843  606.3809
 844  520.6553
 845  582.5503
 846  668.4103
 847  749.8145
 848  698.2523
 849  675.4751
 850  596.7948
 851  555.0972
 852  450.9009
 853  463.3409
 854  577.7541
 855  647.2095
 856  760.3553
 857  636.7748
 858  663.8221
 859  668.3671
 860  663.4664
 861  543.2483
 862  565.1229
 863  584.0303
 864  521.3824
 865  455.3923
 866  444.8803
 867  507.2238
 868  476.5996
 869  469.0422
 870  417.3305
 871  524.9238
 872  623.4108
 873  761.384
 874  682.1451
 875  705.0292
 876  616.9312
 877  645.5969
 878  595.8257
 879  634.448
 880  649.0755
 881  574.5685
 882  491.7995
 883  426.4114
 884  399.421
 885  362.81
 886  320.4485
 887  499.2134
 888  651.644
 889  713.2067
 890  598.9222
 891  469.4505
 892  439.5677
 893  495.0174
 894  496.5551
 895  513.6943
 896  513.0737
 897  496.7016
 898  462.106
 899  397.3616
 900  500.518
 901  510.3506
 902  548.1026
 903  506.1862
 904  494.0665
 905  520.3118
 906  484.7551
 907  587.8312
 908  634.946
 909  626.8951
 910  507.4514
 911  505.3762
 912  586.5299
 913  616.1292
 914  645.3582
 915  585.0479
 916  534.9422
 917  446.0613
 918  532.4082
 919  611.79
 920  717.4559
 921  667.5986
 922  637.8766
 923  662.1996
 924  692.5258
 925  645.967
 926  531.2228
 927  552.6582
 928  614.1467
 929  603.7401
 930  595.0865
 931  572.3333
 932  616.6747
 933  444.7231
 934  395.8634
 935  457.6974
 936  573.8188
 937  725.7659
 938  772.4774
 939  861.449
 940  830.2959
 941  850.2704
 942  814.5817
 943  759.3969
 944  679.241
 945  768.4432
 946  669.4707
 947  504.7093
 948  411.2462
 949  540.8268
 950  552.5322
 951  447.2523
 952  440.0098
 953  510.2614
 954  650.4553
 955  661.2661
 956  764.7706
 957  641.826
 958  556.1024
 959  541.8986
 960  558.222
 961  520.6408
 962  498.735
 963  581.7236
 964  739.7764
 965  675.3546
 966  547.6402
 967  367.9658
 968  419.0356
 969  432.8673
 970  467.3287
 971  467.7113
 972  610.2975
 973  654.9365
 974  683.664
 975  511.6798
 976  576.6693
 977  622.1199
 978  699.6922
 979  617.4681
 980  670.9406
 981  673.2955
 982  644.3008
 983  510.1584
 984  551.3304
 985  570.1993
 986  715.2928
 987  737.3981
 988  727.5256
 989  574.5389
 990  473.079
 991  514.4618
 992  686.2675
 993  816.5328
 994  723.8322
 995  517.2651
 996  413.9667
 997  361.93
 998  410.8552
 999  495.9033
1000  524.5186
1001  491.7997
1002  404.3649
1003  438.0936
1004  488.2524
1005  600.3052
1006  615.6979
1007  674.0162
1008  667.4246
1009  568.5628
1010  473.9348
1011  432.908
1012  392.2479
1013  396.9026
1014  490.2336
1015  611.4338
1016  581.552
1017  450.7445
1018  397.243
1019  427.9912
1020  421.0403
1021  480.6805
1022  564.7667
1023  614.7197
