# Input file       =  1192299056.166723_cleaned.dat
# Candidate        =  PSR_0332+5434
# Telescope        =  AR
# Epoch_topo       =  58043.757814429664
# Epoch_bary       =  N/A
# T_sample         =  0.002
# Data Folded      =  7208960
# Data Avg         =  0.0868649734289978
# Data StdDev      =  3.58593297871068 
# Profile Bins     =  512
# Profile Avg      =  1223.04167172917 
# Profile StdDev   =  425.503851704649 
# Reduced chi-sqr  =  0.716
# Prob(Noise)      <  1   (~0.0 sigma)
# P_topo (ms)      =  714.483606986274  +/- 0.00108
# P'_topo (s/s)    =  -0                +/- 5.81e-10
# P''_topo (s/s^2) =  0                 +/- 2.61e-13
# P_bary (ms)      =  N/A
# P'_bary (s/s)    =  N/A
# P''_bary (s/s^2) =  N/A
# P_orb (s)        =  N/A
# asin(i)/c (s)    =  N/A
# eccentricity     =  N/A
# w (rad)          =  N/A
# T_peri           =  N/A
######################################################
   0  1483.482
   1  1512.128
   2  1434.967
   3  1194.681
   4  1264.545
   5  1164.202
   6  1183.454
   7  1311.994
   8  1360.145
   9  1142.964
  10  1413.479
  11  1511.734
  12  1102.856
  13  1200.303
  14  1146.357
  15  1428.763
  16  1344.745
  17  1218.451
  18  1030.623
  19  644.3901
  20  979.4148
  21  1049.515
  22  1109.871
  23  991.5316
  24  1247.199
  25  1220.977
  26  1206.351
  27  1079.926
  28  1150.631
  29  1145.58
  30  1077.033
  31  902.9113
  32  1042.02
  33  1145.134
  34  738.4337
  35  1000.4
  36  1182.11
  37  775.5839
  38  833.5998
  39  954.1186
  40  1026.365
  41  1013.268
  42  1393.775
  43  1386.699
  44  1060.723
  45  576.5732
  46  752.7141
  47  723.3158
  48  1071.708
  49  1195.394
  50  1550.813
  51  1255.161
  52  937.585
  53  1142.552
  54  1232.372
  55  1352.97
  56  1087.797
  57  1070.108
  58  815.9505
  59  761.1406
  60  811.288
  61  1101.93
  62  1056.251
  63  940.4821
  64  1173.874
  65  1086.43
  66  877.1988
  67  899.199
  68  1266.05
  69  1176.824
  70  819.2715
  71  1135.391
  72  1114.197
  73  1020.15
  74  1002.079
  75  1081.787
  76  946.8043
  77  933.1646
  78  1048.912
  79  1012.727
  80  742.5828
  81  809.8177
  82  1348.719
  83  1401.031
  84  1484.167
  85  1414.991
  86  1115.526
  87  773.0074
  88  644.0057
  89  1227.683
  90  1204.426
  91  1044.536
  92  973.81
  93  1237.121
  94  1130.646
  95  1041.901
  96  1410.694
  97  1261.441
  98  1186.941
  99  1179.811
 100  1309.654
 101  1481.377
 102  1249.106
 103  982.0213
 104  1149.163
 105  1454.467
 106  1340.005
 107  1252.432
 108  1233.404
 109  1215.893
 110  1421.552
 111  1200.112
 112  1348.851
 113  1339.282
 114  1330.939
 115  1484.344
 116  1197.787
 117  1175.676
 118  830.9185
 119  1128.038
 120  1148.724
 121  965.261
 122  1038.721
 123  1032.925
 124  1292.616
 125  1072.044
 126  1267.296
 127  1241.477
 128  1478.948
 129  1550.879
 130  1226.294
 131  827.6436
 132  655.742
 133  810.6993
 134  1125.964
 135  1288.031
 136  1238.896
 137  1220.144
 138  988.3663
 139  967.3557
 140  734.3789
 141  919.2297
 142  1070.034
 143  1359.935
 144  1186.237
 145  1034.276
 146  1103.169
 147  1124.963
 148  1188.485
 149  1223.866
 150  1286.97
 151  1091.22
 152  1086.986
 153  1109.436
 154  1364.614
 155  1403.727
 156  936.7106
 157  833.0187
 158  1095.915
 159  1122.944
 160  1219.431
 161  1200.64
 162  1168.706
 163  1429.849
 164  1289.614
 165  1153.721
 166  897.404
 167  1015.724
 168  1189.396
 169  1109.229
 170  1141.539
 171  1367.517
 172  1186.992
 173  1144.07
 174  1136.641
 175  1014.717
 176  1137.806
 177  1174.598
 178  1381.052
 179  1359.847
 180  1232.283
 181  1286.199
 182  1206.025
 183  995.1845
 184  960.3124
 185  1118.399
 186  1424.346
 187  1439.052
 188  1315.197
 189  1280.341
 190  1355.211
 191  1459.983
 192  1489.715
 193  1584.263
 194  1221.056
 195  1244.394
 196  1192.084
 197  1211.578
 198  1320.331
 199  1493.918
 200  1507.797
 201  1268.984
 202  1518.507
 203  1129.907
 204  1217.967
 205  1234.396
 206  1050.372
 207  835.64
 208  1106.569
 209  1059.878
 210  706.275
 211  1073.873
 212  1117.683
 213  1279.384
 214  1214.785
 215  1266.4
 216  1238.882
 217  1133.642
 218  1441.854
 219  1419.151
 220  1331.291
 221  1374.362
 222  1133.469
 223  1204.597
 224  1293.707
 225  1386.408
 226  1779.604
 227  1223.758
 228  1031.206
 229  1153.393
 230  1135.503
 231  896.3791
 232  1199.464
 233  1579.669
 234  1603.901
 235  1504.553
 236  1089.154
 237  1071.532
 238  838.1831
 239  954.6224
 240  1025.001
 241  943.7937
 242  1213.699
 243  1325.645
 244  1354.829
 245  1143.714
 246  918.2002
 247  876.6344
 248  1035.831
 249  966.805
 250  801.5045
 251  998.9037
 252  1476.956
 253  1456.353
 254  1339.002
 255  1118.591
 256  1109.014
 257  1633.75
 258  1652.511
 259  1438.259
 260  1368.163
 261  1069.141
 262  1338.59
 263  963.484
 264  1052.692
 265  1126.834
 266  1333.179
 267  1607.502
 268  1230.166
 269  1230.1
 270  1247.226
 271  1377.329
 272  1015.015
 273  1299.958
 274  1486.102
 275  1232.325
 276  1245.819
 277  1302.974
 278  1465.944
 279  1120.96
 280  1382.279
 281  1290.131
 282  1321.98
 283  1100.333
 284  1256.497
 285  1267.732
 286  1154.2
 287  1179.538
 288  940.4425
 289  1335.875
 290  1516.111
 291  1200.967
 292  1171.522
 293  1203.684
 294  1079.584
 295  1170.91
 296  922.8456
 297  1068.965
 298  1417.259
 299  1244.057
 300  1461.503
 301  1590.87
 302  1539.301
 303  1184.225
 304  1134.38
 305  1286.599
 306  1393.14
 307  1515.438
 308  1413.946
 309  1427.977
 310  1422.18
 311  1563.893
 312  1635.305
 313  1375.275
 314  1519.947
 315  2078.538
 316  2410.998
 317  2898.034
 318  3247.734
 319  3058.507
 320  2422.448
 321  1611.933
 322  1063.932
 323  1143.175
 324  1395.779
 325  1512.304
 326  1644.999
 327  1438.025
 328  1122.198
 329  1373.035
 330  1444.451
 331  1499.828
 332  1529.792
 333  1729.255
 334  1488.728
 335  1076.975
 336  1440.849
 337  1360.635
 338  758.7354
 339  1015.112
 340  1037.32
 341  1046.31
 342  885.4467
 343  1094.814
 344  1100.086
 345  1204.304
 346  1027.968
 347  1110.602
 348  848.3867
 349  1190.16
 350  1264.5
 351  1200.627
 352  1114.224
 353  1063.88
 354  1226.268
 355  1116.689
 356  1392.727
 357  1428.97
 358  1194.892
 359  1076.178
 360  1158.425
 361  1173.682
 362  959.1855
 363  1292.871
 364  1390.936
 365  1301.193
 366  1306.151
 367  1301.755
 368  1092.908
 369  1371.813
 370  1182.881
 371  1260.14
 372  1199.843
 373  1456.454
 374  1528.121
 375  1120.795
 376  1456.994
 377  1306.518
 378  1111.088
 379  1118.22
 380  1369.145
 381  1258.155
 382  1530.12
 383  1361.86
 384  1195.008
 385  1106.596
 386  1138.183
 387  1283.423
 388  1206.477
 389  1211.971
 390  1082.906
 391  1079.578
 392  1218.942
 393  1657.044
 394  1406.43
 395  1272.862
 396  1230.958
 397  1546.721
 398  1217.908
 399  895.4455
 400  850.2043
 401  1259.065
 402  1581.56
 403  1251.412
 404  1054.461
 405  1012.58
 406  1034.039
 407  1203.372
 408  1295.833
 409  1599.151
 410  1550.902
 411  1198.648
 412  985.1575
 413  1040.839
 414  1321.959
 415  1407.924
 416  1316.149
 417  1336.542
 418  1362.347
 419  1304.822
 420  1070.273
 421  1262.69
 422  1117.618
 423  1194.89
 424  1131.267
 425  1115.214
 426  1342.803
 427  1400.801
 428  1306.775
 429  1273.156
 430  1369.905
 431  1412.242
 432  1227.922
 433  972.0484
 434  1227.229
 435  1436.132
 436  1280.599
 437  1296.259
 438  1489.978
 439  1143.998
 440  1633.713
 441  1230.625
 442  954.426
 443  1035.25
 444  943.4379
 445  861.3626
 446  1018.171
 447  1207.269
 448  1026.983
 449  1073.794
 450  1052.602
 451  963.8719
 452  1033.284
 453  1233.021
 454  1124.831
 455  1305.728
 456  1439.094
 457  1245.457
 458  1344.59
 459  1159.381
 460  1166.771
 461  1171.891
 462  1296.324
 463  1116.584
 464  975.1401
 465  1364.195
 466  1227.886
 467  1377.099
 468  1483.893
 469  1161.319
 470  1044.741
 471  1020.887
 472  989.0466
 473  1351.589
 474  1387.369
 475  1128.777
 476  1144.627
 477  1015.818
 478  1253.31
 479  1310.189
 480  1352.624
 481  985.2466
 482  1293.642
 483  1621.49
 484  1538.108
 485  1113.34
 486  1186.467
 487  1173.743
 488  1273.5
 489  1609.61
 490  1572.182
 491  1509.217
 492  1368.179
 493  1547.475
 494  1513.282
 495  1240.728
 496  889.2512
 497  949.2598
 498  1118.662
 499  1518.489
 500  1202.244
 501  1091.178
 502  1299.751
 503  1196.429
 504  1190.683
 505  1288.846
 506  1394.759
 507  1474.307
 508  1428.471
 509  1278.065
 510  1053.314
 511  1165.546
