# Input file       =  1192658309.14104_cleaned.dat
# Candidate        =  PSR_0332+5434
# Telescope        =  AR
# Epoch_topo       =  58047.915834965745
# Epoch_bary       =  N/A
# T_sample         =  0.002
# Data Folded      =  7340032
# Data Avg         =  0.0258240400871728
# Data StdDev      =  2.03832293666647 
# Profile Bins     =  1024
# Profile Avg      =  185.092425444934 
# Profile StdDev   =  172.572658625867 
# Reduced chi-sqr  =  1.611
# Prob(Noise)      <  4.41e-32   (~11.7 sigma)
# P_topo (ms)      =  714.486931639023  +/- 0.000171
# P'_topo (s/s)    =  -0                +/- 9e-11
# P''_topo (s/s^2) =  0                 +/- 3.97e-14
# P_bary (ms)      =  N/A
# P'_bary (s/s)    =  N/A
# P''_bary (s/s^2) =  N/A
# P_orb (s)        =  N/A
# asin(i)/c (s)    =  N/A
# eccentricity     =  N/A
# w (rad)          =  N/A
# T_peri           =  N/A
######################################################
   0  166.6939
   1  159.1094
   2  195.3639
   3  134.3069
   4  110.4512
   5  149.2678
   6  279.6759
   7  354.3279
   8  272.9734
   9  130.9337
  10  161.789
  11  207.9505
  12  275.963
  13  215.8501
  14  204.0198
  15  175.3574
  16  141.035
  17  47.05959
  18  17.90935
  19  61.64262
  20  186.1882
  21  316.1841
  22  270.9315
  23  166.9197
  24  2.695473
  25  54.02441
  26  167.0033
  27  199.8052
  28  214.4165
  29  131.7972
  30  201.0638
  31  221.3486
  32  327.4696
  33  261.1942
  34  226.6955
  35  269.6216
  36  356.6831
  37  332.4933
  38  176.2766
  39  221.8778
  40  273.9666
  41  277.3754
  42  186.3446
  43  135.19
  44  -4.161873
  45  -26.58048
  46  35.61375
  47  223.9207
  48  265.0574
  49  328.4535
  50  296.0704
  51  244.3421
  52  132.7052
  53  136.1736
  54  158.7113
  55  244.9481
  56  280.7318
  57  266.0339
  58  169.7987
  59  137.693
  60  145.0967
  61  183.8122
  62  202.8997
  63  236.6564
  64  243.1654
  65  257.7706
  66  234.5426
  67  325.1581
  68  376.8997
  69  418.3698
  70  352.1374
  71  353.7861
  72  343.3163
  73  307.6505
  74  177.576
  75  101.6056
  76  73.86859
  77  106.9831
  78  171.6019
  79  139.1882
  80  51.1143
  81  55.10247
  82  87.42032
  83  73.25864
  84  24.51385
  85  115.6485
  86  195.9447
  87  192.4541
  88  235.866
  89  260.218
  90  237.3134
  91  195.2803
  92  302.9835
  93  442.0291
  94  412.3225
  95  274.0161
  96  135.0895
  97  172.5233
  98  208.3802
  99  207.3369
 100  142.9108
 101  237.4992
 102  294.8651
 103  338.5782
 104  266.031
 105  281.0063
 106  275.1901
 107  291.7408
 108  326.8327
 109  278.3886
 110  242.7322
 111  203.4711
 112  255.0706
 113  227.301
 114  189.1309
 115  215.2518
 116  238.0323
 117  240.7556
 118  218.2791
 119  282.2854
 120  297.3512
 121  197.8776
 122  126.485
 123  160.8235
 124  234.6954
 125  240.2815
 126  171.0826
 127  108.0502
 128  149.5837
 129  175.1909
 130  234.3892
 131  176.6653
 132  93.70534
 133  35.97003
 134  21.65582
 135  35.53313
 136  150.1215
 137  262.4576
 138  276.4198
 139  220.345
 140  234.1191
 141  239.3272
 142  238.0339
 143  211.8916
 144  176.3489
 145  181.2329
 146  146.5644
 147  144.0886
 148  103.2255
 149  222.9066
 150  337.7081
 151  313.6014
 152  241.9901
 153  183.0913
 154  274.5727
 155  252.1067
 156  247.8913
 157  214.832
 158  272.4789
 159  257.1886
 160  224.1674
 161  174.9991
 162  229.6451
 163  234.8454
 164  197.3244
 165  128.5455
 166  93.62867
 167  48.62428
 168  111.298
 169  115.7219
 170  261.5961
 171  141.7473
 172  113.3701
 173  105.7293
 174  190.0531
 175  256.4536
 176  134.7895
 177  116.2362
 178  67.95718
 179  132.7228
 180  130.2892
 181  94.50929
 182  86.63113
 183  189.6394
 184  237.9323
 185  222.1061
 186  216.8398
 187  157.0432
 188  183.2227
 189  137.9621
 190  230.0807
 191  167.3551
 192  126.5378
 193  92.19
 194  119.8376
 195  130.2032
 196  135.9168
 197  184.9569
 198  179.2902
 199  120.5377
 200  113.553
 201  88.96907
 202  50.8844
 203  7.54809
 204  87.57212
 205  199.9783
 206  228.0377
 207  175.5155
 208  172.2085
 209  199.7548
 210  271.2524
 211  198.2332
 212  253.8282
 213  224.651
 214  299.6896
 215  277.1586
 216  309.2139
 217  251.3486
 218  139.7387
 219  123.2284
 220  204.4327
 221  264.9963
 222  303.4585
 223  222.4933
 224  214.0343
 225  228.1244
 226  219.2358
 227  193.9103
 228  147.6878
 229  213.2849
 230  251.3486
 231  144.5107
 232  73.57119
 233  0.9631311
 234  141.4461
 235  210.8856
 236  267.8086
 237  233.7249
 238  260.3992
 239  278.6868
 240  236.7757
 241  179.9072
 242  132.5522
 243  136.7758
 244  71.60683
 245  29.91562
 246  78.65125
 247  121.2398
 248  120.1415
 249  108.261
 250  222.0984
 251  355.0485
 252  365.4332
 253  286.538
 254  218.6992
 255  178.9147
 256  166.0258
 257  204.1964
 258  218.2625
 259  190.8445
 260  120.3558
 261  134.2994
 262  95.89253
 263  117.2382
 264  87.55132
 265  104.8656
 266  99.48946
 267  112.5182
 268  202.1454
 269  193.3661
 270  114.0374
 271  101.8959
 272  130.1026
 273  250.4155
 274  288.5569
 275  255.5932
 276  177.5584
 277  117.8512
 278  140.2475
 279  111.6929
 280  143.3113
 281  169.7758
 282  216.6974
 283  111.7686
 284  56.83654
 285  -4.996266
 286  88.94977
 287  141.8761
 288  189.2207
 289  238.547
 290  239.6584
 291  189.0678
 292  116.2346
 293  182.3565
 294  216.4732
 295  256.6756
 296  193.7476
 297  220.8717
 298  212.6916
 299  144.8424
 300  55.22968
 301  29.47417
 302  119.1818
 303  189.1206
 304  284.049
 305  307.4542
 306  301.2733
 307  147.1673
 308  61.12631
 309  51.65279
 310  82.28194
 311  126.6072
 312  111.9236
 313  215.6393
 314  250.8842
 315  258.6011
 316  164.3792
 317  151.8825
 318  104.2589
 319  191.2042
 320  193.709
 321  264.8824
 322  255.2264
 323  176.5922
 324  108.3696
 325  8.558634
 326  28.72807
 327  143.8567
 328  242.9588
 329  167.8076
 330  99.1768
 331  106.6828
 332  188.0536
 333  177.216
 334  232.7043
 335  279.4647
 336  353.3834
 337  342.6611
 338  275.0146
 339  138.5364
 340  33.99398
 341  6.007322
 342  131.9149
 343  225.4202
 344  227.708
 345  219.5429
 346  191.3105
 347  148.3763
 348  161.1909
 349  155.0439
 350  209.9163
 351  147.1612
 352  187.9184
 353  167.5634
 354  223.7614
 355  235.9201
 356  220.5646
 357  136.1042
 358  175.7304
 359  228.8168
 360  191.8854
 361  98.42574
 362  103.3596
 363  214.3933
 364  259.174
 365  248.2798
 366  246.2557
 367  317.0607
 368  348.8575
 369  228.5429
 370  172.019
 371  123.2277
 372  114.9303
 373  15.05575
 374  91.01537
 375  222.5361
 376  331.5378
 377  237.4339
 378  237.7928
 379  272.4539
 380  257.4607
 381  84.15649
 382  4.475471
 383  144.5972
 384  181.11
 385  196.4109
 386  112.3385
 387  115.1529
 388  165.106
 389  185.8992
 390  233.2719
 391  129.6045
 392  122.7199
 393  177.2283
 394  162.889
 395  109.2898
 396  32.35148
 397  105.8741
 398  121.952
 399  202.5096
 400  134.9145
 401  44.52884
 402  11.50294
 403  157.4154
 404  256.9059
 405  220.4758
 406  143.068
 407  130.8647
 408  189.2653
 409  166.5989
 410  66.50536
 411  -3.404774
 412  78.08883
 413  180.6259
 414  144.3007
 415  136.5037
 416  87.74165
 417  89.78922
 418  136.9399
 419  206.1082
 420  272.2595
 421  233.2008
 422  191.1984
 423  148.1011
 424  135.9115
 425  154.6
 426  104.081
 427  36.59858
 428  140.5255
 429  244.0621
 430  311.6592
 431  212.5204
 432  178.049
 433  155.5815
 434  213.0826
 435  187.5402
 436  175.6568
 437  110.5226
 438  144.6454
 439  114.6985
 440  140.2594
 441  122.9151
 442  122.4247
 443  146.8245
 444  194.6531
 445  258.3348
 446  302.6565
 447  189.542
 448  73.32111
 449  20.68757
 450  60.71966
 451  120.427
 452  125.5608
 453  131.3532
 454  170.3315
 455  161.7392
 456  165.3073
 457  151.776
 458  196.7926
 459  248.8908
 460  227.2243
 461  243.4118
 462  209.2966
 463  274.031
 464  225.5706
 465  183.4484
 466  83.02627
 467  105.3848
 468  250.8581
 469  320.0379
 470  315.4754
 471  253.3346
 472  291.1476
 473  343.2677
 474  357.3498
 475  283.4941
 476  230.0382
 477  158.3835
 478  197.42
 479  258.6553
 480  274.6835
 481  164.6245
 482  95.39056
 483  125.5603
 484  75.58829
 485  66.07835
 486  40.88061
 487  130.6807
 488  173.4292
 489  201.0582
 490  227.0578
 491  229.1768
 492  169.3091
 493  100.5123
 494  68.83907
 495  63.22649
 496  31.5658
 497  28.30483
 498  79.2378
 499  82.86913
 500  132.5171
 501  143.5736
 502  158.0835
 503  218.3362
 504  324.6201
 505  302.8174
 506  179.2503
 507  72.09837
 508  78.09401
 509  185.3637
 510  238.9495
 511  259.8316
 512  236.7782
 513  234.382
 514  325.3289
 515  331.9749
 516  451.1821
 517  353.593
 518  325.7738
 519  264.7518
 520  301.9773
 521  244.0746
 522  160.4072
 523  112.7083
 524  133.1871
 525  166.5022
 526  241.5572
 527  207.5432
 528  177.9521
 529  191.9566
 530  282.5143
 531  352.7847
 532  272.3514
 533  185.3406
 534  168.9253
 535  138.1483
 536  217.1568
 537  142.5326
 538  121.0808
 539  54.2329
 540  144.5728
 541  277.6921
 542  260.6433
 543  252.0201
 544  206.288
 545  206.8969
 546  142.2051
 547  176.6137
 548  241.2953
 549  287.7177
 550  255.1438
 551  206.7046
 552  171.0354
 553  241.4599
 554  252.0781
 555  250.581
 556  247.5889
 557  270.4823
 558  306.5224
 559  301.8734
 560  345.0854
 561  390.9469
 562  352.9926
 563  262.0577
 564  213.4986
 565  89.22903
 566  124.979
 567  171.6921
 568  269.389
 569  232.3303
 570  106.5284
 571  95.07855
 572  130.8481
 573  190.7092
 574  282.5586
 575  268.8046
 576  295.4697
 577  239.3145
 578  296.3412
 579  266.1375
 580  296.4442
 581  320.5804
 582  325.437
 583  297.2088
 584  236.0533
 585  183.3268
 586  204.0686
 587  121.3328
 588  128.2572
 589  125.6179
 590  219.3271
 591  168.3714
 592  61.00772
 593  49.23346
 594  112.6503
 595  153.9838
 596  169.3114
 597  175.5861
 598  194.3985
 599  103.1458
 600  92.21328
 601  157.7941
 602  171.5908
 603  209.6824
 604  214.7511
 605  215.6451
 606  182.8375
 607  202.6631
 608  284.6665
 609  217.3724
 610  205.4655
 611  157.8288
 612  172.5351
 613  94.17336
 614  102.3682
 615  133.1573
 616  133.1216
 617  138.3248
 618  183.7509
 619  217.1469
 620  185.8927
 621  217.525
 622  298.7262
 623  361.5801
 624  315.6239
 625  305.2512
 626  306.1465
 627  358.1991
 628  458.7283
 629  480.6235
 630  576.0852
 631  641.6824
 632  826.8045
 633  922.9416
 634  1091.624
 635  1147.997
 636  1239.329
 637  1221.083
 638  1181.406
 639  1043.971
 640  887.3568
 641  700.8493
 642  441.6606
 643  291.579
 644  230.6729
 645  234.7829
 646  207.2857
 647  264.05
 648  286.4205
 649  301.2726
 650  218.485
 651  178.9861
 652  98.46812
 653  14.47884
 654  58.22692
 655  121.6483
 656  245.1227
 657  263.3062
 658  348.9413
 659  315.5786
 660  243.886
 661  214.207
 662  250.2618
 663  260.4891
 664  226.7011
 665  166.8151
 666  155.7245
 667  124.3726
 668  97.62386
 669  72.23417
 670  133.8293
 671  169.0884
 672  189.485
 673  202.3852
 674  182.9983
 675  220.7776
 676  210.0502
 677  263.3651
 678  200.1325
 679  151.3396
 680  160.041
 681  212.6411
 682  119.3222
 683  23.49589
 684  -36.52051
 685  95.60217
 686  150.7891
 687  215.3029
 688  235.9752
 689  245.1867
 690  206.8262
 691  217.7682
 692  199.4335
 693  99.27821
 694  2.219541
 695  -15.01604
 696  130.2529
 697  247.8313
 698  253.5847
 699  233.5941
 700  185.4819
 701  227.7656
 702  271.8523
 703  278.4956
 704  239.6176
 705  124.5412
 706  178.9668
 707  115.784
 708  143.4902
 709  10.65548
 710  0.7753885
 711  8.688679
 712  56.5726
 713  118.9777
 714  96.96873
 715  106.6999
 716  157.9856
 717  181.4502
 718  166.6797
 719  128.6659
 720  168.6353
 721  157.7427
 722  163.4072
 723  216.123
 724  293.7073
 725  308.1045
 726  325.4073
 727  324.5098
 728  209.3875
 729  131.3831
 730  93.97392
 731  164.8126
 732  174.358
 733  206.2969
 734  183.5621
 735  125.3537
 736  109.2497
 737  168.6085
 738  201.8837
 739  142.8268
 740  87.24286
 741  73.47634
 742  125.5881
 743  217.9062
 744  194.5572
 745  141.4448
 746  114.0949
 747  202.9987
 748  269.8607
 749  289.2946
 750  185.4644
 751  108.3932
 752  110.4158
 753  190.3459
 754  190.7791
 755  114.7209
 756  138.6928
 757  174.7547
 758  201.2009
 759  66.11457
 760  78.88401
 761  87.90587
 762  158.2525
 763  137.4579
 764  101.7868
 765  42.72105
 766  9.053631
 767  143.2835
 768  158.3572
 769  95.6646
 770  -89.54655
 771  -77.21529
 772  -63.51846
 773  -60.64073
 774  4.666056
 775  88.02126
 776  106.1529
 777  6.352808
 778  30.35356
 779  110.9797
 780  136.0364
 781  163.2163
 782  208.6435
 783  249.6327
 784  197.8235
 785  132.3551
 786  107.4341
 787  111.3715
 788  181.2244
 789  218.4288
 790  168.2508
 791  66.76468
 792  61.70849
 793  7.030108
 794  1.659893
 795  46.07211
 796  48.5713
 797  94.53895
 798  168.4036
 799  277.2677
 800  208.5972
 801  157.6372
 802  177.0029
 803  254.9856
 804  148.6776
 805  38.94772
 806  30.8164
 807  151.9257
 808  232.5758
 809  168.6316
 810  130.7522
 811  57.10736
 812  4.91221
 813  13.25932
 814  137.5189
 815  214.6401
 816  243.774
 817  185.576
 818  158.9781
 819  201.9002
 820  275.783
 821  239.9773
 822  100.938
 823  81.76234
 824  87.13857
 825  78.759
 826  3.041666
 827  24.85955
 828  99.90874
 829  181.1071
 830  190.1238
 831  167.5502
 832  140.1427
 833  213.0417
 834  77.39755
 835  106.4825
 836  4.694561
 837  122.6792
 838  106.9268
 839  113.1947
 840  80.16273
 841  100.6406
 842  113.3029
 843  114.1192
 844  113.5681
 845  188.1044
 846  161.7631
 847  167.3608
 848  125.0919
 849  172.9566
 850  211.3132
 851  186.1402
 852  164.0597
 853  109.7741
 854  128.7353
 855  89.75898
 856  68.13443
 857  11.82591
 858  16.20006
 859  108.0845
 860  130.9992
 861  171.0815
 862  229.8597
 863  262.9377
 864  168.5255
 865  38.27905
 866  -0.2448206
 867  -37.26442
 868  7.390944
 869  84.42953
 870  171.5589
 871  224.2285
 872  236.0861
 873  316.9687
 874  281.7555
 875  242.435
 876  137.2806
 877  186.0498
 878  240.1641
 879  289.7056
 880  255.426
 881  145.093
 882  30.64438
 883  52.58876
 884  125.4246
 885  118.0939
 886  86.24807
 887  113.7675
 888  155.6296
 889  58.98013
 890  83.65181
 891  84.74507
 892  62.87763
 893  -38.73369
 894  44.40496
 895  173.1854
 896  263.8087
 897  316.122
 898  291.565
 899  262.7346
 900  242.03
 901  237.1441
 902  251.0647
 903  180.0542
 904  212.649
 905  200.4648
 906  166.4153
 907  50.69706
 908  71.78232
 909  173.3004
 910  307.6271
 911  296.8871
 912  244.7226
 913  96.05107
 914  31.77651
 915  91.7206
 916  164.6718
 917  228.3358
 918  223.7854
 919  253.0952
 920  195.2067
 921  137.5619
 922  99.67152
 923  119.6271
 924  160.0924
 925  211.3662
 926  222.2934
 927  213.7085
 928  205.7261
 929  246.1772
 930  251.6342
 931  182.1898
 932  125.8115
 933  118.0193
 934  181.082
 935  185.722
 936  245.9473
 937  265.916
 938  253.0513
 939  209.6143
 940  123.6105
 941  53.58233
 942  86.3346
 943  108.0656
 944  127.5204
 945  118.6528
 946  136.331
 947  137.2435
 948  113.1594
 949  112.3448
 950  149.3697
 951  176.7005
 952  178.2611
 953  152.1488
 954  119.5723
 955  104.5249
 956  141.0743
 957  166.7641
 958  273.2455
 959  250.1544
 960  261.5258
 961  248.9637
 962  235.4253
 963  167.5399
 964  56.97017
 965  128.3082
 966  189.5675
 967  268.8443
 968  203.3526
 969  192.9793
 970  185.709
 971  211.374
 972  189.965
 973  208.2855
 974  192.5765
 975  188.8847
 976  158.844
 977  176.7543
 978  89.35262
 979  35.74574
 980  106.3869
 981  216.0429
 982  229.7639
 983  172.6538
 984  241.8443
 985  254.2202
 986  193.6325
 987  119.901
 988  49.41369
 989  11.35573
 990  70.85914
 991  198.3986
 992  274.3605
 993  313.849
 994  268.3505
 995  253.9061
 996  164.7734
 997  172.1021
 998  139.2401
 999  165.5242
1000  106.8776
1001  201.0803
1002  198.5039
1003  197.6174
1004  157.9971
1005  98.33153
1006  111.706
1007  36.26418
1008  97.98104
1009  37.10071
1010  73.42641
1011  42.39037
1012  111.7584
1013  139.3701
1014  145.3611
1015  85.14929
1016  90.21628
1017  111.6881
1018  187.8888
1019  236.7159
1020  244.2575
1021  167.9657
1022  104.0609
1023  109.4655
