# Input file       =  1192313732.119416_cleaned.dat
# Candidate        =  PSR_0332+5434
# Telescope        =  AR
# Epoch_topo       =  58043.927674993240
# Epoch_bary       =  N/A
# T_sample         =  0.002
# Data Folded      =  7340032
# Data Avg         =  0.0404269180726259
# Data StdDev      =  2.3091949148658  
# Profile Bins     =  512
# Profile Avg      =  579.576493440935 
# Profile StdDev   =  276.48691874267  
# Reduced chi-sqr  =  1.955
# Prob(Noise)      <  6.39e-34   (~12.1 sigma)
# P_topo (ms)      =  714.483751054401  +/- 0.000221
# P'_topo (s/s)    =  -0                +/- 1.17e-10
# P''_topo (s/s^2) =  0                 +/- 5.16e-14
# P_bary (ms)      =  N/A
# P'_bary (s/s)    =  N/A
# P''_bary (s/s^2) =  N/A
# P_orb (s)        =  N/A
# asin(i)/c (s)    =  N/A
# eccentricity     =  N/A
# w (rad)          =  N/A
# T_peri           =  N/A
######################################################
   0  402.0843
   1  640.9952
   2  669.0038
   3  508.6514
   4  760.3825
   5  494.8333
   6  302.27
   7  417.5677
   8  597.2134
   9  525.2986
  10  357.0284
  11  461.421
  12  313.3705
  13  346.9293
  14  418.7568
  15  292.1949
  16  536.3307
  17  491.1713
  18  434.4549
  19  621.3666
  20  574.0114
  21  706.2724
  22  527.6694
  23  414.5589
  24  436.7807
  25  487.8992
  26  778.1387
  27  553.8715
  28  587.2636
  29  839.1394
  30  772.6067
  31  438.2719
  32  798.6167
  33  636.4017
  34  631.6493
  35  812.0364
  36  559.4906
  37  691.9631
  38  843.5927
  39  699.2298
  40  617.6437
  41  498.1618
  42  758.881
  43  842.9526
  44  791.2607
  45  562.147
  46  782.1187
  47  673.3456
  48  646.1428
  49  237.4159
  50  467.3677
  51  589.6824
  52  632.5034
  53  424.6733
  54  60.76122
  55  317.7767
  56  394.9982
  57  613.0742
  58  840.4325
  59  646.6274
  60  205.1648
  61  511.0012
  62  902.3482
  63  528.7543
  64  566.8521
  65  537.9995
  66  501.2392
  67  599.7593
  68  982.3702
  69  414.3036
  70  205.3398
  71  555.0754
  72  268.0791
  73  379.4549
  74  452.1292
  75  311.5062
  76  509.4537
  77  530.701
  78  534.209
  79  239.8985
  80  160.7689
  81  141.4633
  82  81.96212
  83  453.3314
  84  404.3253
  85  238.2404
  86  564.8698
  87  858.2029
  88  591.0345
  89  348.8296
  90  692.1797
  91  899.5923
  92  684.6662
  93  326.7903
  94  345.7537
  95  376.4501
  96  561.9601
  97  886.9401
  98  1107.758
  99  784.8106
 100  813.3129
 101  422.471
 102  337.8247
 103  474.6618
 104  561.087
 105  664.4025
 106  439.3979
 107  191.6144
 108  339.0503
 109  604.8613
 110  700.27
 111  286.1267
 112  556.6505
 113  600.6317
 114  335.3707
 115  127.2368
 116  236.0304
 117  594.3554
 118  570.7107
 119  421.9919
 120  325.7567
 121  364.5911
 122  479.5141
 123  656.1422
 124  545.2305
 125  648.996
 126  739.8401
 127  736.6804
 128  551.0407
 129  420.9802
 130  672.465
 131  485.5226
 132  580.9813
 133  747.6404
 134  522.2927
 135  361.9293
 136  354.2586
 137  642.1853
 138  552.4072
 139  623.1546
 140  536.4476
 141  713.0706
 142  501.5208
 143  270.1995
 144  330.0496
 145  350.3792
 146  659.9934
 147  719.3497
 148  329.1557
 149  378.2287
 150  744.7442
 151  915.4069
 152  964.3
 153  742.3193
 154  545.8074
 155  439.7628
 156  684.3844
 157  562.9215
 158  461.9934
 159  662.786
 160  393.0745
 161  468.9021
 162  489.7836
 163  653.1759
 164  628.1509
 165  108.6979
 166  343.1684
 167  538.2089
 168  720.7315
 169  489.5356
 170  414.2099
 171  278.0912
 172  373.5181
 173  505.7348
 174  540.1113
 175  431.4291
 176  802.6385
 177  642.1386
 178  653.0578
 179  481.4809
 180  520.2596
 181  697.5844
 182  592.9056
 183  612.04
 184  617.4412
 185  757.3049
 186  785.6713
 187  834.3431
 188  716.3216
 189  583.7952
 190  856.3361
 191  596.7115
 192  310.7117
 193  510.8618
 194  235.5766
 195  233.9554
 196  340.0064
 197  394.0808
 198  640.1966
 199  418.5567
 200  832.7947
 201  742.8126
 202  530.8176
 203  545.9293
 204  574.5354
 205  514.1549
 206  579.7495
 207  857.4568
 208  550.5106
 209  620.3337
 210  635.7458
 211  709.2516
 212  412.0254
 213  155.9021
 214  16.13654
 215  367.1317
 216  648.3385
 217  591.6022
 218  730.0098
 219  756.6233
 220  781.546
 221  637.2111
 222  565.6609
 223  543.7097
 224  621.9132
 225  391.827
 226  308.298
 227  390.9829
 228  457.3648
 229  298.9182
 230  288.3383
 231  552.946
 232  595.9287
 233  737.2491
 234  516.1668
 235  615.8947
 236  817.1569
 237  951.9642
 238  704.3915
 239  509.8937
 240  577.4088
 241  400.8331
 242  334.289
 243  436.8818
 244  413.118
 245  467.8495
 246  434.8052
 247  712.3876
 248  829.4372
 249  571.3965
 250  645.8521
 251  738.1809
 252  657.8629
 253  509.9001
 254  496.3342
 255  316.4879
 256  552.6432
 257  547.1105
 258  455.5576
 259  490.7994
 260  551.0699
 261  408.5038
 262  473.5834
 263  702.597
 264  869.3437
 265  490.5835
 266  476.8212
 267  552.345
 268  492.4431
 269  785.6639
 270  596.6628
 271  542.0644
 272  580.1207
 273  454.1196
 274  233.5098
 275  304.822
 276  324.2119
 277  652.3028
 278  282.4193
 279  254.6125
 280  423.1435
 281  504.1285
 282  664.6273
 283  586.3278
 284  797.0682
 285  1016.741
 286  704.4731
 287  479.2172
 288  278.3795
 289  270.4576
 290  86.69464
 291  172.2082
 292  349.6996
 293  569.8167
 294  764.2958
 295  815.9302
 296  511.7562
 297  328.7151
 298  380.6064
 299  648.7352
 300  699.0266
 301  503.4302
 302  663.4456
 303  377.4195
 304  571.0851
 305  483.8832
 306  472.5679
 307  338.1158
 308  618.7347
 309  659.1296
 310  591.8007
 311  613.4276
 312  459.1
 313  640.3628
 314  920.7794
 315  647.7864
 316  485.3724
 317  542.1483
 318  499.1079
 319  407.6516
 320  620.2805
 321  499.7552
 322  422.2122
 323  59.66336
 324  287.3282
 325  532.5308
 326  677.1111
 327  501.9316
 328  310.5903
 329  211.4259
 330  367.1724
 331  380.815
 332  442.5607
 333  693.1061
 334  543.6776
 335  347.1146
 336  623.2322
 337  383.6203
 338  415.517
 339  38.70024
 340  1.229598
 341  192.3362
 342  281.021
 343  500.8703
 344  343.6054
 345  338.0917
 346  528.2634
 347  590.5271
 348  389.2543
 349  527.9116
 350  762.7729
 351  425.4567
 352  475.038
 353  726.0363
 354  631.2309
 355  423.3832
 356  396.5725
 357  542.1017
 358  776.2838
 359  285.3933
 360  326.5364
 361  257.554
 362  409.5822
 363  570.8555
 364  296.1933
 365  370.667
 366  691.0028
 367  637.3392
 368  643.0359
 369  520.887
 370  324.264
 371  462.6564
 372  296.1165
 373  451.1937
 374  644.1105
 375  443.9545
 376  658.6044
 377  483.826
 378  396.8221
 379  319.8176
 380  263.7959
 381  255.3356
 382  815.4865
 383  880.1302
 384  754.0256
 385  643.226
 386  721.9185
 387  819.4473
 388  649.6259
 389  221.8019
 390  698.1989
 391  789.0511
 392  850.8359
 393  705.9872
 394  636.8388
 395  950.5068
 396  528.5023
 397  469.6266
 398  661.8775
 399  748.5099
 400  869.6002
 401  829.4591
 402  740.2117
 403  574.2274
 404  387.7431
 405  461.1061
 406  643.2416
 407  942.9109
 408  987.2789
 409  482.7651
 410  666.1528
 411  704.4767
 412  630.4655
 413  800.2795
 414  947.5954
 415  780.9838
 416  355.1949
 417  257.3159
 418  641.4332
 419  416.4197
 420  177.0663
 421  300.6208
 422  455.4431
 423  353.3988
 424  117.6712
 425  234.3139
 426  549.3481
 427  642.5679
 428  772.6974
 429  754.7808
 430  529.5706
 431  589.3182
 432  654.2573
 433  718.7157
 434  854.229
 435  982.5349
 436  963.7178
 437  956.5686
 438  452.7397
 439  441.2957
 440  636.5037
 441  617.5823
 442  721.1874
 443  520.7139
 444  587.9698
 445  681.6452
 446  679.3829
 447  646.5695
 448  765.4221
 449  973.4427
 450  969.7466
 451  965.6293
 452  1542.717
 453  2109.229
 454  2401.56
 455  2787.672
 456  2545.883
 457  2221.412
 458  1541.487
 459  1223.688
 460  755.8752
 461  843.3284
 462  841.6873
 463  626.9211
 464  885.5511
 465  1093.723
 466  888.1783
 467  972.7011
 468  980.7368
 469  906.6129
 470  795.0518
 471  499.5851
 472  557.0781
 473  797.8252
 474  838.9979
 475  558.3591
 476  433.4846
 477  448.8852
 478  863.4984
 479  972.2283
 480  598.2985
 481  389.5027
 482  311.1419
 483  300.5276
 484  477.9927
 485  590.9656
 486  607.606
 487  328.1496
 488  401.7457
 489  513.2632
 490  440.0863
 491  327.4613
 492  652.1138
 493  869.052
 494  721.4122
 495  463.1959
 496  616.3915
 497  411.6392
 498  344.0002
 499  631.0209
 500  811.0958
 501  924.9722
 502  847.7071
 503  848.3232
 504  943.7441
 505  790.1431
 506  654.3098
 507  612.7194
 508  1064.773
 509  894.2493
 510  781.2363
 511  628.5136
