# Input file       =  1192587082.133473_cleaned.dat
# Candidate        =  PSR_0332+5434
# Telescope        =  AR
# Epoch_topo       =  58047.091448304083
# Epoch_bary       =  N/A
# T_sample         =  0.002
# Data Folded      =  7340032
# Data Avg         =  0.0453665388849913
# Data StdDev      =  2.50487576456294 
# Profile Bins     =  512
# Profile Avg      =  650.293950161694 
# Profile StdDev   =  299.916381037695 
# Reduced chi-sqr  =  1.518
# Prob(Noise)      <  3.14e-13   (~7.2 sigma)
# P_topo (ms)      =  714.486593002143  +/- 0.000194
# P'_topo (s/s)    =  -0                +/- 1.02e-10
# P''_topo (s/s^2) =  0                 +/- 4.51e-14
# P_bary (ms)      =  N/A
# P'_bary (s/s)    =  N/A
# P''_bary (s/s^2) =  N/A
# P_orb (s)        =  N/A
# asin(i)/c (s)    =  N/A
# eccentricity     =  N/A
# w (rad)          =  N/A
# T_peri           =  N/A
######################################################
   0  564.4218
   1  507.3909
   2  659.6549
   3  357.5553
   4  415.6068
   5  493.5365
   6  366.3724
   7  421.3805
   8  533.6221
   9  480.1154
  10  749.4904
  11  881.5294
  12  562.3322
  13  332.2688
  14  556.2648
  15  561.9996
  16  456.6278
  17  800.4888
  18  520.6045
  19  582.7936
  20  795.0979
  21  551.4301
  22  620.674
  23  858.6151
  24  378.5325
  25  550.4611
  26  720.1292
  27  913.2186
  28  885.0139
  29  1146.744
  30  836.1298
  31  932.954
  32  893.4461
  33  732.3268
  34  662.504
  35  571.1734
  36  627.8551
  37  561.2798
  38  309.3864
  39  493.9998
  40  740.5187
  41  998.6042
  42  828.7507
  43  544.5651
  44  919.7642
  45  864.3568
  46  593.0558
  47  344.9
  48  437.371
  49  615.1844
  50  668.074
  51  687.3663
  52  529.6127
  53  359.7735
  54  485.6585
  55  439.0511
  56  558.9822
  57  693.3441
  58  497.1401
  59  385.4605
  60  616.6023
  61  712.8872
  62  695.7437
  63  771.2604
  64  676.3762
  65  573.1079
  66  670.1027
  67  401.4573
  68  346.6131
  69  740.7246
  70  933.4536
  71  727.7122
  72  635.9493
  73  659.7922
  74  865.7138
  75  776.3016
  76  757.3776
  77  831.2694
  78  665.615
  79  1090.079
  80  1122.608
  81  993.6894
  82  878.1968
  83  656.975
  84  555.6699
  85  564.7332
  86  477.9823
  87  519.1879
  88  646.4645
  89  945.8597
  90  925.5056
  91  909.0435
  92  567.4113
  93  829.8411
  94  638.8267
  95  620.3992
  96  779.8198
  97  1018.33
  98  1081.301
  99  549.6062
 100  675.4112
 101  732.0092
 102  1096.694
 103  995.7985
 104  983.2635
 105  975.5168
 106  724.1411
 107  691.4698
 108  546.8757
 109  756.669
 110  850.4544
 111  529.1208
 112  210.9707
 113  321.8179
 114  429.0561
 115  626.1096
 116  554.3246
 117  821.4149
 118  508.6427
 119  267.9233
 120  504.8572
 121  497.1797
 122  456.2364
 123  414.1758
 124  480.3721
 125  824.5434
 126  410.071
 127  337.7838
 128  134.8834
 129  279.1022
 130  218.2767
 131  856.3218
 132  931.966
 133  432.6351
 134  578.4549
 135  518.1764
 136  838.4488
 137  840.4815
 138  968.9276
 139  902.8363
 140  907.378
 141  646.4535
 142  627.8003
 143  564.189
 144  808.9316
 145  542.6715
 146  568.4515
 147  837.7076
 148  500.5779
 149  571.1594
 150  527.8167
 151  379.1821
 152  495.7212
 153  566.8053
 154  745.6139
 155  891.4313
 156  965.2283
 157  830.4556
 158  842.8318
 159  754.1243
 160  703.0614
 161  803.7895
 162  679.1951
 163  697.8049
 164  731.5473
 165  563.3693
 166  264.025
 167  201.4207
 168  429.6852
 169  490.875
 170  679.7635
 171  544.0699
 172  652.8849
 173  705.0421
 174  639.2928
 175  618.6466
 176  820.056
 177  730.197
 178  731.1949
 179  909.9651
 180  597.0215
 181  527.121
 182  426.0343
 183  623.9245
 184  704.8097
 185  498.1532
 186  626.5023
 187  236.2856
 188  522.642
 189  716.2744
 190  825.8568
 191  971.9162
 192  918.9415
 193  835.6057
 194  808.8948
 195  835.3652
 196  990.8182
 197  813.9885
 198  700.7267
 199  612.3925
 200  446.0497
 201  347.2513
 202  634.2024
 203  835.1567
 204  958.9233
 205  790.5841
 206  873.8757
 207  485.3878
 208  428.7018
 209  767.1449
 210  577.7249
 211  605.9357
 212  560.8809
 213  505.7207
 214  388.0475
 215  683.7953
 216  406.8312
 217  370.7721
 218  615.2338
 219  487.1432
 220  461.7151
 221  431.4362
 222  682.723
 223  681.1329
 224  502.8796
 225  651.9695
 226  728.4898
 227  727.4354
 228  808.0672
 229  794.4609
 230  611.2257
 231  1040.506
 232  884.7589
 233  1027.231
 234  1104.268
 235  784.9107
 236  832.2218
 237  842.0632
 238  716.441
 239  727.8843
 240  736.73
 241  654.0068
 242  677.3343
 243  904.2768
 244  820.1601
 245  532.1505
 246  781.4628
 247  1022.608
 248  687.8148
 249  875.3847
 250  618.2993
 251  504.7647
 252  415.4127
 253  344.1466
 254  800.0701
 255  952.2153
 256  700.5359
 257  532.2021
 258  710.9112
 259  635.7222
 260  671.8439
 261  493.1344
 262  330.4965
 263  359.84
 264  528.1057
 265  547.2015
 266  860.2781
 267  582.4146
 268  561.0164
 269  704.879
 270  1005.423
 271  621.9995
 272  222.8567
 273  400.8382
 274  471.0816
 275  610.5341
 276  677.9413
 277  481.344
 278  607.8567
 279  638.8578
 280  503.6103
 281  560.3808
 282  799.1766
 283  888.1575
 284  1035.771
 285  815.1712
 286  741.6462
 287  805.2691
 288  1006.837
 289  786.1141
 290  494.6077
 291  427.205
 292  452.2522
 293  689.2284
 294  489.9623
 295  280.6444
 296  605.2614
 297  651.3263
 298  810.8284
 299  810.9366
 300  729.2059
 301  622.3558
 302  744.8589
 303  569.6464
 304  682.7903
 305  1157.31
 306  1136.09
 307  1291.76
 308  1074.993
 309  1096.185
 310  1193.879
 311  852.5522
 312  881.3812
 313  755.2414
 314  717.4996
 315  304.267
 316  333.8603
 317  153.6538
 318  395.6848
 319  455.472
 320  588.3105
 321  746.8115
 322  645.172
 323  649.3312
 324  538.4111
 325  231.3078
 326  389.9423
 327  599.7535
 328  684.2982
 329  638.5915
 330  813.9823
 331  781.2096
 332  608.6447
 333  439.6475
 334  230.2421
 335  411.32
 336  489.9099
 337  527.5849
 338  582.5892
 339  508.1057
 340  604.8349
 341  706.8925
 342  770.5599
 343  514.846
 344  439.7692
 345  722.1215
 346  674.295
 347  848.1687
 348  865.815
 349  755.9448
 350  726.9453
 351  516.0439
 352  624.358
 353  380.408
 354  500.7162
 355  458.5485
 356  257.1755
 357  605.6786
 358  200.6167
 359  310.7326
 360  319.8892
 361  714.1745
 362  550.9965
 363  844.5093
 364  951.2563
 365  649.5327
 366  547.9116
 367  508.1828
 368  400.7301
 369  547.1187
 370  340.9293
 371  166.6662
 372  276.3882
 373  724.8084
 374  661.8163
 375  436.883
 376  578.8661
 377  628.686
 378  736.3221
 379  820.325
 380  651.1412
 381  437.2611
 382  471.7077
 383  979.3892
 384  1110.324
 385  1075.495
 386  1032.829
 387  824.8403
 388  1147.985
 389  1738.897
 390  2260.011
 391  2591.208
 392  2549.771
 393  2130.459
 394  1625.551
 395  1037.703
 396  715.396
 397  727.4513
 398  710.0715
 399  996.7977
 400  851.5211
 401  563.2744
 402  495.9695
 403  486.9139
 404  567.667
 405  771.6929
 406  732.088
 407  1045.38
 408  861.2281
 409  636.9539
 410  529.0911
 411  268.9573
 412  248.3253
 413  471.6057
 414  264.6126
 415  635.9424
 416  702.0829
 417  372.9572
 418  498.1974
 419  295.7672
 420  403.9338
 421  885.099
 422  786.1797
 423  627.0787
 424  585.8251
 425  526.7361
 426  115.3138
 427  279.1772
 428  535.0543
 429  531.4474
 430  397.5799
 431  813.2201
 432  571.7243
 433  390.4472
 434  275.6856
 435  375.571
 436  496.7003
 437  411.1597
 438  576.1235
 439  626.9946
 440  611.5175
 441  570.6014
 442  595.4827
 443  532.0383
 444  656.8813
 445  523.4073
 446  298.5125
 447  544.8859
 448  805.2096
 449  444.0799
 450  577.8841
 451  312.8548
 452  336.9544
 453  544.8909
 454  611.5499
 455  802.1336
 456  570.8143
 457  603.4283
 458  665.2003
 459  367.8688
 460  410.2466
 461  694.1819
 462  487.6866
 463  686.1108
 464  416.8201
 465  463.5279
 466  682.9124
 467  653.5589
 468  496.444
 469  518.8649
 470  621.9732
 471  650.3842
 472  779.524
 473  630.9863
 474  967.4758
 475  851.6631
 476  890.9127
 477  746.9764
 478  511.6826
 479  595.0817
 480  371.3349
 481  366.7225
 482  648.8035
 483  492.698
 484  524.8439
 485  725.3745
 486  655.1075
 487  340.139
 488  549.4655
 489  290.8723
 490  131.202
 491  439.5258
 492  641.8864
 493  493.9145
 494  370.8269
 495  328.5674
 496  309.7531
 497  365.1251
 498  848.9082
 499  850.027
 500  618.8215
 501  679.1229
 502  868.6002
 503  577.6663
 504  380.6094
 505  482.2558
 506  396.9247
 507  772.0716
 508  682.8073
 509  296.4824
 510  532.7241
 511  811.2442
