# Input file       =  1192988327.145844_cleaned.dat
# Candidate        =  PSR_0332+5434
# Telescope        =  AR
# Epoch_topo       =  58051.735487799124
# Epoch_bary       =  N/A
# T_sample         =  0.002
# Data Folded      =  7208960
# Data Avg         =  0.0367440641921184
# Data StdDev      =  3.07258269626965 
# Profile Bins     =  1024
# Profile Avg      =  258.664587164331 
# Profile StdDev   =  257.804153486569 
# Reduced chi-sqr  =  0.943
# Prob(Noise)      <  0.903   (~0.0 sigma)
# P_topo (ms)      =  714.490135606336  +/- 6.58e-05
# P'_topo (s/s)    =  -0                +/- 3.53e-11
# P''_topo (s/s^2) =  0                 +/- 1.59e-14
# P_bary (ms)      =  N/A
# P'_bary (s/s)    =  N/A
# P''_bary (s/s^2) =  N/A
# P_orb (s)        =  N/A
# asin(i)/c (s)    =  N/A
# eccentricity     =  N/A
# w (rad)          =  N/A
# T_peri           =  N/A
######################################################
   0  253.3101
   1  161.8548
   2  178.7588
   3  175.701
   4  196.974
   5  226.636
   6  239.3929
   7  165.8283
   8  277.422
   9  342.0628
  10  352.9821
  11  234.9271
  12  268.183
  13  313.9455
  14  346.3203
  15  262.8273
  16  234.7812
  17  212.0801
  18  106.6157
  19  54.13421
  20  11.42241
  21  106.1693
  22  139.3252
  23  161.4583
  24  181.7598
  25  185.6347
  26  152.965
  27  206.2679
  28  190.259
  29  120.835
  30  81.91775
  31  114.1321
  32  247.8913
  33  254.6419
  34  289.318
  35  216.8589
  36  135.8679
  37  96.72922
  38  102.1825
  39  140.9346
  40  98.77324
  41  231.0796
  42  236.274
  43  236.6655
  44  151.2853
  45  84.31284
  46  41.35152
  47  76.98934
  48  249.7852
  49  298.2166
  50  303.9961
  51  278.2354
  52  314.6516
  53  337.6764
  54  375.5841
  55  390.2802
  56  384.3032
  57  330.7298
  58  344.7984
  59  282.6974
  60  226.8143
  61  161.5518
  62  107.4915
  63  219.7848
  64  332.8154
  65  459.1638
  66  529.3381
  67  532.5737
  68  464.1783
  69  328.7143
  70  280.9237
  71  312.9302
  72  279.5668
  73  296.4362
  74  282.7103
  75  165.3929
  76  128.931
  77  93.94287
  78  182.1024
  79  209.2855
  80  290.9084
  81  321.3533
  82  264.9833
  83  195.0929
  84  313.6774
  85  339.3694
  86  281.1912
  87  186.5399
  88  246.438
  89  320.514
  90  276.2964
  91  251.884
  92  183.9019
  93  179.6083
  94  185.3666
  95  198.8254
  96  80.36439
  97  89.17585
  98  137.0883
  99  189.735
 100  209.8819
 101  165.5807
 102  218.1512
 103  192.7599
 104  230.8406
 105  174.7744
 106  92.11397
 107  -8.702892
 108  28.84499
 109  225.4151
 110  266.1216
 111  156.9921
 112  -30.07673
 113  14.32669
 114  153.1422
 115  216.0997
 116  286.5986
 117  234.5202
 118  264.0151
 119  211.8024
 120  261.7996
 121  242.8882
 122  239.763
 123  159.3808
 124  128.7509
 125  45.48006
 126  65.10989
 127  77.86522
 128  171.7556
 129  106.5471
 130  85.1964
 131  148.8146
 132  340.9832
 133  447.5078
 134  300.6539
 135  192.3553
 136  148.2147
 137  147.4056
 138  211.0177
 139  228.7306
 140  158.2448
 141  72.58124
 142  52.43529
 143  122.235
 144  195.0387
 145  340.984
 146  471.7258
 147  483.2837
 148  360.7445
 149  305.6541
 150  225.5668
 151  285.1019
 152  262.5894
 153  265.7775
 154  258.0703
 155  203.7339
 156  166.8019
 157  191.1808
 158  245.1376
 159  263.3411
 160  316.5948
 161  448.1137
 162  546.2459
 163  352.0508
 164  182.0926
 165  113.0638
 166  15.01588
 167  34.46865
 168  104.0456
 169  180.1011
 170  193.2895
 171  222.5641
 172  309.6815
 173  338.9204
 174  305.1706
 175  290.8339
 176  287.5255
 177  174.1927
 178  158.6187
 179  68.92707
 180  87.90011
 181  139.9332
 182  338.1652
 183  317.6277
 184  272.6595
 185  113.4505
 186  133.3414
 187  236.6012
 188  320.4231
 189  337.5559
 190  237.8066
 191  288.6072
 192  259.7253
 193  280.6004
 194  143.5177
 195  58.45871
 196  -10.98615
 197  42.78038
 198  106.2991
 199  263.3452
 200  274.6886
 201  187.6568
 202  128.4438
 203  202.4306
 204  291.4801
 205  241.8562
 206  236.873
 207  210.8008
 208  215.0646
 209  236.8321
 210  156.8131
 211  182.8546
 212  191.7993
 213  409.3603
 214  424.2548
 215  326.4454
 216  232.7211
 217  273.96
 218  406.167
 219  442.0057
 220  383.6468
 221  331.404
 222  410.6169
 223  266.4384
 224  224.7783
 225  96.16577
 226  192.5701
 227  105.8411
 228  134.7689
 229  131.7347
 230  130.0188
 231  97.46191
 232  156.4379
 233  77.65784
 234  85.73827
 235  168.2124
 236  297.5323
 237  290.2046
 238  250.089
 239  197.5072
 240  209.4566
 241  178.6411
 242  174.2349
 243  240.4743
 244  283.0384
 245  444.6705
 246  364.0956
 247  261.5909
 248  116.189
 249  134.5826
 250  196.6405
 251  205.4985
 252  261.0561
 253  230.3744
 254  196.4023
 255  46.07842
 256  52.93835
 257  118.1638
 258  175.4623
 259  228.9742
 260  266.3682
 261  319.4455
 262  251.8935
 263  182.9486
 264  202.4961
 265  335.2286
 266  431.271
 267  499.4397
 268  304.3687
 269  290.8111
 270  238.9798
 271  281.9996
 272  215.3099
 273  123.8163
 274  91.01593
 275  67.00713
 276  159.1181
 277  219.3325
 278  195.9472
 279  141.6192
 280  221.2908
 281  304.1492
 282  345.7215
 283  279.8528
 284  294.5658
 285  258.9376
 286  238.0968
 287  244.478
 288  199.5275
 289  107.6821
 290  -32.05597
 291  43.8731
 292  94.10745
 293  170.9629
 294  185.9542
 295  204.1791
 296  309.8022
 297  327.5006
 298  408.1934
 299  360.5506
 300  293.9827
 301  236.4669
 302  247.0924
 303  274.3736
 304  195.1423
 305  226.7648
 306  169.2965
 307  131.0936
 308  28.25594
 309  195.2664
 310  347.5305
 311  389.6129
 312  360.1916
 313  316.642
 314  249.4917
 315  215.586
 316  129.7893
 317  74.56002
 318  79.77815
 319  134.8234
 320  237.659
 321  255.332
 322  225.4725
 323  189.8867
 324  252.356
 325  312.6844
 326  222.854
 327  228.8003
 328  360.133
 329  404.7141
 330  262.4099
 331  221.5484
 332  257.874
 333  208.3405
 334  189.8724
 335  173.399
 336  180.1439
 337  160.5579
 338  185.5715
 339  250.219
 340  214.8468
 341  215.7159
 342  288.2675
 343  399.5162
 344  299.1913
 345  178.357
 346  81.25002
 347  218.9366
 348  157.9646
 349  183.405
 350  180.2717
 351  201.321
 352  101.3416
 353  87.89616
 354  287.8743
 355  477.6656
 356  496.0642
 357  427.5282
 358  446.5884
 359  386.4704
 360  258.6548
 361  184.3758
 362  147.607
 363  92.84446
 364  69.67352
 365  149.3271
 366  286.2668
 367  279.7952
 368  366.2357
 369  443.2664
 370  488.2656
 371  446.4154
 372  435.0764
 373  322.649
 374  201.6882
 375  87.95995
 376  215.987
 377  264.0634
 378  221.5069
 379  184.2127
 380  247.3944
 381  249.1165
 382  312.1949
 383  395.6614
 384  387.3481
 385  384.0357
 386  268.2119
 387  239.2462
 388  151.5325
 389  142.6269
 390  214.2334
 391  130.6804
 392  79.69141
 393  110.2411
 394  206.3101
 395  261.5075
 396  140.4918
 397  136.5013
 398  174.5292
 399  197.9459
 400  179.1138
 401  91.74869
 402  91.83203
 403  82.13454
 404  198.2733
 405  263.5747
 406  173.1251
 407  189.877
 408  310.7821
 409  395.1787
 410  211.9357
 411  26.17639
 412  145.7484
 413  230.5095
 414  235.9805
 415  219.9567
 416  366.6695
 417  437.4879
 418  424.7569
 419  339.1889
 420  360.2264
 421  314.7383
 422  303.032
 423  304.9103
 424  222.0966
 425  102.5894
 426  114.1338
 427  231.6011
 428  414.1517
 429  485.4405
 430  439.765
 431  339.4453
 432  327.4172
 433  358.1646
 434  362.3681
 435  231.8935
 436  252.3806
 437  258.9897
 438  304.2617
 439  204.4723
 440  141.0869
 441  131.7671
 442  186.3389
 443  227.2942
 444  394.2673
 445  397.4579
 446  399.0468
 447  306.0927
 448  304.7188
 449  239.4479
 450  208.9807
 451  280.0655
 452  312.5042
 453  204.9021
 454  110.2206
 455  51.57763
 456  125.1903
 457  73.26991
 458  243.3011
 459  302.7291
 460  332.5107
 461  268.5056
 462  257.3347
 463  288.2552
 464  136.8384
 465  79.68205
 466  61.25977
 467  121.6396
 468  23.11102
 469  -20.637
 470  -25.9137
 471  26.9138
 472  125.779
 473  186.3594
 474  279.5819
 475  239.8062
 476  289.2038
 477  426.1663
 478  520.3517
 479  468.4044
 480  352.4647
 481  246.0978
 482  101.8308
 483  32.62304
 484  124.546
 485  288.187
 486  340.3816
 487  411.3386
 488  348.6398
 489  207.1063
 490  105.5168
 491  166.2285
 492  238.0033
 493  234.3441
 494  191.3715
 495  132.8502
 496  114.3636
 497  73.18843
 498  125.3816
 499  117.6027
 500  61.16045
 501  188.804
 502  251.3448
 503  416.7661
 504  232.8718
 505  144.3795
 506  114.1454
 507  225.4013
 508  120.9353
 509  137.3264
 510  125.9491
 511  114.6056
 512  133.7704
 513  282.7738
 514  497.2897
 515  416.0398
 516  407.6708
 517  430.8703
 518  388.9908
 519  262.2459
 520  216.7861
 521  277.9167
 522  268.6876
 523  277.7178
 524  306.5163
 525  339.4697
 526  191.114
 527  147.5457
 528  200.0756
 529  308.337
 530  220.1266
 531  254.3848
 532  136.1709
 533  78.98201
 534  -19.09792
 535  52.87951
 536  107.0823
 537  162.2485
 538  230.4754
 539  303.8026
 540  199.141
 541  132.0383
 542  126.8395
 543  113.5153
 544  110.2779
 545  88.70856
 546  224.0038
 547  274.0803
 548  243.2487
 549  175.3536
 550  184.4389
 551  246.3101
 552  303.2687
 553  358.7236
 554  319.5681
 555  317.8877
 556  241.808
 557  331.4066
 558  286.4453
 559  162.446
 560  204.5115
 561  216.0388
 562  240.9877
 563  125.1069
 564  169.8775
 565  253.2523
 566  272.4751
 567  304.6557
 568  306.4886
 569  355.939
 570  286.2853
 571  232.4616
 572  154.8736
 573  101.0766
 574  133.8877
 575  201.1106
 576  361.3892
 577  311.9756
 578  327.7151
 579  329.2222
 580  352.2792
 581  366.8272
 582  296.8475
 583  284.3494
 584  218.7532
 585  196.9923
 586  208.2738
 587  202.1282
 588  234.5441
 589  177.1744
 590  93.69574
 591  51.03725
 592  105.7004
 593  235.2577
 594  373.7485
 595  487.1035
 596  499.2056
 597  409.1986
 598  349.8951
 599  363.2692
 600  407.7644
 601  366.291
 602  286.0518
 603  342.0922
 604  315.0583
 605  269.4365
 606  308.7047
 607  287.5008
 608  282.9389
 609  245.0837
 610  330.9337
 611  423.4649
 612  376.5625
 613  393.7357
 614  441.7531
 615  383.5264
 616  167.1047
 617  63.03183
 618  209.8601
 619  285.3616
 620  361.5219
 621  409.0646
 622  486.3936
 623  407.7063
 624  349.0783
 625  458.2358
 626  549.9974
 627  611.3762
 628  547.9359
 629  685.9272
 630  871.3115
 631  940.2919
 632  907.8899
 633  842.9812
 634  952.9191
 635  1078.907
 636  1065.731
 637  1035.954
 638  914.4399
 639  841.5963
 640  874.0848
 641  810.5843
 642  706.512
 643  580.9774
 644  541.9667
 645  369.0504
 646  227.6017
 647  130.9055
 648  272.1479
 649  229.206
 650  305.1436
 651  315.9695
 652  336.9493
 653  236.2879
 654  288.3249
 655  295.8256
 656  338.3394
 657  318.7926
 658  371.8196
 659  345.1542
 660  395.3929
 661  430.9091
 662  384.2099
 663  290.2753
 664  296.1956
 665  333.2148
 666  200.3445
 667  161.6107
 668  205.3776
 669  317.591
 670  394.0005
 671  391.6394
 672  478.5624
 673  509.5549
 674  459.0215
 675  369.5059
 676  307.0932
 677  372.0424
 678  444.2024
 679  367.276
 680  270.8539
 681  224.7274
 682  271.317
 683  357.9894
 684  243.9308
 685  311.9729
 686  321.4828
 687  424.2117
 688  409.797
 689  316.2354
 690  246.902
 691  250.6189
 692  279.1225
 693  278.9709
 694  161.5232
 695  126.5024
 696  22.3087
 697  -45.93626
 698  -12.51653
 699  154.382
 700  374.5619
 701  354.4984
 702  360.9733
 703  337.3383
 704  360.6582
 705  297.5491
 706  143.2111
 707  98.38378
 708  90.86677
 709  102.5901
 710  195.3064
 711  312.4071
 712  390.5521
 713  322.5669
 714  244.9584
 715  271.6654
 716  320.085
 717  298.0772
 718  382.2631
 719  437.7992
 720  459.1044
 721  322.9136
 722  203.4827
 723  232.1733
 724  294.9187
 725  218.465
 726  136.6272
 727  217.5116
 728  469.2674
 729  535.7339
 730  354.795
 731  193.0955
 732  228.9796
 733  255.7968
 734  320.4698
 735  335.5872
 736  262.2501
 737  166.8258
 738  31.63797
 739  107.4656
 740  212.0761
 741  236.6587
 742  324.5489
 743  319.4435
 744  329.9873
 745  378.4218
 746  439.0479
 747  573.6873
 748  480.2207
 749  322.6799
 750  307.7472
 751  236.2002
 752  132.6966
 753  29.67068
 754  144.3308
 755  219.905
 756  218.9926
 757  146.485
 758  120.1023
 759  47.39989
 760  132.2995
 761  191.0311
 762  244.6237
 763  265.8223
 764  266.8989
 765  220.557
 766  186.3062
 767  168.1508
 768  191.9024
 769  215.7513
 770  184.0187
 771  105.3022
 772  59.92269
 773  49.66516
 774  98.6521
 775  221.3847
 776  307.4618
 777  443.4041
 778  499.6335
 779  486.8159
 780  356.0998
 781  273.1642
 782  213.2057
 783  319.3644
 784  275.4611
 785  232.0209
 786  198.9255
 787  258.8788
 788  263.5944
 789  182.631
 790  118.4734
 791  184.1044
 792  262.6943
 793  379.1236
 794  346.9263
 795  277.8351
 796  227.5102
 797  284.5829
 798  324.3055
 799  266.3103
 800  275.3635
 801  293.5339
 802  337.3369
 803  297.1035
 804  304.5889
 805  203.5998
 806  211.1787
 807  311.5865
 808  394.1301
 809  400.7144
 810  317.3706
 811  293.6467
 812  164.9846
 813  101.7119
 814  64.6889
 815  161.7448
 816  206.8948
 817  303.4751
 818  489.9982
 819  521.6961
 820  430.6401
 821  310.9437
 822  357.5383
 823  396.499
 824  381.6754
 825  363.3351
 826  401.5157
 827  211.6838
 828  147.2412
 829  101.1759
 830  204.4716
 831  312.9032
 832  356.7314
 833  431.0477
 834  353.9561
 835  371.2244
 836  365.2602
 837  488.5995
 838  413.0472
 839  363.1992
 840  394.5725
 841  493.5558
 842  448.4565
 843  245.8833
 844  205.1736
 845  212.8197
 846  158.4348
 847  109.5916
 848  137.0578
 849  293.0328
 850  358.2081
 851  447.5013
 852  401.2641
 853  355.2128
 854  246.2574
 855  186.4243
 856  147.892
 857  94.06396
 858  124.6216
 859  23.50416
 860  4.535753
 861  25.44033
 862  134.6642
 863  316.0993
 864  351.9854
 865  350.678
 866  308.105
 867  316.3443
 868  286.8809
 869  244.978
 870  269.6922
 871  258.9593
 872  254.1146
 873  212.4485
 874  274.8723
 875  322.5238
 876  386.3489
 877  331.8236
 878  327.202
 879  298.9601
 880  294.0591
 881  155.2851
 882  -26.56758
 883  93.31887
 884  320.6915
 885  524.3523
 886  309.8834
 887  147.0683
 888  117.7077
 889  248.8433
 890  232.3503
 891  190.4216
 892  194.6188
 893  237.4046
 894  290.4439
 895  258.606
 896  225.5819
 897  48.61057
 898  116.8646
 899  298.3782
 900  456.0252
 901  410.9887
 902  371.0684
 903  266.5219
 904  178.4633
 905  48.74444
 906  28.9089
 907  80.16581
 908  72.12229
 909  206.1747
 910  186.677
 911  257.4296
 912  238.2034
 913  292.3199
 914  346.9118
 915  326.5482
 916  261.1378
 917  214.9485
 918  140.028
 919  94.8514
 920  67.10049
 921  92.67392
 922  176.9994
 923  234.3867
 924  306.7748
 925  364.6681
 926  390.4528
 927  396.4571
 928  419.5473
 929  380.7301
 930  402.6789
 931  394.7443
 932  360.5783
 933  248.6794
 934  4.55874
 935  -25.69078
 936  60.0914
 937  314.2188
 938  357.482
 939  351.8264
 940  242.3146
 941  283.6716
 942  330.1973
 943  422.0846
 944  531.6323
 945  597.5746
 946  504.1183
 947  216.1612
 948  51.77318
 949  151.6892
 950  316.9402
 951  376.108
 952  324.2574
 953  162.238
 954  113.7793
 955  157.7313
 956  307.0118
 957  328.4724
 958  273.3568
 959  286.8474
 960  250.3118
 961  156.2304
 962  28.48212
 963  91.40025
 964  167.2747
 965  267.5079
 966  283.9025
 967  382.3613
 968  427.1949
 969  461.606
 970  492.9828
 971  502.3667
 972  450.9193
 973  416.2838
 974  498.7266
 975  467.8915
 976  378.9889
 977  280.9301
 978  383.3737
 979  361.6826
 980  347.5921
 981  260.9488
 982  347.7045
 983  182.4125
 984  232.2893
 985  341.3423
 986  434.5217
 987  400.7508
 988  285.4955
 989  409.9445
 990  393.2816
 991  252.8261
 992  170.8219
 993  191.5247
 994  219.7378
 995  235.76
 996  268.5353
 997  347.4765
 998  311.8886
 999  298.4426
1000  262.8809
1001  201.776
1002  154.7471
1003  384.9631
1004  493.6561
1005  405.4497
1006  262.3979
1007  282.918
1008  246.2953
1009  177.0176
1010  107.62
1011  238.5872
1012  190.9466
1013  105.6475
1014  83.14144
1015  192.9928
1016  203.5103
1017  304.9034
1018  289.712
1019  345.4757
1020  142.3766
1021  157.1992
1022  283.461
1023  318.4187
