# Input file       =  1192126827.138242_cleaned.dat
# Candidate        =  PSR_0332+5434
# Telescope        =  AR
# Epoch_topo       =  58041.764422896318
# Epoch_bary       =  N/A
# T_sample         =  0.002
# Data Folded      =  7143424
# Data Avg         =  0.0417355895768679
# Data StdDev      =  3.38497278298413 
# Profile Bins     =  1024
# Profile Avg      =  291.156727306034 
# Profile StdDev   =  282.721227029394 
# Reduced chi-sqr  =  0.815
# Prob(Noise)      <  1   (~0.0 sigma)
# P_topo (ms)      =  714.482095280239  +/- 8.14e-05
# P'_topo (s/s)    =  -0                +/- 4.41e-11
# P''_topo (s/s^2) =  0                 +/- 2e-14
# P_bary (ms)      =  N/A
# P'_bary (s/s)    =  N/A
# P''_bary (s/s^2) =  N/A
# P_orb (s)        =  N/A
# asin(i)/c (s)    =  N/A
# eccentricity     =  N/A
# w (rad)          =  N/A
# T_peri           =  N/A
######################################################
   0  218.1796
   1  236.3775
   2  186.7137
   3  136.7797
   4  105.3876
   5  133.1605
   6  199.6537
   7  260.2259
   8  242.5855
   9  276.5235
  10  305.2138
  11  342.0335
  12  185.6425
  13  184.1077
  14  156.5278
  15  278.4897
  16  233.5478
  17  299.8963
  18  256.2717
  19  267.9665
  20  132.5667
  21  114.4834
  22  62.2448
  23  132.9917
  24  167.2974
  25  255.8896
  26  269.5403
  27  207.5504
  28  239.27
  29  355.6629
  30  455.7674
  31  472.5338
  32  343.5261
  33  301.9618
  34  159.9556
  35  80.76856
  36  92.69948
  37  116.2033
  38  203.3415
  39  182.7766
  40  309.6106
  41  314.1788
  42  434.1809
  43  482.8827
  44  617.1452
  45  550.6611
  46  530.0874
  47  433.9153
  48  372.1138
  49  244.9124
  50  213.2361
  51  240.8801
  52  350.7235
  53  318.0258
  54  420.5527
  55  343.1227
  56  295.764
  57  151.7208
  58  143.9315
  59  110.9625
  60  163.0342
  61  254.4932
  62  308.0175
  63  265.476
  64  173.3646
  65  195.6165
  66  93.20208
  67  130.9848
  68  169.9662
  69  307.1292
  70  223.7327
  71  206.2513
  72  315.6355
  73  556.2921
  74  499.8178
  75  420.1494
  76  434.6788
  77  416.8489
  78  269.6328
  79  176.2262
  80  217.8762
  81  191.9506
  82  116.3369
  83  203.4822
  84  293.0219
  85  352.924
  86  307.6104
  87  348.6779
  88  386.7868
  89  328.024
  90  409.4402
  91  339.2583
  92  303.4572
  93  233.8967
  94  375.8089
  95  357.8135
  96  306.3464
  97  193.4293
  98  260.3325
  99  284.9753
 100  239.4617
 101  208.9751
 102  236.5635
 103  281.2521
 104  246.9564
 105  214.3705
 106  349.6778
 107  401.6865
 108  492.562
 109  536.5441
 110  561.1896
 111  407.3138
 112  341.886
 113  315.1871
 114  272.8183
 115  114.1991
 116  168.0237
 117  116.748
 118  82.12193
 119  20.29094
 120  74.69888
 121  160.5396
 122  147.6548
 123  204.5714
 124  264.1012
 125  316.1279
 126  285.4039
 127  288.696
 128  184.4135
 129  274.1753
 130  187.219
 131  192.0256
 132  34.13307
 133  64.37463
 134  107.7633
 135  213.55
 136  164.2499
 137  224.5253
 138  241.383
 139  174.6702
 140  147.5061
 141  181.6498
 142  176.3145
 143  44.3618
 144  -17.12445
 145  15.88987
 146  66.97333
 147  -23.35077
 148  133.635
 149  155.4181
 150  263.8283
 151  210.6802
 152  241.4447
 153  164.1599
 154  146.7494
 155  110.8156
 156  285.3338
 157  165.4782
 158  181.6441
 159  97.95902
 160  188.104
 161  222.0038
 162  340.7197
 163  337.7857
 164  186.1973
 165  63.50873
 166  29.78264
 167  74.6667
 168  115.4658
 169  219.1305
 170  376.1534
 171  358.9277
 172  371.7678
 173  426.6939
 174  367.8446
 175  398.0999
 176  276.5135
 177  403.59
 178  306.7242
 179  308.2067
 180  220.3394
 181  351.3009
 182  241.317
 183  188.4267
 184  50.70557
 185  215.0939
 186  201.9252
 187  234.7471
 188  250.0455
 189  281.3818
 190  233.6771
 191  311.2148
 192  452.8444
 193  440.0758
 194  332.6494
 195  311.2658
 196  366.6729
 197  259.1887
 198  101.4823
 199  46.42656
 200  56.54524
 201  45.93177
 202  44.16647
 203  105.0468
 204  261.5755
 205  299.5803
 206  563.659
 207  600.6342
 208  568.0861
 209  337.3484
 210  362.4266
 211  255.1321
 212  108.9286
 213  -69.06326
 214  35.31921
 215  10.37853
 216  169.2955
 217  140.6924
 218  340.8494
 219  248.1271
 220  386.515
 221  432.9915
 222  340.8481
 223  242.622
 224  261.4075
 225  472.0807
 226  456.6461
 227  412.9915
 228  238.1229
 229  172.7557
 230  79.77478
 231  106.7509
 232  221.5717
 233  218.7036
 234  66.59594
 235  167.8896
 236  221.0509
 237  326.1432
 238  130.1609
 239  402.2162
 240  486.2527
 241  504.0309
 242  395.0373
 243  414.3708
 244  362.5467
 245  207.5323
 246  175.1411
 247  138.1156
 248  192.8484
 249  98.43155
 250  224.6447
 251  227.5751
 252  252.5969
 253  291.4619
 254  275.3394
 255  243.8064
 256  216.6328
 257  291.5548
 258  379.1906
 259  351.8399
 260  308.2052
 261  252.7
 262  209.0408
 263  212.6257
 264  300.782
 265  289.6712
 266  244.4053
 267  138.2321
 268  210.3734
 269  186.6989
 270  240.7552
 271  284.8472
 272  375.9705
 273  380.8705
 274  372.4478
 275  359.9829
 276  300.2369
 277  281.3585
 278  405.0988
 279  456.1534
 280  365.3688
 281  167.2348
 282  149.482
 283  211.3807
 284  206.6772
 285  144.9323
 286  163.3239
 287  283.123
 288  269.005
 289  255.1038
 290  202.6001
 291  382.4597
 292  350.7468
 293  366.5865
 294  249.2904
 295  375.1806
 296  358.5851
 297  284.0267
 298  149.4812
 299  91.62975
 300  157.9955
 301  200.7584
 302  185.9427
 303  53.18927
 304  148.7827
 305  292.1328
 306  377.5784
 307  363.5513
 308  390.6168
 309  276.1885
 310  341.0149
 311  423.2191
 312  564.3133
 313  413.254
 314  329.2653
 315  320.5922
 316  352.3354
 317  239.3778
 318  213.7215
 319  100.2184
 320  200.7678
 321  299.3166
 322  413.8977
 323  396.0792
 324  309.3562
 325  280.4031
 326  323.7342
 327  297.7603
 328  388.6156
 329  308.8727
 330  232.3233
 331  153.0277
 332  101.7675
 333  125.3778
 334  65.41825
 335  134.6862
 336  163.6075
 337  250.5304
 338  261.8306
 339  355.1612
 340  338.2308
 341  351.6732
 342  307.1723
 343  456.0489
 344  509.1225
 345  533.5875
 346  313.5771
 347  342.2234
 348  283.6558
 349  346.1867
 350  270.5608
 351  209.4175
 352  111
 353  198.3683
 354  391.4846
 355  527.2528
 356  450.9666
 357  388.2512
 358  323.1768
 359  204.6481
 360  175.642
 361  80.76025
 362  126.4275
 363  161.6966
 364  290.4055
 365  357.4256
 366  389.9246
 367  303.3907
 368  281.7458
 369  276.6349
 370  340.3105
 371  296.2095
 372  302.4496
 373  385.8346
 374  396.6634
 375  392.9448
 376  457.4195
 377  508.9534
 378  540.7794
 379  386.0061
 380  323.3326
 381  130.5371
 382  28.72595
 383  36.91562
 384  155.7316
 385  370.3465
 386  423.2036
 387  348.8753
 388  362.7439
 389  408.6399
 390  434.8752
 391  486.6522
 392  398.6359
 393  362.6314
 394  216.8643
 395  305.042
 396  249.168
 397  184.0869
 398  87.76843
 399  241.3418
 400  209.0912
 401  370.1633
 402  415.9447
 403  615.3306
 404  429.6546
 405  277.0061
 406  178.8138
 407  221.405
 408  287.8062
 409  222.0266
 410  226.3734
 411  239.0863
 412  297.2536
 413  257.773
 414  285.5496
 415  181.4868
 416  231.7263
 417  231.9308
 418  332.3097
 419  232.9594
 420  268.1644
 421  230.7776
 422  354.6735
 423  235.5343
 424  205.9107
 425  108.2556
 426  287.4301
 427  335.639
 428  432.0938
 429  220.2362
 430  218.0847
 431  173.1381
 432  253.0175
 433  316.1781
 434  218.3949
 435  126.9277
 436  122.8138
 437  178.6149
 438  222.5267
 439  212.8042
 440  143.8957
 441  174.5917
 442  191.1216
 443  365.0037
 444  377.85
 445  364.75
 446  249.9201
 447  189.1621
 448  186.6373
 449  303.2745
 450  343.0981
 451  541.2086
 452  459.282
 453  395.0283
 454  203.9354
 455  136.7111
 456  163.7239
 457  208.7911
 458  350.1021
 459  409.1787
 460  370.0515
 461  175.6048
 462  99.18436
 463  150.5961
 464  181.2851
 465  97.51167
 466  168.9864
 467  182.6593
 468  217.8956
 469  160.9264
 470  115.1468
 471  77.57409
 472  58.43414
 473  215.7493
 474  261.7795
 475  214.4278
 476  199.1189
 477  144.5986
 478  300.1436
 479  189.4438
 480  184.6539
 481  90.13773
 482  180.5444
 483  235.441
 484  234.7663
 485  215.2595
 486  244.4892
 487  368.8202
 488  470.4135
 489  452.5049
 490  453.8764
 491  384.6472
 492  305.1259
 493  248.2105
 494  212.1914
 495  254.7907
 496  221.8874
 497  243.8768
 498  274.4819
 499  296.5903
 500  346.933
 501  276.1644
 502  334.9096
 503  428.4504
 504  446.4724
 505  335.1611
 506  191.2472
 507  156.6067
 508  107.7419
 509  219.521
 510  233.7101
 511  344.2614
 512  204.265
 513  277.1706
 514  269.2536
 515  278.4865
 516  276.9876
 517  293.9862
 518  408.968
 519  396.3138
 520  320.0923
 521  368.6779
 522  366.16
 523  417.9175
 524  355.7972
 525  287.0512
 526  295.6044
 527  248.1712
 528  236.9831
 529  93.08347
 530  113.0568
 531  61.79213
 532  195.4562
 533  246.5555
 534  393.6507
 535  339.3061
 536  413.0395
 537  446.1962
 538  528.421
 539  463.3946
 540  306.009
 541  259.5268
 542  205.7822
 543  215.4679
 544  165.4169
 545  158.0525
 546  225.2145
 547  227.0131
 548  245.6926
 549  202.5195
 550  193.4393
 551  309.0259
 552  414.6074
 553  427.3067
 554  319.4345
 555  290.1512
 556  338.085
 557  395.4587
 558  351.432
 559  268.6558
 560  164.2551
 561  210.3875
 562  300.4614
 563  458.9213
 564  363.5238
 565  324.0426
 566  231.7353
 567  186.5832
 568  27.89885
 569  91.16106
 570  187.8123
 571  282.4726
 572  216.037
 573  198.3699
 574  238.7066
 575  200.605
 576  154.3271
 577  204.9701
 578  294.2797
 579  349.8271
 580  335.7679
 581  323.4919
 582  416.3727
 583  392.811
 584  391.0437
 585  231.6941
 586  301.4346
 587  237.9445
 588  296.9082
 589  191.6262
 590  132.8387
 591  171.1444
 592  187.3297
 593  180.2453
 594  45.83487
 595  145.793
 596  339.7246
 597  512.7613
 598  446.7913
 599  494.7378
 600  455.5308
 601  422.9829
 602  200.8475
 603  219.7907
 604  221.8199
 605  228.1333
 606  194.9083
 607  241.6733
 608  212.1572
 609  215.4268
 610  288.501
 611  322.8856
 612  269.5587
 613  394.6315
 614  389.0789
 615  409.894
 616  263.964
 617  312.6728
 618  270.4393
 619  329.2104
 620  454.7388
 621  661.2293
 622  696.2495
 623  524.0677
 624  461.4511
 625  502.1115
 626  480.4229
 627  431.3168
 628  401.4716
 629  363.1702
 630  420.8686
 631  406.1115
 632  584.3992
 633  653.5835
 634  932.6345
 635  1025.431
 636  1141.698
 637  1087.733
 638  1068.416
 639  960.3369
 640  1035.945
 641  875.7211
 642  839.2268
 643  543.2181
 644  521.3979
 645  312.136
 646  269.6897
 647  166.5483
 648  289.1778
 649  478.9346
 650  564.3371
 651  501.1088
 652  349.9
 653  237.7581
 654  263.2772
 655  212.7648
 656  263.38
 657  264.0433
 658  352.9701
 659  334.691
 660  338.0201
 661  282.371
 662  169.5662
 663  137.4529
 664  227.2162
 665  383.9969
 666  382.0259
 667  467.7792
 668  404.1604
 669  443.257
 670  225.6833
 671  286.9791
 672  294.4177
 673  333.3807
 674  123.2659
 675  104.2097
 676  56.78231
 677  197.61
 678  217.4921
 679  402.0365
 680  429.2291
 681  379.0084
 682  371.9037
 683  400.9111
 684  416.8606
 685  407.7429
 686  530.6257
 687  528.0572
 688  431.8863
 689  349.1402
 690  285.0016
 691  181.9452
 692  44.2973
 693  160.8227
 694  258.105
 695  227.8502
 696  189.7471
 697  210.5688
 698  359.9814
 699  417.3652
 700  399.945
 701  405.9289
 702  443.9099
 703  529.9271
 704  511.7299
 705  433.0196
 706  400.9359
 707  348.4261
 708  455.575
 709  300.6667
 710  325.5202
 711  355.8724
 712  442.6366
 713  371.5503
 714  275.5558
 715  361.8083
 716  397.259
 717  449.3592
 718  367.0264
 719  366.8742
 720  206.2244
 721  131.0273
 722  175.3337
 723  249.1578
 724  152.2527
 725  99.65162
 726  163.8928
 727  197.838
 728  131.9841
 729  202.0131
 730  306.6563
 731  382.4518
 732  399.4366
 733  411.8468
 734  362.4207
 735  199.4129
 736  313.2745
 737  332.5912
 738  361.6696
 739  174.9048
 740  193.4003
 741  211.3397
 742  413.3575
 743  487.8104
 744  567.9175
 745  485.0023
 746  498.9591
 747  513.2853
 748  630.0125
 749  551.8602
 750  523.3936
 751  503.4774
 752  558.87
 753  571.4406
 754  465.9822
 755  302.8719
 756  184.6077
 757  68.27337
 758  126.7775
 759  149.6104
 760  188.3229
 761  157.6784
 762  257.1556
 763  349.6096
 764  328.2149
 765  255.0733
 766  285.619
 767  285.1871
 768  167.6355
 769  191.7547
 770  221.0527
 771  334.967
 772  272.1266
 773  340.0689
 774  380.3839
 775  423.6705
 776  316.875
 777  308.9307
 778  161.326
 779  80.80405
 780  116.3386
 781  242.7566
 782  335.8773
 783  311.5622
 784  288.4189
 785  225.5462
 786  136.7607
 787  180.9103
 788  384.2665
 789  409.3632
 790  379.5106
 791  306.2023
 792  402.8853
 793  362.3047
 794  379.5041
 795  368.9646
 796  495.2401
 797  401.2699
 798  477.0354
 799  476.2773
 800  528.1134
 801  453.6927
 802  436.6402
 803  386.5112
 804  399.3426
 805  338.5285
 806  298.9671
 807  191.2758
 808  299.0194
 809  345.0841
 810  350.8013
 811  182.152
 812  91.03904
 813  99.31982
 814  230.7916
 815  258.2867
 816  283.5665
 817  337.2176
 818  437.8346
 819  474.0473
 820  403.7519
 821  448.3566
 822  417.9548
 823  397.2046
 824  333.4749
 825  310.1362
 826  191.987
 827  100.3319
 828  70.14712
 829  140.4723
 830  105.4281
 831  219.1153
 832  237.7232
 833  357.7969
 834  292.3716
 835  319.1528
 836  320.5885
 837  332.4243
 838  239.5257
 839  248.4605
 840  257.6872
 841  280.3923
 842  313.9548
 843  256.936
 844  221.4611
 845  174.8831
 846  274.0128
 847  226.6877
 848  332.8795
 849  410.5691
 850  523.473
 851  332.0871
 852  164.5111
 853  87.43935
 854  216.9599
 855  310.0603
 856  337.895
 857  289.7554
 858  385.3122
 859  360.7028
 860  450.5284
 861  217.9918
 862  166.0883
 863  47.4867
 864  149.8209
 865  263.1564
 866  528.1818
 867  694.1451
 868  567.4071
 869  406.4662
 870  238.8525
 871  305.0976
 872  290.0075
 873  351.9166
 874  220.0157
 875  369.9396
 876  421.7653
 877  551.0446
 878  457.6914
 879  613.2593
 880  617.4238
 881  664.4744
 882  547.6429
 883  509.8356
 884  359.137
 885  507.6961
 886  462.1709
 887  411.3512
 888  168.7331
 889  163.5276
 890  214.7323
 891  256.1162
 892  299.1954
 893  367.7465
 894  457.1453
 895  386.6891
 896  399.7616
 897  376.0408
 898  416.6054
 899  403.1542
 900  486.8515
 901  465.4736
 902  420.0673
 903  296.9805
 904  300.465
 905  139.3912
 906  309.3648
 907  371.3849
 908  456.3944
 909  308.6011
 910  355.4133
 911  383.5462
 912  452.3875
 913  288.0043
 914  294.1593
 915  230.3836
 916  237.475
 917  199.0148
 918  287.8091
 919  352.3289
 920  351.8748
 921  214.7919
 922  320.0156
 923  434.3538
 924  439.9185
 925  372.4869
 926  284.5945
 927  254.3958
 928  168.8738
 929  285.1618
 930  326.6028
 931  305.184
 932  222.0271
 933  392.8938
 934  430.9941
 935  321.648
 936  152.6747
 937  166.5342
 938  256.4662
 939  414.5727
 940  422.4942
 941  349.6377
 942  227.3125
 943  296.556
 944  416.2358
 945  411.5
 946  294.9525
 947  270.1323
 948  229.6397
 949  269.2516
 950  280.674
 951  443.0192
 952  373.8556
 953  207.3459
 954  144.3229
 955  181.2112
 956  227.5661
 957  191.7424
 958  261.0497
 959  433.1784
 960  482.5482
 961  373.987
 962  365.4029
 963  305.4503
 964  403.7789
 965  385.3702
 966  524.3901
 967  435.125
 968  334.4152
 969  326.1773
 970  426.5362
 971  284.2924
 972  171.5101
 973  86.06731
 974  144.4662
 975  120.9031
 976  183.3507
 977  200.649
 978  210.7936
 979  224.6848
 980  242.6598
 981  344.5639
 982  298.6414
 983  315.7384
 984  276.0395
 985  364.8305
 986  226.5689
 987  217.7153
 988  62.48545
 989  3.158948
 990  -84.71452
 991  34.81972
 992  75.08353
 993  89.56655
 994  97.85505
 995  249.0519
 996  248.3499
 997  253.3392
 998  163.3713
 999  194.5804
1000  203.2618
1001  291.8224
1002  380.8128
1003  330.131
1004  214.2439
1005  160.9067
1006  150.6542
1007  153.4967
1008  136.4844
1009  167.3086
1010  158.3939
1011  148.5059
1012  260.597
1013  283.8818
1014  252.8236
1015  112.7137
1016  216.8563
1017  203.8786
1018  243.7927
1019  134.5163
1020  222.0602
1021  170.4455
1022  170.2704
1023  113.5617
