# Input file       =  1192587082.133473_cleaned.dat
# Candidate        =  PSR_0332+5434
# Telescope        =  AR
# Epoch_topo       =  58047.091448304083
# Epoch_bary       =  N/A
# T_sample         =  0.002
# Data Folded      =  7340032
# Data Avg         =  0.0453665388849913
# Data StdDev      =  2.50487576456294 
# Profile Bins     =  1024
# Profile Avg      =  325.146975080847 
# Profile StdDev   =  212.072906820682 
# Reduced chi-sqr  =  1.391
# Prob(Noise)      <  1.27e-15   (~7.9 sigma)
# P_topo (ms)      =  714.486593002143  +/- 0.000185
# P'_topo (s/s)    =  -0                +/- 9.75e-11
# P''_topo (s/s^2) =  0                 +/- 4.3e-14
# P_bary (ms)      =  N/A
# P'_bary (s/s)    =  N/A
# P''_bary (s/s^2) =  N/A
# P_orb (s)        =  N/A
# asin(i)/c (s)    =  N/A
# eccentricity     =  N/A
# w (rad)          =  N/A
# T_peri           =  N/A
######################################################
   0  439.5158
   1  420.3185
   2  413.3517
   3  380.2646
   4  353.1638
   5  399.5889
   6  411.7352
   7  421.0792
   8  326.5967
   9  338.0176
  10  475.4523
  11  585.3911
  12  577.1667
  13  553.8889
  14  509.9802
  15  492.9464
  16  466.3402
  17  412.2664
  18  401.1152
  19  295.5387
  20  262.4516
  21  290.1625
  22  287.0758
  23  278.0818
  24  252.1082
  25  221.4947
  26  253.6816
  27  254.1687
  28  317.1232
  29  316.9872
  30  439.7338
  31  483.0718
  32  473.0727
  33  455.6978
  34  504.3733
  35  433.9355
  36  308.0463
  37  263.6267
  38  393.093
  39  420.1844
  40  369.8094
  41  292.6611
  42  307.7024
  43  306.5178
  44  343.0972
  45  398.4954
  46  539.4095
  47  480.2566
  48  583.7844
  49  508.9182
  50  404.2652
  51  200.0459
  52  254.0089
  53  380.0363
  54  390.584
  55  341.6578
  56  474.3508
  57  580.5464
  58  562.8596
  59  456.642
  60  478.2641
  61  496.6201
  62  527.3807
  63  460.2144
  64  422.2902
  65  331.1187
  66  351.4258
  67  346.0113
  68  277.2777
  69  277.7687
  70  311.4664
  71  419.6405
  72  397.2947
  73  454.4402
  74  324.2185
  75  251.8461
  76  113.2017
  77  103.0651
  78  103.6803
  79  207.5384
  80  185.1197
  81  236.275
  82  248.3791
  83  354.01
  84  263.407
  85  281.1173
  86  409.9284
  87  413.2092
  88  333.9846
  89  219.8902
  90  143.1098
  91  126.6769
  92  167.6167
  93  295.1573
  94  284.9728
  95  230.7894
  96  220.0395
  97  232.0993
  98  219.1388
  99  216.8247
 100  177.0897
 101  264.7662
 102  405.5271
 103  410.994
 104  297.1973
 105  159.6844
 106  175.4361
 107  177.9511
 108  66.17393
 109  66.39397
 110  135.1106
 111  146.9991
 112  40.22917
 113  134.1198
 114  320.7264
 115  492.2857
 116  523.8579
 117  435.5202
 118  257.9622
 119  194.4797
 120  261.4055
 121  315.6329
 122  261.3045
 123  255.3622
 124  371.6485
 125  440.621
 126  417.7461
 127  418.7263
 128  467.214
 129  498.0518
 130  456.4148
 131  444.8341
 132  486.2108
 133  432.5578
 134  360.0045
 135  310.3238
 136  314.0089
 137  324.6817
 138  251.0831
 139  302.1946
 140  388.5169
 141  408.6594
 142  322.6075
 143  236.9164
 144  255.9126
 145  289.0595
 146  405.9699
 147  431.0629
 148  346.0409
 149  193.8685
 150  236.9648
 151  306.1855
 152  302.7115
 153  246.7964
 154  192.9473
 155  202.7032
 156  220.5169
 157  247.049
 158  270.7837
 159  294.8896
 160  326.8148
 161  399.3108
 162  430.2733
 163  449.7565
 164  507.7956
 165  459.3359
 166  414.2125
 167  411.6557
 168  410.0892
 169  449.2733
 170  371.0766
 171  388.5461
 172  343.5562
 173  351.0029
 174  393.731
 175  399.8973
 176  358.8439
 177  343.2964
 178  322.8046
 179  364.8601
 180  355.2894
 181  373.8936
 182  331.7465
 183  257.3328
 184  201.9164
 185  88.95914
 186  120.2606
 187  67.42257
 188  233.151
 189  183.2045
 190  221.8593
 191  260.615
 192  316.4074
 193  367.1318
 194  263.9289
 195  271.2446
 196  328.8262
 197  308.7074
 198  345.1075
 199  361.3423
 200  366.8621
 201  289.7146
 202  272.1676
 203  333.7276
 204  380.8183
 205  428.5334
 206  417.2478
 207  343.624
 208  310.9355
 209  381.7559
 210  487.7634
 211  441.01
 212  355.9378
 213  266.6637
 214  247.0888
 215  265.0972
 216  217.0534
 217  221.0289
 218  255.9375
 219  331.9929
 220  390.1924
 221  333.2729
 222  286.6394
 223  224.9795
 224  327.5852
 225  301.2353
 226  197.8898
 227  65.29436
 228  163.5917
 229  315.5174
 230  347.8589
 231  364.8778
 232  356.0718
 233  452.2019
 234  478.0557
 235  486.3969
 236  489.2314
 237  440.3289
 238  421.0888
 239  418.8604
 240  440.1783
 241  377.4203
 242  377.8679
 243  436.4669
 244  515.397
 245  488.4526
 246  408.2566
 247  404.6227
 248  373.4745
 249  344.1632
 250  321.7723
 251  312.5236
 252  246.2005
 253  218.1813
 254  163.4764
 255  168.4935
 256  265.0339
 257  340.9169
 258  369.0242
 259  433.1096
 260  511.8909
 261  467.1757
 262  369.2265
 263  410.0385
 264  482.0852
 265  416.5735
 266  282.9204
 267  226.6624
 268  166.7062
 269  247.2675
 270  284.1099
 271  457.7155
 272  322.899
 273  280.5997
 274  250.346
 275  340.3406
 276  300.9389
 277  271.0775
 278  274.7218
 279  242.3705
 280  216.0081
 281  174.643
 282  325.1699
 283  330.5431
 284  312.8802
 285  149.5378
 286  138.1173
 287  203.3532
 288  300.5004
 289  313.4766
 290  246.5578
 291  236.7791
 292  248.5463
 293  221.5983
 294  185.0824
 295  231.7204
 296  312.5661
 297  357.8309
 298  353.9516
 299  332.7749
 300  257.1359
 301  264.3066
 302  250.3291
 303  372.9214
 304  368.3473
 305  362.6339
 306  359.3868
 307  370.6477
 308  392.5844
 309  409.909
 310  412.9004
 311  398.2262
 312  277.4492
 313  322.0643
 314  462.8645
 315  544.8531
 316  489.8756
 317  413.8059
 318  491.9457
 319  513.0652
 320  586.4749
 321  517.5841
 322  493.1659
 323  326.7955
 324  389.8023
 325  416.9465
 326  489.1667
 327  377.8524
 328  342.5972
 329  370.9102
 330  393.5003
 331  344.7986
 332  328.7218
 333  403.4944
 334  379.5236
 335  289.5006
 336  303.4478
 337  348.9508
 338  451.4861
 339  440.1919
 340  483.5496
 341  370.2142
 342  305.9134
 343  239.1143
 344  316.8993
 345  426.9539
 346  503.4919
 347  511.129
 348  387.1514
 349  325.7915
 350  390.2558
 351  469.0632
 352  446.5197
 353  223.1203
 354  209.1156
 355  275.7123
 356  264.2546
 357  184.045
 358  96.87721
 359  203.2939
 360  337.8617
 361  427.5414
 362  486.7548
 363  473.5658
 364  430.7126
 365  313.8661
 366  262.6718
 367  257.4267
 368  342.1472
 369  345.7672
 370  381.8073
 371  274.0353
 372  337.6831
 373  330.5167
 374  290.1029
 375  221.9262
 376  173.934
 377  165.8295
 378  144.3274
 379  196.228
 380  277.7477
 381  247.9694
 382  256.5016
 383  273.6561
 384  393.9313
 385  455.938
 386  344.8991
 387  266.7494
 388  275.9594
 389  275.7002
 390  337.3502
 391  337.4716
 392  495.947
 393  503.3019
 394  445.4613
 395  250.5929
 396  103.4418
 397  121.9996
 398  159.7798
 399  223.8026
 400  211.7423
 401  249.0246
 402  231.7791
 403  353.3998
 404  388.7385
 405  311.0124
 406  280.2785
 407  204.3478
 408  310.9082
 409  282.9725
 410  366.9361
 411  284.7356
 412  274.4492
 413  237.4476
 414  274.0104
 415  264.5217
 416  366.4994
 417  402.8119
 418  480.7252
 419  407.2313
 420  486.811
 421  545.6641
 422  488.9657
 423  367.8334
 424  336.0852
 425  381.5244
 426  435.4717
 427  368.1531
 428  506.4229
 429  485.1644
 430  496.5583
 431  321.4515
 432  298.2197
 433  222.4512
 434  216.4501
 435  207.3236
 436  212.343
 437  228.7613
 438  325.7116
 439  341.0537
 440  352.756
 441  190.3513
 442  133.0824
 443  143.4606
 444  247.38
 445  334.0746
 446  299.6879
 447  331.6175
 448  377.131
 449  428.5982
 450  392.3004
 451  416.4544
 452  403.5692
 453  343.5522
 454  295.3365
 455  315.8174
 456  391.0392
 457  368.162
 458  323.0429
 459  258.0144
 460  267.6559
 461  368.8839
 462  536.2459
 463  601.3873
 464  558.3629
 465  562.4464
 466  647.7805
 467  646.5358
 468  603.4894
 469  495.7565
 470  501.0351
 471  567.8235
 472  619.5704
 473  598.4091
 474  459.914
 475  422.8295
 476  399.0759
 477  473.7478
 478  403.3963
 479  366.1987
 480  342.9574
 481  381.2108
 482  213.8056
 483  128.4295
 484  154.606
 485  188.1538
 486  51.42106
 487  102.8502
 488  112.769
 489  255.7983
 490  219.685
 491  231.7543
 492  245.463
 493  310.6816
 494  397.2142
 495  363.1273
 496  351.0196
 497  298.0017
 498  362.7188
 499  288.2882
 500  309.7442
 501  247.8085
 502  170.1329
 503  85.74387
 504  95.89416
 505  255.4292
 506  285.3799
 507  320.5583
 508  315.5089
 509  359.8772
 510  300.269
 511  325.7063
 512  341.2062
 513  454.1244
 514  424.0479
 515  375.6794
 516  338.847
 517  295.4099
 518  285.8822
 519  178.6952
 520  122.1425
 521  105.1608
 522  170.3044
 523  224.4134
 524  218.2466
 525  269.7791
 526  260.3269
 527  261.5379
 528  276.9833
 529  296.4465
 530  251.6267
 531  253.9608
 532  293.951
 533  300.9644
 534  313.3356
 535  383.9961
 536  393.3118
 537  393.5779
 538  310.2263
 539  234.0915
 540  189.3776
 541  223.5613
 542  344.2205
 543  364.2992
 544  377.1788
 545  296.0484
 546  404.134
 547  420.0815
 548  493.7255
 549  394.7372
 550  371.8678
 551  390.3177
 552  376.3722
 553  360.343
 554  286.0307
 555  229.2906
 556  307.8557
 557  316.4178
 558  261.4112
 559  148.6978
 560  185.4982
 561  285.1111
 562  301.8963
 563  205.3235
 564  98.45399
 565  123.5074
 566  305.1528
 567  298.0469
 568  185.298
 569  53.55991
 570  130.447
 571  177.7732
 572  121.8363
 573  166.7994
 574  274.2148
 575  420.9094
 576  297.0795
 577  263.5792
 578  322.457
 579  479.791
 580  480.9076
 581  486.4927
 582  346.3969
 583  343.4439
 584  229.017
 585  303.0531
 586  265.5593
 587  252.2788
 588  211.0709
 589  186.2601
 590  254.264
 591  289.8356
 592  235.5297
 593  144.4039
 594  103.2059
 595  74.47742
 596  64.25982
 597  176.2396
 598  294.8119
 599  394.2871
 600  359.2599
 601  332.4792
 602  210.071
 603  220.7857
 604  269.0754
 605  304.3735
 606  294.7009
 607  324.1396
 608  378.5177
 609  362.9715
 610  411.8091
 611  393.1377
 612  368.9622
 613  300.4099
 614  255.6223
 615  205.5844
 616  185.3838
 617  265.2489
 618  396.1544
 619  531.2687
 620  561.5572
 621  553.7907
 622  497.882
 623  576.2068
 624  551.8088
 625  498.2322
 626  425.4774
 627  386.7513
 628  484.6959
 629  617.6628
 630  754.7894
 631  932.1652
 632  1027.055
 633  1179.522
 634  1250.923
 635  1315.244
 636  1302.83
 637  1264.841
 638  1181.435
 639  1004.49
 640  940.9291
 641  742.181
 642  658.1662
 643  443.3036
 644  383.5691
 645  347.529
 646  355.0285
 647  373.9927
 648  333.1703
 649  356.0025
 650  502.0995
 651  481.0033
 652  487.2871
 653  387.1818
 654  339.1409
 655  255.2295
 656  239.2951
 657  257.5873
 658  252.5895
 659  232.9394
 660  230.3156
 661  322.924
 662  345.1269
 663  406.125
 664  369.1396
 665  358.9292
 666  496.7614
 667  523.106
 668  530.0704
 669  378.5888
 670  344.8921
 671  306.4566
 672  307.083
 673  235.4425
 674  185.1685
 675  95.65351
 676  89.00541
 677  141.2937
 678  227.5754
 679  256.9074
 680  140.7865
 681  123.4453
 682  202.1627
 683  375.695
 684  407.2357
 685  332.1984
 686  224.282
 687  163.1695
 688  237.3803
 689  257.2453
 690  175.8748
 691  140.4696
 692  124.32
 693  243.3483
 694  349.8239
 695  483.4966
 696  496.1945
 697  326.4042
 698  296.0518
 699  329.4866
 700  333.5544
 701  270.7637
 702  280.7699
 703  259.4022
 704  123.4891
 705  22.53372
 706  80.36509
 707  166.3916
 708  226.8205
 709  291.8892
 710  321.0683
 711  238.7436
 712  121.663
 713  241.8474
 714  364.0288
 715  436.9948
 716  354.4416
 717  250.7999
 718  207.0662
 719  191.4787
 720  124.61
 721  155.4833
 722  121.5219
 723  241.9396
 724  222.3884
 725  267.0586
 726  212.4195
 727  201.877
 728  262.5139
 729  290.2264
 730  314.1855
 731  305.2854
 732  364.9289
 733  271.4811
 734  271.3281
 735  282.7856
 736  361.7282
 737  256.8721
 738  215.0924
 739  292.8956
 740  357.6866
 741  324.5359
 742  254.6835
 743  266.793
 744  192.4028
 745  127.3235
 746  111.6451
 747  371.0727
 748  445.4414
 749  384.7208
 750  202.2284
 751  232.915
 752  296.8855
 753  293.7708
 754  217.5156
 755  127.4537
 756  107.0177
 757  198.0792
 758  251.7198
 759  285.4144
 760  281.1846
 761  315.0984
 762  399.8686
 763  407.3405
 764  350.7838
 765  251.446
 766  253.6691
 767  319.5998
 768  351.6127
 769  337.1678
 770  208.7644
 771  181.1569
 772  140.3334
 773  237.2151
 774  299.913
 775  391.943
 776  239.6586
 777  264.3457
 778  293.5276
 779  375.0379
 780  252.3892
 781  193.9594
 782  202.1803
 783  242.2715
 784  299.032
 785  371.7828
 786  336.3703
 787  320.4099
 788  257.0952
 789  251.5126
 790  236.5653
 791  279.2525
 792  307.072
 793  307.642
 794  320.5992
 795  307.1785
 796  398.3525
 797  387.3757
 798  316.3257
 799  315.0312
 800  454.3317
 801  500.9537
 802  454.1535
 803  409.9352
 804  431.1349
 805  457.1489
 806  406.1073
 807  362.8829
 808  279.1372
 809  246.421
 810  277.4695
 811  308.3461
 812  253.958
 813  146.1995
 814  124.7329
 815  212.5665
 816  291.7447
 817  345.0951
 818  299.9729
 819  219.1066
 820  242.6623
 821  263.1225
 822  334.4186
 823  366.926
 824  390.5588
 825  303.1035
 826  203.405
 827  145.0556
 828  244.9737
 829  288.6925
 830  259.2458
 831  91.00757
 832  16.76122
 833  82.61371
 834  151.5922
 835  245.5866
 836  345.4724
 837  315.0038
 838  248.9588
 839  242.6485
 840  258.7614
 841  151.0113
 842  112.8592
 843  193.2032
 844  195.7585
 845  132.5314
 846  94.13483
 847  222.2324
 848  346.2063
 849  478.6239
 850  438.7845
 851  436.2667
 852  320.3431
 853  308.3348
 854  248.4364
 855  390.1176
 856  432.0935
 857  447.8698
 858  340.131
 859  271.3072
 860  195.8907
 861  203.6236
 862  202.9349
 863  270.1857
 864  201.9232
 865  191.9699
 866  280.2175
 867  433.7336
 868  458.7297
 869  281.3795
 870  160.0156
 871  136.6899
 872  218.6151
 873  284.223
 874  384.3392
 875  424.108
 876  357.1611
 877  234.385
 878  210.8643
 879  274.6816
 880  334.749
 881  337.4789
 882  223.6497
 883  168.1638
 884  156.8987
 885  221.4181
 886  267.0993
 887  233.803
 888  165.3086
 889  209.4535
 890  181.6799
 891  239.8343
 892  216.5876
 893  304.99
 894  232.8282
 895  236.9264
 896  342.9328
 897  378.9729
 898  497.7582
 899  385.0247
 900  419.4542
 901  204.5775
 902  129.1951
 903  196.1503
 904  240.1817
 905  294.4578
 906  289.5212
 907  282.1695
 908  238.3042
 909  211.5245
 910  363.1343
 911  424.0541
 912  343.9179
 913  209.6903
 914  208.3422
 915  330.3449
 916  400.964
 917  398.6282
 918  294.0409
 919  279.3781
 920  250.3663
 921  348.578
 922  434.4701
 923  439.3714
 924  239.3901
 925  168.5007
 926  231.5734
 927  292.4614
 928  312.4188
 929  370.6735
 930  490.5058
 931  439.952
 932  418.1718
 933  437.8693
 934  566.899
 935  583.9299
 936  454.9832
 937  396.8233
 938  409.9328
 939  518.5567
 940  495.0613
 941  419.0926
 942  354.3076
 943  371.2483
 944  369.6783
 945  309.3508
 946  280.0786
 947  287.4582
 948  297.1896
 949  335.9926
 950  310.6329
 951  273.9348
 952  171.8803
 953  144.1864
 954  197.6823
 955  257.6452
 956  314.444
 957  400.2378
 958  466.9684
 959  515.5667
 960  486.1694
 961  386.1438
 962  299.6228
 963  246.5863
 964  400.0001
 965  483.6429
 966  470.6979
 967  408.2216
 968  383.9765
 969  255.0533
 970  205.2421
 971  137.466
 972  201.2442
 973  220.3009
 974  268.679
 975  339.9234
 976  306.804
 977  364.0102
 978  320.5551
 979  366.2551
 980  296.4783
 981  257.0011
 982  176.2215
 983  184.4343
 984  208.7272
 985  267.204
 986  229.2838
 987  220.6867
 988  232.1226
 989  294.9513
 990  386.318
 991  323.5677
 992  300.6939
 993  218.2729
 994  164.3995
 995  198.9139
 996  265.4593
 997  333.5724
 998  326.6143
 999  388.6146
1000  341.084
1001  364.9912
1002  327.8633
1003  422.5034
1004  356.348
1005  346.1356
1006  257.7879
1007  300.3738
1008  357.6396
1009  323.9395
1010  239.725
1011  179.423
1012  182.9346
1013  164.9203
1014  255.6795
1015  422.2866
1016  504.3259
1017  444.2499
1018  360.3212
1019  374.982
1020  347.6275
1021  308.8225
1022  284.9355
1023  344.6806
