# Input file       =  1192055239.118371_cleaned.dat
# Candidate        =  PSR_0332+5434
# Telescope        =  AR
# Epoch_topo       =  58040.935857851517
# Epoch_bary       =  N/A
# T_sample         =  0.002
# Data Folded      =  7340032
# Data Avg         =  0.0423471628205985
# Data StdDev      =  2.9199574453867  
# Profile Bins     =  512
# Profile Avg      =  607.069923449049 
# Profile StdDev   =  349.615371027095 
# Reduced chi-sqr  =  1.172
# Prob(Noise)      <  0.00427   (~2.6 sigma)
# P_topo (ms)      =  714.481497566481  +/- 0.000164
# P'_topo (s/s)    =  -0                +/- 8.67e-11
# P''_topo (s/s^2) =  0                 +/- 3.83e-14
# P_bary (ms)      =  N/A
# P'_bary (s/s)    =  N/A
# P''_bary (s/s^2) =  N/A
# P_orb (s)        =  N/A
# asin(i)/c (s)    =  N/A
# eccentricity     =  N/A
# w (rad)          =  N/A
# T_peri           =  N/A
######################################################
   0  529.554
   1  250.6373
   2  837.7626
   3  963.9304
   4  968.7034
   5  549.446
   6  515.6139
   7  266.4168
   8  410.156
   9  356.8018
  10  582.7359
  11  546.8591
  12  588.6828
  13  453.1895
  14  164.2054
  15  220.5171
  16  493.014
  17  489.7761
  18  463.9026
  19  493.2234
  20  599.7482
  21  817.1273
  22  523.7568
  23  460.4537
  24  457.6864
  25  624.5792
  26  287.629
  27  343.9607
  28  586.606
  29  616.6414
  30  608.4931
  31  1040.92
  32  996.7697
  33  515.1622
  34  402.7496
  35  443.9481
  36  303.72
  37  560.9516
  38  817.8435
  39  653.1907
  40  546.9092
  41  580.7949
  42  648.7527
  43  461.2352
  44  502.4013
  45  630.2159
  46  690.3928
  47  692.1276
  48  684.8166
  49  924.8187
  50  780.7915
  51  957.044
  52  695.2502
  53  711.8088
  54  631.3362
  55  360.2627
  56  310.5204
  57  582.8405
  58  887.0773
  59  646.3469
  60  680.414
  61  570.0587
  62  677.0952
  63  756.3901
  64  816.0295
  65  770.837
  66  697.0659
  67  571.1085
  68  709.1956
  69  672.9939
  70  315.3753
  71  538.1586
  72  910.7674
  73  929.0801
  74  523.598
  75  466.7863
  76  468.9814
  77  395.7681
  78  615.5212
  79  868.3982
  80  833.4772
  81  530.4519
  82  623.2132
  83  767.644
  84  873.9769
  85  676.6244
  86  529.2344
  87  595.4653
  88  872.0005
  89  877.5648
  90  687.9861
  91  698.61
  92  733.3605
  93  496.1864
  94  523.8853
  95  557.899
  96  845.0394
  97  978.8283
  98  823.4648
  99  669.1238
 100  706.1277
 101  928.0506
 102  1345.854
 103  1713.953
 104  2280.655
 105  2694.2
 106  2517.874
 107  2503.608
 108  1611.054
 109  990.7753
 110  1001.637
 111  1027.604
 112  793.6921
 113  692.1747
 114  588.5779
 115  695.4195
 116  789.7672
 117  512.4916
 118  366.5141
 119  423.482
 120  780.9264
 121  970.9746
 122  660.6414
 123  521.4156
 124  537.3651
 125  498.5219
 126  663.4758
 127  347.8838
 128  249.824
 129  708.0718
 130  760.5756
 131  592.0518
 132  578.0682
 133  341.8865
 134  582.4108
 135  559.071
 136  480.3585
 137  436.3543
 138  811.928
 139  530.8219
 140  508.5261
 141  516.2167
 142  350.6555
 143  76.24518
 144  708.3694
 145  905.528
 146  794.6622
 147  562.7267
 148  502.0056
 149  534.9149
 150  536.8111
 151  769.5035
 152  904.8994
 153  737.9842
 154  651.903
 155  760.5163
 156  641.1113
 157  453.7765
 158  793.6226
 159  922.1059
 160  1001.591
 161  1019.205
 162  1035.264
 163  759.4261
 164  777.2178
 165  819.3659
 166  771.8799
 167  619.0823
 168  544.0864
 169  513.86
 170  687.0716
 171  644.8131
 172  752.8957
 173  742.7747
 174  792.654
 175  729.9958
 176  782.6006
 177  899.5742
 178  540.3218
 179  660.633
 180  1034.986
 181  727.6003
 182  492.2428
 183  462.0089
 184  595.7825
 185  208.5302
 186  429.9347
 187  468.0887
 188  531.8583
 189  666.1745
 190  639.1095
 191  584.164
 192  462.2931
 193  352.0845
 194  433.7423
 195  469.5949
 196  513.0527
 197  851.0923
 198  586.7007
 199  192.8382
 200  344.3545
 201  510.415
 202  578.9988
 203  281.5005
 204  383.0961
 205  530.2645
 206  634.0049
 207  621.0236
 208  545.6414
 209  744.8689
 210  818.5607
 211  672.7244
 212  536.5085
 213  568.0641
 214  308.3085
 215  556.4202
 216  886.9706
 217  827.2438
 218  889.4058
 219  710.4713
 220  689.3084
 221  776.1359
 222  767.6978
 223  737.7281
 224  527.1768
 225  583.644
 226  668.0776
 227  769.9528
 228  928.6269
 229  761.6166
 230  728.3939
 231  701.0229
 232  714.657
 233  521.2034
 234  701.6021
 235  541.5425
 236  567.64
 237  807.5237
 238  880.9001
 239  1137.918
 240  732.9543
 241  535.0603
 242  534.9588
 243  490.9528
 244  585.7642
 245  986.1951
 246  1017.88
 247  771.3789
 248  768.9171
 249  810.0153
 250  659.0984
 251  465.2957
 252  517.3293
 253  809.7552
 254  787.4573
 255  719.3975
 256  639.5708
 257  586.8239
 258  495.4689
 259  439.9194
 260  572.1134
 261  746.4088
 262  586.741
 263  658.5132
 264  591.2914
 265  346.8344
 266  617.6313
 267  987.2821
 268  981.1883
 269  618.535
 270  651.2697
 271  779.2819
 272  712.3091
 273  653.3561
 274  364.8867
 275  475.6115
 276  594.4412
 277  452.1688
 278  188.5692
 279  507.0404
 280  707.4575
 281  707.6016
 282  654.239
 283  444.4231
 284  401.3877
 285  472.3707
 286  603.2484
 287  660.6984
 288  695.915
 289  784.1053
 290  331.5288
 291  500.8082
 292  407.8373
 293  64.5546
 294  234.2461
 295  457.9279
 296  688.2404
 297  505.0469
 298  441.8559
 299  494.7241
 300  337.4005
 301  481.4914
 302  374.7239
 303  303.2433
 304  168.7213
 305  516.4905
 306  640.8315
 307  581.5226
 308  914.6884
 309  634.0265
 310  373.2694
 311  253.968
 312  565.1292
 313  487.9287
 314  323.2003
 315  346.5673
 316  514.8854
 317  608.8796
 318  453.6513
 319  520.274
 320  596.7637
 321  544.4385
 322  731.6199
 323  731.9557
 324  589.2751
 325  549.504
 326  652.4654
 327  399.8214
 328  248.4366
 329  511.7409
 330  486.2125
 331  442.5576
 332  480.7995
 333  404.8148
 334  481.2893
 335  600.0915
 336  604.434
 337  798.7499
 338  450.4344
 339  477.0859
 340  373.7807
 341  399.5683
 342  444.8727
 343  448.2019
 344  578.4585
 345  764.7048
 346  187.5592
 347  67.39279
 348  242.4298
 349  409.0052
 350  502.775
 351  624.2176
 352  639.2919
 353  489.2745
 354  624.7368
 355  491.1487
 356  150.1862
 357  16.30963
 358  267.7043
 359  407.4536
 360  379.1115
 361  530.4459
 362  682.1628
 363  577.3625
 364  367.4053
 365  606.5518
 366  713.6611
 367  472.9319
 368  321.4822
 369  576.239
 370  703.9012
 371  530.8051
 372  671.8351
 373  832.4488
 374  446.1438
 375  464.2124
 376  462.5766
 377  266.3304
 378  394.3006
 379  523.937
 380  736.9484
 381  791.4155
 382  832.8411
 383  801.7229
 384  687.7342
 385  714.8134
 386  904.5757
 387  872.5745
 388  266.0043
 389  305.231
 390  332.5891
 391  388.9262
 392  619.5219
 393  807.4835
 394  637.6541
 395  567.7237
 396  654.9631
 397  701.3627
 398  783.4833
 399  933.7513
 400  698.5603
 401  942.1954
 402  842.9025
 403  556.989
 404  383.2067
 405  424.7548
 406  269.7201
 407  556.4423
 408  831.9435
 409  869.9721
 410  542.4746
 411  606.9704
 412  723.8597
 413  606.8505
 414  726.4132
 415  568.1539
 416  76.17705
 417  292.7827
 418  630.5527
 419  234.869
 420  496.4844
 421  373.2674
 422  478.9792
 423  328.7112
 424  317.3565
 425  77.80933
 426  175.6995
 427  783.6324
 428  683.4867
 429  317.9413
 430  632.2939
 431  375.5746
 432  50.12711
 433  131.7231
 434  224.2348
 435  254.7382
 436  209.9886
 437  250.2036
 438  661.3472
 439  393.6564
 440  305.8463
 441  524.1809
 442  803.2581
 443  833.4942
 444  672.4602
 445  574.8383
 446  542.5109
 447  593.5936
 448  872.3015
 449  806.695
 450  963.2513
 451  743.5629
 452  351.9055
 453  284.4579
 454  600.9062
 455  798.307
 456  790.6166
 457  610.8214
 458  965.1388
 459  861.0815
 460  449.9417
 461  359.4396
 462  588.988
 463  776.2271
 464  865.5257
 465  373.4542
 466  509.6539
 467  538.4883
 468  189.0757
 469  369.8705
 470  698.9203
 471  758.9547
 472  707.9049
 473  572.7256
 474  356.5961
 475  367.616
 476  526.7805
 477  636.4971
 478  949.5469
 479  779.3403
 480  899.9601
 481  470.5508
 482  98.25191
 483  266.0774
 484  810.1761
 485  850.8029
 486  858.2994
 487  588.4579
 488  535.2806
 489  306.8682
 490  353.6556
 491  480.7415
 492  662.4203
 493  791.4882
 494  548.3142
 495  473.2612
 496  639.7753
 497  411.7297
 498  660.7928
 499  554.1714
 500  830.3619
 501  729.1774
 502  530.1619
 503  466.0785
 504  228.1872
 505  283.9706
 506  505.7748
 507  591.1231
 508  583.5436
 509  506.541
 510  101.0307
 511  283.3533
