# Input file       =  1192845516.153047_cleaned.dat
# Candidate        =  PSR_0332+5434
# Telescope        =  AR
# Epoch_topo       =  58050.082582789895
# Epoch_bary       =  N/A
# T_sample         =  0.002
# Data Folded      =  7340032
# Data Avg         =  0.0550874094582727
# Data StdDev      =  2.7346390860365  
# Profile Bins     =  512
# Profile Avg      =  789.71227703147  
# Profile StdDev   =  327.426641165735 
# Reduced chi-sqr  =  1.307
# Prob(Noise)      <  3.31e-06   (~4.5 sigma)
# P_topo (ms)      =  714.489070019212  +/- 0.00013
# P'_topo (s/s)    =  -0                +/- 6.87e-11
# P''_topo (s/s^2) =  0                 +/- 3.03e-14
# P_bary (ms)      =  N/A
# P'_bary (s/s)    =  N/A
# P''_bary (s/s^2) =  N/A
# P_orb (s)        =  N/A
# asin(i)/c (s)    =  N/A
# eccentricity     =  N/A
# w (rad)          =  N/A
# T_peri           =  N/A
######################################################
   0  696.0862
   1  796.3207
   2  717.1274
   3  743.1395
   4  806.717
   5  618.7578
   6  577.2543
   7  749.0447
   8  825.234
   9  706.6451
  10  751.9489
  11  939.543
  12  1267.543
  13  763.7639
  14  579.5773
  15  459.4442
  16  451.5357
  17  858.9406
  18  1116.596
  19  1263.251
  20  597.3103
  21  307.7961
  22  670.294
  23  623.4732
  24  1001.651
  25  652.7486
  26  537.1003
  27  971.499
  28  948.3181
  29  691.3032
  30  283.2056
  31  399.7279
  32  807.704
  33  778.642
  34  945.0213
  35  920.0283
  36  962.7518
  37  662.5393
  38  765.9359
  39  1149.511
  40  1411.785
  41  1162.203
  42  927.8355
  43  1095.259
  44  1121.56
  45  1046.935
  46  1142.241
  47  1070.916
  48  656.2619
  49  485.8748
  50  627.8124
  51  745.0657
  52  1118.88
  53  961.7993
  54  771.168
  55  741.1467
  56  817.8321
  57  390.3527
  58  607.7097
  59  943.8134
  60  1201.735
  61  613.1764
  62  564.1174
  63  272.0122
  64  105.0031
  65  759.9045
  66  1136.376
  67  569.2269
  68  514.5347
  69  425.2677
  70  705.2037
  71  749.941
  72  1017.984
  73  764.1387
  74  410.2466
  75  745.8127
  76  611.8102
  77  483.6918
  78  535.8191
  79  704.0463
  80  685.0499
  81  479.7571
  82  464.2635
  83  376.5154
  84  489.4279
  85  766.8634
  86  700.4604
  87  736.1321
  88  517.8251
  89  552.3079
  90  598.6495
  91  795.8715
  92  843.0497
  93  824.0679
  94  737.5163
  95  873.6291
  96  991.5084
  97  929.5215
  98  691.5043
  99  896.4963
 100  710.7062
 101  313.997
 102  288.6474
 103  328.8557
 104  422.1461
 105  512.8499
 106  709.7928
 107  994.2073
 108  1041.558
 109  600.8286
 110  764.692
 111  586.2906
 112  488.3531
 113  371.0055
 114  440.91
 115  520.9951
 116  663.5389
 117  650.986
 118  791.1603
 119  900.4158
 120  772.2437
 121  650.31
 122  512.4671
 123  452.6813
 124  770.6574
 125  1056.861
 126  1006.93
 127  1115.819
 128  982.866
 129  760.3224
 130  611.8656
 131  749.2681
 132  786.8171
 133  926.41
 134  963.3232
 135  628.6058
 136  426.476
 137  659.3002
 138  797.0287
 139  1019.947
 140  1021.861
 141  852.7435
 142  646.1286
 143  478.8633
 144  697.0355
 145  835.9689
 146  574.5132
 147  680.3634
 148  1026.516
 149  880.3309
 150  354.7786
 151  622.6738
 152  568.9771
 153  803.6323
 154  918.1683
 155  1077.463
 156  819.5474
 157  665.6101
 158  870
 159  992.6776
 160  951.6065
 161  873.692
 162  828.6785
 163  837.623
 164  795.7952
 165  665.0211
 166  703.8561
 167  580.241
 168  826.61
 169  1010.871
 170  1036.386
 171  1096.415
 172  600.3151
 173  550.1386
 174  600.3278
 175  265.4983
 176  407.1223
 177  930.0504
 178  868.999
 179  647.6252
 180  813.595
 181  796.1198
 182  704.8135
 183  1134.479
 184  1177.514
 185  953.3983
 186  821.3861
 187  860.078
 188  494.6731
 189  500.8915
 190  643.1447
 191  617.56
 192  1265.37
 193  1235.42
 194  910.0648
 195  577.9832
 196  215.658
 197  198.5727
 198  497.0721
 199  589.7064
 200  716.986
 201  817.7662
 202  1019.729
 203  860.0604
 204  798.0873
 205  818.791
 206  1210.387
 207  860.729
 208  890.9066
 209  1162.526
 210  1104.56
 211  629.5785
 212  942.2614
 213  992.1402
 214  1133.265
 215  563.7134
 216  369.3181
 217  642.6689
 218  907.1987
 219  919.7653
 220  991.1591
 221  1073.52
 222  676.0283
 223  431.1665
 224  406.8485
 225  576.9979
 226  781.2715
 227  1016.326
 228  995.7756
 229  779.2209
 230  673.9263
 231  555.5807
 232  651.6501
 233  706.181
 234  746.1873
 235  774.9498
 236  842.4197
 237  750.085
 238  911.1229
 239  837.8894
 240  910.0725
 241  865.7732
 242  729.3501
 243  434.4427
 244  236.1009
 245  262.1214
 246  408.5262
 247  547.622
 248  554.2733
 249  849.0392
 250  1046.755
 251  931.3127
 252  677.4553
 253  467.2722
 254  527.21
 255  844.655
 256  776.9332
 257  498.293
 258  650.9213
 259  919.2621
 260  628.6141
 261  436.6358
 262  817.8945
 263  877.2027
 264  627.5648
 265  822.7962
 266  883.0366
 267  965.184
 268  1084.566
 269  723.8664
 270  832.0321
 271  571.7682
 272  527.0195
 273  412.2208
 274  473.4654
 275  399.8655
 276  547.0249
 277  737.5098
 278  779.5448
 279  514.8447
 280  647.6337
 281  738.8019
 282  839.2676
 283  951.958
 284  1041.737
 285  970.2018
 286  654.6035
 287  585.3703
 288  873.2324
 289  837.3345
 290  629.5462
 291  501.6953
 292  743.6223
 293  687.2787
 294  602.9378
 295  804.9615
 296  806.221
 297  933.4081
 298  1031.457
 299  1236.95
 300  1248.747
 301  658.8273
 302  532.638
 303  921.9597
 304  1179.885
 305  1075.402
 306  1111.372
 307  1017.256
 308  599.2084
 309  409.2439
 310  698.095
 311  696.0494
 312  860.2361
 313  1208.481
 314  1453.987
 315  1784.93
 316  2118.4
 317  2439.562
 318  2542.241
 319  2082.261
 320  1629.585
 321  1187.622
 322  922.1154
 323  990.2338
 324  1090.916
 325  829.1851
 326  748.9664
 327  638.9366
 328  564.7343
 329  906.724
 330  999.4617
 331  1316.095
 332  1163.855
 333  877.5829
 334  961.4246
 335  966.8376
 336  770.5743
 337  619.0622
 338  1152.093
 339  935.1418
 340  870.0939
 341  915.2983
 342  802.6924
 343  913.5323
 344  1155.759
 345  844.8309
 346  767.8591
 347  540.2585
 348  816.3169
 349  977.1349
 350  974.1323
 351  855.2814
 352  828.339
 353  777.8581
 354  646.2472
 355  788.7579
 356  834.8948
 357  834.8297
 358  313.9454
 359  669.9728
 360  569.3605
 361  458.7049
 362  632.6673
 363  996.4291
 364  671.1559
 365  693.0643
 366  969.7339
 367  821.1771
 368  888.8177
 369  809.879
 370  577.2296
 371  399.1289
 372  713.6489
 373  727.1786
 374  865.5266
 375  639.649
 376  567.1862
 377  711.0457
 378  481.7098
 379  805.7011
 380  1062.959
 381  929.1935
 382  910.3029
 383  964.8046
 384  559.2158
 385  401.6108
 386  357.612
 387  408.4287
 388  759.3024
 389  746.4046
 390  1031.331
 391  712.642
 392  490.9688
 393  846.9102
 394  1179.687
 395  1263.664
 396  1109.551
 397  1184.234
 398  995.7964
 399  724.8018
 400  785.7264
 401  993.7021
 402  756.0871
 403  941.2393
 404  890.0248
 405  1024.815
 406  1120.105
 407  699.3045
 408  488.5175
 409  701.7043
 410  616.2345
 411  911.0237
 412  1369.8
 413  1189.247
 414  750.7938
 415  762.1563
 416  701.3788
 417  763.8669
 418  863.4441
 419  701.7249
 420  617.6911
 421  492.1086
 422  793.187
 423  765.3527
 424  858.8967
 425  726.0688
 426  487.2523
 427  629.3433
 428  966.8044
 429  741.6173
 430  849.6747
 431  1028.368
 432  895.8422
 433  764.3066
 434  826.1179
 435  856.864
 436  823.0094
 437  1139.058
 438  621.4068
 439  504.4605
 440  840.3728
 441  546.0806
 442  643.3049
 443  1259.873
 444  1140.273
 445  782.9456
 446  819.4127
 447  762.7229
 448  601.196
 449  359.781
 450  453.3679
 451  660.0633
 452  728.6814
 453  732.8469
 454  841.1292
 455  1008.292
 456  1154.654
 457  1150.629
 458  870.754
 459  1095.107
 460  782.7083
 461  774.5045
 462  685.5046
 463  506.7714
 464  768.4769
 465  939.5018
 466  996.5944
 467  614.8706
 468  495.7005
 469  535.8953
 470  566.9379
 471  1019.161
 472  957.3052
 473  1004.947
 474  805.4218
 475  595.8192
 476  793.4708
 477  656.5096
 478  832.8401
 479  1069.819
 480  926.7789
 481  812.5088
 482  802.1071
 483  786.8226
 484  816.8249
 485  809.607
 486  1097.262
 487  1092.877
 488  964.4843
 489  926.0663
 490  660.8147
 491  384.8109
 492  703.2958
 493  596.4138
 494  1013.696
 495  1010.432
 496  888.0749
 497  722.4087
 498  700.761
 499  690.6476
 500  712.5762
 501  387.6537
 502  132.9207
 503  797.3359
 504  1294.353
 505  957.1027
 506  809.1509
 507  1124.751
 508  723.0234
 509  560.8286
 510  758.3436
 511  985.6826
