# Input file       =  1192328641.147617_cleaned.dat
# Candidate        =  PSR_0332+5434
# Telescope        =  AR
# Epoch_topo       =  58044.100233190016
# Epoch_bary       =  N/A
# T_sample         =  0.002
# Data Folded      =  7340032
# Data Avg         =  0.0458132527980654
# Data StdDev      =  2.6299228986011  
# Profile Bins     =  512
# Profile Avg      =  656.817692951773 
# Profile StdDev   =  314.888654086295 
# Reduced chi-sqr  =  1.353
# Prob(Noise)      <  1.59e-07   (~5.1 sigma)
# P_topo (ms)      =  714.484219437298  +/- 0.000242
# P'_topo (s/s)    =  -0                +/- 1.28e-10
# P''_topo (s/s^2) =  0                 +/- 5.63e-14
# P_bary (ms)      =  N/A
# P'_bary (s/s)    =  N/A
# P''_bary (s/s^2) =  N/A
# P_orb (s)        =  N/A
# asin(i)/c (s)    =  N/A
# eccentricity     =  N/A
# w (rad)          =  N/A
# T_peri           =  N/A
######################################################
   0  798.0714
   1  863.3848
   2  907.1491
   3  1028.368
   4  799.5998
   5  631.0286
   6  723.1536
   7  531.1121
   8  306.1852
   9  211.2009
  10  145.9482
  11  435.8551
  12  600.1013
  13  957.1055
  14  813.0441
  15  949.5215
  16  928.3928
  17  1003.488
  18  815.4625
  19  1593.584
  20  2478.484
  21  2532.788
  22  2453.992
  23  1953.479
  24  1699.86
  25  1168.06
  26  420.7498
  27  521.7097
  28  488.9195
  29  817.4006
  30  704.8523
  31  506.4508
  32  935.9151
  33  1209.818
  34  1026.236
  35  1123.843
  36  809.1366
  37  613.9844
  38  450.5251
  39  700.2381
  40  607.3727
  41  580.1226
  42  643.7681
  43  692.8719
  44  717.5056
  45  632.1539
  46  509.9304
  47  846.5652
  48  757.1599
  49  458.1628
  50  369.125
  51  687.231
  52  1246.23
  53  968.7905
  54  668.06
  55  1108.404
  56  1027.633
  57  1263.338
  58  928.6733
  59  528.9476
  60  817.9884
  61  841.8295
  62  878.151
  63  875.9889
  64  603.3702
  65  568.725
  66  847.6813
  67  811.4602
  68  822.6021
  69  645.2509
  70  400.5592
  71  462.3419
  72  583.8632
  73  709.9028
  74  474.3952
  75  422.8898
  76  629.7893
  77  475.4519
  78  376.3249
  79  785.4457
  80  930.7325
  81  670.6085
  82  737.7801
  83  685.0662
  84  694.3347
  85  451.3822
  86  464.2286
  87  498.7275
  88  298.2483
  89  309.2567
  90  792.7374
  91  712.7391
  92  359.8707
  93  476.6059
  94  898.7789
  95  1056.981
  96  1081.388
  97  1013.19
  98  396.9512
  99  339.0655
 100  443.9558
 101  785.0065
 102  823.5604
 103  301.8169
 104  500.1478
 105  784.4322
 106  1026.327
 107  1081.22
 108  824.6678
 109  793.9364
 110  742.1393
 111  847.2363
 112  955.7324
 113  875.8105
 114  920.9246
 115  1017.371
 116  660.0893
 117  476.6785
 118  801.1136
 119  644.8934
 120  389.4489
 121  533.0861
 122  697.735
 123  667.7773
 124  545.3608
 125  920.7885
 126  874.4499
 127  641.2727
 128  800.9755
 129  852.1711
 130  896.5181
 131  656.8082
 132  538.0234
 133  373.1194
 134  338.4656
 135  498.0981
 136  493.5633
 137  20.86257
 138  133.7675
 139  541.9577
 140  727.5413
 141  643.4088
 142  254.3881
 143  476.4806
 144  734.2122
 145  656.5036
 146  696.9802
 147  532.9462
 148  180.375
 149  380.4215
 150  548.6885
 151  725.2824
 152  304.7956
 153  575.2991
 154  806.7935
 155  642.0294
 156  1002.714
 157  961.7807
 158  504.7478
 159  978.9437
 160  744.9556
 161  981.4391
 162  914.8327
 163  603.8693
 164  668.6394
 165  707.4746
 166  362.0795
 167  486.3735
 168  581.3819
 169  854.8933
 170  986.0505
 171  691.8104
 172  838.1717
 173  777.1619
 174  790.7068
 175  1062.423
 176  825.6893
 177  567.2839
 178  426.8687
 179  887.6612
 180  792.4738
 181  630.3683
 182  941.1161
 183  856.567
 184  525.009
 185  749.7625
 186  589.8568
 187  565.1078
 188  426.9746
 189  319.17
 190  478.1732
 191  551.8693
 192  623.0817
 193  546.9487
 194  384.6893
 195  440.7121
 196  987.9673
 197  1241.824
 198  941.7997
 199  599.648
 200  197.2596
 201  415.0946
 202  736.7946
 203  531.751
 204  850.4696
 205  979.5947
 206  744.3304
 207  619.1479
 208  351.1474
 209  496.7068
 210  774.7209
 211  650.8482
 212  564.9814
 213  614.2155
 214  642.4908
 215  621.1995
 216  492.7046
 217  722.9301
 218  1180.002
 219  882.6792
 220  641.7583
 221  518.678
 222  376.8566
 223  352.7541
 224  363.0396
 225  260.0148
 226  572.7708
 227  587.2209
 228  387.2474
 229  236.165
 230  354.4209
 231  668.0499
 232  651.6921
 233  748.2535
 234  588.3696
 235  585.8096
 236  681.4645
 237  565.546
 238  621.6854
 239  488.0965
 240  729.9929
 241  710.3876
 242  688.2181
 243  635.1974
 244  619.2898
 245  879.7374
 246  690.4777
 247  457.9297
 248  524.5963
 249  538.1565
 250  621.1478
 251  648.0984
 252  778.0817
 253  395.6529
 254  574.9764
 255  802.6493
 256  717.5678
 257  557.5142
 258  491.3275
 259  526.9839
 260  507.3505
 261  975.2312
 262  964.6451
 263  954.6214
 264  640.26
 265  488.7128
 266  953.4193
 267  637.3308
 268  722.783
 269  831.5167
 270  550.2563
 271  748.1829
 272  789.7029
 273  881.5072
 274  949.9235
 275  841.7812
 276  974.5508
 277  953.7837
 278  652.3646
 279  604.0582
 280  622.0469
 281  847.0745
 282  1004.036
 283  549.2792
 284  510.442
 285  615.2351
 286  656.2144
 287  813.9686
 288  459.1845
 289  501.9427
 290  685.839
 291  755.6996
 292  689.4676
 293  893.5438
 294  550.4463
 295  261.1165
 296  625.7771
 297  653.9006
 298  572.1057
 299  618.2903
 300  448.6862
 301  389.4941
 302  324.3854
 303  316.9175
 304  485.075
 305  688.5781
 306  629.2352
 307  611.7416
 308  712.177
 309  834.5438
 310  502.4803
 311  542.7442
 312  661.0771
 313  565.4013
 314  535.103
 315  540.6091
 316  427.9206
 317  305.1214
 318  417.211
 319  617.2375
 320  798.4626
 321  592.1794
 322  415.8633
 323  667.5861
 324  688.9856
 325  736.4315
 326  720.7308
 327  409.8544
 328  723.5737
 329  826.3156
 330  902.0046
 331  782.0412
 332  755.8772
 333  576.7617
 334  536.267
 335  751.9544
 336  602.8557
 337  286.9608
 338  658.0501
 339  927.4348
 340  586.0897
 341  558.7275
 342  286.7553
 343  202.2161
 344  257.4984
 345  405.1178
 346  747.495
 347  863.0001
 348  515.7959
 349  355.2928
 350  698.6183
 351  830.4293
 352  639.2916
 353  832.9835
 354  904.7922
 355  784.5335
 356  926.1546
 357  701.9659
 358  600.2081
 359  439.0235
 360  214.8558
 361  622.9597
 362  797.9273
 363  904.3876
 364  963.2893
 365  874.2593
 366  875.0205
 367  547.1975
 368  409.3286
 369  889.1868
 370  947.893
 371  879.3911
 372  882.063
 373  522.1581
 374  356.0646
 375  312.1312
 376  622.3466
 377  599.8693
 378  516.3967
 379  586.0049
 380  513.5672
 381  630.5521
 382  653.8148
 383  719.8139
 384  720.5781
 385  455.7958
 386  689.9219
 387  675.3182
 388  794.9544
 389  828.178
 390  643.8789
 391  706.6935
 392  854.0598
 393  834.0192
 394  855.4565
 395  623.5201
 396  604.2194
 397  818.2665
 398  968.9846
 399  645.7079
 400  130.3468
 401  430.3301
 402  339.6744
 403  217.549
 404  531.8321
 405  784.7249
 406  758.8959
 407  458.0638
 408  907.6667
 409  766.3851
 410  560.5302
 411  408.7907
 412  590.5453
 413  661.8771
 414  483.9789
 415  610.3162
 416  656.5722
 417  328.4011
 418  474.7961
 419  778.4281
 420  841.843
 421  614.3865
 422  566.4203
 423  459.2332
 424  649.8008
 425  687.6088
 426  733.0568
 427  495.8499
 428  253.9418
 429  417.4283
 430  275.3557
 431  484.8389
 432  738.4909
 433  709.1729
 434  432.1195
 435  532.8989
 436  735.7531
 437  735.293
 438  545.2982
 439  426.0968
 440  618.3032
 441  501.3316
 442  227.0621
 443  190.4913
 444  587.871
 445  682.7734
 446  549.941
 447  317.7674
 448  579.7902
 449  534.5571
 450  465.389
 451  589.7622
 452  704.1514
 453  935.6302
 454  969.5726
 455  839.3836
 456  494.624
 457  437.7401
 458  378.2353
 459  572.5369
 460  483.411
 461  337.8537
 462  582.8546
 463  502.9628
 464  628.2056
 465  696.6099
 466  511.5266
 467  321.1626
 468  475.6449
 469  617.983
 470  895.7856
 471  596.1086
 472  394.6717
 473  551.4073
 474  654.0793
 475  667.4921
 476  688.7972
 477  380.852
 478  532.9133
 479  556.8577
 480  429.6174
 481  740.2818
 482  604.4027
 483  736.1536
 484  825.3431
 485  486.5062
 486  299.2737
 487  176.9441
 488  668.3586
 489  727.8098
 490  483.287
 491  510.8169
 492  601.8233
 493  414.8177
 494  708.9245
 495  719.0514
 496  543.1395
 497  744.6497
 498  622.6232
 499  814.228
 500  588.6725
 501  718.4585
 502  663.6018
 503  357.4805
 504  540.3538
 505  674.7228
 506  490.2598
 507  326.7702
 508  464.1256
 509  560.3476
 510  523.1028
 511  218.0827
