# Input file       =  1192385205.116898_cleaned.dat
# Candidate        =  PSR_0332+5434
# Telescope        =  AR
# Epoch_topo       =  58044.754908760391
# Epoch_bary       =  N/A
# T_sample         =  0.002
# Data Folded      =  7208960
# Data Avg         =  0.194989592048594
# Data StdDev      =  4.32976794324798 
# Profile Bins     =  1024
# Profile Avg      =  1372.77124901801 
# Profile StdDev   =  363.287914352156 
# Reduced chi-sqr  =  0.568
# Prob(Noise)      <  1   (~0.0 sigma)
# P_topo (ms)      =  714.484382222623  +/- 0.000115
# P'_topo (s/s)    =  -0                +/- 6.16e-11
# P''_topo (s/s^2) =  0                 +/- 2.77e-14
# P_bary (ms)      =  N/A
# P'_bary (s/s)    =  N/A
# P''_bary (s/s^2) =  N/A
# P_orb (s)        =  N/A
# asin(i)/c (s)    =  N/A
# eccentricity     =  N/A
# w (rad)          =  N/A
# T_peri           =  N/A
######################################################
   0  1357.415
   1  1437.218
   2  1390.831
   3  1448.014
   4  1362.368
   5  1202.046
   6  1098.766
   7  1077.918
   8  1266.769
   9  1448.563
  10  1461.363
  11  1346.547
  12  1187.582
  13  1212.779
  14  1377.859
  15  1572.793
  16  1644.609
  17  1557.18
  18  1443.216
  19  1315.5
  20  1392.974
  21  1211.946
  22  1424.595
  23  1367.728
  24  1512.272
  25  1407.665
  26  1365.749
  27  1155.202
  28  1148.39
  29  1183.095
  30  1363.767
  31  1292.35
  32  1391.106
  33  1537.856
  34  1582.537
  35  1477.665
  36  1334.849
  37  1328.336
  38  1287.322
  39  1383.268
  40  1310.732
  41  1135.412
  42  1027.728
  43  1122.511
  44  1274.859
  45  1377.053
  46  1285.623
  47  1247.269
  48  1106.037
  49  1301.079
  50  1459.558
  51  1526.431
  52  1402.83
  53  1449.521
  54  1547.409
  55  1556.167
  56  1399.647
  57  1385.317
  58  1496.057
  59  1511.721
  60  1373.913
  61  1317.883
  62  1224.861
  63  1182.198
  64  1172.912
  65  1433.045
  66  1620.171
  67  1636.664
  68  1630.43
  69  1530.13
  70  1403.236
  71  1171.311
  72  1255.245
  73  1235.034
  74  1253.817
  75  1135.989
  76  1334.474
  77  1226.746
  78  1246.086
  79  1219.983
  80  1375.922
  81  1375.479
  82  1412.42
  83  1409.292
  84  1479.995
  85  1405.103
  86  1327.797
  87  1392.409
  88  1523.497
  89  1586.401
  90  1425.078
  91  1328.036
  92  1315.846
  93  1367.388
  94  1311.741
  95  1330.068
  96  1222.47
  97  1332.141
  98  1398.757
  99  1458.415
 100  1357.825
 101  1428.205
 102  1473.988
 103  1585.767
 104  1497.022
 105  1421.026
 106  1317.728
 107  1331.945
 108  1353.575
 109  1360.684
 110  1264.524
 111  1158.969
 112  1126.847
 113  1179.768
 114  1254.558
 115  1277.531
 116  1377.8
 117  1461.466
 118  1514.13
 119  1404.638
 120  1229.629
 121  1090.557
 122  1187.586
 123  1275.632
 124  1460.323
 125  1477.916
 126  1476.497
 127  1238.587
 128  1278.143
 129  1266.098
 130  1510.863
 131  1449.712
 132  1488.805
 133  1442.56
 134  1424.904
 135  1343.81
 136  1237.888
 137  1185.03
 138  1162.368
 139  1210.436
 140  1218.334
 141  1198.904
 142  1205.49
 143  1293.136
 144  1308.963
 145  1224.468
 146  1291.253
 147  1362.369
 148  1424.689
 149  1494.889
 150  1431.206
 151  1460.221
 152  1444.736
 153  1475.241
 154  1318.991
 155  1289.981
 156  1301.032
 157  1385.956
 158  1305.52
 159  1369.679
 160  1456.346
 161  1507.765
 162  1436.351
 163  1528.669
 164  1460.663
 165  1470.824
 166  1442.06
 167  1402.087
 168  1212.679
 169  1104.763
 170  1185.154
 171  1228.976
 172  1233.773
 173  1329.935
 174  1387.54
 175  1274.982
 176  1310.3
 177  1348.804
 178  1538.674
 179  1478.073
 180  1694.471
 181  1703.319
 182  1706.181
 183  1503.833
 184  1576.811
 185  1522.872
 186  1436.723
 187  1272.021
 188  1308.028
 189  1319.332
 190  1351.913
 191  1314.907
 192  1270.347
 193  1226.12
 194  1300.072
 195  1358.65
 196  1384.782
 197  1413.614
 198  1384.511
 199  1484.143
 200  1464.015
 201  1475.669
 202  1392.052
 203  1506.047
 204  1417.655
 205  1475.302
 206  1398.06
 207  1445.125
 208  1413.599
 209  1405.693
 210  1402.017
 211  1509.003
 212  1450.066
 213  1474.723
 214  1503.734
 215  1436.409
 216  1399.052
 217  1413.811
 218  1496.183
 219  1577.265
 220  1487.373
 221  1561.344
 222  1482.809
 223  1514.115
 224  1445.379
 225  1467.846
 226  1310.46
 227  1201.498
 228  1148.403
 229  1264.006
 230  1319.614
 231  1376.224
 232  1478.389
 233  1450.601
 234  1337.36
 235  1176.749
 236  1190.241
 237  1223.608
 238  1200.836
 239  1058.761
 240  1030.741
 241  912.2014
 242  873.1724
 243  931.5169
 244  1000.071
 245  1098.731
 246  1154.007
 247  1273.477
 248  1304.932
 249  1433.07
 250  1489.315
 251  1417.55
 252  1260.651
 253  1234.417
 254  1365.593
 255  1471.334
 256  1523.495
 257  1465.316
 258  1384.264
 259  1334.059
 260  1323.279
 261  1365.539
 262  1318.754
 263  1251.492
 264  1223.953
 265  1367.472
 266  1476.407
 267  1527.415
 268  1352.79
 269  1230.054
 270  1162.363
 271  1291.436
 272  1288.417
 273  1311.733
 274  1246.938
 275  1417.077
 276  1407.299
 277  1365.87
 278  1340.625
 279  1359.794
 280  1372.328
 281  1331.552
 282  1416.45
 283  1380.951
 284  1335.068
 285  1282.458
 286  1288.579
 287  1190.724
 288  1206.441
 289  1291.399
 290  1292.505
 291  1180.977
 292  1167.865
 293  1278.964
 294  1382.276
 295  1453.136
 296  1613.337
 297  1602.125
 298  1517.946
 299  1284.878
 300  1436.943
 301  1316.758
 302  1319.709
 303  1190.557
 304  1221.401
 305  1226.226
 306  1060.948
 307  1095.055
 308  1104.748
 309  1159.955
 310  1192.123
 311  1207.199
 312  1159.011
 313  1267.24
 314  1293.314
 315  1517.774
 316  1502.593
 317  1389.438
 318  1164.267
 319  1137.848
 320  1126.212
 321  1220.025
 322  1142.823
 323  1317.756
 324  1321.749
 325  1358.933
 326  1262.824
 327  1241.206
 328  1160.752
 329  1190.028
 330  1226.585
 331  1233.188
 332  1342.017
 333  1385.949
 334  1482.475
 335  1217.971
 336  1141.673
 337  1154.718
 338  1377.348
 339  1342.376
 340  1306.906
 341  1192.714
 342  1281.148
 343  1324.119
 344  1416.531
 345  1397.447
 346  1387.841
 347  1435.294
 348  1532.729
 349  1391.29
 350  1275.106
 351  1271.113
 352  1455.032
 353  1464.062
 354  1520.481
 355  1435.981
 356  1448.093
 357  1334.878
 358  1343.729
 359  1285.038
 360  1246.298
 361  1226.979
 362  1320.744
 363  1435.54
 364  1429.861
 365  1314.143
 366  1212.87
 367  1289.854
 368  1365.285
 369  1432.668
 370  1444.806
 371  1491.37
 372  1427.396
 373  1436.845
 374  1393.588
 375  1579.046
 376  1530.832
 377  1660.715
 378  1605.078
 379  1547.068
 380  1487.187
 381  1466.434
 382  1447.474
 383  1403.392
 384  1357.883
 385  1316.183
 386  1295.979
 387  1278.217
 388  1399.791
 389  1329.528
 390  1325.151
 391  1356.629
 392  1328.109
 393  1289.174
 394  1288.867
 395  1344.279
 396  1411.825
 397  1256.217
 398  1285.409
 399  1353.975
 400  1383.164
 401  1170.184
 402  1265.66
 403  1349.003
 404  1481.889
 405  1304.901
 406  1330.534
 407  1384.826
 408  1377.772
 409  1485.315
 410  1518.647
 411  1561.87
 412  1488.452
 413  1524.633
 414  1419.807
 415  1321.087
 416  1240.255
 417  1376.444
 418  1432.219
 419  1461.655
 420  1451.426
 421  1419.574
 422  1359.202
 423  1408.316
 424  1320.976
 425  1361.852
 426  1307.359
 427  1353.621
 428  1399.68
 429  1431.332
 430  1463.649
 431  1521.409
 432  1438.414
 433  1442.852
 434  1265.622
 435  1250.04
 436  1154.82
 437  1101.829
 438  1085.776
 439  1132.397
 440  1222.27
 441  1346.716
 442  1469.594
 443  1395.024
 444  1285.859
 445  1109.049
 446  1169.932
 447  1176.322
 448  1422.408
 449  1459.023
 450  1461.871
 451  1384.901
 452  1428.288
 453  1423.748
 454  1333.038
 455  1337.134
 456  1409.408
 457  1330.601
 458  1450.856
 459  1289.715
 460  1200.52
 461  1147.705
 462  1389.913
 463  1510.339
 464  1431.809
 465  1239.122
 466  1258.245
 467  1288
 468  1268.249
 469  1227.74
 470  1190.677
 471  1214.903
 472  1211.333
 473  1257.802
 474  1280.002
 475  1208.609
 476  1198.772
 477  1417.35
 478  1455.46
 479  1483.962
 480  1384.106
 481  1549.185
 482  1400.19
 483  1348.064
 484  1232.719
 485  1365.556
 486  1352.015
 487  1432.999
 488  1446.712
 489  1501.274
 490  1569.49
 491  1523.281
 492  1468.111
 493  1382.905
 494  1408.479
 495  1326.118
 496  1265.751
 497  1276.255
 498  1278.792
 499  1201.883
 500  1121.391
 501  1158.71
 502  1237.724
 503  1312.309
 504  1397.783
 505  1317.823
 506  1407.947
 507  1427.642
 508  1560.467
 509  1480.1
 510  1375.085
 511  1320.434
 512  1435.003
 513  1374.065
 514  1346.895
 515  1336.418
 516  1468.378
 517  1499.806
 518  1504.556
 519  1392.905
 520  1373.274
 521  1332.57
 522  1366.599
 523  1492.952
 524  1517.313
 525  1536.789
 526  1473.865
 527  1525.5
 528  1410.615
 529  1418.801
 530  1387.784
 531  1556.5
 532  1433.66
 533  1372.363
 534  1161.539
 535  1195.585
 536  1218.051
 537  1418.848
 538  1403.903
 539  1485.201
 540  1417.772
 541  1438.152
 542  1341.658
 543  1458.181
 544  1519.127
 545  1456.115
 546  1505.715
 547  1471.958
 548  1358.131
 549  1128.774
 550  1115.734
 551  1120.702
 552  1260.682
 553  1223.674
 554  1425.746
 555  1468.854
 556  1588.93
 557  1568.319
 558  1431.936
 559  1432.403
 560  1538.839
 561  1609.678
 562  1577.072
 563  1449.861
 564  1384.67
 565  1388.841
 566  1376.114
 567  1279.278
 568  1231.467
 569  1185.477
 570  1159.382
 571  1082.688
 572  1106.441
 573  1209.077
 574  1339.67
 575  1369.092
 576  1372.521
 577  1461.158
 578  1459.482
 579  1533.427
 580  1470.839
 581  1604.753
 582  1584.026
 583  1571.611
 584  1404.804
 585  1445.442
 586  1219.903
 587  1170.966
 588  1120.804
 589  1240.107
 590  1164.418
 591  1155.802
 592  1210.432
 593  1264.984
 594  1212.11
 595  1314.78
 596  1516.643
 597  1570.155
 598  1617.857
 599  1484.998
 600  1579.303
 601  1410.971
 602  1373.995
 603  1346.837
 604  1399.959
 605  1330.046
 606  1303.85
 607  1264.761
 608  1394.957
 609  1418.259
 610  1540.609
 611  1684.638
 612  1756.384
 613  1650.928
 614  1668.672
 615  1390.939
 616  1349.906
 617  1227.529
 618  1372.512
 619  1356.273
 620  1397.339
 621  1466.57
 622  1541.36
 623  1452.626
 624  1485.32
 625  1524.151
 626  1575.387
 627  1528.887
 628  1435.324
 629  1438.096
 630  1559.381
 631  1789.604
 632  1889.458
 633  2038.828
 634  2013.917
 635  2128.248
 636  2052.987
 637  2066.64
 638  2069.997
 639  2205.682
 640  2135.342
 641  1947.101
 642  1707.704
 643  1540.064
 644  1431.749
 645  1346.012
 646  1369.624
 647  1386.589
 648  1419.337
 649  1408.06
 650  1372.042
 651  1337.867
 652  1362.682
 653  1453.085
 654  1588.442
 655  1589.713
 656  1417.992
 657  1336.21
 658  1397.399
 659  1490.949
 660  1612.66
 661  1547.437
 662  1522.341
 663  1459.82
 664  1493.703
 665  1452.389
 666  1382.773
 667  1277.262
 668  1469.709
 669  1491.59
 670  1589.492
 671  1433.018
 672  1580.369
 673  1608.385
 674  1719.637
 675  1642.348
 676  1545.461
 677  1354.38
 678  1273.826
 679  1310.64
 680  1313.364
 681  1461.52
 682  1470.968
 683  1539.753
 684  1456.326
 685  1470.472
 686  1477.962
 687  1476.939
 688  1307.344
 689  1322.52
 690  1441.88
 691  1472.556
 692  1330.475
 693  1248.067
 694  1257.359
 695  1381.476
 696  1311.742
 697  1393.328
 698  1291.11
 699  1164.604
 700  1144.001
 701  1261.775
 702  1471.74
 703  1565.676
 704  1534.81
 705  1519.242
 706  1444.325
 707  1444.591
 708  1370.448
 709  1295.626
 710  1299.968
 711  1398.715
 712  1399.823
 713  1422.542
 714  1373.802
 715  1349.807
 716  1399.581
 717  1304.298
 718  1451.947
 719  1337.411
 720  1357.916
 721  1184.247
 722  1197.703
 723  1104.209
 724  1170.989
 725  1273.292
 726  1438.931
 727  1398.394
 728  1318.543
 729  1369.37
 730  1405.158
 731  1386.3
 732  1213.664
 733  1196.601
 734  1251.736
 735  1253.766
 736  1138.072
 737  1204.069
 738  1257.594
 739  1434.233
 740  1483.298
 741  1624.01
 742  1569.337
 743  1590.333
 744  1444.942
 745  1432.782
 746  1386.624
 747  1369.968
 748  1419.976
 749  1437.3
 750  1374.029
 751  1288.739
 752  1164.556
 753  1209.322
 754  1059.505
 755  1156.863
 756  1231.429
 757  1388.768
 758  1225.899
 759  1245.046
 760  1222.485
 761  1320.427
 762  1218.184
 763  1252.763
 764  1198.886
 765  1236.501
 766  1217.16
 767  1217.964
 768  1233.708
 769  1121.536
 770  1275.913
 771  1296.63
 772  1462.224
 773  1389.923
 774  1386.962
 775  1383.567
 776  1395.425
 777  1403.592
 778  1419.516
 779  1397.449
 780  1386.223
 781  1314.398
 782  1210.45
 783  1168.532
 784  1097.731
 785  1198.643
 786  1182.525
 787  1109.309
 788  999.6841
 789  1091.393
 790  1276.652
 791  1570.455
 792  1645.846
 793  1598.702
 794  1575.67
 795  1560.717
 796  1490.355
 797  1313.817
 798  1248.88
 799  1284.778
 800  1051.075
 801  917.507
 802  953.3735
 803  1221.194
 804  1156.221
 805  1088.893
 806  1056.805
 807  1322.81
 808  1413.381
 809  1445.484
 810  1403.364
 811  1485.431
 812  1544.983
 813  1615.373
 814  1414.51
 815  1321.212
 816  1357.994
 817  1443.23
 818  1421.822
 819  1357.474
 820  1289.116
 821  1316.368
 822  1335.436
 823  1379.604
 824  1571.275
 825  1485.975
 826  1673.077
 827  1585.204
 828  1661.906
 829  1404.925
 830  1270.097
 831  1153.665
 832  1406.338
 833  1487.429
 834  1456.731
 835  1262.911
 836  1209.712
 837  1319.019
 838  1305.645
 839  1254.933
 840  1228.628
 841  1328.178
 842  1446.426
 843  1381.57
 844  1149.587
 845  1137.662
 846  1206.179
 847  1329.769
 848  1365.204
 849  1373.808
 850  1330.865
 851  1338.482
 852  1397.515
 853  1511.673
 854  1398.005
 855  1395.499
 856  1371.408
 857  1452.653
 858  1367.489
 859  1416.538
 860  1415.673
 861  1570.227
 862  1506.823
 863  1387.756
 864  1366.421
 865  1298.011
 866  1358.15
 867  1317.275
 868  1351.958
 869  1481.774
 870  1554.345
 871  1645.225
 872  1690.206
 873  1485.276
 874  1510.551
 875  1490.398
 876  1551.373
 877  1404.991
 878  1375.757
 879  1480.901
 880  1550.739
 881  1480.827
 882  1344.834
 883  1319.802
 884  1310.577
 885  1404.515
 886  1541.661
 887  1501.331
 888  1398.481
 889  1358.206
 890  1511.167
 891  1470.709
 892  1422.655
 893  1354.939
 894  1441.346
 895  1271.396
 896  1232.894
 897  1179.468
 898  1240.165
 899  1380.434
 900  1399.9
 901  1531.56
 902  1429.716
 903  1504.671
 904  1422.101
 905  1406.268
 906  1328.65
 907  1462.466
 908  1369.432
 909  1381.148
 910  1224.836
 911  1337.389
 912  1326.546
 913  1482.69
 914  1385.332
 915  1465.235
 916  1394.606
 917  1534.168
 918  1578.224
 919  1655.775
 920  1532.45
 921  1448.892
 922  1348.694
 923  1398.023
 924  1304.419
 925  1309.394
 926  1456.482
 927  1493.497
 928  1498.059
 929  1379.4
 930  1319.342
 931  1337.953
 932  1345.706
 933  1405.733
 934  1264.891
 935  1234.419
 936  1313.093
 937  1509.832
 938  1566.957
 939  1514.588
 940  1511.924
 941  1595.3
 942  1622.461
 943  1639.286
 944  1529.334
 945  1428.16
 946  1291.618
 947  1299.064
 948  1347.548
 949  1328.799
 950  1256.146
 951  1212.01
 952  1301.71
 953  1348.37
 954  1418.747
 955  1452.63
 956  1526.726
 957  1396.672
 958  1480.633
 959  1594.476
 960  1621.045
 961  1608.07
 962  1432.618
 963  1505.491
 964  1318.85
 965  1196.331
 966  1068.051
 967  1086.57
 968  1195.275
 969  1277.966
 970  1271.179
 971  1391.841
 972  1369.386
 973  1258.22
 974  1240.296
 975  1287.025
 976  1458.08
 977  1469.447
 978  1599.515
 979  1642.085
 980  1493.166
 981  1354.752
 982  1379.181
 983  1418.865
 984  1363.852
 985  1301.975
 986  1355.537
 987  1390.051
 988  1298.208
 989  1233.117
 990  1262.483
 991  1373.631
 992  1324.156
 993  1401.282
 994  1377.652
 995  1265.952
 996  1177.076
 997  1123.933
 998  1275.367
 999  1221.53
1000  1237.497
1001  1270.572
1002  1247.776
1003  1089.701
1004  1200.322
1005  1418.561
1006  1606.962
1007  1516.903
1008  1501.464
1009  1601.506
1010  1640.784
1011  1557.078
1012  1491.357
1013  1473.159
1014  1447.734
1015  1432.638
1016  1335.316
1017  1241.324
1018  1110.403
1019  1221.984
1020  1380.883
1021  1517.323
1022  1414.389
1023  1429.227
