# Input file       =  1192673223.132615_cleaned.dat
# Candidate        =  PSR_0332+5434
# Telescope        =  AR
# Epoch_topo       =  58048.088450608971
# Epoch_bary       =  N/A
# T_sample         =  0.002
# Data Folded      =  7340032
# Data Avg         =  0.014366770734914
# Data StdDev      =  1.00008246013463 
# Profile Bins     =  512
# Profile Avg      =  205.965000544676 
# Profile StdDev   =  119.742909579065 
# Reduced chi-sqr  =  1.542
# Prob(Noise)      <  3.56e-14   (~7.5 sigma)
# P_topo (ms)      =  714.487406346764  +/- 0.000118
# P'_topo (s/s)    =  -0                +/- 6.2e-11
# P''_topo (s/s^2) =  0                 +/- 2.74e-14
# P_bary (ms)      =  N/A
# P'_bary (s/s)    =  N/A
# P''_bary (s/s^2) =  N/A
# P_orb (s)        =  N/A
# asin(i)/c (s)    =  N/A
# eccentricity     =  N/A
# w (rad)          =  N/A
# T_peri           =  N/A
######################################################
   0  905.4663
   1  983.2974
   2  716.2499
   3  402.8193
   4  318.3617
   5  312.1512
   6  262.9374
   7  177.5581
   8  106.2053
   9  254.913
  10  184.3789
  11  183.6318
  12  303.2751
  13  227.6715
  14  317.2469
  15  369.696
  16  241.9095
  17  216.0767
  18  154.51
  19  163.1689
  20  167.2323
  21  81.18941
  22  42.19933
  23  239.3285
  24  218.8296
  25  205.4405
  26  116.2697
  27  161.8414
  28  270.6123
  29  126.1155
  30  207.0219
  31  175.278
  32  108.1485
  33  130.8382
  34  90.45576
  35  216.9455
  36  195.8459
  37  254.5225
  38  310.2415
  39  48.32045
  40  75.85171
  41  204.8037
  42  241.5937
  43  159.0755
  44  202.5504
  45  284.3893
  46  215.2875
  47  153.2578
  48  157.8586
  49  144.1413
  50  169.0439
  51  222.4614
  52  313.8241
  53  230.809
  54  186.132
  55  238.1749
  56  319.2953
  57  329.1395
  58  270.5859
  59  281.8523
  60  359.6963
  61  212.3234
  62  182.968
  63  215.586
  64  128.6885
  65  154.9464
  66  199.6221
  67  257.2534
  68  289.4223
  69  166.0711
  70  161.345
  71  178.8319
  72  326.4218
  73  288.543
  74  371.6411
  75  325.8994
  76  155.903
  77  41.19205
  78  160.23
  79  254.1768
  80  235.6624
  81  255.0409
  82  277.1311
  83  124.0823
  84  98.33443
  85  181.4064
  86  136.3331
  87  129.5175
  88  209.4901
  89  183.8415
  90  191.7674
  91  249.6781
  92  279.6766
  93  146.2101
  94  201.2768
  95  72.4891
  96  26.3964
  97  125.9805
  98  258.8896
  99  194.6183
 100  36.40381
 101  31.7605
 102  245.5083
 103  339.4883
 104  228.7888
 105  240.8805
 106  124.7642
 107  89.7569
 108  112.5141
 109  216.9484
 110  172.0194
 111  153.8865
 112  209.321
 113  125.0321
 114  251.9344
 115  96.88127
 116  63.66021
 117  97.11682
 118  240.5258
 119  168.7389
 120  138.0166
 121  169.1104
 122  195.1795
 123  173.3681
 124  144.0682
 125  106.7967
 126  116.5765
 127  227.0449
 128  394.7393
 129  151.2174
 130  123.1915
 131  200.6912
 132  212.1347
 133  199.7258
 134  183.8709
 135  275.0229
 136  293.753
 137  303.394
 138  388.1629
 139  174.03
 140  151.2368
 141  229.9625
 142  212.8883
 143  115.1511
 144  168.8275
 145  188.9909
 146  196.5935
 147  155.7983
 148  204.532
 149  234.6642
 150  190.1323
 151  235.1933
 152  178.345
 153  210.0737
 154  239.2409
 155  100.3581
 156  222.5636
 157  185.1841
 158  126.1954
 159  267.4703
 160  275.086
 161  146.5769
 162  111.1008
 163  252.1828
 164  287.9288
 165  132.6574
 166  63.55834
 167  161.3551
 168  233.9193
 169  158.7436
 170  231.6359
 171  167.6879
 172  81.94683
 173  157.9238
 174  305.1539
 175  58.94652
 176  106.2661
 177  127.5243
 178  118.8672
 179  101.7238
 180  50.77473
 181  154.5251
 182  100.2538
 183  93.65802
 184  153.9539
 185  221.9243
 186  161.4358
 187  187.0131
 188  175.6245
 189  54.71007
 190  20.19461
 191  185.0155
 192  297.1384
 193  252.8302
 194  125.5006
 195  215.7827
 196  109.6011
 197  175.5202
 198  238.2172
 199  282.5771
 200  259.3354
 201  254.799
 202  217.6094
 203  119.3771
 204  143.9951
 205  277.6185
 206  274.4952
 207  312.6139
 208  306.6973
 209  320.021
 210  344.6589
 211  250.3394
 212  266.0435
 213  306.7527
 214  248.9633
 215  198.6317
 216  198.2886
 217  166.4408
 218  138.1573
 219  164.0684
 220  296.2174
 221  234.7861
 222  219.4526
 223  141.1607
 224  196.8668
 225  151.8199
 226  255.3512
 227  134.0927
 228  203.0311
 229  205.8212
 230  198.5164
 231  188.5142
 232  122.2112
 233  92.55171
 234  34.94931
 235  144.6609
 236  255.2134
 237  213.4195
 238  188.2595
 239  229.1997
 240  -33.52154
 241  105.6911
 242  318.9208
 243  245.1422
 244  161.3333
 245  146.0804
 246  212.3982
 247  113.7677
 248  85.87019
 249  212.5197
 250  326.3623
 251  320.7323
 252  310.1859
 253  287.8694
 254  288.808
 255  182.1488
 256  86.33388
 257  81.54169
 258  217.1024
 259  169.1325
 260  216.7197
 261  241.2303
 262  212.2265
 263  238.4939
 264  374.9137
 265  217.4315
 266  181.5855
 267  182.6399
 268  226.3632
 269  212.6887
 270  84.08616
 271  113.5658
 272  133.7337
 273  243.8521
 274  300.1644
 275  107.7801
 276  77.58155
 277  75.36545
 278  87.38964
 279  49.1061
 280  194.0408
 281  220.1101
 282  104.8755
 283  52.44713
 284  206.4793
 285  128.6362
 286  175.7923
 287  226.5044
 288  295.1231
 289  330.9852
 290  295.5841
 291  231.9201
 292  186.7003
 293  77.95348
 294  88.59698
 295  216.724
 296  327.4595
 297  293.0769
 298  139.8529
 299  228.8443
 300  177.4512
 301  107.6742
 302  247.3753
 303  222.0048
 304  210.5985
 305  255.8421
 306  127.398
 307  243.4038
 308  212.3558
 309  169.2072
 310  162.6679
 311  229.494
 312  260.716
 313  260.1231
 314  82.53986
 315  -33.96609
 316  73.25709
 317  112.264
 318  98.46667
 319  139.2945
 320  205.3624
 321  259.5332
 322  237.9456
 323  218.0701
 324  133.7849
 325  33.19941
 326  85.80857
 327  220.7264
 328  301.0956
 329  337.8075
 330  313.4931
 331  252.3665
 332  153.9509
 333  128.6026
 334  98.65376
 335  122.6413
 336  137.568
 337  84.01344
 338  87.83862
 339  160.0683
 340  182.8147
 341  206.3086
 342  258.3372
 343  163.1535
 344  104.5592
 345  281.8326
 346  211.2027
 347  169.5061
 348  240.812
 349  251.6801
 350  196.8668
 351  162.0647
 352  285.06
 353  330.3679
 354  317.1424
 355  328.4554
 356  182.659
 357  9.563403
 358  15.71214
 359  181.5274
 360  136.5044
 361  118.0239
 362  221.4462
 363  202.5342
 364  280.7581
 365  215.4153
 366  180.4174
 367  256.5004
 368  159.182
 369  117.8847
 370  243.4077
 371  202.9724
 372  44.5946
 373  -29.15929
 374  165.0172
 375  225.9497
 376  88.86305
 377  207.5203
 378  367.4277
 379  245.2952
 380  152.4346
 381  105.6549
 382  253.0439
 383  235.4639
 384  184.0178
 385  227.4271
 386  214.703
 387  271.2342
 388  263.9419
 389  208.3399
 390  171.4352
 391  178.6944
 392  153.3987
 393  198.3597
 394  132.4151
 395  172.4151
 396  85.66695
 397  311.1088
 398  375.8981
 399  238.7444
 400  230.2469
 401  112.4022
 402  126.9043
 403  116.1749
 404  154.6946
 405  185.9309
 406  219.3766
 407  225.9244
 408  117.7379
 409  125.995
 410  203.6558
 411  204.8752
 412  241.9655
 413  212.5795
 414  301.4379
 415  174.9128
 416  240.604
 417  295.5042
 418  84.9216
 419  193.3933
 420  113.8819
 421  183.885
 422  221.4636
 423  372.5067
 424  245.989
 425  285.2338
 426  308.0168
 427  110.34
 428  160.1749
 429  292.5402
 430  212.452
 431  104.8302
 432  184.2706
 433  116.6926
 434  129.5755
 435  460.6098
 436  242.5956
 437  28.24331
 438  104.9866
 439  231.9322
 440  237.4281
 441  248.3202
 442  135.2866
 443  263.9981
 444  297.2119
 445  225.6657
 446  87.74472
 447  90.00296
 448  131.9114
 449  149.0246
 450  162.3034
 451  179.5275
 452  49.93279
 453  133.234
 454  165.3856
 455  153.6711
 456  310.3826
 457  341.3945
 458  157.7353
 459  216.4973
 460  215.6205
 461  213.4131
 462  262.1187
 463  204.6896
 464  372.8127
 465  232.5151
 466  349.1755
 467  301.6104
 468  198.6407
 469  328.2214
 470  229.9936
 471  366.7915
 472  293.0618
 473  201.1861
 474  202.2264
 475  307.4586
 476  219.754
 477  196.2387
 478  297.0503
 479  477.4919
 480  276.8611
 481  117.2153
 482  91.0589
 483  122.2582
 484  225.3552
 485  255.586
 486  210.9127
 487  127.8306
 488  126.9814
 489  117.3709
 490  141.4342
 491  158.5787
 492  210.0273
 493  301.1618
 494  268.518
 495  279.5374
 496  281.789
 497  83.95925
 498  295.6728
 499  335.5558
 500  227.471
 501  189.2049
 502  313.6063
 503  265.3519
 504  281.3867
 505  312.4644
 506  316.0308
 507  456.7108
 508  502.0243
 509  740.5933
 510  832.614
 511  852.0723
