# Input file       =  1192070158.12806_cleaned.dat
# Candidate        =  PSR_0332+5434
# Telescope        =  AR
# Epoch_topo       =  58041.108531574770
# Epoch_bary       =  N/A
# T_sample         =  0.002
# Data Folded      =  7340032
# Data Avg         =  0.282280330017136
# Data StdDev      =  11.6761591153454 
# Profile Bins     =  1024
# Profile Avg      =  2023.38529940578 
# Profile StdDev   =  988.550825203965 
# Reduced chi-sqr  =  0.700
# Prob(Noise)      <  1   (~0.0 sigma)
# P_topo (ms)      =  714.481959171053  +/- 4.76e-05
# P'_topo (s/s)    =  -0                +/- 2.51e-11
# P''_topo (s/s^2) =  0                 +/- 1.11e-14
# P_bary (ms)      =  N/A
# P'_bary (s/s)    =  N/A
# P''_bary (s/s^2) =  N/A
# P_orb (s)        =  N/A
# asin(i)/c (s)    =  N/A
# eccentricity     =  N/A
# w (rad)          =  N/A
# T_peri           =  N/A
######################################################
   0  2047.288
   1  2123.314
   2  2135.945
   3  2546.008
   4  2218.031
   5  1674.855
   6  1904.874
   7  2110.337
   8  2395.132
   9  2120.29
  10  2215.85
  11  2748.272
  12  3022.396
  13  2434.284
  14  2069.076
  15  1877.428
  16  2196.911
  17  2409.871
  18  2057.688
  19  1800.434
  20  1925.527
  21  2156.422
  22  2581.036
  23  2155.014
  24  2181.507
  25  2609.041
  26  2695.537
  27  2487.868
  28  2279.382
  29  1897.284
  30  2216.008
  31  2150.715
  32  2198.73
  33  2018.984
  34  1790.075
  35  1844.639
  36  2152.218
  37  1924.497
  38  2232.784
  39  2440.423
  40  2436.156
  41  2517.024
  42  1908.003
  43  2018.304
  44  2195.289
  45  2366.675
  46  2672.395
  47  2183.486
  48  1696.427
  49  1693.438
  50  1843.303
  51  2082.094
  52  2223.288
  53  2416.857
  54  2700.723
  55  2660.193
  56  2125.602
  57  2144.676
  58  1930.572
  59  2062.555
  60  2212.738
  61  2078.349
  62  2300.487
  63  2067.233
  64  1996.139
  65  2335.718
  66  1935.183
  67  1884.114
  68  2131.729
  69  2184.822
  70  1987.808
  71  1458.603
  72  1456.566
  73  2048.448
  74  2399.372
  75  2436.063
  76  2006.149
  77  1653.061
  78  1748.072
  79  1869.28
  80  1542.996
  81  1584.162
  82  1827.16
  83  2008.318
  84  1891.077
  85  1500.907
  86  1492.941
  87  1609.985
  88  1574.168
  89  1817.774
  90  1812.928
  91  1543.032
  92  1288.312
  93  1207.14
  94  1615.761
  95  1578.907
  96  1271.285
  97  1426.164
  98  1836.5
  99  1539.342
 100  1447.083
 101  1485.596
 102  1857.311
 103  2151.918
 104  1712.86
 105  1144.484
 106  886.0836
 107  890.688
 108  1463.787
 109  1428.242
 110  1534.795
 111  2004.597
 112  2281.71
 113  2247.816
 114  1966.294
 115  1675.385
 116  1996.735
 117  2047.474
 118  2016.939
 119  2085.002
 120  1544.894
 121  1553.949
 122  1969.118
 123  1931.979
 124  1958.196
 125  1829.219
 126  2210.36
 127  2434.094
 128  1915.399
 129  1705.27
 130  2055.527
 131  2416.504
 132  2808.315
 133  2388.573
 134  1889.029
 135  2114.666
 136  2415.447
 137  2714.096
 138  2777.642
 139  2757.24
 140  3231.972
 141  3046.816
 142  2569.095
 143  2459.68
 144  2357.277
 145  2419.872
 146  2526.247
 147  2445.34
 148  2336.655
 149  2091.774
 150  1920.869
 151  2373.292
 152  2088.931
 153  1885.446
 154  2050.107
 155  2144.262
 156  2405.38
 157  2270.237
 158  2091.873
 159  2276.055
 160  2448.782
 161  2245.858
 162  1935.688
 163  1580.372
 164  1954.271
 165  2250.038
 166  2348.841
 167  2711.498
 168  2720.396
 169  2519.307
 170  2474.929
 171  2086.849
 172  2030.907
 173  2152.712
 174  2392.164
 175  2750.859
 176  2825.632
 177  2184.924
 178  2199
 179  2284.76
 180  2891.024
 181  2940.892
 182  2682.161
 183  2974.641
 184  3306.494
 185  2970.404
 186  2822.372
 187  2752.256
 188  3042.74
 189  3103.896
 190  2354.374
 191  1975.995
 192  1362.636
 193  1336.33
 194  1943.459
 195  2196.097
 196  2387.782
 197  2473.297
 198  2422.112
 199  2112.581
 200  2009.501
 201  1665.635
 202  2013.453
 203  2247.706
 204  2442.229
 205  2316.188
 206  1337.87
 207  961.8758
 208  1359.874
 209  1405.546
 210  1575.881
 211  1592.465
 212  1799.764
 213  1970.838
 214  1495.042
 215  1620.362
 216  1713.992
 217  1858.687
 218  2170.67
 219  2003.236
 220  1601.847
 221  1718.172
 222  1769.438
 223  1962.493
 224  2142.032
 225  2425.455
 226  2554.584
 227  2378.474
 228  1538.876
 229  1660.348
 230  1476.758
 231  2065.994
 232  2689.29
 233  2761.502
 234  2692.01
 235  2106.499
 236  2064.825
 237  2364.001
 238  2204.542
 239  2033.835
 240  2082.146
 241  2258.759
 242  2194.164
 243  2064.535
 244  1997.889
 245  2412.457
 246  2264.636
 247  1842.457
 248  1537.145
 249  1352.484
 250  1716.783
 251  2017.708
 252  1918.718
 253  2177.09
 254  2104.478
 255  2195.538
 256  2321.483
 257  2039.01
 258  1945.27
 259  2100.391
 260  2132.949
 261  2188.772
 262  2024.471
 263  1648.667
 264  1592.178
 265  1742.029
 266  2538.464
 267  2793.677
 268  2556.912
 269  2962.788
 270  3532.232
 271  3007.619
 272  2654.6
 273  2293.004
 274  2738.906
 275  2875.803
 276  2485.992
 277  2228.505
 278  2371.441
 279  2466.09
 280  2837.627
 281  2739.651
 282  2785.604
 283  2587.248
 284  2373.538
 285  2353.355
 286  2444.715
 287  2073.471
 288  2470.849
 289  2687.506
 290  2999.903
 291  2986.22
 292  2571.575
 293  2451.587
 294  2467.388
 295  2398.231
 296  2663.284
 297  2747.014
 298  2761.599
 299  2999.92
 300  2613.732
 301  2379.469
 302  2352.184
 303  2422.526
 304  2466.783
 305  1837.739
 306  1429.781
 307  1848.801
 308  1942.535
 309  2195.691
 310  2104.973
 311  2462.693
 312  2751.595
 313  2767.95
 314  2283.24
 315  2368.665
 316  2217.6
 317  2436.443
 318  2685.507
 319  2744.18
 320  2648.505
 321  2223.864
 322  1911.049
 323  2076.356
 324  1685.797
 325  1702.587
 326  2114.34
 327  2709.13
 328  2946.851
 329  2749.074
 330  2522.073
 331  2835.104
 332  2895.61
 333  2626.26
 334  2408.143
 335  2535.369
 336  2930.894
 337  3062.148
 338  2645.825
 339  2619.204
 340  2561.733
 341  2279.83
 342  2170.096
 343  1817.769
 344  1935.891
 345  2204.824
 346  2312.541
 347  2679.176
 348  2450.613
 349  2134.721
 350  2333.196
 351  2322.995
 352  2756.858
 353  2300.716
 354  1942.006
 355  1650.251
 356  2148.843
 357  1981.139
 358  2025.413
 359  1686.46
 360  1814.502
 361  2254.682
 362  2279.158
 363  2376.804
 364  2409.151
 365  2317.182
 366  2594.041
 367  2319.769
 368  2297.511
 369  2077.328
 370  1590.764
 371  1617.595
 372  1585.824
 373  1513.355
 374  1896.798
 375  1850.052
 376  1855.956
 377  1737.12
 378  1356.056
 379  1745.902
 380  1920.589
 381  2166.616
 382  2200.653
 383  1896.739
 384  1531.743
 385  1762.411
 386  1981.248
 387  2075.445
 388  2081.317
 389  2132.27
 390  2302.05
 391  1944.797
 392  1623.448
 393  2068.202
 394  2087.938
 395  2022.667
 396  2084.318
 397  1859.677
 398  1669.124
 399  1209.524
 400  1216.48
 401  1868.338
 402  1834.82
 403  2022.479
 404  2404.353
 405  2418.489
 406  2169.287
 407  1929.409
 408  1810.284
 409  1963.679
 410  1576.747
 411  1425.545
 412  1214.625
 413  1010.817
 414  1473.459
 415  1836.935
 416  1646.113
 417  1812.665
 418  2084.207
 419  2016.097
 420  1727.552
 421  1476.169
 422  1946.734
 423  2136.873
 424  2012.551
 425  2183.924
 426  2058.233
 427  1752.004
 428  1733.002
 429  1802.164
 430  2178.439
 431  2034.654
 432  2111.364
 433  2490.634
 434  2433.916
 435  1995.72
 436  1938.896
 437  1737.141
 438  1867.884
 439  2087.699
 440  2026.044
 441  1908.613
 442  2116.283
 443  2121.059
 444  2100.1
 445  1484.054
 446  1342.724
 447  1628.609
 448  1394.65
 449  1598.77
 450  1936.339
 451  2187.685
 452  2342.452
 453  2190.387
 454  2399.292
 455  2148.517
 456  1835.604
 457  1812.533
 458  2097.316
 459  1691.884
 460  2000.596
 461  2331.942
 462  2673.147
 463  2650.2
 464  2051.452
 465  1930.322
 466  2053.27
 467  1912.061
 468  2376.127
 469  1994.943
 470  2000.225
 471  2303.292
 472  2324.652
 473  2117.767
 474  1860.333
 475  2056.448
 476  2060.094
 477  1504.985
 478  1294.233
 479  1850.394
 480  1990.666
 481  1969.867
 482  1917.71
 483  1849.016
 484  1745.261
 485  1724.506
 486  1596.114
 487  2138.172
 488  2054.105
 489  2091.573
 490  2188.646
 491  1873.906
 492  1929.222
 493  1670.118
 494  1641.576
 495  1847.726
 496  1617.103
 497  1666.905
 498  1665.864
 499  1812.421
 500  1987.679
 501  1949.831
 502  1719.241
 503  2009.112
 504  2450.852
 505  2300.544
 506  2179.005
 507  1785.31
 508  2181.072
 509  2345.941
 510  2203.549
 511  2479.207
 512  2482.714
 513  2143.157
 514  2072.268
 515  2008.707
 516  2332.636
 517  2403.651
 518  2547.09
 519  3076.094
 520  2785.341
 521  2329.285
 522  2269.103
 523  2333.559
 524  2589.226
 525  2453.333
 526  2123.626
 527  2018.524
 528  2002.773
 529  1862.702
 530  1980.451
 531  1714.756
 532  1843.517
 533  2013.859
 534  1950.948
 535  1824.239
 536  1931.882
 537  2145.641
 538  2445.369
 539  2145.383
 540  2293.267
 541  2152.141
 542  1623.327
 543  1290.453
 544  1588.287
 545  1763.835
 546  2339.846
 547  2529.115
 548  2805.63
 549  2751.007
 550  2250.86
 551  2359.23
 552  2235.305
 553  2147.166
 554  2315.172
 555  1854.797
 556  1532.963
 557  1569.656
 558  1815.74
 559  1902.591
 560  1832.745
 561  2070.605
 562  2178.747
 563  1773.291
 564  1503.403
 565  1814.357
 566  1813.289
 567  1834.728
 568  1905.694
 569  1881.461
 570  1846.014
 571  1740.4
 572  1488.232
 573  1896.643
 574  1742.016
 575  2127.795
 576  2041.138
 577  1774.974
 578  1682.314
 579  1234.753
 580  1085.295
 581  1638.593
 582  1841.896
 583  1956.221
 584  1449.472
 585  1467.228
 586  1447.243
 587  1348.298
 588  1236.604
 589  1920.135
 590  2171.863
 591  1701.644
 592  1379.562
 593  1389.647
 594  1928.964
 595  1774.675
 596  1665.642
 597  1987.513
 598  1670.331
 599  1243.775
 600  1022.501
 601  885.5271
 602  908.4482
 603  1329.396
 604  2007.785
 605  2441.482
 606  2325.196
 607  1867.362
 608  1775.784
 609  1833.2
 610  1998.461
 611  2092.408
 612  1577.209
 613  1408.631
 614  1226.924
 615  1001.856
 616  1146.623
 617  1214.218
 618  1923.161
 619  2127.048
 620  1718.71
 621  1526.082
 622  1906.04
 623  2068.328
 624  2222.46
 625  1965.945
 626  1816.53
 627  1616.37
 628  1357.868
 629  1224.281
 630  1534.565
 631  1473.424
 632  2110.907
 633  2598.874
 634  3167.588
 635  3476.067
 636  3055.829
 637  2758.047
 638  2730.759
 639  2588.714
 640  2687.232
 641  1917.198
 642  1584.421
 643  1440.06
 644  1340.946
 645  1694.197
 646  2007.391
 647  2512.843
 648  2620.801
 649  2501.052
 650  2190.828
 651  2280.036
 652  2130.403
 653  1910.87
 654  1941.506
 655  1642.27
 656  1462.912
 657  949.1022
 658  763.8782
 659  1503.306
 660  1834.492
 661  2393.298
 662  2646.924
 663  2798.775
 664  2678.111
 665  2293.078
 666  1956.345
 667  2207.238
 668  2167.45
 669  1992.165
 670  1437.075
 671  1027.883
 672  1074.224
 673  1291.329
 674  1564.086
 675  2321.375
 676  2480.65
 677  2215.95
 678  1944.36
 679  1809.587
 680  2014.568
 681  1987.532
 682  1566.068
 683  1684.732
 684  1574.302
 685  1429.581
 686  1185.055
 687  1100.754
 688  1421.632
 689  1942.15
 690  2085.273
 691  2167.53
 692  2112.789
 693  1925.16
 694  1650.791
 695  1443.339
 696  1471.337
 697  1477.294
 698  862.7072
 699  770.407
 700  786.9025
 701  550.0391
 702  803.6772
 703  908.2303
 704  1465.184
 705  1784.437
 706  1616.32
 707  1621.993
 708  1858.097
 709  2150.11
 710  2483.99
 711  2117.578
 712  1836.541
 713  1499.352
 714  1179.691
 715  833.486
 716  952.9645
 717  1051.001
 718  1690.528
 719  1990.338
 720  2160.545
 721  2393.6
 722  2119.08
 723  2001.898
 724  1984.335
 725  1856.558
 726  2199.726
 727  1451.403
 728  1230.667
 729  1324.196
 730  1335.951
 731  1497.482
 732  1671.92
 733  1993.828
 734  2138.84
 735  1928.585
 736  1889.267
 737  2197.804
 738  2239.963
 739  2006.147
 740  1932.695
 741  1874.725
 742  1560.087
 743  1181.757
 744  696.8986
 745  1093.985
 746  1152.244
 747  1485.333
 748  1988.067
 749  2280.543
 750  2702.042
 751  2343.051
 752  1819.188
 753  1987.278
 754  1910.218
 755  1619.34
 756  1302.095
 757  1128.526
 758  1242.425
 759  1301.677
 760  1482.874
 761  1994.769
 762  2133.539
 763  2307.06
 764  2409.522
 765  2046.685
 766  1941.498
 767  2218.907
 768  2153.138
 769  2288.58
 770  2045.727
 771  1940.442
 772  1658.076
 773  1333.46
 774  1704.228
 775  2258.858
 776  2439.898
 777  2909.048
 778  3196.519
 779  3136.716
 780  2785.615
 781  2267.603
 782  2312.799
 783  2373.549
 784  1559.268
 785  1128.402
 786  942.0682
 787  826.9429
 788  1180.643
 789  1418.119
 790  1884.592
 791  2092.702
 792  1736.14
 793  1425.178
 794  1592.579
 795  1598.171
 796  1927.658
 797  1417.16
 798  1474.817
 799  1588.094
 800  1408.831
 801  1319.734
 802  1399.53
 803  1440.58
 804  1872.497
 805  2211.862
 806  2547.262
 807  3015.107
 808  2631.726
 809  2433.735
 810  2432.023
 811  2329.577
 812  2369.15
 813  1782.812
 814  1615.423
 815  1977.71
 816  2046.199
 817  2218.259
 818  2303.786
 819  2446.322
 820  2458.136
 821  2241.721
 822  1910.028
 823  2051.666
 824  1945.831
 825  2017.048
 826  2380.56
 827  2708.16
 828  2480.834
 829  1980.604
 830  1458.85
 831  2046.253
 832  2069.095
 833  2269.266
 834  2590.347
 835  2689.969
 836  2885.073
 837  2534.603
 838  2282.069
 839  2449.462
 840  2470.572
 841  2020.838
 842  1569.816
 843  1263.34
 844  1284.985
 845  1784.098
 846  1674.003
 847  2163.711
 848  2268.43
 849  2210.852
 850  1962.284
 851  1532.76
 852  1506.685
 853  1721.33
 854  1447.504
 855  1432.852
 856  1356.717
 857  1196.337
 858  1204.479
 859  1160.081
 860  1651.645
 861  2055.224
 862  2092.469
 863  2271.86
 864  2443.345
 865  2115.721
 866  1933.927
 867  1646.312
 868  1828.205
 869  2170.901
 870  1577.514
 871  1166.399
 872  1148.325
 873  1177.108
 874  1640.637
 875  1884.491
 876  2513.182
 877  2959.047
 878  2720.885
 879  2568.304
 880  2662.447
 881  2603.031
 882  2640.802
 883  2160.623
 884  2372.591
 885  2389.846
 886  2065.906
 887  1862.323
 888  2107.463
 889  2020.709
 890  1993.936
 891  2038.078
 892  2164.186
 893  2618.224
 894  2297.411
 895  2371.095
 896  2560.105
 897  2346.645
 898  2427.726
 899  1929.083
 900  1721.109
 901  1892.964
 902  1511.427
 903  1522.63
 904  1590.318
 905  1770.092
 906  1961.893
 907  1841.022
 908  1665.324
 909  1868.736
 910  1948.996
 911  2227.145
 912  2450.882
 913  2154.815
 914  1920.75
 915  1330.441
 916  1207.113
 917  1845.2
 918  2086.913
 919  2216.246
 920  2621.032
 921  2766.826
 922  3237.499
 923  2806.419
 924  2328.538
 925  2388.102
 926  2380.353
 927  2102.089
 928  1818.787
 929  1362.157
 930  1397.175
 931  1638.938
 932  1894.786
 933  2341.111
 934  2711.095
 935  2929.87
 936  3014.062
 937  2661.37
 938  2767.578
 939  2551.523
 940  2056.57
 941  2247.197
 942  2082.565
 943  2035.909
 944  2029.941
 945  2082.566
 946  2274.904
 947  2211.687
 948  2190.469
 949  2689.897
 950  2881.535
 951  2285.968
 952  1777.459
 953  1592.796
 954  1761.272
 955  1994.237
 956  1706.393
 957  1666.594
 958  1698.612
 959  1961.082
 960  2331.932
 961  2077.318
 962  2281.987
 963  2613.967
 964  2424.283
 965  2103.295
 966  1931.45
 967  1596.226
 968  1759.587
 969  1449.324
 970  1637.448
 971  1781.036
 972  1865.033
 973  1971.135
 974  2215.149
 975  1994.861
 976  2035.578
 977  2216.213
 978  2514.688
 979  2326.795
 980  1528.626
 981  1403.642
 982  1673.064
 983  2138.579
 984  2254.243
 985  1735.798
 986  1474.645
 987  1817.262
 988  1802.74
 989  1663.243
 990  1656.731
 991  1827.616
 992  2071.381
 993  1747.806
 994  1380.086
 995  1488.505
 996  1571.871
 997  1896.39
 998  2294.558
 999  2249.34
1000  1905.389
1001  1565.57
1002  1547.973
1003  1981.105
1004  1980.173
1005  2128.627
1006  2463.998
1007  2660.489
1008  2482.915
1009  2052.389
1010  1919.917
1011  2327.054
1012  2507.267
1013  2337.126
1014  2362.845
1015  1996.924
1016  2073.033
1017  2120.308
1018  1969.532
1019  2274.91
1020  2259.493
1021  2281.323
1022  2243.134
1023  2062.559
