# Input file       =  1193764322.14598_cleaned.dat
# Candidate        =  PSR_0332+5434
# Telescope        =  AR
# Epoch_topo       =  58060.716911411808
# Epoch_bary       =  N/A
# T_sample         =  0.002
# Data Folded      =  7208960
# Data Avg         =  0.105456030232281
# Data StdDev      =  3.70526785966224 
# Profile Bins     =  512
# Profile Avg      =  1484.74033285972 
# Profile StdDev   =  439.664030321781 
# Reduced chi-sqr  =  0.699
# Prob(Noise)      <  1   (~0.0 sigma)
# P_topo (ms)      =  714.498205177009  +/- 0.000188
# P'_topo (s/s)    =  -0                +/- 1.01e-10
# P''_topo (s/s^2) =  0                 +/- 4.54e-14
# P_bary (ms)      =  N/A
# P'_bary (s/s)    =  N/A
# P''_bary (s/s^2) =  N/A
# P_orb (s)        =  N/A
# asin(i)/c (s)    =  N/A
# eccentricity     =  N/A
# w (rad)          =  N/A
# T_peri           =  N/A
######################################################
   0  1195.866
   1  1453.191
   2  1454.812
   3  1628.478
   4  1788.867
   5  1748.003
   6  1388.252
   7  1133.597
   8  774.7816
   9  1180.329
  10  1184.395
  11  1659.649
  12  1499.878
  13  1577.077
  14  1317.751
  15  1289.424
  16  1309.38
  17  1113.411
  18  1175.902
  19  1696.548
  20  1663.509
  21  1443.962
  22  1403.277
  23  1625.917
  24  1563.773
  25  1348.641
  26  1573.387
  27  1463.488
  28  1880.803
  29  1673.693
  30  1731.626
  31  1607.688
  32  1439.696
  33  1383.844
  34  1174.796
  35  1276.375
  36  1613.2
  37  1686.55
  38  905.0865
  39  1221.682
  40  1487.696
  41  1426.681
  42  1000.379
  43  1228.078
  44  1407.13
  45  1131.319
  46  1114.03
  47  1311.175
  48  1444.639
  49  1076.79
  50  1032.017
  51  1129.907
  52  1503.231
  53  1505.444
  54  1200.731
  55  1362.367
  56  1171.311
  57  1185.761
  58  1282.712
  59  1377.6
  60  1652.24
  61  1637.28
  62  1370.335
  63  1508.19
  64  1479.583
  65  1740.032
  66  1473.952
  67  1182.993
  68  1237.597
  69  1281.526
  70  1512.359
  71  1317.329
  72  1228.303
  73  1316.298
  74  1474.404
  75  1070.819
  76  1809.149
  77  1327.538
  78  1409.294
  79  1450.266
  80  1412.085
  81  1088.914
  82  998.3088
  83  1304.819
  84  1530.739
  85  1675.861
  86  1645.694
  87  1857.378
  88  1559.06
  89  1698.977
  90  1340.119
  91  1411.054
  92  1788.603
  93  1986.827
  94  1672.569
  95  1267.311
  96  862.7726
  97  1369.656
  98  1338.428
  99  1166.434
 100  1286.038
 101  1639.853
 102  1506.134
 103  1173.404
 104  1325.859
 105  1411.184
 106  1257.461
 107  1222.487
 108  1297.572
 109  1077.886
 110  1383.178
 111  1609.421
 112  1446.231
 113  1514.296
 114  1172.415
 115  1150.539
 116  668.2568
 117  816.0548
 118  1375.239
 119  1458.218
 120  1388.51
 121  1403.749
 122  1541.868
 123  1580.882
 124  1354.655
 125  1074.631
 126  1112.505
 127  1007.014
 128  1146.703
 129  1446.916
 130  1802.625
 131  1859.574
 132  1389.859
 133  1153.104
 134  1330.06
 135  1271.809
 136  1595.556
 137  1559.001
 138  1406.13
 139  1496.158
 140  1198.253
 141  1504.298
 142  1600.118
 143  1398.23
 144  1305.903
 145  1402.345
 146  1469.628
 147  1357.783
 148  1768.933
 149  1095.216
 150  1428.775
 151  1192.176
 152  1439.441
 153  1678.911
 154  1648.474
 155  1833.609
 156  1671.129
 157  1750.994
 158  1306.217
 159  1321.453
 160  1720.039
 161  1483.789
 162  1507.352
 163  1508.758
 164  1242.118
 165  1247.617
 166  1577.495
 167  1812.944
 168  1653.759
 169  2047.742
 170  1376.27
 171  1042.885
 172  1024.847
 173  1522.94
 174  1474.827
 175  1379.879
 176  1458.738
 177  1217.216
 178  1338.091
 179  1032.647
 180  1281.033
 181  1398.55
 182  1489.656
 183  1478.827
 184  1375.795
 185  1822.566
 186  1655.094
 187  1900.833
 188  1486.794
 189  1705.416
 190  1590.812
 191  1596.356
 192  1453.841
 193  1610.712
 194  1581.959
 195  1331.68
 196  1464.978
 197  1326.524
 198  1389.572
 199  1126.31
 200  1467.525
 201  1560.48
 202  1252.482
 203  1396.018
 204  1417.659
 205  1718.847
 206  1673.619
 207  1422.626
 208  1320.919
 209  1654.537
 210  1909.132
 211  1890.884
 212  1734.711
 213  1803.291
 214  1230.716
 215  1377.734
 216  1617.998
 217  1779.667
 218  1731.652
 219  1182.263
 220  1463.885
 221  1735.106
 222  1868.779
 223  1730.332
 224  1703.642
 225  1518.255
 226  1373.397
 227  1713.37
 228  1479.024
 229  1298.168
 230  1431.14
 231  1429.812
 232  1480.03
 233  1199.556
 234  1640.669
 235  1736.792
 236  1508.919
 237  1862.367
 238  1714.385
 239  1609.507
 240  1706.774
 241  1588.897
 242  1504.144
 243  1684.117
 244  1148.511
 245  1170.707
 246  1224.12
 247  1752.854
 248  1515.09
 249  1165.352
 250  1517.044
 251  1481.428
 252  1291.971
 253  1262.123
 254  1597.935
 255  1374.119
 256  1599.769
 257  1368.139
 258  1362.834
 259  1283.617
 260  1222.435
 261  1268.206
 262  1235.134
 263  1371.44
 264  1250.126
 265  1657.574
 266  1492.576
 267  1299.145
 268  1412.714
 269  1264.76
 270  1250.265
 271  1203.109
 272  1541.886
 273  1844.327
 274  1520.578
 275  1529.954
 276  1525.357
 277  1504.284
 278  1328.32
 279  1554.028
 280  1669.97
 281  1272.608
 282  1299.749
 283  1556.526
 284  1824.644
 285  1566.741
 286  1622.744
 287  1644.156
 288  1425.565
 289  1472.496
 290  1455.91
 291  1503.858
 292  1440.654
 293  1716.753
 294  1443.929
 295  1496.688
 296  1756.162
 297  1642.071
 298  1575.86
 299  1929.67
 300  2062.856
 301  1658.796
 302  1832.685
 303  1364.969
 304  1407.276
 305  1532.76
 306  1251.128
 307  1504.247
 308  1508.905
 309  1834.853
 310  1793.708
 311  1642.689
 312  1952.273
 313  2149.962
 314  2225.299
 315  2503.108
 316  2707.067
 317  3153.428
 318  2897.489
 319  2503.827
 320  1901.954
 321  1905.5
 322  1563.413
 323  1628.188
 324  1355.017
 325  1617.992
 326  1682.503
 327  1149.755
 328  1562.703
 329  1681.566
 330  1772.319
 331  1467.658
 332  1590.144
 333  1470.875
 334  1345.864
 335  1553.667
 336  1235.218
 337  1513.374
 338  1335.906
 339  1613.789
 340  1313.665
 341  1350.636
 342  1269.248
 343  1410.858
 344  1408.076
 345  1348.041
 346  1515.054
 347  1538.125
 348  1473.759
 349  1209.993
 350  1088.937
 351  1237.988
 352  1358.534
 353  1577.56
 354  1518.152
 355  1552.108
 356  1344.178
 357  1303.227
 358  1448.146
 359  1219.192
 360  1577.583
 361  1483.653
 362  1380.062
 363  1285.219
 364  1263.326
 365  1639.113
 366  1731.298
 367  1449.475
 368  1437.728
 369  1842.859
 370  1742.551
 371  1562.635
 372  1613.735
 373  1918.404
 374  2052.92
 375  1744.495
 376  1333.725
 377  1278.943
 378  1273.413
 379  1124.667
 380  1121.814
 381  1433.819
 382  1810.843
 383  1793.85
 384  1854.441
 385  1938.069
 386  1764.169
 387  1325.992
 388  1460.522
 389  1450.003
 390  1617.136
 391  1119.279
 392  1690.745
 393  1810.045
 394  1573.458
 395  1801.533
 396  1598.185
 397  1763.644
 398  1797.114
 399  1963.334
 400  1996.462
 401  1556.942
 402  1692.356
 403  1674.657
 404  1695.732
 405  1257.991
 406  1384.22
 407  1570.752
 408  1782.079
 409  1858.805
 410  1722.837
 411  1744.895
 412  1391.203
 413  1453.701
 414  1418.652
 415  1514.506
 416  1613.637
 417  1510.656
 418  1581.158
 419  1685.186
 420  1694.129
 421  1472.164
 422  1593.098
 423  1663.516
 424  1629.928
 425  1757.42
 426  1500.549
 427  1552.586
 428  1628.346
 429  1759.402
 430  1297.26
 431  1129.446
 432  1466.864
 433  1673.444
 434  1946.035
 435  1661.897
 436  1609.707
 437  1431.408
 438  1350.72
 439  1223.496
 440  1724.579
 441  1638.627
 442  1626.829
 443  1613.637
 444  1211.234
 445  1172.421
 446  1501.08
 447  1618.683
 448  1216.78
 449  1323.071
 450  1232.178
 451  1292.772
 452  1458.868
 453  1309.092
 454  1480.292
 455  1536.128
 456  1602.848
 457  1483.862
 458  1460.198
 459  1263.133
 460  1688.895
 461  1484.796
 462  1314.418
 463  1399.711
 464  1504.592
 465  1465.765
 466  1870.511
 467  1473.818
 468  1422.159
 469  1302.047
 470  1380.221
 471  1344.697
 472  915.637
 473  1211.859
 474  1204.091
 475  1712.305
 476  1662.183
 477  1569.402
 478  1518.534
 479  1181.511
 480  966.0783
 481  831.5493
 482  1410.184
 483  1603.4
 484  1519.439
 485  1280.947
 486  1665.395
 487  1341.734
 488  1614.142
 489  1799.239
 490  1633.794
 491  1558.728
 492  1034.409
 493  1345.844
 494  1258.712
 495  1494.27
 496  1054.146
 497  1012.32
 498  1370.439
 499  1424.527
 500  1716.275
 501  1638.751
 502  1529.496
 503  1340.686
 504  1407.484
 505  1886.515
 506  1983.063
 507  1508.837
 508  1764.427
 509  1463.878
 510  1081.705
 511  1022.038
