# Input file       =  1193534798.132602_cleaned.dat
# Candidate        =  PSR_0332+5434
# Telescope        =  AR
# Epoch_topo       =  58058.060383479191
# Epoch_bary       =  N/A
# T_sample         =  0.002
# Data Folded      =  7340032
# Data Avg         =  0.048126256244099
# Data StdDev      =  2.53682818438955 
# Profile Bins     =  512
# Profile Avg      =  689.936125405304 
# Profile StdDev   =  303.742141283119 
# Reduced chi-sqr  =  1.330
# Prob(Noise)      <  7.68e-07   (~4.8 sigma)
# P_topo (ms)      =  714.496101370388  +/- 0.000266
# P'_topo (s/s)    =  -0                +/- 1.4e-10
# P''_topo (s/s^2) =  0                 +/- 6.2e-14
# P_bary (ms)      =  N/A
# P'_bary (s/s)    =  N/A
# P''_bary (s/s^2) =  N/A
# P_orb (s)        =  N/A
# asin(i)/c (s)    =  N/A
# eccentricity     =  N/A
# w (rad)          =  N/A
# T_peri           =  N/A
######################################################
   0  1897.204
   1  1304.149
   2  1014.513
   3  725.495
   4  587.4921
   5  949.7874
   6  870.9365
   7  728.0667
   8  1039.85
   9  969.6157
  10  816.5959
  11  669.2448
  12  819.6946
  13  815.2264
  14  797.2238
  15  1067.159
  16  838.2899
  17  805.8045
  18  647.0245
  19  646.3348
  20  499.7993
  21  666.4274
  22  676.0294
  23  700.2391
  24  700.4347
  25  388.5465
  26  333.6099
  27  198.8275
  28  525.3034
  29  627.7886
  30  662.5565
  31  854.7624
  32  1196.064
  33  962.5098
  34  620.7198
  35  589.3033
  36  774.1057
  37  790.5085
  38  851.1367
  39  653.8427
  40  780.1563
  41  757.7399
  42  750.121
  43  762.8633
  44  801.3313
  45  492.3071
  46  479.6154
  47  983.6757
  48  891.9958
  49  1064.537
  50  1204.503
  51  831.8823
  52  695.369
  53  531.8239
  54  557.9474
  55  671.6835
  56  418.7059
  57  502.0131
  58  420.2424
  59  639.3442
  60  583.3541
  61  467.8643
  62  436.145
  63  759.7132
  64  790.1834
  65  676.266
  66  863.537
  67  633.6
  68  785.5157
  69  663.8591
  70  348.3038
  71  577.4138
  72  220.6102
  73  145.9313
  74  627.5413
  75  1052.868
  76  878.9362
  77  623.2433
  78  653.162
  79  294.9856
  80  353.083
  81  776.8932
  82  613.1896
  83  568.92
  84  542.4256
  85  546.0804
  86  707.3881
  87  560.2429
  88  343.017
  89  451.6075
  90  635.2322
  91  935.4311
  92  990.2075
  93  408.4158
  94  440.9483
  95  601.8776
  96  566.3153
  97  767.4474
  98  689.1129
  99  617.542
 100  939.7618
 101  1083.286
 102  776.1245
 103  303.7777
 104  520.7383
 105  717.6705
 106  523.4888
 107  604.4702
 108  659.2839
 109  332.1381
 110  798.1942
 111  993.4191
 112  791.4907
 113  610.6539
 114  988.5274
 115  1378.01
 116  1016.107
 117  1027.601
 118  809.6123
 119  843.5172
 120  772.8951
 121  707.2067
 122  554.2161
 123  685.4681
 124  893.7425
 125  556.9117
 126  335.0426
 127  450.2009
 128  575.671
 129  526.3349
 130  408.9862
 131  381.1137
 132  641.435
 133  746.6595
 134  533.8363
 135  451.5295
 136  472.8546
 137  408.349
 138  776.5959
 139  851.0522
 140  850.526
 141  708.7779
 142  543.1974
 143  539.7079
 144  498.8427
 145  483.3473
 146  548.476
 147  478.5364
 148  591.2674
 149  211.5099
 150  373.444
 151  346.7396
 152  678.7686
 153  699.1903
 154  664.5052
 155  339.227
 156  386.7537
 157  654.1467
 158  817.2275
 159  569.6899
 160  469.5448
 161  738.346
 162  776.3832
 163  626.2469
 164  621.7349
 165  476.5097
 166  450.6324
 167  553.479
 168  824.0229
 169  717.2527
 170  704.8814
 171  858.5583
 172  824.1021
 173  727.675
 174  560.3186
 175  790.0063
 176  568.0823
 177  853.4456
 178  911.0791
 179  932.4824
 180  981.0735
 181  700.2625
 182  425.6734
 183  395.3223
 184  474.8094
 185  633.046
 186  484.3971
 187  410.5805
 188  339.9861
 189  746.4561
 190  916.9557
 191  654.4359
 192  851.8689
 193  711.3574
 194  578.2706
 195  745.6895
 196  982.3022
 197  617.0545
 198  780.1852
 199  891.5106
 200  769.8673
 201  539.6135
 202  533.5403
 203  510.0446
 204  596.5836
 205  629.2336
 206  610.3236
 207  855.9154
 208  514.2181
 209  523.5467
 210  721.384
 211  819.8433
 212  822.2168
 213  668.2216
 214  450.3454
 215  440.5229
 216  695.2374
 217  464.1535
 218  776.6379
 219  1171.968
 220  795.4889
 221  519.4367
 222  790.1825
 223  635.8936
 224  757.6197
 225  943.558
 226  927.1295
 227  798.9019
 228  447.3061
 229  646.0113
 230  666.2363
 231  552.756
 232  527.9683
 233  433.9291
 234  856.1542
 235  1168.448
 236  1115.474
 237  903.6387
 238  1043.123
 239  1007.911
 240  783.5316
 241  723.2075
 242  407.6644
 243  623.9089
 244  736.2968
 245  530.6688
 246  535.0998
 247  524.611
 248  725.7981
 249  808.5131
 250  938.7963
 251  816.4708
 252  735.1607
 253  734.3322
 254  724.3542
 255  411.0385
 256  515.1828
 257  375.3516
 258  548.0619
 259  799.308
 260  707.4523
 261  404.8308
 262  373.0818
 263  147.5693
 264  228.0777
 265  244.769
 266  619.0953
 267  652.933
 268  425.9011
 269  555.9674
 270  638.211
 271  404.4531
 272  202.1819
 273  76.82796
 274  482.0234
 275  527.5656
 276  352.8539
 277  401.8977
 278  772.1185
 279  925.8585
 280  544.783
 281  516.3122
 282  720.7934
 283  686.978
 284  525.2337
 285  849.1024
 286  973.114
 287  830.7217
 288  675.8489
 289  455.3875
 290  809.88
 291  687.8572
 292  513.0576
 293  764.0633
 294  611.7651
 295  572.3181
 296  533.8863
 297  515.0263
 298  513.2285
 299  609.5101
 300  673.1308
 301  595.1462
 302  536.2543
 303  493.024
 304  510.9505
 305  675.2394
 306  672.1249
 307  508.3976
 308  344.9924
 309  613.2343
 310  463.9553
 311  421.7648
 312  407.3763
 313  651.1213
 314  938.0869
 315  857.8934
 316  666.8237
 317  620.1968
 318  444.7866
 319  242.2331
 320  623.5667
 321  941.2437
 322  723.5428
 323  673.7435
 324  473.8331
 325  427.943
 326  855.8916
 327  947.479
 328  723.1174
 329  666.1558
 330  816.1036
 331  812.4151
 332  814.6525
 333  770.093
 334  1142.114
 335  1233.615
 336  1117.848
 337  690.7496
 338  524.9227
 339  570.9695
 340  592.9383
 341  830.9408
 342  672.9612
 343  787.7825
 344  667.274
 345  561.642
 346  741.4775
 347  711.0834
 348  683.7709
 349  717.2548
 350  1016.42
 351  975.3832
 352  531.0718
 353  544.4287
 354  725.7885
 355  749.4626
 356  727.0669
 357  750.4716
 358  653.7516
 359  581.1064
 360  640.24
 361  488.731
 362  455.8856
 363  533.9324
 364  751.483
 365  881.9837
 366  1042.611
 367  825.2034
 368  683.3646
 369  745.1519
 370  800.8895
 371  701.9012
 372  635.2523
 373  730.2524
 374  744.8769
 375  660.6858
 376  622.3359
 377  805.515
 378  791.6022
 379  587.8859
 380  601.1216
 381  534.3911
 382  702.9528
 383  810.4963
 384  740.2439
 385  836.627
 386  1103.454
 387  1104.818
 388  810.8816
 389  534.8436
 390  662.3376
 391  1004.301
 392  901.9002
 393  618.6522
 394  409.4267
 395  868.0803
 396  761.475
 397  343.3898
 398  433.0086
 399  793.8602
 400  964.8572
 401  1087.793
 402  885.385
 403  934.5693
 404  747.6824
 405  599.3962
 406  683.1908
 407  871.272
 408  959.5244
 409  1120.48
 410  721.7487
 411  755.9511
 412  662.9178
 413  712.4286
 414  808.6725
 415  802.5963
 416  801.9971
 417  923.1896
 418  714.7396
 419  575.2407
 420  542.4623
 421  443.8118
 422  442.1669
 423  793.822
 424  997.2148
 425  856.1166
 426  709.3668
 427  438.7222
 428  776.9925
 429  796.0602
 430  915.5144
 431  768.1588
 432  622.8029
 433  864.8847
 434  954.3352
 435  597.2406
 436  701.9271
 437  796.64
 438  761.6222
 439  586.0734
 440  391.6754
 441  458.6713
 442  561.9532
 443  501.8355
 444  600.0718
 445  370.7698
 446  627.5373
 447  805.3751
 448  630.5818
 449  690.971
 450  507.5621
 451  584.2666
 452  335.9634
 453  353.7487
 454  512.2238
 455  782.0353
 456  896.441
 457  624.5482
 458  552.2226
 459  568.7998
 460  505.6772
 461  485.4723
 462  643.4259
 463  487.4663
 464  545.6724
 465  835.9781
 466  436.1532
 467  470.9652
 468  760.8558
 469  836.1561
 470  949.9653
 471  718.5135
 472  512.6437
 473  352.2229
 474  534.0416
 475  692.102
 476  827.9981
 477  863.2037
 478  731.656
 479  441.3318
 480  479.64
 481  773.1886
 482  675.9837
 483  625.1821
 484  604.2983
 485  600.6641
 486  539.265
 487  835.4209
 488  406.3975
 489  406.1157
 490  796.075
 491  799.1837
 492  816.2555
 493  516.2684
 494  676.5591
 495  727.7583
 496  500.7375
 497  529.5477
 498  648.4653
 499  884.6807
 500  688.152
 501  434.3693
 502  739.6851
 503  853.1926
 504  1008.415
 505  1192.797
 506  1323.021
 507  1489.061
 508  1966.093
 509  2137.388
 510  2483.965
 511  2429.448
