# Input file       =  1193175289.14436_cleaned.dat
# Candidate        =  PSR_0332+5434
# Telescope        =  AR
# Epoch_topo       =  58053.899399818984
# Epoch_bary       =  N/A
# T_sample         =  0.002
# Data Folded      =  7340032
# Data Avg         =  0.0421151006022617
# Data StdDev      =  2.42502612576485 
# Profile Bins     =  512
# Profile Avg      =  603.733888070072 
# Profile StdDev   =  290.355741330811 
# Reduced chi-sqr  =  1.149
# Prob(Noise)      <  0.0107   (~2.3 sigma)
# P_topo (ms)      =  714.492032295271  +/- 0.000344
# P'_topo (s/s)    =  -0                +/- 1.82e-10
# P''_topo (s/s^2) =  0                 +/- 8.02e-14
# P_bary (ms)      =  N/A
# P'_bary (s/s)    =  N/A
# P''_bary (s/s^2) =  N/A
# P_orb (s)        =  N/A
# asin(i)/c (s)    =  N/A
# eccentricity     =  N/A
# w (rad)          =  N/A
# T_peri           =  N/A
######################################################
   0  643.3144
   1  620.0528
   2  474.0939
   3  468.9461
   4  436.4098
   5  658.9586
   6  814.0148
   7  434.7541
   8  467.25
   9  540.5422
  10  640.5369
  11  595.7747
  12  642.8244
  13  435.6003
  14  686.9862
  15  599.3021
  16  367.2641
  17  533.3289
  18  735.1132
  19  592.2089
  20  362.8858
  21  569.3065
  22  537.583
  23  481.7109
  24  811.2343
  25  663.6511
  26  531.5297
  27  745.9656
  28  614.902
  29  544.5103
  30  675.9979
  31  828.8999
  32  1049.605
  33  634.7258
  34  396.2003
  35  982.569
  36  1176.313
  37  1157.182
  38  697.9366
  39  689.056
  40  741.8871
  41  451.6429
  42  542.3981
  43  546.6206
  44  687.2795
  45  672.1703
  46  781.199
  47  843.2232
  48  632.786
  49  494.362
  50  581.2606
  51  716.6198
  52  727.0875
  53  543.9905
  54  663.595
  55  650.4666
  56  718.2916
  57  525.7275
  58  616.6506
  59  898.0017
  60  724.3655
  61  761.7151
  62  740.8495
  63  629.3018
  64  394.8583
  65  623.5233
  66  480.1741
  67  444.6476
  68  570.3163
  69  815.6926
  70  755.1576
  71  635.3375
  72  661.7578
  73  792.0082
  74  904.8204
  75  776.4236
  76  659.7922
  77  544.1753
  78  472.8906
  79  688.8472
  80  582.1722
  81  625.9528
  82  434.5642
  83  403.6487
  84  292.5246
  85  608.5912
  86  741.4932
  87  307.245
  88  125.0974
  89  517.1274
  90  744.5517
  91  958.8726
  92  693.0715
  93  197.1108
  94  420.7166
  95  573.7612
  96  413.3902
  97  480.458
  98  462.5971
  99  533.4143
 100  362.7561
 101  455.6595
 102  393.7971
 103  594.6003
 104  730.1838
 105  592.6369
 106  527.0667
 107  224.3847
 108  316.5891
 109  235.086
 110  214.5026
 111  658.3045
 112  977.7922
 113  726.9933
 114  653.6204
 115  591.2334
 116  680.7278
 117  660.805
 118  525.072
 119  807.8635
 120  877.0093
 121  594.4404
 122  661.6343
 123  665.8571
 124  590.2737
 125  848.7068
 126  655.0988
 127  310.6497
 128  397.0068
 129  920.7259
 130  715.3076
 131  245.4471
 132  449.2171
 133  606.0023
 134  704.5848
 135  691.1761
 136  642.6978
 137  455.2181
 138  316.9641
 139  574.868
 140  498.8208
 141  362.7042
 142  321.8245
 143  480.5529
 144  328.7904
 145  288.198
 146  356.9463
 147  594.0889
 148  633.8808
 149  512.1735
 150  402.3179
 151  499.3614
 152  467.7132
 153  569.9052
 154  612.8767
 155  526.3056
 156  212.6258
 157  341.8332
 158  430.7657
 159  172.9656
 160  400.4315
 161  490.1107
 162  272.296
 163  493.2507
 164  826.0723
 165  660.7657
 166  309.6048
 167  416.6146
 168  152.1816
 169  512.518
 170  377.3356
 171  447.1191
 172  420.5047
 173  514.7288
 174  584.2847
 175  367.9685
 176  584.835
 177  575.7879
 178  444.0784
 179  404.4301
 180  536.4257
 181  566.0992
 182  493.0593
 183  748.1133
 184  1116.038
 185  1136.064
 186  755.1968
 187  489.7978
 188  559.4872
 189  529.2925
 190  904.2109
 191  727.7286
 192  806.3888
 193  754.2661
 194  657.5443
 195  698.9741
 196  680.3438
 197  544.6404
 198  668.7618
 199  516.5416
 200  569.4519
 201  390.9684
 202  434.9377
 203  679.1834
 204  724.9579
 205  678.1505
 206  737.532
 207  467.4141
 208  478.4544
 209  492.8716
 210  402.158
 211  573.0806
 212  512.233
 213  404.9775
 214  676.4172
 215  741.6171
 216  789.611
 217  463.2882
 218  608.2563
 219  299.8253
 220  417.0558
 221  390.5118
 222  409.6664
 223  515.7939
 224  470.7093
 225  545.2273
 226  372.3448
 227  363.2771
 228  566.5776
 229  460.9201
 230  290.1932
 231  420.5998
 232  602.2829
 233  619.2985
 234  459.8267
 235  326.2301
 236  292.3171
 237  267.4947
 238  60.73542
 239  266.363
 240  444.0833
 241  765.0394
 242  624.423
 243  438.5923
 244  417.9974
 245  527.4289
 246  323.3343
 247  645.4973
 248  774.2887
 249  867.3974
 250  951.2094
 251  651.105
 252  764.5444
 253  860.8557
 254  807.3113
 255  528.5449
 256  414.3984
 257  514.2598
 258  303.1348
 259  280.3734
 260  561.0446
 261  743.8695
 262  725.035
 263  810.3075
 264  648.7159
 265  690.655
 266  809.6201
 267  357.6455
 268  683.8472
 269  589.3639
 270  459.6897
 271  115.1734
 272  423.0022
 273  685.1323
 274  514.5128
 275  407.1158
 276  761.8987
 277  756.1302
 278  807.0156
 279  786.0866
 280  1025.954
 281  915.9298
 282  664.693
 283  627.0528
 284  685.0034
 285  632.39
 286  551.3772
 287  471.4891
 288  386.9409
 289  770.8031
 290  681.8626
 291  841.5111
 292  608.1764
 293  633.2693
 294  428.2199
 295  500.5062
 296  725.2189
 297  636.2057
 298  439.3546
 299  484.0748
 300  612.4112
 301  749.8149
 302  589.347
 303  234.2607
 304  537.4379
 305  682.9686
 306  684.9638
 307  613.0191
 308  608.3334
 309  638.6402
 310  897.9706
 311  734.741
 312  372.4389
 313  517.1249
 314  337.2186
 315  432.665
 316  417.6095
 317  418.1119
 318  556.2195
 319  520.8223
 320  422.9605
 321  339.803
 322  523.8015
 323  525.5031
 324  575.4584
 325  559.7988
 326  754.0178
 327  907.7972
 328  808.5519
 329  648.4089
 330  664.2822
 331  733.1263
 332  662.6185
 333  393.5811
 334  173.7652
 335  222.117
 336  269.5392
 337  490.9233
 338  556.6854
 339  770.1439
 340  789.9738
 341  618.7227
 342  665.2333
 343  490.0158
 344  596.6693
 345  804.9737
 346  752.0983
 347  496.4518
 348  558.1726
 349  624.0705
 350  667.619
 351  577.2178
 352  539.8555
 353  639.3233
 354  570.0568
 355  509.2687
 356  654.2443
 357  741.0496
 358  839.8027
 359  497.9228
 360  744.1747
 361  801.9755
 362  768.9247
 363  608.7485
 364  857.7742
 365  734.708
 366  851.371
 367  1087.566
 368  953.6606
 369  1625.43
 370  1948.82
 371  1797.145
 372  1902.489
 373  1792.934
 374  1456.845
 375  1120.664
 376  780.1437
 377  797.8337
 378  711.1209
 379  613.5558
 380  547.7958
 381  459.2086
 382  550.881
 383  450.3635
 384  405.2581
 385  655.8917
 386  743.8326
 387  612.2494
 388  668.9004
 389  681.842
 390  623.5268
 391  430.6584
 392  475.0606
 393  759.6058
 394  284.7454
 395  288.2056
 396  693.8622
 397  682.6548
 398  442.9125
 399  376.1536
 400  119.4545
 401  227.8387
 402  602.9038
 403  661.6383
 404  698.5229
 405  802.8357
 406  1104.803
 407  889.2219
 408  587.4589
 409  976.7249
 410  650.6786
 411  533.5225
 412  440.7624
 413  710.3393
 414  1076.28
 415  708.541
 416  341.6402
 417  445.381
 418  450.9527
 419  758.0381
 420  482.4171
 421  702.6423
 422  824.3904
 423  488.8972
 424  614.7554
 425  673.8003
 426  743.5834
 427  567.3621
 428  571.8793
 429  818.8642
 430  707.9583
 431  827.3135
 432  852.7037
 433  702.0854
 434  888.5536
 435  875.7213
 436  534.9734
 437  543.8844
 438  861.4007
 439  597.8817
 440  622.4315
 441  582.5576
 442  688.3369
 443  618.479
 444  674.1421
 445  602.6413
 446  478.6285
 447  429.4224
 448  634.7929
 449  450.2834
 450  430.2646
 451  313.3606
 452  440.9103
 453  445.562
 454  368.6777
 455  423.1694
 456  394.3053
 457  698.2619
 458  907.5828
 459  662.315
 460  605.0132
 461  609.9606
 462  794.7452
 463  714.9701
 464  836.144
 465  553.1057
 466  583.5778
 467  632.2158
 468  523.9781
 469  845.3645
 470  1104.076
 471  758.5999
 472  259.2585
 473  319.3555
 474  529.8147
 475  622.249
 476  422.1539
 477  346.0281
 478  481.027
 479  693.5621
 480  630.9159
 481  202.0378
 482  172.0896
 483  281.8307
 484  247.8254
 485  750.8937
 486  679.0036
 487  699.7386
 488  458.4977
 489  345.66
 490  679.5572
 491  878.2374
 492  957.5432
 493  907.7931
 494  660.0729
 495  660.9541
 496  399.4599
 497  512.0405
 498  641.0673
 499  612.0464
 500  760.6388
 501  727.9128
 502  641.8312
 503  657.4242
 504  525.5439
 505  551.6298
 506  502.201
 507  524.1412
 508  665.9009
 509  894.7078
 510  717.4677
 511  642.9709
