# Input file       =  1193362522.147271_cleaned.dat
# Candidate        =  PSR_0332+5434
# Telescope        =  AR
# Epoch_topo       =  58056.066448463782
# Epoch_bary       =  N/A
# T_sample         =  0.002
# Data Folded      =  7340032
# Data Avg         =  0.0451255959550118
# Data StdDev      =  2.62259059799551 
# Profile Bins     =  512
# Profile Avg      =  646.902133342776 
# Profile StdDev   =  314.010735471161 
# Reduced chi-sqr  =  1.240
# Prob(Noise)      <  0.000165   (~3.6 sigma)
# P_topo (ms)      =  714.494294792996  +/- 0.000169
# P'_topo (s/s)    =  -0                +/- 8.9e-11
# P''_topo (s/s^2) =  0                 +/- 3.93e-14
# P_bary (ms)      =  N/A
# P'_bary (s/s)    =  N/A
# P''_bary (s/s^2) =  N/A
# P_orb (s)        =  N/A
# asin(i)/c (s)    =  N/A
# eccentricity     =  N/A
# w (rad)          =  N/A
# T_peri           =  N/A
######################################################
   0  497.9122
   1  540.746
   2  343.5308
   3  646.6929
   4  787.7072
   5  879.1613
   6  909.6247
   7  672.6918
   8  354.2658
   9  656.6724
  10  631.5618
  11  742.7188
  12  636.4991
  13  823.1032
  14  723.0385
  15  719.9393
  16  821.7395
  17  532.0059
  18  631.6741
  19  470.5473
  20  376.011
  21  609.7629
  22  755.6776
  23  773.3228
  24  778.7316
  25  1081.563
  26  891.3306
  27  671.4387
  28  762.6809
  29  934.8284
  30  639.3788
  31  753.8951
  32  925.5355
  33  834.4913
  34  824.6561
  35  741.5341
  36  684.1517
  37  954.7297
  38  832.7369
  39  477.3208
  40  283.8919
  41  465.8078
  42  481.8795
  43  516.4828
  44  385.9507
  45  346.7456
  46  361.7169
  47  426.6656
  48  977.0185
  49  880.7134
  50  502.195
  51  606.6406
  52  515.5649
  53  753.4155
  54  837.3815
  55  805.9482
  56  823.9595
  57  613.805
  58  354.5558
  59  516.8318
  60  569.4691
  61  489.8457
  62  783.5278
  63  634.2805
  64  657.7789
  65  583.3235
  66  949.2713
  67  999.383
  68  820.8104
  69  817.6147
  70  570.6569
  71  804.827
  72  612.9056
  73  770.521
  74  1082.085
  75  947.2242
  76  709.5223
  77  741.9669
  78  552.7986
  79  317.5113
  80  315.7223
  81  356.9881
  82  614.4095
  83  731.455
  84  821.7704
  85  886.2555
  86  665.2487
  87  650.0134
  88  703.1767
  89  564.5999
  90  659.7623
  91  575.5494
  92  237.2608
  93  311.6487
  94  218.4942
  95  487.4208
  96  416.192
  97  280.0267
  98  363.6353
  99  873.4565
 100  823.6596
 101  146.3507
 102  330.5562
 103  778.4612
 104  663.1948
 105  681.0458
 106  480.1851
 107  547.8702
 108  607.718
 109  852.2791
 110  937.4872
 111  427.4273
 112  524.4122
 113  683.6526
 114  858.8754
 115  676.4678
 116  314.2014
 117  449.815
 118  854.9517
 119  659.4373
 120  899.6534
 121  1067.425
 122  922.3668
 123  827.1542
 124  644.2453
 125  734.5052
 126  711.0422
 127  727.8292
 128  827.8917
 129  790.0169
 130  838.3615
 131  766.1696
 132  891.5926
 133  466.8086
 134  597.0392
 135  945.4689
 136  973.4746
 137  1025.885
 138  797.7911
 139  712.5851
 140  495.937
 141  735.6819
 142  980.8484
 143  1105.074
 144  842.6906
 145  793.4702
 146  783.9731
 147  450.8192
 148  191.8331
 149  529.4185
 150  558.3887
 151  563.416
 152  611.2217
 153  494.5433
 154  955.1378
 155  957.4607
 156  488.6979
 157  332.8812
 158  328.8049
 159  457.5409
 160  834.0616
 161  927.678
 162  926.2877
 163  756.1543
 164  796.2199
 165  403.6543
 166  459.4545
 167  773.5124
 168  705.5772
 169  694.806
 170  696.4705
 171  736.7054
 172  566.523
 173  504.5635
 174  397.3113
 175  361.2874
 176  367.4709
 177  308.0801
 178  496.6348
 179  1021.903
 180  907.1738
 181  714.1974
 182  1176.919
 183  989.1036
 184  699.0473
 185  741.23
 186  490.0052
 187  384.2213
 188  811.228
 189  711.8503
 190  494.7391
 191  617.5782
 192  690.81
 193  455.0816
 194  515.4965
 195  682.0098
 196  810.0381
 197  759.3182
 198  425.0012
 199  285.2072
 200  674.4561
 201  676.7062
 202  722.8816
 203  775.6937
 204  472.118
 205  661.6395
 206  649.4853
 207  813.6022
 208  282.8807
 209  354.1653
 210  644.4334
 211  912.672
 212  604.1784
 213  599.0292
 214  717.0712
 215  737.8227
 216  618.6099
 217  663.0848
 218  938.9744
 219  642.6631
 220  556.8875
 221  1081.288
 222  773.6055
 223  451.0836
 224  216.1542
 225  528.3514
 226  635.8028
 227  467.2324
 228  573.9619
 229  536.812
 230  732.0203
 231  662.6215
 232  406.7986
 233  326.2185
 234  584.6151
 235  1039.826
 236  919.3743
 237  885.4777
 238  701.1863
 239  564.0121
 240  437.0085
 241  408.746
 242  546.7836
 243  634.2328
 244  691.9223
 245  533.2782
 246  454.1142
 247  518.2849
 248  864.5933
 249  815.6039
 250  567.0064
 251  207.1002
 252  597.0826
 253  556.0487
 254  601.1443
 255  630.7574
 256  624.939
 257  666.1146
 258  525.2871
 259  735.3453
 260  591.483
 261  581.2437
 262  571.5251
 263  677.9531
 264  862.2057
 265  851.2886
 266  712.262
 267  411.2781
 268  768.7039
 269  700.6536
 270  513.2817
 271  880.7542
 272  703.6755
 273  562.3906
 274  516.5486
 275  515.9418
 276  599.082
 277  419.347
 278  742.4217
 279  708.5225
 280  647.5085
 281  475.0111
 282  592.8882
 283  1007.73
 284  579.0179
 285  372.2321
 286  617.8514
 287  409.5908
 288  553.1423
 289  375.8406
 290  461.0011
 291  399.9137
 292  397.099
 293  290.544
 294  183.7023
 295  340.4117
 296  289.2594
 297  393.0765
 298  526.9248
 299  771.3751
 300  414.1576
 301  661.9987
 302  839.8751
 303  631.6579
 304  677.1617
 305  617.5
 306  737.6871
 307  955.3746
 308  554.0621
 309  562.544
 310  1049.682
 311  962.5262
 312  802.5228
 313  980.5958
 314  1417.043
 315  1743.72
 316  2137.357
 317  2413.204
 318  2337.383
 319  1667.994
 320  1301.115
 321  902.2126
 322  568.2913
 323  356.9152
 324  512.86
 325  989.7579
 326  756.9829
 327  622.4778
 328  761.4158
 329  710.1324
 330  749.048
 331  655.5226
 332  672.6676
 333  579.2324
 334  728.2187
 335  784.9024
 336  389.4489
 337  535.3839
 338  412.4309
 339  108.8981
 340  336.5055
 341  457.5927
 342  703.1686
 343  609.4081
 344  546.4725
 345  420.5063
 346  319.8214
 347  331.9933
 348  53.6715
 349  316.0557
 350  504.5629
 351  554.131
 352  553.979
 353  515.6423
 354  558.1941
 355  523.3576
 356  403.6876
 357  274.907
 358  244.0815
 359  350.132
 360  854.2615
 361  685.8114
 362  794.5599
 363  799.0084
 364  612.1281
 365  538.6699
 366  387.4304
 367  583.4388
 368  529.6086
 369  375.2108
 370  530.9698
 371  663.5773
 372  475.3975
 373  408.9492
 374  672.7988
 375  220.2061
 376  563.9041
 377  926.1742
 378  745.4127
 379  859.0293
 380  910.1755
 381  1018.48
 382  766.3674
 383  524.1783
 384  575.2749
 385  845.2928
 386  726.1117
 387  796.4442
 388  562.9565
 389  597.9731
 390  972.5185
 391  941.8442
 392  637.6996
 393  361.3703
 394  164.1321
 395  417.8674
 396  533.5659
 397  537.4505
 398  595.7261
 399  567.4911
 400  508.8412
 401  294.6342
 402  608.0226
 403  1014.926
 404  728.5245
 405  283.3546
 406  531.8494
 407  649.6806
 408  852.8925
 409  1012.229
 410  1104.675
 411  1095.542
 412  518.424
 413  502.2769
 414  942.2112
 415  355.0077
 416  352.4509
 417  437.155
 418  866.66
 419  680.5333
 420  716.9651
 421  533.644
 422  491.3065
 423  555.0623
 424  776.9405
 425  592.7753
 426  541.6368
 427  639.6392
 428  417.9597
 429  634.9399
 430  731.1324
 431  618.8472
 432  868.4006
 433  692.144
 434  553.0334
 435  690.9904
 436  626.6867
 437  640.1686
 438  539.1942
 439  284.1046
 440  440.3978
 441  328.2224
 442  559.9186
 443  214.5251
 444  526.2167
 445  976.8433
 446  1097.175
 447  906.8986
 448  931.4135
 449  1030.559
 450  640.8128
 451  911.3291
 452  612.7654
 453  508.6883
 454  495.4814
 455  786.2786
 456  664.4603
 457  915.5356
 458  803.7382
 459  328.2388
 460  718.8416
 461  964.0302
 462  550.9174
 463  581.9302
 464  789.7542
 465  650.5322
 466  649.6105
 467  761.0085
 468  675.9506
 469  676.4174
 470  807.2691
 471  572.0761
 472  488.0042
 473  769.2956
 474  887.8878
 475  641.3013
 476  461.3021
 477  277.6812
 478  537.843
 479  768.7678
 480  426.5228
 481  318.9398
 482  312.7906
 483  259.5213
 484  36.3097
 485  608.5735
 486  582.9404
 487  798.8499
 488  732.2045
 489  351.8458
 490  467.5028
 491  419.6584
 492  284.162
 493  534.2565
 494  332.0222
 495  444.34
 496  759.2987
 497  812.5592
 498  801.6772
 499  648.3322
 500  760.7565
 501  603.2427
 502  726.0251
 503  737.6007
 504  567.8083
 505  739.0614
 506  493.8841
 507  497.0143
 508  620.044
 509  692.7538
 510  640.0225
 511  544.1191
