# Input file       =  1193936473.117343_cleaned.dat
# Candidate        =  PSR_0332+5434
# Telescope        =  AR
# Epoch_topo       =  58062.709399506282
# Epoch_bary       =  N/A
# T_sample         =  0.002
# Data Folded      =  7340032
# Data Avg         =  0.11309885850434 
# Data StdDev      =  3.70162373668715 
# Profile Bins     =  512
# Profile Avg      =  1620.97519369673 
# Profile StdDev   =  443.206649517863 
# Reduced chi-sqr  =  0.864
# Prob(Noise)      <  0.988   (~0.0 sigma)
# P_topo (ms)      =  714.500079300941  +/- 8.71e-05
# P'_topo (s/s)    =  -0                +/- 4.59e-11
# P''_topo (s/s^2) =  0                 +/- 2.03e-14
# P_bary (ms)      =  N/A
# P'_bary (s/s)    =  N/A
# P''_bary (s/s^2) =  N/A
# P_orb (s)        =  N/A
# asin(i)/c (s)    =  N/A
# eccentricity     =  N/A
# w (rad)          =  N/A
# T_peri           =  N/A
######################################################
   0  1547.475
   1  1405.66
   2  1768.073
   3  1593.017
   4  1337.686
   5  1800.453
   6  1892.323
   7  1749.815
   8  1506.477
   9  1605.165
  10  1493.19
  11  1716.063
  12  1417.199
  13  1461.192
  14  1570.9
  15  1453.023
  16  1435.763
  17  1139.609
  18  1412.865
  19  1190.448
  20  1344.274
  21  1282.59
  22  1412.286
  23  1628.309
  24  1473.563
  25  1595.785
  26  1695.403
  27  1911.808
  28  1246.831
  29  1200.346
  30  1216.175
  31  1265.374
  32  1209.864
  33  1290.883
  34  1136.844
  35  1406.59
  36  1976.299
  37  1555.613
  38  1760.13
  39  1974.318
  40  1862.33
  41  1652.308
  42  1585.34
  43  1576.605
  44  1635.185
  45  1541.898
  46  1656.321
  47  1546.626
  48  1631.44
  49  1378.747
  50  1472.724
  51  1520.876
  52  1462.097
  53  1441.833
  54  1021.639
  55  1268.279
  56  1352.922
  57  1537.575
  58  1765.27
  59  2216.252
  60  1824.53
  61  1513.06
  62  1114.386
  63  1348.325
  64  1868.553
  65  1315.509
  66  1519.514
  67  1519.256
  68  2124.743
  69  1944.468
  70  1543.781
  71  1773.258
  72  2049.17
  73  1727.236
  74  1577.871
  75  1901.534
  76  1675.565
  77  1646.468
  78  1446.459
  79  1514.459
  80  1528.499
  81  1734.471
  82  1748.636
  83  1698.387
  84  1738.959
  85  1641.611
  86  1496.254
  87  1670.325
  88  1949.952
  89  1977.968
  90  2114.673
  91  2127.035
  92  1648.168
  93  1833.947
  94  1811.288
  95  1462.877
  96  1449.792
  97  1492.817
  98  1454.231
  99  1583.673
 100  1491.669
 101  1639.967
 102  1827.95
 103  1660.261
 104  1409.289
 105  1630.484
 106  1608.278
 107  1655.497
 108  1683.416
 109  1939.913
 110  1605.74
 111  1213.883
 112  1367.897
 113  1550.924
 114  1447.638
 115  1067.809
 116  864.6467
 117  1126.834
 118  1563.2
 119  1733.1
 120  1741.451
 121  1478.794
 122  1717.781
 123  1835.257
 124  1897.87
 125  2147.566
 126  1994.059
 127  2020.511
 128  1590.174
 129  1182.059
 130  1396.197
 131  1503.658
 132  1297.521
 133  1505.848
 134  1714.194
 135  2107.194
 136  1832.059
 137  1681.488
 138  1869.602
 139  1691.359
 140  1736.213
 141  1879.781
 142  1942.14
 143  2067.863
 144  2485.378
 145  2822.014
 146  3480.779
 147  3281.969
 148  2613.665
 149  2088.516
 150  1727.677
 151  1694.999
 152  1508.854
 153  1319.724
 154  1571.791
 155  1732.333
 156  1264.364
 157  1561.643
 158  1571.211
 159  1478.628
 160  1527.145
 161  1476.461
 162  1535.879
 163  1838.974
 164  1891.553
 165  1254.135
 166  1237.547
 167  1524.849
 168  1608.496
 169  1239.861
 170  1509.448
 171  1408.528
 172  1512.22
 173  1608
 174  1589.016
 175  1586.34
 176  1347.199
 177  1268.109
 178  1509.758
 179  1572.914
 180  1679.961
 181  1991.603
 182  1845.73
 183  1472.919
 184  1605.079
 185  1639.132
 186  1733.206
 187  1731.157
 188  2128.962
 189  2166.257
 190  1777.717
 191  1887.203
 192  1713.368
 193  1744.151
 194  1805.546
 195  1434.303
 196  1584.822
 197  1478.736
 198  1467.223
 199  1462.764
 200  1772.351
 201  1826.686
 202  1670.802
 203  1289.312
 204  1387.932
 205  1237.416
 206  1328.262
 207  1750.583
 208  2205.817
 209  2175.944
 210  1876.343
 211  1952.083
 212  1720.3
 213  1438.796
 214  1483.432
 215  1667.225
 216  1876.054
 217  2168.614
 218  2323.578
 219  2059.258
 220  1762.78
 221  1502.862
 222  1859.914
 223  1772.313
 224  1748.152
 225  1922.016
 226  2107.471
 227  1722.864
 228  1573.797
 229  1901.379
 230  1419.922
 231  1163.288
 232  1468.153
 233  1473.996
 234  1322.747
 235  1581.184
 236  1744.708
 237  1645.943
 238  1602.821
 239  1557.031
 240  1795.042
 241  1585.192
 242  1824.536
 243  1478.798
 244  1439.583
 245  1683.378
 246  1982.297
 247  1688.951
 248  1649.256
 249  1573.131
 250  2000.015
 251  1790.578
 252  1544.735
 253  1732.552
 254  1836.875
 255  1763.685
 256  1660.706
 257  1417.039
 258  1427.337
 259  1649.97
 260  1357.246
 261  1377.277
 262  1465.489
 263  1793.975
 264  1713.767
 265  1509.059
 266  1653.465
 267  1492.288
 268  1404.95
 269  1624.816
 270  1619.79
 271  1928.548
 272  1884.829
 273  1580.189
 274  1822.154
 275  1719.751
 276  1539.175
 277  1416.109
 278  1275.468
 279  1437.805
 280  1585.011
 281  1770.318
 282  1444.206
 283  1907.071
 284  2039.783
 285  1787.986
 286  1483.159
 287  1734.86
 288  1506.2
 289  1545.439
 290  1412.673
 291  1327.532
 292  1814.337
 293  1902.188
 294  1734.183
 295  1345.814
 296  1125.911
 297  1055.135
 298  1151.572
 299  1395.549
 300  1884.706
 301  1632.386
 302  1655.703
 303  1422.988
 304  1841.503
 305  1789.854
 306  1407.394
 307  1989.653
 308  2311.75
 309  2125.667
 310  1917.674
 311  2117.754
 312  1523.13
 313  1263.943
 314  1464.005
 315  1857.635
 316  2134.118
 317  1849.811
 318  1858.034
 319  2050.259
 320  1994.89
 321  1712.24
 322  1664.672
 323  1326.401
 324  1363.502
 325  1722.34
 326  2037.332
 327  1605.064
 328  1427.756
 329  1025.345
 330  1138.289
 331  1101.356
 332  1494.779
 333  1935.553
 334  1551.947
 335  1561.481
 336  2045.895
 337  1698.616
 338  1310.791
 339  1558.159
 340  1541.693
 341  1244.317
 342  1391.051
 343  1634.551
 344  1631.622
 345  1819.627
 346  1846.248
 347  1624.336
 348  1504.899
 349  1645.287
 350  1403.854
 351  1597.236
 352  2022.848
 353  1943.521
 354  1824.539
 355  1979.894
 356  2033.28
 357  1846.152
 358  2118.401
 359  2389.156
 360  1797.702
 361  1902.171
 362  1880.724
 363  1789.061
 364  1581.097
 365  1566.298
 366  1877.471
 367  1530.081
 368  1263.036
 369  1338.407
 370  1413.16
 371  1477.01
 372  1235.7
 373  1216.013
 374  1346.681
 375  1603.66
 376  1284.778
 377  1169.032
 378  1421.08
 379  1332.854
 380  1284.727
 381  1500.681
 382  1626.742
 383  1278.543
 384  1178.87
 385  1220.65
 386  1471.807
 387  1631.213
 388  1403.038
 389  1287.757
 390  1651.91
 391  1781.934
 392  1596.95
 393  1275.847
 394  1045.1
 395  988.0126
 396  1063.829
 397  939.6368
 398  1365.611
 399  1882.05
 400  2182.049
 401  2229.002
 402  2106.549
 403  1979.124
 404  1329.195
 405  1447.989
 406  1707.633
 407  2002.058
 408  1791.839
 409  1718.519
 410  1793.283
 411  1770.172
 412  1525.261
 413  1573.46
 414  1500.078
 415  1725.808
 416  1739.215
 417  1888.291
 418  1990.274
 419  1916.499
 420  1861.301
 421  1449.992
 422  1511.783
 423  1524.955
 424  1184.101
 425  1099.171
 426  1126.696
 427  1205.937
 428  1637.435
 429  1359.266
 430  1487.14
 431  1428.555
 432  1488.66
 433  1748.112
 434  2153.07
 435  2245.636
 436  2162.567
 437  2052.948
 438  1628.706
 439  1758.203
 440  1811.628
 441  1740.707
 442  1302.399
 443  1530.083
 444  1874.789
 445  1628.471
 446  1357.198
 447  1539.475
 448  1271.225
 449  1443.489
 450  1262.483
 451  1171.914
 452  1265.667
 453  1302.149
 454  1342.519
 455  1460.005
 456  1707.681
 457  1680.443
 458  1466.457
 459  983.7397
 460  1078.351
 461  1322.613
 462  1413.364
 463  1561.079
 464  1685.104
 465  2249.363
 466  1650.616
 467  1539.898
 468  1272.13
 469  1730.456
 470  1816.025
 471  1431.254
 472  1687.017
 473  1706.917
 474  1553.303
 475  1294.021
 476  1144.656
 477  1589.278
 478  1576.082
 479  1178.022
 480  1273.219
 481  1435.765
 482  1517.133
 483  1238.777
 484  1538.323
 485  1523.325
 486  1465.873
 487  1683.908
 488  1656.727
 489  1751.628
 490  1734.621
 491  1521.963
 492  1416.878
 493  1670.967
 494  1585.816
 495  1223.134
 496  1430.694
 497  1989.788
 498  1933.828
 499  1447.463
 500  1432.007
 501  1778.381
 502  1953.405
 503  1522.656
 504  1531.472
 505  1866.626
 506  1780.348
 507  1408.428
 508  1474.495
 509  1801.554
 510  1838.577
 511  1831.731
