# Input file       =  1193332959.148284_cleaned.dat
# Candidate        =  PSR_0332+5434
# Telescope        =  AR
# Epoch_topo       =  58055.724284123658
# Epoch_bary       =  N/A
# T_sample         =  0.002
# Data Folded      =  7208960
# Data Avg         =  0.0570071512917902
# Data StdDev      =  3.74134655300488 
# Profile Bins     =  512
# Profile Avg      =  802.835623911254 
# Profile StdDev   =  443.945098337526 
# Reduced chi-sqr  =  0.736
# Prob(Noise)      <  1   (~0.0 sigma)
# P_topo (ms)      =  714.493643289341  +/- 0.000207
# P'_topo (s/s)    =  -0                +/- 1.11e-10
# P''_topo (s/s^2) =  0                 +/- 5e-14
# P_bary (ms)      =  N/A
# P'_bary (s/s)    =  N/A
# P''_bary (s/s^2) =  N/A
# P_orb (s)        =  N/A
# asin(i)/c (s)    =  N/A
# eccentricity     =  N/A
# w (rad)          =  N/A
# T_peri           =  N/A
######################################################
   0  1110.201
   1  727.8167
   2  606.5497
   3  359.227
   4  386.4438
   5  490.8864
   6  920.4989
   7  1132.699
   8  1138.36
   9  1381.819
  10  1006.168
  11  937.7312
  12  432.3007
  13  546.3961
  14  1135.863
  15  868.5034
  16  1200.866
  17  1206.603
  18  1193.945
  19  726.3522
  20  518.0134
  21  816.8304
  22  1016.201
  23  939.0148
  24  395.7925
  25  1189.319
  26  818.0725
  27  1060.922
  28  904.9753
  29  820.3809
  30  1116.375
  31  1010.021
  32  1396.288
  33  1359.67
  34  833.3542
  35  972.2631
  36  1029.319
  37  1221.245
  38  1059.4
  39  574.3192
  40  826.4256
  41  717.5137
  42  1217.589
  43  998.1921
  44  1234.91
  45  1158.467
  46  899.9799
  47  689.4085
  48  575.3788
  49  661.8671
  50  752.3098
  51  1177.304
  52  1474.269
  53  1316.203
  54  903.9894
  55  1165.805
  56  713.3474
  57  670.2678
  58  831.1642
  59  608.2836
  60  520.6615
  61  721.2325
  62  1111.972
  63  834.5171
  64  677.9396
  65  344.5295
  66  561.6329
  67  826.313
  68  585.3765
  69  600.3582
  70  830.0057
  71  898.1384
  72  648.0498
  73  816.2946
  74  962.4113
  75  1023.224
  76  942.9247
  77  695.5101
  78  721.4933
  79  521.8254
  80  684.0118
  81  665.1022
  82  883.7086
  83  917.756
  84  843.6379
  85  831.3529
  86  496.6526
  87  341.2073
  88  764.6495
  89  641.9268
  90  720.0851
  91  716.326
  92  784.9377
  93  541.6877
  94  682.6201
  95  830.9582
  96  654.3037
  97  714.4826
  98  796.7363
  99  1015.986
 100  1073.976
 101  853.9194
 102  656.4917
 103  796.2738
 104  902.4562
 105  1228.171
 106  882.3857
 107  1084.655
 108  932.3914
 109  892.0912
 110  748.9256
 111  644.0822
 112  383.1784
 113  465.5885
 114  674.8642
 115  822.3497
 116  972.4822
 117  1020.92
 118  1286.246
 119  730.6207
 120  489.5599
 121  352.7205
 122  698.3217
 123  760.7272
 124  569.5452
 125  792.5839
 126  305.6555
 127  488.5926
 128  443.3498
 129  804.4674
 130  753.9326
 131  737.8484
 132  679.5146
 133  696.9255
 134  818.0639
 135  699.715
 136  822.2665
 137  889.0814
 138  804.8718
 139  695.0264
 140  874.6819
 141  849.6083
 142  712.7371
 143  543.0736
 144  531.3243
 145  846.7477
 146  627.2169
 147  793.9908
 148  814.448
 149  275.849
 150  445.8675
 151  572.4709
 152  765.153
 153  892.942
 154  1113.652
 155  890.3105
 156  747.3387
 157  498.9983
 158  239.4005
 159  1041.11
 160  416.3589
 161  229.1605
 162  412.9622
 163  740.1478
 164  775.78
 165  501.0477
 166  609.5867
 167  276.85
 168  230.9829
 169  576.8036
 170  726.6031
 171  515.5698
 172  633.5962
 173  924.1006
 174  941.5488
 175  787.1611
 176  841.6581
 177  675.3209
 178  739.2314
 179  1045.117
 180  988.8994
 181  952.0892
 182  771.0175
 183  858.3477
 184  730.6489
 185  738.4078
 186  856.5852
 187  1007.412
 188  638.0197
 189  501.8322
 190  605.1571
 191  816.9197
 192  613.8529
 193  373.0999
 194  720.1564
 195  626.1935
 196  568.192
 197  637.6406
 198  885.2487
 199  716.3911
 200  918.9302
 201  991.6808
 202  945.9618
 203  1222.539
 204  1013.515
 205  1175.789
 206  1254.05
 207  1079.404
 208  727.7121
 209  714.1135
 210  357.5823
 211  748.2386
 212  1052.997
 213  855.5341
 214  877.5216
 215  982.1882
 216  884.0202
 217  1002.423
 218  663.363
 219  795.8407
 220  843.5067
 221  702.8226
 222  654.4733
 223  720.8036
 224  576.8423
 225  419.3155
 226  502.1843
 227  471.2843
 228  574.3022
 229  907.6124
 230  776.9053
 231  800.4437
 232  630.511
 233  782.7365
 234  789.8979
 235  926.8458
 236  1023.795
 237  702.7411
 238  972.6313
 239  1046.764
 240  679.2252
 241  321.091
 242  455.7513
 243  733.6536
 244  853.7903
 245  771.407
 246  968.4985
 247  1105.892
 248  734.7715
 249  257.3502
 250  425.2114
 251  615.0834
 252  653.4292
 253  515.8959
 254  684.3006
 255  442.8757
 256  430.7251
 257  1063.412
 258  1277.575
 259  1089.758
 260  1014.891
 261  1038.944
 262  1108.055
 263  724.1826
 264  511.8445
 265  569.8771
 266  866.5002
 267  873.5477
 268  822.6023
 269  432.3219
 270  462.9917
 271  485.1609
 272  970.5487
 273  809.4504
 274  761.5618
 275  563.799
 276  647.5386
 277  633.2099
 278  860.5271
 279  855.9289
 280  687.814
 281  639.7313
 282  815.3203
 283  880.9473
 284  605.6425
 285  589.6119
 286  654.8626
 287  705.6871
 288  1078.82
 289  907.8317
 290  907.9684
 291  530.0563
 292  314.1151
 293  727.1785
 294  791.6654
 295  410.1322
 296  362.6951
 297  309.6285
 298  680.9832
 299  710.2156
 300  833.111
 301  710.2378
 302  534.9746
 303  348.2364
 304  513.0044
 305  337.6247
 306  661.4393
 307  962.1105
 308  717.7139
 309  601.7958
 310  354.4155
 311  502.3649
 312  593.1091
 313  714.2024
 314  829.1385
 315  889.0288
 316  764.0858
 317  498.4252
 318  875.1364
 319  1075.519
 320  845.5641
 321  788.7874
 322  642.6417
 323  591.7189
 324  656.4962
 325  939.7814
 326  939.2608
 327  1155.646
 328  1048.41
 329  938.2525
 330  682.4242
 331  613.3564
 332  458.6409
 333  479.3485
 334  301.4351
 335  457.7877
 336  461.2281
 337  792.9805
 338  527.6186
 339  442.833
 340  790.8837
 341  1083.828
 342  729.4975
 343  833.6309
 344  693.1655
 345  703.5936
 346  630.9936
 347  790.2256
 348  640.3151
 349  752.6435
 350  814.6547
 351  236.8694
 352  219.5938
 353  593.7394
 354  877.2331
 355  996.2211
 356  785.9471
 357  625.6758
 358  470.4354
 359  397.129
 360  546.9512
 361  969.4811
 362  1238.188
 363  1232.533
 364  1455.788
 365  954.8273
 366  604.5358
 367  343.22
 368  484.439
 369  933.5563
 370  982.7929
 371  1074.84
 372  941.0141
 373  913.2828
 374  692.875
 375  419.2509
 376  1146.205
 377  1071.539
 378  1053.36
 379  736.1413
 380  576.9083
 381  713.6204
 382  885.3848
 383  1297.262
 384  513.447
 385  575.1675
 386  954.1437
 387  977.3201
 388  823.612
 389  798.4299
 390  793.5369
 391  493.7959
 392  950.7899
 393  704.1648
 394  871.0339
 395  656.9335
 396  920.2004
 397  798.8834
 398  836.598
 399  706.3849
 400  368.9556
 401  844.453
 402  932.8562
 403  912.5902
 404  977.9249
 405  1025.836
 406  1208.346
 407  739.3176
 408  562.4527
 409  794.9867
 410  1347.049
 411  1465.049
 412  1224.495
 413  1825.258
 414  1835.931
 415  1946.539
 416  2202.305
 417  2351.137
 418  1844.99
 419  1606.826
 420  1412.293
 421  1034.062
 422  1116.687
 423  516.3447
 424  732.7498
 425  343.0056
 426  507.0404
 427  1025.604
 428  922.3479
 429  857.329
 430  767.9827
 431  718.89
 432  810.4408
 433  916.1927
 434  1183.685
 435  1293.988
 436  1372.838
 437  889.1053
 438  743.5086
 439  694.3987
 440  734.7889
 441  701.0321
 442  875.0671
 443  1065.134
 444  686.7281
 445  718.3098
 446  1089.955
 447  873.5575
 448  675.5945
 449  660.0702
 450  750.2723
 451  629.1656
 452  673.0936
 453  596.3834
 454  925.3424
 455  792.386
 456  766.1744
 457  959.2996
 458  698.7277
 459  381.1192
 460  475.1161
 461  918.8867
 462  760.9787
 463  987.8193
 464  960.7947
 465  937.4462
 466  751.4084
 467  724.6753
 468  827.4084
 469  674.5934
 470  917.0374
 471  908.4167
 472  868.7352
 473  605.0885
 474  676.2324
 475  761.9355
 476  841.5803
 477  921.9523
 478  767.863
 479  819.4805
 480  1143.867
 481  929.5261
 482  977.9685
 483  1187.94
 484  928.7775
 485  893.5214
 486  829.897
 487  1173.153
 488  925.9397
 489  1184.823
 490  1047.244
 491  969.1343
 492  966.7695
 493  805.0303
 494  1196.089
 495  1065.485
 496  808.4164
 497  527.8079
 498  1056.846
 499  982.1072
 500  795.9824
 501  1115.35
 502  1322.9
 503  779.7545
 504  746.9362
 505  1008.565
 506  534.0961
 507  664.6663
 508  550.5587
 509  912.4822
 510  792.2516
 511  946.3193
