# Input file       =  1193160708.139042_cleaned.dat
# Candidate        =  PSR_0332+5434
# Telescope        =  AR
# Epoch_topo       =  58053.730638183355
# Epoch_bary       =  N/A
# T_sample         =  0.002
# Data Folded      =  7143424
# Data Avg         =  0.00994365491375951
# Data StdDev      =  1.00004872046423 
# Profile Bins     =  512
# Profile Avg      =  138.638223131969 
# Profile StdDev   =  118.124339274137 
# Reduced chi-sqr  =  1.858
# Prob(Noise)      <  1.03e-28   (~11.1 sigma)
# P_topo (ms)      =  714.491870639167  +/- 0.000109
# P'_topo (s/s)    =  -0                +/- 5.91e-11
# P''_topo (s/s^2) =  0                 +/- 2.68e-14
# P_bary (ms)      =  N/A
# P'_bary (s/s)    =  N/A
# P''_bary (s/s^2) =  N/A
# P_orb (s)        =  N/A
# asin(i)/c (s)    =  N/A
# eccentricity     =  N/A
# w (rad)          =  N/A
# T_peri           =  N/A
######################################################
   0  1152.15
   1  1030.833
   2  735.2592
   3  397.0243
   4  143.0383
   5  64.64278
   6  134.4727
   7  230.9486
   8  260.3956
   9  218.8252
  10  171.3714
  11  93.0423
  12  264.6208
  13  185.6807
  14  105.1239
  15  175.0265
  16  206.7455
  17  80.70748
  18  35.59554
  19  141.3119
  20  81.02071
  21  -7.199302
  22  144.5655
  23  187.0645
  24  193.3801
  25  160.3248
  26  145.9173
  27  172.5374
  28  261.0514
  29  138.174
  30  53.25312
  31  -8.177209
  32  63.08937
  33  59.63801
  34  223.7022
  35  255.8542
  36  113.8711
  37  99.32657
  38  167.544
  39  98.49233
  40  162.4531
  41  185.6532
  42  116.0217
  43  71.48251
  44  37.47524
  45  -14.07438
  46  17.51367
  47  94.48563
  48  150.5534
  49  163.2402
  50  69.61139
  51  62.60711
  52  167.9444
  53  243.0075
  54  114.4165
  55  27.49045
  56  2.477435
  57  -31.5308
  58  13.99448
  59  -21.66449
  60  63.83484
  61  135.4973
  62  161.1976
  63  124.3505
  64  148.3753
  65  255.0211
  66  161.7778
  67  153.9165
  68  154.513
  69  41.1198
  70  54.68329
  71  166.4243
  72  112.0014
  73  211.1618
  74  231.5687
  75  151.0622
  76  40.44516
  77  196.7499
  78  69.89708
  79  153.3418
  80  130.4893
  81  249.3397
  82  126.1443
  83  78.20773
  84  110.0028
  85  46.05796
  86  134.3913
  87  133.3073
  88  170.7403
  89  187.4754
  90  180.3544
  91  46.35149
  92  96.99229
  93  120.0851
  94  147.8791
  95  143.7821
  96  97.9861
  97  102.3329
  98  114.5895
  99  108.4741
 100  159.1527
 101  185.1244
 102  140.6957
 103  126.8265
 104  173.8856
 105  80.13923
 106  134.8265
 107  71.53672
 108  142.3313
 109  172.9922
 110  244.1781
 111  191.2512
 112  75.68027
 113  71.40099
 114  48.61216
 115  139.8285
 116  140.3802
 117  156.1659
 118  191.6637
 119  139.2759
 120  198.6805
 121  116.3808
 122  58.75794
 123  232.3158
 124  248.1768
 125  142.1115
 126  149.6885
 127  144.7975
 128  139.5614
 129  75.44411
 130  2.436326
 131  86.7877
 132  221.5445
 133  230.7049
 134  189.9609
 135  302.3589
 136  167.7999
 137  174.3196
 138  123.4807
 139  192.5089
 140  157.297
 141  213.0457
 142  188.7733
 143  -20.37132
 144  20.48454
 145  76.77977
 146  98.33842
 147  246.2859
 148  256.5529
 149  191.0858
 150  172.7424
 151  204.27
 152  139.5989
 153  170.2219
 154  224.4042
 155  309.142
 156  375.9015
 157  274.2384
 158  259.7906
 159  172.0119
 160  133.6139
 161  177.841
 162  109.8132
 163  193.3822
 164  287.4318
 165  192.3615
 166  182.1027
 167  155.1115
 168  74.69958
 169  86.96053
 170  100.4068
 171  233.8496
 172  288.9817
 173  234.4471
 174  179.8931
 175  128.3274
 176  133.651
 177  124.9389
 178  81.62452
 179  101.7162
 180  129.7607
 181  56.4105
 182  -68.04607
 183  -18.60542
 184  37.80885
 185  37.02319
 186  171.9188
 187  164.2614
 188  103.2872
 189  105.0428
 190  34.54796
 191  73.24196
 192  101.1632
 193  174.6812
 194  157.1692
 195  73.66958
 196  149.9417
 197  114.9843
 198  93.77045
 199  192.02
 200  219.1546
 201  144.7952
 202  -6.282929
 203  114.0734
 204  29.47926
 205  90.37701
 206  41.38895
 207  109.2883
 208  252.1773
 209  226.854
 210  126.4459
 211  71.86776
 212  23.21156
 213  -28.90406
 214  108.1871
 215  78.01093
 216  218.6355
 217  201.6201
 218  171.4597
 219  96.72407
 220  -46.01013
 221  -97.10829
 222  106.3084
 223  135.4885
 224  69.21443
 225  74.2218
 226  68.79739
 227  121.127
 228  60.84886
 229  65.16027
 230  48.15417
 231  2.17868
 232  171.835
 233  207.3412
 234  -20.13268
 235  -57.05276
 236  67.03896
 237  105.3115
 238  236.1143
 239  296.5883
 240  329.5062
 241  161.6528
 242  38.53955
 243  107.9394
 244  98.39275
 245  97.46664
 246  288.1899
 247  366.6192
 248  188.3454
 249  56.57494
 250  55.77705
 251  -17.28794
 252  -203.8021
 253  81.6623
 254  210.2886
 255  135.1961
 256  68.89253
 257  111.4947
 258  207.6326
 259  111.5012
 260  132.8468
 261  221.9681
 262  143.2158
 263  208.0216
 264  237.2306
 265  231.7285
 266  151.6768
 267  66.44065
 268  180.3239
 269  145.53
 270  145.5024
 271  170.2492
 272  109.1128
 273  166.4598
 274  95.19251
 275  122.0623
 276  152.8426
 277  31.40919
 278  -43.13146
 279  17.80175
 280  200.3079
 281  130.8196
 282  120.9111
 283  64.5557
 284  123.1657
 285  159.2393
 286  141.3165
 287  129.1349
 288  130.6303
 289  143.7452
 290  45.18559
 291  214.097
 292  246.8871
 293  229.5329
 294  139.7412
 295  73.99894
 296  75.05003
 297  -6.695925
 298  53.1949
 299  262.8749
 300  133.3223
 301  38.02682
 302  56.53013
 303  12.93805
 304  40.96948
 305  130.0425
 306  210.0635
 307  185.1277
 308  61.77689
 309  -11.38536
 310  26.4069
 311  56.13027
 312  102.1623
 313  28.71472
 314  154.7348
 315  124.6693
 316  128.8044
 317  28.03162
 318  -19.74542
 319  -109.1716
 320  41.44491
 321  166.1369
 322  263.119
 323  167.7442
 324  158.4699
 325  80.7306
 326  -13.59754
 327  93.59654
 328  112.3939
 329  111.4891
 330  180.9037
 331  55.19307
 332  139.5157
 333  -50.72017
 334  10.42958
 335  -86.33615
 336  14.37233
 337  227.55
 338  214.0023
 339  183.3099
 340  72.01347
 341  41.90121
 342  74.03408
 343  150.7324
 344  194.2357
 345  284.257
 346  221.9558
 347  136.8773
 348  -1.989076
 349  -2.494364
 350  24.80079
 351  48.42
 352  18.73355
 353  81.10397
 354  225.3146
 355  62.30638
 356  127.4303
 357  176.061
 358  98.18792
 359  57.24743
 360  28.43505
 361  91.29023
 362  257.7515
 363  255.359
 364  256.4666
 365  134.7487
 366  162.4432
 367  10.44441
 368  56.14746
 369  36.71261
 370  -100.969
 371  95.96823
 372  247.3886
 373  137.7245
 374  99.79031
 375  152.4444
 376  110.0048
 377  21.36761
 378  35.67795
 379  143.5163
 380  95.26699
 381  106.826
 382  82.01485
 383  157.4016
 384  205.5493
 385  137.548
 386  25.94203
 387  108.891
 388  179.9008
 389  42.75378
 390  -63.85117
 391  81.28187
 392  286.8771
 393  151.1202
 394  114.9821
 395  102.037
 396  133.4522
 397  144.2513
 398  95.40213
 399  79.04456
 400  100.1173
 401  110.8191
 402  94.87855
 403  19.01293
 404  66.79179
 405  232.6111
 406  126.2952
 407  6.874774
 408  80.76942
 409  99.37116
 410  57.97876
 411  263.9272
 412  328.028
 413  209.6485
 414  121.0738
 415  115.1537
 416  181.357
 417  108.4283
 418  91.0602
 419  231.6747
 420  215.8504
 421  170.1331
 422  111.3828
 423  131.4148
 424  257.6078
 425  80.1193
 426  127.0354
 427  190.9015
 428  278.9981
 429  170.3996
 430  167.8148
 431  191.3298
 432  252.3063
 433  238.5122
 434  148.82
 435  158.3438
 436  249.9456
 437  156.2135
 438  186.8153
 439  181.6712
 440  226.7726
 441  181.5331
 442  192.6206
 443  152.7592
 444  -2.663051
 445  96.69579
 446  141.0448
 447  149.538
 448  202.4957
 449  44.86135
 450  23.65994
 451  96.46647
 452  148.1118
 453  94.18001
 454  51.43546
 455  232.0369
 456  105.5822
 457  113.5555
 458  47.36961
 459  101.2337
 460  141.8597
 461  132.5373
 462  32.16853
 463  115.2572
 464  185.0619
 465  95.05161
 466  62.47415
 467  97.06403
 468  256.4857
 469  212.1831
 470  6.142745
 471  138.3294
 472  71.62105
 473  126.6446
 474  52.9375
 475  101.5608
 476  134.1342
 477  46.87112
 478  91.411
 479  82.41952
 480  155.9869
 481  138.2812
 482  276.4069
 483  309.3116
 484  121.6776
 485  66.42503
 486  19.02161
 487  152.6228
 488  218.5728
 489  160.5298
 490  138.9294
 491  165.8719
 492  83.17606
 493  103.7787
 494  311.4338
 495  235.8569
 496  291.0242
 497  275.8305
 498  133.3064
 499  120.7542
 500  73.06438
 501  187.6769
 502  183.8873
 503  180.866
 504  360.3056
 505  404.6521
 506  347.894
 507  345.2882
 508  369.2574
 509  557.3346
 510  668.3055
 511  956.3794
