# Input file       =  1193606032.151142_cleaned.dat
# Candidate        =  PSR_0332+5434
# Telescope        =  AR
# Epoch_topo       =  58058.884851286362
# Epoch_bary       =  N/A
# T_sample         =  0.002
# Data Folded      =  7340032
# Data Avg         =  0.0726851671154562
# Data StdDev      =  2.72768542884925 
# Profile Bins     =  1024
# Profile Avg      =  521.012772462201 
# Profile StdDev   =  230.93687358559  
# Reduced chi-sqr  =  1.141
# Prob(Noise)      <  0.00112   (~3.1 sigma)
# P_topo (ms)      =  714.496524180198  +/- 0.000177
# P'_topo (s/s)    =  -0                +/- 9.34e-11
# P''_topo (s/s^2) =  0                 +/- 4.12e-14
# P_bary (ms)      =  N/A
# P'_bary (s/s)    =  N/A
# P''_bary (s/s^2) =  N/A
# P_orb (s)        =  N/A
# asin(i)/c (s)    =  N/A
# eccentricity     =  N/A
# w (rad)          =  N/A
# T_peri           =  N/A
######################################################
   0  532.6758
   1  599.0902
   2  609.5516
   3  482.0531
   4  327.4808
   5  224.7404
   6  347.3207
   7  499.5274
   8  531.8123
   9  571.9382
  10  666.414
  11  685.6597
  12  576.9824
  13  488.178
  14  590.2347
  15  554.9163
  16  459.6984
  17  362.3476
  18  354.9545
  19  354.399
  20  452.8592
  21  387.0325
  22  277.1789
  23  210.2693
  24  332.3153
  25  405.1464
  26  348.6995
  27  365.0387
  28  520.5372
  29  574.733
  30  528.1761
  31  480.6757
  32  406.4813
  33  528.9459
  34  576.0535
  35  750.3904
  36  618.2537
  37  519.6085
  38  479.3686
  39  469.3998
  40  531.0654
  41  466.6404
  42  488.9794
  43  417.0385
  44  433.5104
  45  392.0252
  46  433.5175
  47  467.0431
  48  542.7303
  49  547.3701
  50  534.928
  51  384.1858
  52  303.032
  53  229.9692
  54  325.0316
  55  367.6201
  56  452.2336
  57  524.3754
  58  481.4271
  59  380.0493
  60  341.1581
  61  390.243
  62  390.3013
  63  276.7041
  64  256.203
  65  250.9668
  66  286.5988
  67  368.3497
  68  411.1982
  69  446.8083
  70  344.7976
  71  371.3753
  72  388.9818
  73  430.8614
  74  434.3701
  75  464.7828
  76  484.3072
  77  455.194
  78  382.3842
  79  414.1595
  80  544.0018
  81  690.7349
  82  737.6169
  83  639.2068
  84  508.045
  85  407.1039
  86  424.831
  87  468.4803
  88  407.4156
  89  462.3163
  90  495.2418
  91  512.0869
  92  393.2415
  93  275.9399
  94  203.9602
  95  303.9515
  96  496.5286
  97  638.2888
  98  602.0002
  99  425.165
 100  401.3705
 101  474.9917
 102  497.5937
 103  453.808
 104  379.5561
 105  326.9724
 106  406.5782
 107  414.3622
 108  416.8543
 109  368.1796
 110  480.2451
 111  521.2877
 112  408.1359
 113  365.0485
 114  419.0809
 115  591.8736
 116  591.5538
 117  557.2567
 118  385.0948
 119  324.0742
 120  342.0774
 121  481.7746
 122  446.056
 123  393.7707
 124  388.8622
 125  499.6519
 126  489.66
 127  480.9689
 128  424.2505
 129  470.4388
 130  497.4811
 131  561.9424
 132  583.0858
 133  616.0471
 134  625.4824
 135  648.4825
 136  589.8512
 137  562.0638
 138  502.9621
 139  405.5801
 140  490.7539
 141  568.9127
 142  741.8946
 143  790.4019
 144  813.7295
 145  730.7261
 146  646.329
 147  487.7139
 148  372.7572
 149  316.2155
 150  444.224
 151  563.288
 152  541.296
 153  458.1353
 154  566.4003
 155  701.733
 156  764.6561
 157  698.4999
 158  702.4964
 159  623.9988
 160  476.5311
 161  412.4087
 162  442.2904
 163  560.3206
 164  555.5772
 165  596.5504
 166  583.5365
 167  587.267
 168  600.8872
 169  599.5517
 170  549.2109
 171  542.8056
 172  565.8974
 173  625.0679
 174  513.8125
 175  433.6805
 176  467.2757
 177  482.2343
 178  477.3484
 179  528.859
 180  502.7381
 181  492.9295
 182  480.7883
 183  549.9335
 184  473.8039
 185  437.8367
 186  474.6042
 187  502.5203
 188  476.3767
 189  472.8402
 190  485.8683
 191  398.1214
 192  390.2241
 193  413.6667
 194  483.9509
 195  448.0054
 196  268.9066
 197  246.8789
 198  289.8935
 199  420.3542
 200  433.9686
 201  558.2623
 202  620.4752
 203  577.6555
 204  508.2126
 205  572.1813
 206  675.5413
 207  684.9468
 208  603.5939
 209  474.7798
 210  405.8887
 211  446.7927
 212  466.641
 213  530.1948
 214  438.2769
 215  391.9531
 216  364.2642
 217  393.4698
 218  483.4835
 219  471.7007
 220  575.1109
 221  570.3307
 222  611.6395
 223  619.2828
 224  608.4777
 225  567.9926
 226  549.9875
 227  517.6356
 228  495.3463
 229  528.008
 230  486.1081
 231  428.1279
 232  300.9644
 233  252.6384
 234  202.0107
 235  199.7137
 236  342.2362
 237  433.6217
 238  570.2166
 239  598.0274
 240  543.9838
 241  421.1301
 242  331.4446
 243  260.9511
 244  257.004
 245  262.9087
 246  282.3297
 247  377.7891
 248  515.2007
 249  549.5618
 250  510.1977
 251  491.3487
 252  527.9418
 253  490.5819
 254  422.1766
 255  460.8182
 256  453.5258
 257  435.917
 258  368.6158
 259  358.9554
 260  368.4797
 261  401.0574
 262  477.3316
 263  473.8649
 264  539.0405
 265  478.2943
 266  530.976
 267  580.248
 268  639.4157
 269  636.915
 270  639.5295
 271  641.4303
 272  569.0175
 273  524.1748
 274  540.0199
 275  567.3956
 276  550.739
 277  517.4333
 278  467.9692
 279  381.6335
 280  356.9042
 281  444.0923
 282  486.9148
 283  412.4978
 284  316.0951
 285  423.486
 286  561.6954
 287  582.1432
 288  591.6955
 289  536.0377
 290  477.9649
 291  404.7284
 292  487.7052
 293  510.6825
 294  549.5803
 295  491.6192
 296  493.7191
 297  521.4437
 298  519.505
 299  568.9841
 300  557.0419
 301  568.9084
 302  536.8674
 303  470.2982
 304  483.2418
 305  515.8438
 306  532.0569
 307  610.4913
 308  508.6187
 309  383.935
 310  257.302
 311  306.5454
 312  461.0841
 313  505.8929
 314  609.1199
 315  508.3437
 316  381.1723
 317  375.0159
 318  421.1241
 319  418.9779
 320  301.212
 321  272.688
 322  313.6958
 323  339.1861
 324  448.0844
 325  489.4104
 326  417.3604
 327  333.9783
 328  434.1207
 329  571.3401
 330  576.0328
 331  551.9308
 332  534.0505
 333  507.862
 334  418.9371
 335  374.8163
 336  384.504
 337  398.6375
 338  506.8952
 339  500.3214
 340  510.2823
 341  414.6975
 342  365.3053
 343  381.5331
 344  360.6205
 345  301.1746
 346  261.3323
 347  315.2791
 348  393.0327
 349  418.3026
 350  392.0857
 351  441.9969
 352  450.6895
 353  541.9086
 354  493.6683
 355  456.231
 356  500.1676
 357  574.9528
 358  536.873
 359  461.3874
 360  513.9464
 361  648.0054
 362  650.0277
 363  571.4839
 364  599.9578
 365  504.2884
 366  357.6455
 367  223.1731
 368  239.2679
 369  433.5483
 370  453.034
 371  580.2215
 372  558.7306
 373  606.161
 374  667.704
 375  718.5775
 376  679.0904
 377  644.413
 378  673.0605
 379  696.5609
 380  543.9011
 381  472.8931
 382  550.8668
 383  492.0428
 384  415.0343
 385  376.1463
 386  427.9691
 387  404.7497
 388  346.1376
 389  375.2353
 390  394.519
 391  442.2259
 392  529.4843
 393  588.2469
 394  472.1456
 395  357.0801
 396  518.5266
 397  565.9363
 398  528.708
 399  406.6541
 400  429.2456
 401  412.2246
 402  399.7419
 403  411.2461
 404  442.4588
 405  463.3478
 406  455.4752
 407  537.7435
 408  529.6394
 409  482.4688
 410  497.5197
 411  549.5186
 412  608.2861
 413  489.0031
 414  516.5759
 415  503.1414
 416  517.038
 417  501.181
 418  580.6842
 419  647.6646
 420  571.0701
 421  490.8491
 422  519.8906
 423  589.5961
 424  642.3044
 425  693.721
 426  724.0769
 427  694.6929
 428  619.1819
 429  637.1286
 430  570.0241
 431  439.7437
 432  352.7474
 433  341.7765
 434  512.4573
 435  616.0674
 436  658.5483
 437  706.3831
 438  671.875
 439  707.0847
 440  642.6263
 441  619.0579
 442  604.4826
 443  662.9633
 444  743.5768
 445  738.4015
 446  723.8228
 447  660.6238
 448  626.0451
 449  599.178
 450  695.7921
 451  661.7158
 452  683.3809
 453  619.6126
 454  649.7604
 455  713.9131
 456  752.2394
 457  720.8317
 458  664.9579
 459  719.5311
 460  697.4288
 461  737.7986
 462  685.9086
 463  749.4598
 464  789.7036
 465  652.7067
 466  486.6964
 467  438.588
 468  506.8508
 469  568.5853
 470  525.4672
 471  631.1503
 472  660.3428
 473  715.0256
 474  678.3776
 475  573.0366
 476  479.6777
 477  307.2592
 478  372.4505
 479  555.2854
 480  623.9184
 481  591.4683
 482  447.9371
 483  470.1906
 484  420.7204
 485  377.0507
 486  435.648
 487  533.6951
 488  623.5076
 489  587.7596
 490  644.1465
 491  682.2141
 492  567.9558
 493  491.7178
 494  539.6128
 495  591.3651
 496  514.4966
 497  477.4035
 498  596.103
 499  678.7717
 500  684.8715
 501  677.4656
 502  643.3563
 503  629.1539
 504  605.1031
 505  664.1257
 506  602.9058
 507  669.0203
 508  628.6069
 509  702.697
 510  644.9941
 511  613.1727
 512  553.2036
 513  555.0844
 514  517.0662
 515  462.7935
 516  429.1711
 517  446.963
 518  568.0555
 519  657.0915
 520  648.2625
 521  514.5043
 522  439.0425
 523  500.0864
 524  650.6337
 525  668.1827
 526  739.0742
 527  715.8465
 528  622.5474
 529  458.7707
 530  451.2691
 531  456.2161
 532  520.7347
 533  516.4744
 534  649.5345
 535  678.5116
 536  702.8621
 537  612.4019
 538  599.2726
 539  573.4066
 540  552.1936
 541  559.0989
 542  489.304
 543  501.7994
 544  622.605
 545  612.9188
 546  668.3481
 547  604.0619
 548  567.2871
 549  522.2529
 550  503.7987
 551  605.7896
 552  618.6558
 553  556.9162
 554  598.81
 555  682.1109
 556  716.3773
 557  623.8894
 558  498.0204
 559  460.7238
 560  476.2219
 561  539.9197
 562  660.6207
 563  628.1608
 564  521.982
 565  550.7274
 566  625.5806
 567  707.7779
 568  580.7625
 569  471.657
 570  413.5729
 571  421.5661
 572  389.4136
 573  427.4485
 574  564.0262
 575  732.7482
 576  752.6398
 577  733.1431
 578  725.0811
 579  653.9083
 580  566.0099
 581  551.3842
 582  592.8958
 583  701.4171
 584  664.0935
 585  654.5301
 586  707.3789
 587  718.527
 588  688.6429
 589  615.3317
 590  648.7567
 591  737.5883
 592  845.9747
 593  812.3975
 594  767.0415
 595  693.4327
 596  718.1875
 597  687.0906
 598  728.9155
 599  735.4728
 600  611.3133
 601  532.5885
 602  489.606
 603  496.6317
 604  604.1996
 605  647.5668
 606  655.1308
 607  668.6519
 608  700.7648
 609  665.3632
 610  595.1797
 611  597.3174
 612  698.6414
 613  654.7011
 614  606.2582
 615  524.0214
 616  456.4724
 617  424.3203
 618  403.371
 619  517.6514
 620  559.2107
 621  509.5019
 622  592.0944
 623  762.0692
 624  917.7338
 625  871.9198
 626  810.1245
 627  838.8079
 628  846.5994
 629  993.1363
 630  1126.586
 631  1231.205
 632  1236.351
 633  1215.858
 634  1261.315
 635  1312.136
 636  1248.651
 637  1282.089
 638  1092.581
 639  974.5706
 640  917.9106
 641  853.5322
 642  790.2849
 643  716.1187
 644  823.8943
 645  744.6757
 646  670.6066
 647  600.1672
 648  643.4515
 649  568.6389
 650  564.3671
 651  605.0077
 652  669.9697
 653  616.5102
 654  576.4062
 655  506.837
 656  602.3538
 657  594.8495
 658  739.6204
 659  681.7042
 660  653.3835
 661  489.0477
 662  479.8261
 663  539.2304
 664  525.1929
 665  532.6768
 666  444.2674
 667  597.0898
 668  598.855
 669  577.8792
 670  366.0853
 671  318.5648
 672  372.4633
 673  422.7444
 674  494.1926
 675  528.0433
 676  510.7514
 677  405.0166
 678  372.0325
 679  418.2365
 680  443.5634
 681  436.3752
 682  378.0309
 683  360.4938
 684  399.9457
 685  378.1238
 686  339.2663
 687  407.0892
 688  553.4539
 689  585.6447
 690  457.4697
 691  413.664
 692  461.8871
 693  547.3873
 694  558.409
 695  597.2679
 696  489.1175
 697  440.793
 698  342.449
 699  373.7964
 700  510.0164
 701  636.3217
 702  656.3642
 703  646.6089
 704  578.8474
 705  614.4231
 706  564.4702
 707  575.6713
 708  666.2966
 709  515.8566
 710  475.2596
 711  485.2259
 712  617.4593
 713  562.9905
 714  444.4104
 715  456.7094
 716  504.5629
 717  465.9144
 718  416.1496
 719  375.6486
 720  406.5679
 721  446.5327
 722  437.7547
 723  582.05
 724  702.2005
 725  855.5361
 726  820.1945
 727  674.711
 728  525.1481
 729  450.2516
 730  434.6319
 731  489.9988
 732  490.0423
 733  421.2616
 734  407.9786
 735  463.0873
 736  465.8024
 737  499.4527
 738  489.877
 739  584.6114
 740  603.1124
 741  520.4426
 742  466.5085
 743  472.3461
 744  447.3852
 745  385.1302
 746  420.1667
 747  513.7838
 748  440.908
 749  304.2891
 750  371.0207
 751  464.1234
 752  488.1492
 753  430.963
 754  475.9901
 755  552.3257
 756  569.5278
 757  476.8762
 758  406.2961
 759  444.8444
 760  524.4932
 761  674.201
 762  695.783
 763  623.4374
 764  510.3147
 765  433.4936
 766  482.1617
 767  497.7746
 768  537.2387
 769  496.026
 770  408.6592
 771  424.1263
 772  457.6982
 773  481.8086
 774  409.3095
 775  410.1399
 776  544.6447
 777  583.4288
 778  456.984
 779  385.3822
 780  289.9196
 781  248.5928
 782  311.8521
 783  481.7452
 784  575.3588
 785  589.5549
 786  640.4464
 787  584.3826
 788  493.974
 789  444.1928
 790  440.9579
 791  473.4587
 792  361.836
 793  351.6101
 794  436.7481
 795  490.3405
 796  466.1522
 797  373.1421
 798  425.0023
 799  470.1591
 800  577.5437
 801  608.978
 802  648.4868
 803  531.6234
 804  497.7945
 805  499.6887
 806  502.3827
 807  586.3112
 808  649.7808
 809  612.8203
 810  519.9704
 811  438.9324
 812  476.2127
 813  335.4825
 814  273.3083
 815  328.2054
 816  429.9364
 817  522.2693
 818  424.094
 819  426.1478
 820  459.3639
 821  518.8869
 822  525.046
 823  487.68
 824  511.6718
 825  506.1676
 826  523.8578
 827  479.3577
 828  492.9732
 829  426.2497
 830  432.894
 831  443.4081
 832  466.9419
 833  529.3054
 834  552.2943
 835  582.9633
 836  558.0219
 837  518.006
 838  520.7173
 839  579.1647
 840  634.1694
 841  650.4411
 842  517.9947
 843  439.0014
 844  476.0454
 845  475.3337
 846  528.8718
 847  547.2018
 848  506.1833
 849  428.8273
 850  321.0025
 851  346.1612
 852  441.1619
 853  525.1792
 854  572.8674
 855  657.8258
 856  627.1934
 857  588.0742
 858  408.6257
 859  387.7735
 860  394.868
 861  438.5989
 862  532.6691
 863  523.6626
 864  534.179
 865  473.3519
 866  487.2063
 867  497.702
 868  577.7802
 869  556.856
 870  557.7263
 871  529.56
 872  500.0518
 873  484.4302
 874  507.4839
 875  578.9559
 876  567.3741
 877  566.0937
 878  476.3922
 879  451.9993
 880  465.5581
 881  520.9291
 882  494.9257
 883  364.1782
 884  291.7354
 885  294.648
 886  392.6726
 887  397.8127
 888  417.13
 889  492.7017
 890  541.4006
 891  565.9313
 892  509.9152
 893  581.0163
 894  606.1373
 895  652.7963
 896  616.2854
 897  600.9082
 898  615.1998
 899  507.1157
 900  330.392
 901  269.9228
 902  345.7592
 903  366.0036
 904  357.3672
 905  393.5125
 906  421.0656
 907  423.6359
 908  421.128
 909  541.7838
 910  617.9657
 911  717.3606
 912  725.5778
 913  628.1041
 914  516.4412
 915  459.9815
 916  570.7666
 917  614.6436
 918  487.3735
 919  474.9549
 920  510.6502
 921  501.0081
 922  427.9789
 923  465.637
 924  528.728
 925  455.5679
 926  344.7267
 927  403.4374
 928  472.6201
 929  589.016
 930  728.6896
 931  737.9249
 932  723.4437
 933  598.0235
 934  646.1534
 935  651.7341
 936  544.4814
 937  386.1656
 938  381.1989
 939  425.0478
 940  482.9067
 941  503.9908
 942  556.5692
 943  519.1042
 944  514.6913
 945  586.3993
 946  709.5981
 947  680.1782
 948  577.5926
 949  387.1398
 950  326.8742
 951  286.7399
 952  399.971
 953  566.7221
 954  694.0901
 955  656.5848
 956  563.8363
 957  548.0478
 958  557.9018
 959  591.1608
 960  707.1401
 961  726.4921
 962  670.4911
 963  567.8366
 964  418.7641
 965  413.9079
 966  412.1027
 967  438.6575
 968  419.0621
 969  529.429
 970  470.1604
 971  521.4897
 972  431.3335
 973  451.8444
 974  389.5301
 975  427.3484
 976  513.9136
 977  600.3283
 978  602.8389
 979  560.8839
 980  562.4485
 981  537.2705
 982  543.7516
 983  453.4619
 984  467.4449
 985  458.7761
 986  430.6507
 987  380.281
 988  305.7427
 989  331.3864
 990  465.0454
 991  479.0646
 992  487.2047
 993  403.0923
 994  478.7928
 995  426.624
 996  436.6836
 997  497.9648
 998  614.5648
 999  542.5837
1000  395.9685
1001  296.5462
1002  330.0678
1003  350.8285
1004  363.9179
1005  438.198
1006  395.791
1007  414.2367
1008  434.5016
1009  479.0059
1010  512.7623
1011  477.0417
1012  479.3379
1013  431.1905
1014  475.0703
1015  576.725
1016  629.1578
1017  568.0275
1018  444.9627
1019  440.0425
1020  526.1164
1021  576.1521
1022  522.3931
1023  495.9864
