# Input file       =  1193778978.151512_cleaned.dat
# Candidate        =  PSR_0332+5434
# Telescope        =  AR
# Epoch_topo       =  58060.886541105465
# Epoch_bary       =  N/A
# T_sample         =  0.002
# Data Folded      =  7340032
# Data Avg         =  0.123060641726105
# Data StdDev      =  3.75453482776165 
# Profile Bins     =  512
# Profile Avg      =  1764.20079527367 
# Profile StdDev   =  449.541855110221 
# Reduced chi-sqr  =  0.766
# Prob(Noise)      <  1   (~0.0 sigma)
# P_topo (ms)      =  714.498388828292  +/- 0.000607
# P'_topo (s/s)    =  -0                +/- 3.2e-10
# P''_topo (s/s^2) =  0                 +/- 1.41e-13
# P_bary (ms)      =  N/A
# P'_bary (s/s)    =  N/A
# P''_bary (s/s^2) =  N/A
# P_orb (s)        =  N/A
# asin(i)/c (s)    =  N/A
# eccentricity     =  N/A
# w (rad)          =  N/A
# T_peri           =  N/A
######################################################
   0  1867.383
   1  1534.397
   2  1573.597
   3  1741.706
   4  1897.065
   5  1655.924
   6  1658.353
   7  1591.498
   8  1654.656
   9  1587.73
  10  1632.507
  11  1820.355
  12  1873.307
  13  2042.805
  14  2156.803
  15  1841.619
  16  1474.007
  17  1509.776
  18  1609.587
  19  1502.447
  20  1890.316
  21  1866.141
  22  2081.06
  23  2243.625
  24  1907.131
  25  1929.019
  26  1903.029
  27  2078.049
  28  2044.589
  29  1719.412
  30  1711.346
  31  1676.737
  32  1919.14
  33  1606.723
  34  1352.719
  35  1531.229
  36  1687.204
  37  1814.367
  38  1914.33
  39  1781.985
  40  1746.224
  41  1732.661
  42  1496.255
  43  1436.251
  44  1427.161
  45  1434.995
  46  1339.758
  47  1452.979
  48  1521.13
  49  1385.516
  50  1289.359
  51  1479.427
  52  1960.57
  53  1658.007
  54  1557.58
  55  1587.593
  56  1564.156
  57  1545.967
  58  1887.47
  59  1835.995
  60  1703.092
  61  1682.182
  62  1764.485
  63  1924.094
  64  1619.583
  65  1755.382
  66  1988.214
  67  1819.472
  68  1533.366
  69  1473.886
  70  1311.855
  71  1330.108
  72  1461.822
  73  1469.699
  74  1366.248
  75  1781.625
  76  1819.964
  77  2007.949
  78  1617.657
  79  1738.835
  80  1987.85
  81  1709.684
  82  1426.002
  83  1500.511
  84  1924.594
  85  1911.071
  86  1990.493
  87  2094.286
  88  1610.733
  89  1227.947
  90  1358.315
  91  1535.044
  92  1729.815
  93  1707.361
  94  1853.976
  95  1989.63
  96  1769.425
  97  1231.332
  98  1331.475
  99  1726.503
 100  1493.074
 101  1654.281
 102  1397.389
 103  1485.979
 104  1364.678
 105  1484.39
 106  1901.756
 107  1691.548
 108  1666.316
 109  1431.404
 110  1482.772
 111  1620.897
 112  1467.985
 113  1487.035
 114  1527.622
 115  1706.719
 116  1705.23
 117  1668.413
 118  1511.013
 119  1803.187
 120  1716.532
 121  1692.039
 122  1778.584
 123  1744.294
 124  1766.747
 125  1714.516
 126  1628.657
 127  1691.971
 128  1552.637
 129  1313.661
 130  1252.037
 131  1640.182
 132  1410.386
 133  1479.386
 134  1697.081
 135  1673.001
 136  1639.354
 137  1463.609
 138  1423.257
 139  1497.177
 140  1502.167
 141  1664.988
 142  1560.116
 143  1465.183
 144  1840.394
 145  1528.183
 146  1723.293
 147  1648.978
 148  1464.74
 149  1407.062
 150  1206.199
 151  1499.24
 152  1454.506
 153  1694.456
 154  1831.79
 155  1504.25
 156  1496.908
 157  1649.911
 158  1639.486
 159  1647.521
 160  1721.121
 161  1956.883
 162  2018.732
 163  1934.098
 164  1776.904
 165  2009.447
 166  1950.544
 167  1878.124
 168  1920.764
 169  2298.863
 170  2197.111
 171  1843.872
 172  1672.495
 173  1893.545
 174  2102.641
 175  2291.61
 176  2502.493
 177  2185.876
 178  2035.452
 179  2150.257
 180  1852.695
 181  2043.428
 182  2003.247
 183  1500.82
 184  1598.277
 185  1800.473
 186  1788.26
 187  1683.588
 188  1564.673
 189  1345.858
 190  1184.938
 191  1364.571
 192  1296.934
 193  1406.167
 194  1593.404
 195  1748.603
 196  1625.198
 197  1826.778
 198  1593.478
 199  1392.969
 200  1604.391
 201  1412.756
 202  1612.27
 203  1609.076
 204  1466.566
 205  1300.545
 206  1325.823
 207  1101.894
 208  1561.719
 209  1877.747
 210  2147.499
 211  1847.072
 212  1597.275
 213  1479.666
 214  1558.454
 215  1525.984
 216  1520.956
 217  2012.549
 218  1938.883
 219  1769.12
 220  1634.004
 221  1679.464
 222  2128.284
 223  2319.363
 224  2356.162
 225  2085.215
 226  1953.906
 227  2048.228
 228  2114.956
 229  2130.074
 230  1957.579
 231  2037.985
 232  1816.521
 233  1756.072
 234  1751.619
 235  1649.969
 236  1880.818
 237  1743.924
 238  1703.924
 239  1687.053
 240  1912.911
 241  2044.591
 242  2024.753
 243  2130.441
 244  1917.169
 245  1787.545
 246  1927.361
 247  2064.615
 248  2262.095
 249  2038.367
 250  1874.775
 251  1711.8
 252  1801.537
 253  2011.361
 254  1794.601
 255  1788.093
 256  1872.61
 257  1644.054
 258  1430.128
 259  1308.569
 260  1625.868
 261  1443.16
 262  1575.92
 263  2014.635
 264  2071.492
 265  1532.684
 266  1691.227
 267  2040.919
 268  1963.761
 269  1774.981
 270  1800.764
 271  1475.227
 272  1649.879
 273  2134.862
 274  1981.991
 275  1683.598
 276  1523.207
 277  1731.359
 278  1542.829
 279  1605.697
 280  1535.91
 281  1540.248
 282  1491.352
 283  1494.563
 284  1806.071
 285  1855.211
 286  1597.435
 287  1700.43
 288  2066.609
 289  1869.298
 290  1648.437
 291  1569.057
 292  1562.434
 293  1612.492
 294  1565.186
 295  1356.674
 296  1471.946
 297  1203.049
 298  1592.403
 299  1651.559
 300  1446.341
 301  1589.165
 302  1608.461
 303  1480.499
 304  1458.409
 305  1266.229
 306  1151.321
 307  1469.42
 308  1692.313
 309  1636.162
 310  1909.302
 311  1862.267
 312  2095.564
 313  2160.066
 314  2650.289
 315  3064.423
 316  2997.029
 317  3462.004
 318  3224.693
 319  2756.213
 320  1933.248
 321  1679.781
 322  1765.651
 323  1427.429
 324  1706.864
 325  1718.384
 326  1444.084
 327  1559.989
 328  2026.896
 329  2150.125
 330  1832.124
 331  1722.561
 332  1856.263
 333  1606.023
 334  1584.985
 335  1369.773
 336  1364.857
 337  1394.111
 338  1541.539
 339  1336.477
 340  1290.573
 341  1605.522
 342  1781.151
 343  1435.209
 344  1535.771
 345  1927.074
 346  1707.086
 347  1501.467
 348  1511.436
 349  1508.272
 350  1701.289
 351  1971.435
 352  1815.099
 353  1933.812
 354  1886.251
 355  1749.421
 356  1562.282
 357  1399.678
 358  1632.903
 359  1836.627
 360  1740.333
 361  1711.389
 362  2035.756
 363  1787.614
 364  1667.33
 365  1803.003
 366  1937.076
 367  2120.549
 368  1858.074
 369  1734.776
 370  1685.703
 371  1500.454
 372  1804.043
 373  1921.894
 374  1704.115
 375  1494.966
 376  1635.449
 377  1714.905
 378  1759.152
 379  1688.5
 380  1592.502
 381  1605.967
 382  1551.494
 383  1697.44
 384  1353.509
 385  1585.935
 386  1722.124
 387  1703.01
 388  2245.588
 389  2380.996
 390  2132.006
 391  1693.448
 392  1944.434
 393  2181.958
 394  2037.863
 395  1923.107
 396  1905.176
 397  1739.58
 398  1670.858
 399  1867.331
 400  2115.047
 401  2118.699
 402  2092.605
 403  2112.355
 404  2366.994
 405  2317.61
 406  2111.2
 407  1884.032
 408  1753.55
 409  1804.697
 410  1907.245
 411  2201.958
 412  2132.85
 413  1714.598
 414  1403.16
 415  1654.664
 416  1562.77
 417  1686.903
 418  1949.096
 419  1856.17
 420  1722.46
 421  1487.43
 422  1487.236
 423  1320.43
 424  1645.307
 425  1907.616
 426  2147.796
 427  1867.743
 428  1809.042
 429  1896.04
 430  1913.26
 431  2009.43
 432  1712.593
 433  1779.355
 434  2038.141
 435  2233.939
 436  2262.309
 437  2029.438
 438  1710.376
 439  1771.054
 440  1788.08
 441  1896.465
 442  2244.409
 443  2361.122
 444  2087.883
 445  2239.777
 446  2362.223
 447  2197.287
 448  1883.715
 449  1778.544
 450  2295.637
 451  2339.347
 452  1835.994
 453  1882.334
 454  1719.378
 455  1838.392
 456  1965.101
 457  1986.252
 458  1877.403
 459  2032.68
 460  1698.378
 461  1573.22
 462  1953.258
 463  1855.794
 464  1923.601
 465  1982.36
 466  1971.793
 467  1973.366
 468  2114.775
 469  1982.822
 470  2179.699
 471  2050.445
 472  2166.498
 473  1928.474
 474  1832.924
 475  1712.263
 476  1767.961
 477  1872.804
 478  1844.495
 479  1780.651
 480  1758.58
 481  1905.931
 482  1921.102
 483  1833.551
 484  1833.437
 485  1841.492
 486  2065.208
 487  1742.044
 488  1885.266
 489  1652.996
 490  1730.604
 491  2215.171
 492  2024.537
 493  2161.856
 494  2024.713
 495  1918.032
 496  2043.775
 497  1868.529
 498  1507.905
 499  1782.884
 500  1810.443
 501  1902.464
 502  1736.068
 503  1549.919
 504  1596.622
 505  1447.093
 506  1549.522
 507  1675.961
 508  1643.779
 509  1797.383
 510  2010.264
 511  1998.957
