# Input file       =  1193448663.162481_cleaned.dat
# Candidate        =  PSR_0332+5434
# Telescope        =  AR
# Epoch_topo       =  58057.063450954643
# Epoch_bary       =  N/A
# T_sample         =  0.002
# Data Folded      =  7340032
# Data Avg         =  0.0465385330462594
# Data StdDev      =  2.68843871475107 
# Profile Bins     =  512
# Profile Avg      =  667.204443159933 
# Profile StdDev   =  321.894930429996 
# Reduced chi-sqr  =  1.279
# Prob(Noise)      <  1.89e-05   (~4.1 sigma)
# P_topo (ms)      =  714.495194556195  +/- 0.000205
# P'_topo (s/s)    =  -0                +/- 1.08e-10
# P''_topo (s/s^2) =  0                 +/- 4.77e-14
# P_bary (ms)      =  N/A
# P'_bary (s/s)    =  N/A
# P''_bary (s/s^2) =  N/A
# P_orb (s)        =  N/A
# asin(i)/c (s)    =  N/A
# eccentricity     =  N/A
# w (rad)          =  N/A
# T_peri           =  N/A
######################################################
   0  1033.74
   1  1151.442
   2  1165.183
   3  1073.474
   4  1058.086
   5  784.4893
   6  898.5853
   7  806.754
   8  806.0704
   9  820.6784
  10  915.6154
  11  959.6206
  12  679.0471
  13  643.3057
  14  603.1309
  15  694.2721
  16  605.6387
  17  550.7758
  18  474.2262
  19  641.497
  20  796.9947
  21  666.6621
  22  622.439
  23  840.5943
  24  816.3948
  25  366.3361
  26  473.7131
  27  631.8974
  28  538.8934
  29  892.4545
  30  1050.157
  31  897.0297
  32  620.3284
  33  397.6131
  34  517.7953
  35  498.8511
  36  397.5892
  37  624.3205
  38  763.4667
  39  761.0804
  40  807.0841
  41  1000.533
  42  639.7501
  43  719.5864
  44  902.334
  45  894.1801
  46  955.0393
  47  566.9844
  48  707.5493
  49  604.8714
  50  380.2549
  51  812.9038
  52  895.5514
  53  753.7955
  54  381.1742
  55  507.4757
  56  716.082
  57  615.5082
  58  835.3832
  59  733.3953
  60  863.5541
  61  803.5135
  62  816.1097
  63  392.0195
  64  140.4619
  65  516.4254
  66  746.1666
  67  440.5815
  68  447.6909
  69  393.8012
  70  465.9735
  71  385.4192
  72  481.7894
  73  621.3765
  74  725.5242
  75  1036.32
  76  955.4193
  77  510.8935
  78  578.6654
  79  664.3505
  80  833.7343
  81  817.2971
  82  809.1005
  83  536.9955
  84  656.0491
  85  616.1183
  86  572.0576
  87  548.8688
  88  619.492
  89  930.689
  90  1054.084
  91  1174.779
  92  902.1164
  93  514.3469
  94  430.1601
  95  730.4377
  96  511.1159
  97  534.4264
  98  360.1624
  99  468.19
 100  514.4734
 101  731.3423
 102  464.21
 103  455.8172
 104  774.7369
 105  724.528
 106  491.4995
 107  299.6355
 108  280.7201
 109  333.5486
 110  396.0269
 111  655.226
 112  454.2167
 113  397.6684
 114  365.3374
 115  91.91336
 116  233.2781
 117  483.5921
 118  744.6992
 119  677.5815
 120  622.0721
 121  587.3286
 122  482.2386
 123  634.8811
 124  418.4437
 125  739.3226
 126  662.8221
 127  429.5307
 128  453.4501
 129  339.4549
 130  533.6992
 131  844.2687
 132  1075.202
 133  859.0193
 134  715.3043
 135  767.6754
 136  693.4481
 137  290.3243
 138  614.9221
 139  333.0207
 140  256.9207
 141  339.9743
 142  576.8666
 143  219.4882
 144  501.7187
 145  712.9186
 146  671.5618
 147  268.8725
 148  454.8421
 149  631.9624
 150  581.1623
 151  648.369
 152  681.8375
 153  757.7827
 154  433.4941
 155  465.0604
 156  409.9544
 157  587.2686
 158  386.7858
 159  520.1452
 160  678.7055
 161  813.8369
 162  632.1813
 163  662.096
 164  722.948
 165  729.7074
 166  801.6871
 167  856.0444
 168  451.2806
 169  760.0647
 170  880.939
 171  936.8886
 172  652.6639
 173  622.6915
 174  814.2885
 175  655.8188
 176  604.0999
 177  512.835
 178  490.6577
 179  319.6581
 180  353.1099
 181  708.1655
 182  539.5447
 183  704.5541
 184  874.1927
 185  587.9252
 186  818.4712
 187  683.88
 188  572.1542
 189  523.2801
 190  525.6699
 191  641.5398
 192  865.9825
 193  536.8978
 194  354.8248
 195  569.2664
 196  854.721
 197  934.4464
 198  872.188
 199  614.7732
 200  308.0961
 201  563.7766
 202  1100.154
 203  1015.417
 204  1097.256
 205  879.0892
 206  743.5349
 207  599.1052
 208  391.5111
 209  748.0002
 210  839.5137
 211  699.7839
 212  530.907
 213  35.29066
 214  276.6418
 215  688.8162
 216  824.2077
 217  1193.396
 218  670.131
 219  779.2723
 220  705.4623
 221  563.442
 222  381.7256
 223  736.0244
 224  767.3393
 225  357.2408
 226  792.0265
 227  1264.701
 228  938.5336
 229  438.4536
 230  662.9298
 231  937.7419
 232  569.0967
 233  691.1198
 234  808.5036
 235  716.47
 236  653.1141
 237  767.4863
 238  663.0208
 239  445.2125
 240  442.9584
 241  637.941
 242  689.3278
 243  607.4109
 244  496.9955
 245  717.2036
 246  424.3147
 247  326.0352
 248  288.8604
 249  253.3324
 250  562.0495
 251  644.6373
 252  935.5788
 253  951.3238
 254  706.7993
 255  138.2714
 256  455.931
 257  449.4897
 258  799.8411
 259  821.7199
 260  823.3677
 261  512.3315
 262  670.6079
 263  714.1109
 264  687.3943
 265  775.8895
 266  817.2812
 267  1275.489
 268  2086.455
 269  2446.794
 270  2316.909
 271  2094.093
 272  1602.551
 273  982.6243
 274  601.5023
 275  578.059
 276  641.7336
 277  969.4124
 278  692.9515
 279  549.2266
 280  506.7657
 281  608.6122
 282  581.3165
 283  771.6115
 284  800.3187
 285  872.1011
 286  592.9915
 287  730.7727
 288  698.7637
 289  520.0934
 290  361.8387
 291  431.7009
 292  559.8038
 293  644.6091
 294  290.7843
 295  247.0359
 296  705.0538
 297  834.6491
 298  626.9297
 299  694.5683
 300  944.1821
 301  683.5094
 302  330.2639
 303  525.1616
 304  848.5244
 305  624.5342
 306  532.6317
 307  329.4913
 308  59.57436
 309  584.9617
 310  808.02
 311  618.7161
 312  584.4103
 313  643.5417
 314  419.0899
 315  359.6393
 316  821.2781
 317  909.5576
 318  533.1815
 319  450.0877
 320  369.3268
 321  827.8798
 322  906.1744
 323  511.6165
 324  657.5188
 325  705.6378
 326  483.4362
 327  387.4042
 328  503.2032
 329  465.7903
 330  627.3387
 331  520.6317
 332  452.5013
 333  484.544
 334  750.0027
 335  752.1138
 336  867.025
 337  837.428
 338  618.3204
 339  869.6838
 340  251.3799
 341  475.7642
 342  374.9536
 343  541.3976
 344  845.6645
 345  730.6488
 346  824.5374
 347  1053.153
 348  1096.078
 349  886.5648
 350  773.5396
 351  669.8088
 352  670.6581
 353  701.8362
 354  618.3911
 355  851.1421
 356  665.5193
 357  746.7291
 358  746.7925
 359  626.3868
 360  904.3066
 361  940.4062
 362  562.104
 363  798.8741
 364  1150.409
 365  952.4563
 366  1076.889
 367  848.6443
 368  504.6176
 369  261.7266
 370  424.9254
 371  554.0265
 372  362.3244
 373  254.9826
 374  694.8756
 375  1146.146
 376  928.3912
 377  808.2192
 378  730.2906
 379  923.8549
 380  1026.095
 381  1109.483
 382  877.7295
 383  520.3726
 384  623.2118
 385  821.4622
 386  734.3668
 387  647.6039
 388  648.9638
 389  838.0253
 390  862.5182
 391  937.3676
 392  1172.135
 393  1014.859
 394  702.4683
 395  925.1959
 396  1156.009
 397  857.8113
 398  551.2153
 399  938.1232
 400  1214.915
 401  942.9065
 402  1067.785
 403  667.9496
 404  434.7247
 405  680.0397
 406  1020.082
 407  967.0187
 408  943.1042
 409  1051.322
 410  798.2504
 411  519.0339
 412  439.1037
 413  489.492
 414  215.9485
 415  668.8126
 416  867.4126
 417  658.3266
 418  739.0182
 419  629.6453
 420  856.0724
 421  486.3628
 422  376.903
 423  339.7893
 424  348.3446
 425  754.2603
 426  713.7697
 427  740.183
 428  790.6545
 429  711.219
 430  284.632
 431  320.0872
 432  377.0554
 433  102.9684
 434  282.8294
 435  464.6871
 436  624.2729
 437  451.527
 438  621.4113
 439  789.7479
 440  778.9387
 441  641.9875
 442  697.901
 443  347.8795
 444  342.1331
 445  754.9854
 446  894.2725
 447  733.9469
 448  945.5902
 449  808.8532
 450  404.3304
 451  239.1589
 452  446.9074
 453  667.2761
 454  497.2763
 455  386.2944
 456  771.3575
 457  547.9575
 458  773.4808
 459  918.6422
 460  575.8926
 461  417.5711
 462  739.0108
 463  646.8538
 464  957.5078
 465  533.074
 466  438.4685
 467  620.0628
 468  452.2999
 469  622.225
 470  538.463
 471  614.4772
 472  648.1278
 473  412.4162
 474  670.3281
 475  873.077
 476  671.1729
 477  864.2346
 478  718.8232
 479  752.9449
 480  534.0886
 481  380.6627
 482  599.2084
 483  626.1528
 484  844.1039
 485  605.6797
 486  434.764
 487  501.7218
 488  647.8877
 489  928.9271
 490  1020.02
 491  934.1309
 492  839.2892
 493  833.2776
 494  994.9373
 495  999.2191
 496  937.6944
 497  596.6519
 498  448.3734
 499  503.2825
 500  520.1389
 501  349.5667
 502  501.8815
 503  603.4429
 504  515.2679
 505  257.4322
 506  505.3159
 507  541.067
 508  264.6156
 509  259.1375
 510  337.9229
 511  575.804
