# Input file       =  1193951359.083581_cleaned.dat
# Candidate        =  PSR_0332+5434
# Telescope        =  AR
# Epoch_topo       =  58062.881690782189
# Epoch_bary       =  N/A
# T_sample         =  0.002
# Data Folded      =  7340032
# Data Avg         =  0.0185254176755735
# Data StdDev      =  1.00002339491434 
# Profile Bins     =  512
# Profile Avg      =  265.727072260639 
# Profile StdDev   =  119.735837520896 
# Reduced chi-sqr  =  1.235
# Prob(Noise)      <  0.000223   (~3.5 sigma)
# P_topo (ms)      =  714.500266749858  +/- 0.000133
# P'_topo (s/s)    =  -0                +/- 7.02e-11
# P''_topo (s/s^2) =  0                 +/- 3.1e-14
# P_bary (ms)      =  N/A
# P'_bary (s/s)    =  N/A
# P''_bary (s/s^2) =  N/A
# P_orb (s)        =  N/A
# asin(i)/c (s)    =  N/A
# eccentricity     =  N/A
# w (rad)          =  N/A
# T_peri           =  N/A
######################################################
   0  182.1414
   1  143.7888
   2  332.1775
   3  288.6282
   4  276.5314
   5  238.3859
   6  288.018
   7  356.2248
   8  277.0652
   9  304.1417
  10  263.5858
  11  251.1354
  12  366.9823
  13  293.2883
  14  152.3824
  15  173.3847
  16  269.633
  17  355.1488
  18  290.4447
  19  292.8507
  20  191.7637
  21  329.8235
  22  251.7866
  23  202.5505
  24  280.1119
  25  248.8177
  26  237.9604
  27  248.2343
  28  254.9873
  29  154.2745
  30  134.119
  31  230.2545
  32  281.279
  33  251.2685
  34  208.2822
  35  139.5859
  36  238.5736
  37  247.6956
  38  393.6508
  39  287.5427
  40  117.962
  41  232.2118
  42  207.9897
  43  101.4373
  44  143.5381
  45  336.4851
  46  254.4225
  47  261.0655
  48  200.8652
  49  186.9269
  50  182.9667
  51  220.7566
  52  256.7826
  53  270.5576
  54  289.2941
  55  281.2945
  56  182.696
  57  218.4287
  58  88.55304
  59  173.8104
  60  289.8579
  61  270.7088
  62  296.1238
  63  248.9406
  64  263.0997
  65  221.6226
  66  266.0349
  67  347.2102
  68  337.5586
  69  335.3866
  70  297.6045
  71  238.6405
  72  249.1233
  73  205.1754
  74  173.544
  75  214.9743
  76  344.1115
  77  365.8123
  78  224.6054
  79  220.4512
  80  197.7414
  81  176.7088
  82  266.3022
  83  297.1701
  84  266.476
  85  360.742
  86  467.9218
  87  408.7485
  88  223.7485
  89  218.6485
  90  188.8471
  91  287.4936
  92  365.498
  93  519.8109
  94  726.3507
  95  880.8494
  96  865.8321
  97  680.3069
  98  719.4388
  99  440.687
 100  367.0406
 101  193.9169
 102  162.8134
 103  236.359
 104  205.8277
 105  344.1213
 106  433.2105
 107  372.0885
 108  342.001
 109  371.3689
 110  279.9682
 111  324.5933
 112  370.1734
 113  315.7734
 114  257.9876
 115  348.3855
 116  274.0185
 117  303.9038
 118  233.3463
 119  170.7496
 120  185.5553
 121  218.2014
 122  399.5528
 123  208.3728
 124  241.5929
 125  342.6301
 126  301.4667
 127  275.0884
 128  246.1748
 129  219.3662
 130  275.3629
 131  314.859
 132  174.9956
 133  205.413
 134  291.6802
 135  322.2455
 136  300.8314
 137  331.8159
 138  218.3963
 139  207.8273
 140  226.5873
 141  289.6957
 142  411.3059
 143  301.2344
 144  226.4011
 145  214.0384
 146  144.0878
 147  247.12
 148  254.2261
 149  313.3188
 150  291.6458
 151  167.3259
 152  179.898
 153  202.3141
 154  258.36
 155  288.0699
 156  239.9599
 157  187.8223
 158  247.3249
 159  365.5005
 160  336.1885
 161  294.8722
 162  250.5782
 163  362.2509
 164  331.7186
 165  180.6793
 166  307.3597
 167  463.2677
 168  375.692
 169  255.2667
 170  414.87
 171  339.082
 172  243.4813
 173  271.8392
 174  358.5485
 175  327.925
 176  247.6768
 177  256.1944
 178  247.8839
 179  192.0472
 180  105.9528
 181  255.2999
 182  323.5015
 183  285.2525
 184  300.1924
 185  285.0023
 186  318.2519
 187  256.3961
 188  180.6498
 189  249.255
 190  186.0014
 191  160.824
 192  140.4031
 193  148.6299
 194  154.1442
 195  114.5418
 196  166.9808
 197  242.4322
 198  227.1306
 199  191.3677
 200  234.8213
 201  254.4529
 202  142
 203  244.5642
 204  299.1911
 205  294.0316
 206  157.5217
 207  45.95785
 208  211.6307
 209  199.5599
 210  242.8112
 211  203.1209
 212  220.8145
 213  283.9565
 214  241.5268
 215  278.8432
 216  160.8132
 217  228.0348
 218  448.7561
 219  356.0562
 220  247.6967
 221  282.294
 222  314.4642
 223  349.7426
 224  232.0772
 225  353.8863
 226  351.0802
 227  316.1467
 228  293.5594
 229  105.4558
 230  152.7453
 231  143.9298
 232  142.4885
 233  225.4748
 234  326.5176
 235  318.647
 236  179.9041
 237  175.9834
 238  244.466
 239  115.5354
 240  141.3994
 241  265.4354
 242  392.2682
 243  383.0564
 244  360.7817
 245  338.1572
 246  244.3026
 247  188.1096
 248  216.676
 249  245.5311
 250  189.4442
 251  231.0258
 252  145.0088
 253  306.9301
 254  159.1983
 255  253.5771
 256  296.5803
 257  286.836
 258  328.7377
 259  243.9178
 260  210.6403
 261  245.6312
 262  199.5721
 263  264.6981
 264  370.0939
 265  298.3405
 266  185.7412
 267  113.4703
 268  122.1516
 269  213.9302
 270  299.914
 271  217.8154
 272  180.5686
 273  194.6426
 274  239.0027
 275  264.5612
 276  152.0187
 277  349.0256
 278  501.7591
 279  453.9793
 280  305.3086
 281  311.3329
 282  291.3486
 283  200.632
 284  135.2721
 285  303.8756
 286  410.3403
 287  328.6454
 288  307.7148
 289  427.0911
 290  315.5221
 291  352.1053
 292  453.6187
 293  466.869
 294  272.7877
 295  304.6846
 296  292.1415
 297  160.4263
 298  144.7265
 299  267.3131
 300  227.8395
 301  294.4399
 302  403.0182
 303  373.1912
 304  365.9495
 305  357.4661
 306  330.9853
 307  279.1533
 308  268.6645
 309  220.1929
 310  217.4195
 311  288.4856
 312  293.2249
 313  369.5236
 314  466.3027
 315  406.7238
 316  364.3383
 317  417.6455
 318  342.0208
 319  246.7432
 320  287.7504
 321  312.6146
 322  262.2314
 323  329.7203
 324  351.3704
 325  154.4989
 326  39.4354
 327  99.67406
 328  126.75
 329  283.3952
 330  302.3155
 331  189.7218
 332  270.6242
 333  249.9196
 334  203.9958
 335  230.1785
 336  178.9888
 337  277.7356
 338  387.0799
 339  311.6498
 340  268.648
 341  254.9094
 342  314.2322
 343  300.7058
 344  266.2343
 345  219.5107
 346  229.5068
 347  241.566
 348  327.9646
 349  268.5822
 350  302.405
 351  478.7669
 352  419.2792
 353  310.6233
 354  250.1604
 355  88.62029
 356  66.65028
 357  101.0765
 358  231.8147
 359  206.3733
 360  225.3205
 361  342.9701
 362  274.9562
 363  220.0165
 364  190.5027
 365  212.7835
 366  188.5023
 367  251.8418
 368  436.4208
 369  333.351
 370  307.8489
 371  223.5607
 372  190.4258
 373  274.6787
 374  290.2397
 375  350.722
 376  321.9932
 377  280.759
 378  206.7002
 379  138.1431
 380  75.38745
 381  227.5802
 382  338.6001
 383  271.9254
 384  227.8068
 385  250.7151
 386  265.6623
 387  288.2152
 388  311.4212
 389  380.8231
 390  277.7104
 391  178.5048
 392  259.5781
 393  280.9398
 394  170.4458
 395  229.6343
 396  381.1494
 397  507.5612
 398  429.803
 399  401.1792
 400  498.6814
 401  239.0661
 402  179.0105
 403  183.3869
 404  108.5738
 405  175.3224
 406  180.7887
 407  231.8292
 408  248.2602
 409  185.8002
 410  220.6973
 411  326.9913
 412  277.0787
 413  214.644
 414  196.3788
 415  245.407
 416  168.0553
 417  222.9183
 418  365
 419  341.1893
 420  298.3864
 421  249.2736
 422  325.0499
 423  238.7766
 424  329.2974
 425  254.3281
 426  229.6202
 427  208.9219
 428  290.885
 429  199.3714
 430  121.4655
 431  173.7767
 432  243.1502
 433  232.4125
 434  231.5309
 435  146.0804
 436  80.0789
 437  59.467
 438  240.9656
 439  316.6438
 440  235.2688
 441  192.4114
 442  253.4982
 443  353.2726
 444  303.9705
 445  150.4491
 446  273.0675
 447  303.0283
 448  219.8897
 449  274.0945
 450  330.6116
 451  267.2187
 452  98.19548
 453  173.4283
 454  311.7991
 455  164.4514
 456  222.7471
 457  385.4662
 458  256.6672
 459  222.6562
 460  268.9147
 461  323.5095
 462  404.2289
 463  435.6915
 464  292.8547
 465  268.5679
 466  182.4617
 467  208.7791
 468  163.2294
 469  296.4163
 470  378.7661
 471  370.8186
 472  323.6798
 473  302.0245
 474  321.9449
 475  187.0571
 476  185.854
 477  249.2497
 478  277.4508
 479  248.6723
 480  157.7283
 481  248.629
 482  410.4534
 483  269.3459
 484  239.8746
 485  135.0923
 486  160.232
 487  165.1949
 488  257.7
 489  184.528
 490  80.27269
 491  164.8833
 492  163.1693
 493  163.1311
 494  159.6296
 495  219.7909
 496  193.8253
 497  218.6708
 498  241.8615
 499  297.9561
 500  215.1643
 501  323.0014
 502  316.2748
 503  247.7704
 504  243.8659
 505  222.346
 506  308.5037
 507  255.1019
 508  235.5537
 509  364.5635
 510  444.3121
 511  287.6764
