# Input file       =  1193534798.132602_cleaned.dat
# Candidate        =  PSR_0332+5434
# Telescope        =  AR
# Epoch_topo       =  58058.060383479191
# Epoch_bary       =  N/A
# T_sample         =  0.002
# Data Folded      =  7340032
# Data Avg         =  0.048126256244099
# Data StdDev      =  2.53682818438955 
# Profile Bins     =  512
# Profile Avg      =  689.936125484531 
# Profile StdDev   =  303.742141283119 
# Reduced chi-sqr  =  1.332
# Prob(Noise)      <  6.6e-07   (~4.8 sigma)
# P_topo (ms)      =  714.496101384537  +/- 0.000263
# P'_topo (s/s)    =  -0                +/- 1.39e-10
# P''_topo (s/s^2) =  0                 +/- 6.13e-14
# P_bary (ms)      =  N/A
# P'_bary (s/s)    =  N/A
# P''_bary (s/s^2) =  N/A
# P_orb (s)        =  N/A
# asin(i)/c (s)    =  N/A
# eccentricity     =  N/A
# w (rad)          =  N/A
# T_peri           =  N/A
######################################################
   0  715.8964
   1  636.2876
   2  624.8859
   3  1044.173
   4  626.7006
   5  732.8074
   6  884.31
   7  852.0933
   8  538.6773
   9  541.1111
  10  497.2884
  11  574.1849
  12  661.0472
  13  553.3843
  14  875.0118
  15  561.4746
  16  527.432
  17  660.1459
  18  819.1829
  19  817.9169
  20  707.114
  21  497.5711
  22  397.2099
  23  700.6484
  24  477.2275
  25  668.5754
  26  1142.355
  27  928.7073
  28  490.9706
  29  774.3661
  30  668.8336
  31  699.7979
  32  945.3561
  33  916.1445
  34  895.3416
  35  445.4995
  36  618.3297
  37  664.6766
  38  579.0397
  39  523.9958
  40  413.6964
  41  766.7306
  42  1117.382
  43  1195.837
  44  915.1927
  45  1006.876
  46  1035.381
  47  798.6309
  48  776.8035
  49  427.1542
  50  571.2041
  51  748.4081
  52  564.8816
  53  536.3287
  54  475.2315
  55  703.6321
  56  782.233
  57  925.2759
  58  861.4901
  59  744.2733
  60  729.778
  61  765.0966
  62  457.5321
  63  455.3673
  64  445.1229
  65  442.4838
  66  803.2543
  67  732.4354
  68  437.3066
  69  425.7256
  70  147.9031
  71  249.5866
  72  183.2136
  73  560.939
  74  694.3679
  75  443.9357
  76  507.5272
  77  655.1855
  78  442.9032
  79  252.92
  80  73.51131
  81  386.9268
  82  587.2799
  83  342.6036
  84  363.1045
  85  695.7634
  86  945.1831
  87  624.3613
  88  474.9414
  89  687.5827
  90  736.0174
  91  538.2156
  92  780.2344
  93  974.6007
  94  860.0894
  95  709.9246
  96  456.06
  97  733.0756
  98  745.6891
  99  527.8873
 100  716.3884
 101  672.5666
 102  541.9915
 103  554.59
 104  492.6349
 105  539.8871
 106  596.6205
 107  682.6608
 108  592.455
 109  541.5443
 110  507.2086
 111  472.0862
 112  690.7408
 113  648.2412
 114  564.5928
 115  335.7678
 116  585.3892
 117  504.8858
 118  420.6929
 119  400.4274
 120  556.5842
 121  915.7077
 122  881.6939
 123  705.6829
 124  618.7504
 125  509.4517
 126  253.5151
 127  511.6245
 128  951.4631
 129  751.2215
 130  701.3705
 131  503.7132
 132  386.9709
 133  786.5901
 134  973.3997
 135  756.6172
 136  655.0437
 137  775.5046
 138  817.1312
 139  840.9909
 140  739.3791
 141  1089.361
 142  1219.582
 143  1175.147
 144  769.3619
 145  518.818
 146  576.8055
 147  561.0104
 148  810.9854
 149  712.3678
 150  744.8138
 151  727.6415
 152  540.628
 153  746.6252
 154  688.3602
 155  705.7649
 156  650.3958
 157  996.8338
 158  1002.922
 159  638.3939
 160  489.4563
 161  705.9239
 162  765.2905
 163  716.3878
 164  773.0106
 165  682.1765
 166  546.7222
 167  660.3968
 168  498.6181
 169  470.0372
 170  504.4089
 171  711.6544
 172  861.3971
 173  1014.095
 174  886.8033
 175  714.8724
 176  707.2844
 177  809.2783
 178  715.3423
 179  638.3373
 180  703.2829
 181  765.0633
 182  663.245
 183  611.7938
 184  784.2756
 185  823.6582
 186  588.7385
 187  614.7285
 188  527.5015
 189  678.9553
 190  793.5626
 191  770.3967
 192  769.1854
 193  1092.766
 194  1104.39
 195  916.5334
 196  527.8834
 197  618.4142
 198  935.8976
 199  969.7461
 200  686.9608
 201  417.3601
 202  781.4908
 203  798.77
 204  428.9115
 205  368.3545
 206  742.6635
 207  917.1637
 208  1081.865
 209  939.4872
 210  917.368
 211  812.9853
 212  580.9849
 213  653.9029
 214  859.6981
 215  912.0081
 216  1150.812
 217  769.3185
 218  759.7574
 219  659.0449
 220  708.3914
 221  771.6607
 222  832.6518
 223  786.9258
 224  918.9429
 225  768.2369
 226  564.0834
 227  557.1843
 228  457.3578
 229  418.3767
 230  731.6971
 231  984.3929
 232  888.683
 233  756.2036
 234  449.6864
 235  724.0381
 236  782.2304
 237  904.1032
 238  829.7554
 239  607.8102
 240  830.1154
 241  952.0853
 242  673.1115
 243  645.9059
 244  807.8409
 245  759.4227
 246  635.1035
 247  403.8279
 248  431.1537
 249  564.1259
 250  475.7301
 251  609.7741
 252  408.1663
 253  559.0988
 254  841.7083
 255  611.6088
 256  705.853
 257  514.8553
 258  574.4196
 259  431.7984
 260  295.6953
 261  471.3926
 262  730.2987
 263  905.276
 264  691.9325
 265  553.6832
 266  553.3351
 267  537.3824
 268  452.2412
 269  653.7747
 270  500.0929
 271  490.1255
 272  795.8135
 273  563.0127
 274  407.4421
 275  740.1592
 276  813.8309
 277  937.7402
 278  770.533
 279  552.7827
 280  383.1183
 281  462.1642
 282  665.5997
 283  814.6257
 284  844.0115
 285  794.5287
 286  496.3164
 287  432.8488
 288  747.3331
 289  669.228
 290  642.3712
 291  616.9377
 292  634.0563
 293  489.7829
 294  839.9062
 295  467.9592
 296  366.5724
 297  742.4888
 298  809.3735
 299  840.0191
 300  545.9098
 301  628.1583
 302  761.7494
 303  529.3715
 304  499.0497
 305  618.5707
 306  861.0853
 307  765.1841
 308  431.9104
 309  687.2581
 310  839.9941
 311  964.0234
 312  1160.578
 313  1306.352
 314  1405.106
 315  1924.807
 316  2039.877
 317  2462.813
 318  2460.28
 319  2062.707
 320  1388.38
 321  1032.414
 322  808.2969
 323  559.1918
 324  897.4866
 325  936.2672
 326  702.2839
 327  994.4415
 328  994.9472
 329  847.3675
 330  683.7017
 331  784.0983
 332  840.6811
 333  779.1141
 334  1032.33
 335  907.3965
 336  774.3929
 337  698.0795
 338  665.6996
 339  498.6775
 340  637.4681
 341  676.0842
 342  675.2095
 343  733.38
 344  434.573
 345  331.4468
 346  231.6659
 347  445.8338
 348  636.3623
 349  620.9416
 350  810.6547
 351  1158.755
 352  1043.395
 353  659.8137
 354  559.4708
 355  767.365
 356  780.3721
 357  865.795
 358  679.9713
 359  746.2804
 360  772.3398
 361  733.0867
 362  740.3099
 363  839.9659
 364  573.363
 365  390.6393
 366  926.1755
 367  923.9095
 368  1001.882
 369  1249.136
 370  866.5546
 371  729.7596
 372  546.5179
 373  557.5933
 374  661.9831
 375  454.6024
 376  462.3332
 377  452.3635
 378  588.7682
 379  613.4012
 380  500.4191
 381  413.8409
 382  700.2072
 383  806.6694
 384  692.0718
 385  827.0812
 386  679.6494
 387  739.7116
 388  738.8179
 389  371.9462
 390  527.7366
 391  310.0381
 392  119.5163
 393  494.6925
 394  1038.321
 395  932.9102
 396  662.7032
 397  631.0704
 398  390.2305
 399  261.8694
 400  765.8591
 401  653.5139
 402  557.0291
 403  528.7532
 404  541.509
 405  690.7863
 406  611.6256
 407  392.9197
 408  377.237
 409  615.1124
 410  869.3081
 411  1055.99
 412  508.3298
 413  356.6035
 414  591.5095
 415  564.629
 416  724.206
 417  757.889
 418  597.9424
 419  831.3403
 420  1120.45
 421  838.6352
 422  388.5927
 423  426.8649
 424  739.308
 425  550.4948
 426  579.2619
 427  687.4393
 428  342.0514
 429  681.2739
 430  993.4806
 431  854.3564
 432  619.7363
 433  851.2403
 434  1406.531
 435  1079.823
 436  1022.742
 437  840.8572
 438  823.608
 439  794.2388
 440  715.2692
 441  593.8002
 442  594.0815
 443  925.1321
 444  624.2082
 445  347.7478
 446  425.0089
 447  559.1068
 448  538.0045
 449  445.5811
 450  352.2397
 451  601.0185
 452  740.7488
 453  586.2607
 454  449.924
 455  489.4231
 456  391.5911
 457  692.5938
 458  871.0831
 459  822.5884
 460  774.6425
 461  552.5352
 462  573.0217
 463  522.8903
 464  422.0496
 465  568.9666
 466  455.8268
 467  632.0074
 468  270.7475
 469  318.3274
 470  336.5322
 471  593.5068
 472  727.6925
 473  680.3669
 474  414.5703
 475  340.7361
 476  608.9538
 477  794.6961
 478  638.5525
 479  430.8271
 480  695.024
 481  805.569
 482  650.5719
 483  609.554
 484  531.4006
 485  431.1152
 486  532.6407
 487  778.4252
 488  751.6345
 489  682.4373
 490  841.7705
 491  833.786
 492  760.5001
 493  556.7271
 494  783.0311
 495  565.8605
 496  823.3005
 497  900.3245
 498  931.5633
 499  979.866
 500  773.3596
 501  454.4984
 502  403.0632
 503  435.9688
 504  624.502
 505  517.9987
 506  415.8869
 507  326.581
 508  639.6886
 509  966.4205
 510  663.5594
 511  843.6996
