# Input file       =  1193606032.151142_cleaned.dat
# Candidate        =  PSR_0332+5434
# Telescope        =  AR
# Epoch_topo       =  58058.884851286362
# Epoch_bary       =  N/A
# T_sample         =  0.002
# Data Folded      =  7340032
# Data Avg         =  0.0726851671154562
# Data StdDev      =  2.72768542884925 
# Profile Bins     =  512
# Profile Avg      =  1042.02554493923 
# Profile StdDev   =  326.594058676783 
# Reduced chi-sqr  =  1.237
# Prob(Noise)      <  0.000199   (~3.5 sigma)
# P_topo (ms)      =  714.496524196666  +/- 0.00018
# P'_topo (s/s)    =  -0                +/- 9.52e-11
# P''_topo (s/s^2) =  0                 +/- 4.2e-14
# P_bary (ms)      =  N/A
# P'_bary (s/s)    =  N/A
# P''_bary (s/s^2) =  N/A
# P_orb (s)        =  N/A
# asin(i)/c (s)    =  N/A
# eccentricity     =  N/A
# w (rad)          =  N/A
# T_peri           =  N/A
######################################################
   0  1064.029
   1  1190.209
   2  666.517
   3  690.1755
   4  1072.879
   5  1326.521
   6  1153.783
   7  1113.01
   8  921.0259
   9  720.8972
  10  816.8521
  11  551.934
  12  647.7456
  13  727.7076
  14  989.4537
  15  1069.285
  16  894.8998
  17  1225.178
  18  1253.695
  19  947.3392
  20  1016.497
  21  940.9265
  22  827.3948
  23  861.1058
  24  1074.583
  25  1003.12
  26  587.1379
  27  618.9044
  28  914.6966
  29  935.9358
  30  711.0721
  31  739.0023
  32  515.9264
  33  577.1845
  34  832.8611
  35  753.6229
  36  796.2932
  37  876.5579
  38  958.7144
  39  792.5567
  40  1099.513
  41  1430.672
  42  1020.46
  43  845.8339
  44  881.249
  45  1002.521
  46  776.9042
  47  459.6723
  48  987.5158
  49  1150.423
  50  810.9698
  51  994.4053
  52  779.7521
  53  777.2236
  54  807.0789
  55  905.4899
  56  848.909
  57  896.2246
  58  1185.11
  59  833.7647
  60  728.0102
  61  887.3349
  62  831.6193
  63  983.2996
  64  903.1071
  65  1004.881
  66  1183.983
  67  1251.438
  68  1202.201
  69  985.2988
  70  941.4485
  71  1443.77
  72  1578.384
  73  1272.34
  74  773.1954
  75  878.9
  76  1054.926
  77  1116.685
  78  1483.838
  79  1385.866
  80  978.7941
  81  922.0122
  82  1126.519
  83  1175.53
  84  1218.43
  85  1103.947
  86  1167.075
  87  1024.141
  88  934.4536
  89  968.0491
  90  1015.357
  91  990.5182
  92  978.46
  93  962.6388
  94  946.5383
  95  920.9861
  96  782.1185
  97  956.1732
  98  598.5337
  99  620.6377
 100  913.4481
 101  1209.241
 102  1072.746
 103  1315.946
 104  1194.51
 105  838.0292
 106  963.7881
 107  885.8498
 108  761.4219
 109  913.7895
 110  1117.756
 111  1192.582
 112  1209.142
 113  1084.657
 114  1021.963
 115  995.1838
 116  625.7205
 117  391.9149
 118  653.8475
 119  1122.348
 120  1052.726
 121  677.5365
 122  507.6564
 123  583.7252
 124  1002.961
 125  1009.986
 126  1045.299
 127  886.9307
 128  909.7875
 129  748.7527
 130  747.622
 131  917.4733
 132  1008.492
 133  1062.883
 134  1262.92
 135  1259.52
 136  1156.496
 137  1089.783
 138  1096.313
 139  938.8627
 140  744.9011
 141  932.5015
 142  695.0383
 143  1088.99
 144  1162.228
 145  940.3307
 146  941.6335
 147  1064.386
 148  987.4144
 149  1060.35
 150  1147.105
 151  1055.389
 152  951.5584
 153  1101.648
 154  1024.792
 155  585.4798
 156  861.3745
 157  1143.186
 158  805.7131
 159  828.071
 160  637.5574
 161  615.4326
 162  856.8856
 163  837.7495
 164  880.132
 165  1166.156
 166  1047.578
 167  853.4473
 168  750.4872
 169  976.042
 170  960.3826
 171  760.5235
 172  726.0447
 173  555.3986
 174  768.4435
 175  807.8928
 176  937.7632
 177  1013.936
 178  993.6792
 179  1046.481
 180  1062.362
 181  1284.151
 182  1149.743
 183  711.3696
 184  537.4706
 185  973.4747
 186  1169.357
 187  1322.933
 188  1354.499
 189  1359.123
 190  1111.339
 191  1060.332
 192  836.8522
 193  804.6022
 194  731.4979
 195  815.4069
 196  1065.167
 197  936.3762
 198  975.7477
 199  1019.111
 200  830.5443
 201  799.8953
 202  882.1104
 203  945.4385
 204  1062.139
 205  1002.66
 206  1138.029
 207  994.0953
 208  1035.905
 209  1144.676
 210  1155.406
 211  1061.76
 212  1281.189
 213  1426.238
 214  1264.491
 215  1133.833
 216  718.3623
 217  997.7848
 218  1326.348
 219  1362.793
 220  1313.457
 221  1243.616
 222  1462.926
 223  1408.768
 224  1239.386
 225  1343.46
 226  1326.758
 227  1318.018
 228  1476.48
 229  1369.657
 230  1447.056
 231  1413.346
 232  1522.248
 233  995.6686
 234  1003.23
 235  1122.088
 236  1350.768
 237  1341.181
 238  914.3217
 239  768.5406
 240  1245.7
 241  937.9122
 242  868.7464
 243  866.5414
 244  1190.797
 245  1284.267
 246  1151.052
 247  1086.68
 248  1033.103
 249  1172.497
 250  1384.418
 251  1308.998
 252  1232.97
 253  1262.629
 254  1322.529
 255  1293.649
 256  1142.644
 257  1037.327
 258  871.5871
 259  1126.635
 260  1261.097
 261  906.6385
 262  1252.04
 263  1449.14
 264  1216.525
 265  872.1124
 266  1008.747
 267  1260.015
 268  1357.409
 269  1166.529
 270  1115.353
 271  1010.943
 272  1201.358
 273  1290.123
 274  1117.012
 275  1048.928
 276  1219.231
 277  1201.414
 278  1411.95
 279  1013.957
 280  952.179
 281  1271.138
 282  1090.023
 283  1260.314
 284  1189.223
 285  860.9672
 286  804.5508
 287  1149.394
 288  1491.236
 289  1430.492
 290  1148.729
 291  1219.496
 292  1356.462
 293  1387.825
 294  1341.22
 295  1320.746
 296  1626.64
 297  1528.964
 298  1403.546
 299  1442.339
 300  1246.278
 301  992.7697
 302  1190.075
 303  1288.817
 304  1374.436
 305  1213.468
 306  1365.212
 307  1198.216
 308  922.4376
 309  853.4128
 310  1092.082
 311  1209.058
 312  1750.959
 313  1656.51
 314  1747.894
 315  2263.656
 316  2439.578
 317  2528.194
 318  2567.729
 319  2212.094
 320  1824.957
 321  1561.013
 322  1577.253
 323  1336.761
 324  1243.832
 325  1120.027
 326  1293.334
 327  1135.026
 328  1149.729
 329  1398.051
 330  1252.173
 331  964.1788
 332  1073.602
 333  988.7896
 334  1226.395
 335  801.1964
 336  717.8618
 337  991.7415
 338  993.3472
 339  762.5914
 340  881.9463
 341  770.4637
 342  775.585
 343  706.6448
 344  1065.725
 345  960.3283
 346  948.4316
 347  1120.142
 348  1020.817
 349  723.4061
 350  1017.451
 351  1317.116
 352  1211.2
 353  1138.367
 354  1251.237
 355  931.004
 356  1157.16
 357  940.4424
 358  990.777
 359  824.6404
 360  814.7095
 361  950.6068
 362  1433.909
 363  1599.484
 364  1056.678
 365  899.1551
 366  962.3741
 367  835.0234
 368  955.5246
 369  1030.091
 370  1176.755
 371  946.0091
 372  889.2007
 373  861.2148
 374  855.6529
 375  730.1517
 376  966.1205
 377  952.9989
 378  1094.99
 379  852.882
 380  1077.271
 381  1390.135
 382  1002.474
 383  935.1085
 384  1053.734
 385  872.2155
 386  895.9625
 387  843.4794
 388  1060.215
 389  950.165
 390  592.9788
 391  646.3986
 392  1139.006
 393  1259.311
 394  981.7699
 395  903.3543
 396  758.7361
 397  863.8204
 398  911.2355
 399  830.818
 400  1126.873
 401  1242.99
 402  985.7416
 403  1028.077
 404  1289.98
 405  1023.108
 406  861.3871
 407  596.5963
 408  859.1096
 409  895.3885
 410  922.5175
 411  1033.954
 412  1015.934
 413  1027.723
 414  937.2078
 415  869.6281
 416  960.0702
 417  1095.392
 418  1113.275
 419  1060.911
 420  1282.075
 421  1039.961
 422  933.5322
 423  1024.151
 424  1037.229
 425  687.2413
 426  868.0529
 427  1171.121
 428  1286.318
 429  867.5331
 430  788.5184
 431  1019.876
 432  1041.072
 433  963.0532
 434  1129.427
 435  1111.252
 436  992.995
 437  1016.045
 438  1152.067
 439  986.0214
 440  958.156
 441  932.8138
 442  600.9075
 443  733.7231
 444  858.9542
 445  1088.516
 446  1080.579
 447  1214.5
 448  1247.231
 449  1205.792
 450  695.82
 451  663.2996
 452  717.0674
 453  836.0201
 454  893.9945
 455  1264.768
 456  1413.605
 457  1046.855
 458  1122.921
 459  1017.419
 460  1006.634
 461  891.5921
 462  1029.706
 463  735.3926
 464  971.7604
 465  1394.644
 466  1405.745
 467  1283.451
 468  1062.937
 469  752.9218
 470  953.1522
 471  1101.322
 472  1023.899
 473  1350.181
 474  1133.954
 475  649.0185
 476  822.1839
 477  1330.155
 478  1155.436
 479  1114.498
 480  1377.226
 481  1341.93
 482  879.8511
 483  849.0338
 484  888.3281
 485  1005.529
 486  937.3377
 487  799.5645
 488  1033.005
 489  1180.029
 490  1127.413
 491  1039.442
 492  921.9999
 493  855.5722
 494  636.4025
 495  881.9897
 496  928.9551
 497  896.8405
 498  891.1912
 499  1162.158
 500  798.3345
 501  667.2464
 502  743.5153
 503  814.1349
 504  894.9523
 505  1008.233
 506  925.3126
 507  952.9973
 508  1218.362
 509  923.3988
 510  1035.147
 511  1069.025
