# Input file       =  1193707102.15065_cleaned.dat
# Candidate        =  PSR_0332+5434
# Telescope        =  AR
# Epoch_topo       =  58060.054642947340
# Epoch_bary       =  N/A
# T_sample         =  0.002
# Data Folded      =  7340032
# Data Avg         =  0.0851598355345363
# Data StdDev      =  3.14381015560354 
# Profile Bins     =  512
# Profile Avg      =  1220.96104070248 
# Profile StdDev   =  376.417935722525 
# Reduced chi-sqr  =  0.895
# Prob(Noise)      <  0.957   (~0.0 sigma)
# P_topo (ms)      =  714.49793789354   +/- 0.000238
# P'_topo (s/s)    =  -0                +/- 1.25e-10
# P''_topo (s/s^2) =  0                 +/- 5.54e-14
# P_bary (ms)      =  N/A
# P'_bary (s/s)    =  N/A
# P''_bary (s/s^2) =  N/A
# P_orb (s)        =  N/A
# asin(i)/c (s)    =  N/A
# eccentricity     =  N/A
# w (rad)          =  N/A
# T_peri           =  N/A
######################################################
   0  1110.298
   1  1208.922
   2  1144.043
   3  1279.98
   4  1383.828
   5  1466.673
   6  1116.952
   7  1144.134
   8  1509.835
   9  1147.088
  10  1147.94
  11  1260.58
  12  1646.733
  13  1453.329
  14  1398.646
  15  1029.369
  16  1083.002
  17  900.7681
  18  604.884
  19  766.9401
  20  1071.927
  21  1055.702
  22  939.0165
  23  1057.805
  24  946.5389
  25  1013.908
  26  1069.318
  27  1170.901
  28  1294.529
  29  1122.498
  30  1243.612
  31  1336.386
  32  1156.139
  33  1340.786
  34  1207.629
  35  891.288
  36  900.7428
  37  1138.668
  38  1123.029
  39  1122.369
  40  1132.824
  41  1135.216
  42  1194.216
  43  1076.867
  44  733.9831
  45  962.9009
  46  1296.173
  47  1112.465
  48  1263.559
  49  1452.212
  50  1621.238
  51  1472.02
  52  1469.462
  53  1539.051
  54  1201.788
  55  1397.403
  56  1443.382
  57  1096.785
  58  983.1926
  59  1025.906
  60  1074.194
  61  1029.034
  62  1124.373
  63  1239.986
  64  1149.936
  65  1056.662
  66  1474.698
  67  1586.445
  68  1244.508
  69  1212.421
  70  1233.546
  71  993.9651
  72  1155.464
  73  1307.08
  74  1272.151
  75  1163.288
  76  1002.167
  77  1191.296
  78  1038.572
  79  1042.781
  80  1409.771
  81  1758.147
  82  1288.342
  83  1324.054
  84  1191.258
  85  1390.317
  86  1398.465
  87  1389.163
  88  1578.432
  89  1780.64
  90  1460.591
  91  1278.651
  92  1223.35
  93  1327.382
  94  1213.838
  95  1130.083
  96  1040.453
  97  1241.346
  98  1445.985
  99  1506.576
 100  1208.977
 101  1093.925
 102  1056.04
 103  1352.688
 104  886.1556
 105  824.6955
 106  991.4396
 107  1161.668
 108  1493.844
 109  1405.262
 110  1403.765
 111  1693.034
 112  1457.445
 113  1384.406
 114  1368.081
 115  1224.044
 116  1316.269
 117  1438.339
 118  1189.047
 119  1190.049
 120  1170.133
 121  1411.617
 122  1538.12
 123  1356.795
 124  1190.623
 125  885.5268
 126  871.0749
 127  1414.125
 128  1391.759
 129  1312.085
 130  1445.559
 131  1410.083
 132  1017.161
 133  817.6366
 134  979.9436
 135  1008.018
 136  1078.506
 137  886.3768
 138  712.8811
 139  713.103
 140  1160.256
 141  1240.649
 142  1281.148
 143  1007.76
 144  1098.866
 145  840.3307
 146  916.2786
 147  1544.277
 148  1267.389
 149  1415.928
 150  1582.358
 151  1294.589
 152  1390.753
 153  1419.715
 154  1364.957
 155  1238.861
 156  946.305
 157  1269.441
 158  1573.346
 159  1077.517
 160  1172.163
 161  1417.256
 162  1324.282
 163  1404.954
 164  1341.745
 165  1391.904
 166  1354.51
 167  1203.989
 168  1118.252
 169  1356.119
 170  1523.097
 171  1381.67
 172  1137.346
 173  1296.406
 174  1183.49
 175  818.4558
 176  1140.855
 177  1527.888
 178  1516.945
 179  1512.945
 180  1218.093
 181  1144.108
 182  1375.262
 183  1174.91
 184  1257.474
 185  1333.887
 186  1496.94
 187  1480.604
 188  841.1314
 189  1117.427
 190  1222.817
 191  1331.961
 192  1312.088
 193  1303.725
 194  1391.199
 195  1366.103
 196  1284.413
 197  1284.244
 198  1279.831
 199  1415.232
 200  1319.864
 201  1068.752
 202  913.7423
 203  1173.146
 204  1157.515
 205  1148.916
 206  1417.664
 207  1225.986
 208  1578.206
 209  1234.066
 210  1131.944
 211  1124.972
 212  1269.931
 213  1469.708
 214  1278.71
 215  1230.588
 216  1131.002
 217  971.2433
 218  1157.363
 219  1286.529
 220  1230.856
 221  1551.681
 222  1297.426
 223  1284.231
 224  1052.781
 225  1220.724
 226  1091.836
 227  1114.749
 228  1388.873
 229  1356.092
 230  1289.2
 231  1273.867
 232  749.1747
 233  808.6686
 234  1201.007
 235  1408.819
 236  1662.998
 237  1468.164
 238  1547.129
 239  1527.427
 240  1415.639
 241  1127.278
 242  848.752
 243  1032.551
 244  977.0125
 245  1041.208
 246  1263.867
 247  1504.188
 248  1285.997
 249  1285.219
 250  1388.428
 251  1225.525
 252  942.8978
 253  1031.967
 254  1462.051
 255  1798.649
 256  1696.66
 257  1233.842
 258  1036.642
 259  1413.146
 260  875.6362
 261  1044.495
 262  1067.737
 263  1067.536
 264  1373.797
 265  1140.741
 266  811.2192
 267  1064.393
 268  1167.48
 269  1305.694
 270  1447.774
 271  1477.154
 272  1347.071
 273  1066.039
 274  1133.9
 275  1396.574
 276  1369.582
 277  1283.45
 278  1159.422
 279  1421.883
 280  1248.325
 281  1039.831
 282  1178.714
 283  1073.038
 284  1162.017
 285  1179.441
 286  1239.787
 287  830.5255
 288  1101.993
 289  1075.965
 290  1422.228
 291  1446.688
 292  1212.734
 293  1116.547
 294  1028.969
 295  1172.391
 296  1223.119
 297  1327.513
 298  1319.653
 299  1497.965
 300  1487.476
 301  1142.642
 302  1039.799
 303  967.6061
 304  1030.498
 305  1460.452
 306  1461.495
 307  1203.936
 308  693.8959
 309  781.8204
 310  1067.843
 311  1398.124
 312  1581.517
 313  1855.22
 314  2051.464
 315  2528.017
 316  2683.185
 317  2665.205
 318  2458.593
 319  2160.539
 320  1558.866
 321  1317.698
 322  1315.471
 323  1264.859
 324  1083.996
 325  1087.736
 326  1217.812
 327  1402.797
 328  1391.849
 329  1454.672
 330  1346.721
 331  1351.181
 332  1453.892
 333  1271.273
 334  1001.376
 335  865.1125
 336  1133.56
 337  1332.1
 338  1219.26
 339  967.239
 340  527.7578
 341  1226.492
 342  1312.949
 343  1103.563
 344  1309.145
 345  1680.452
 346  1283.316
 347  1253.08
 348  1434.728
 349  1114.262
 350  1300.683
 351  1187.304
 352  1253.997
 353  1134.461
 354  675.3582
 355  949.373
 356  1118.722
 357  1052.239
 358  1195.209
 359  1275.446
 360  1182.383
 361  1103.103
 362  664.8556
 363  896.1124
 364  972.2109
 365  1082.686
 366  1041.16
 367  914.6062
 368  973.8875
 369  1036.753
 370  868.9529
 371  1018.016
 372  1183.011
 373  1176.755
 374  1112.156
 375  998.0886
 376  1002.401
 377  718.9686
 378  1022.312
 379  1130.342
 380  1439.672
 381  1173.159
 382  818.5536
 383  1045.435
 384  1825.073
 385  1875.366
 386  1565.358
 387  1286.705
 388  1333.86
 389  1233.085
 390  1477.875
 391  1598.209
 392  1549.836
 393  1376.331
 394  1137.399
 395  1097.407
 396  1032.338
 397  1040.926
 398  1091.016
 399  1568.582
 400  991.2646
 401  812.7143
 402  1048.529
 403  1049.589
 404  893.5391
 405  1010.379
 406  1299.726
 407  1346.286
 408  1109.758
 409  1097.244
 410  982.7703
 411  896.5892
 412  1044.645
 413  1039.281
 414  773.6863
 415  1251.702
 416  1412.818
 417  1051.155
 418  1138.942
 419  1631.713
 420  1782.859
 421  1791.439
 422  1333.075
 423  983.9603
 424  774.0939
 425  1026.474
 426  1081.921
 427  1146.333
 428  962.7149
 429  800.6323
 430  1064.084
 431  1048.754
 432  690.1298
 433  652.286
 434  1116.394
 435  1356.217
 436  1306.086
 437  1266.283
 438  1328.828
 439  1255.633
 440  1080.983
 441  1115.891
 442  1418.088
 443  1240.792
 444  837.029
 445  744.7673
 446  996.9883
 447  1055.027
 448  888.521
 449  1006.876
 450  689.7575
 451  936.1698
 452  1378.624
 453  1096.541
 454  1266.902
 455  1224.917
 456  1265.302
 457  1232.909
 458  1288.478
 459  1054.174
 460  1080.215
 461  1088.577
 462  778.4299
 463  905.761
 464  1105.121
 465  1181.915
 466  1203.168
 467  886.5327
 468  809.5347
 469  964.3597
 470  1479.128
 471  1429.56
 472  1052.014
 473  1387.141
 474  1498.251
 475  1456.971
 476  1417.297
 477  1165.322
 478  1385.64
 479  1570.428
 480  1437.273
 481  1258.625
 482  1210.105
 483  1085.451
 484  1263.955
 485  1412.114
 486  1345.521
 487  1272.817
 488  1196.68
 489  1265.28
 490  1298.787
 491  1245.077
 492  1182.047
 493  1074.361
 494  1119.668
 495  1215.573
 496  1170.828
 497  1068.431
 498  1424.06
 499  1400.726
 500  1073.599
 501  1155.067
 502  1349.244
 503  1237.004
 504  787.3043
 505  1073.774
 506  1421.571
 507  1430.264
 508  1444.846
 509  1233.421
 510  1191.394
 511  892.6528
