# Input file       =  1193677587.15639_cleaned.dat
# Candidate        =  PSR_0332+5434
# Telescope        =  AR
# Epoch_topo       =  58059.713034217479
# Epoch_bary       =  N/A
# T_sample         =  0.002
# Data Folded      =  7143424
# Data Avg         =  0.0782575358886597
# Data StdDev      =  3.63033823304402 
# Profile Bins     =  512
# Profile Avg      =  1091.9830061885  
# Profile StdDev   =  428.810413277563 
# Reduced chi-sqr  =  0.897
# Prob(Noise)      <  0.954   (~0.0 sigma)
# P_topo (ms)      =  714.497279199138  +/- 0.000132
# P'_topo (s/s)    =  -0                +/- 7.13e-11
# P''_topo (s/s^2) =  0                 +/- 3.24e-14
# P_bary (ms)      =  N/A
# P'_bary (s/s)    =  N/A
# P''_bary (s/s^2) =  N/A
# P_orb (s)        =  N/A
# asin(i)/c (s)    =  N/A
# eccentricity     =  N/A
# w (rad)          =  N/A
# T_peri           =  N/A
######################################################
   0  913.3232
   1  707.3694
   2  675.8022
   3  1275.601
   4  1520.556
   5  1381.66
   6  1258.264
   7  1749.836
   8  1378.892
   9  1352.346
  10  1061.362
  11  1079.638
  12  1052.927
  13  920.891
  14  1383.918
  15  1437.119
  16  1265.076
  17  790.0649
  18  886.9766
  19  945.1722
  20  1269.104
  21  966.8607
  22  1129.41
  23  1403.312
  24  1108.78
  25  1256.916
  26  998.0148
  27  971.891
  28  935.5496
  29  1207.483
  30  786.1124
  31  1374.148
  32  1235.066
  33  1259.725
  34  1337.794
  35  1117.372
  36  887.2583
  37  931.7399
  38  905.7927
  39  802.1938
  40  1006.943
  41  739.3578
  42  868.6359
  43  1212.851
  44  1364.199
  45  1276.715
  46  815.8629
  47  957.4671
  48  952.2527
  49  954.1415
  50  726.8834
  51  765.791
  52  1013.488
  53  1324.221
  54  1171.504
  55  935.6944
  56  1148.113
  57  1137.111
  58  818.5034
  59  1115.965
  60  1243.08
  61  698.5434
  62  1141.564
  63  1422.02
  64  1289.122
  65  1002.973
  66  1100.76
  67  937.4304
  68  767.3916
  69  1113.402
  70  1332.218
  71  1058.326
  72  1184.345
  73  1170.861
  74  971.5908
  75  1252.918
  76  1312.859
  77  1027.042
  78  809.6703
  79  1535.62
  80  1439.016
  81  1222.458
  82  810.1572
  83  1049.034
  84  1179.732
  85  1114.897
  86  911.5928
  87  1014.041
  88  1288.262
  89  1169.912
  90  815.7536
  91  517.5073
  92  686.5187
  93  1051.169
  94  911.7237
  95  729.9644
  96  758.6495
  97  800.4512
  98  867.6464
  99  1301.472
 100  1334.471
 101  1003.005
 102  878.5074
 103  1011.339
 104  942.4102
 105  715.6224
 106  668.5096
 107  955.4569
 108  962.1696
 109  1012.368
 110  1006.379
 111  827.4766
 112  802.7352
 113  757.4064
 114  838.6947
 115  914.5782
 116  599.3815
 117  528.9413
 118  824.3717
 119  781.2736
 120  435.1624
 121  681.7491
 122  1110.112
 123  1112.031
 124  929.7356
 125  771.6902
 126  767.8392
 127  742.5682
 128  468.329
 129  1019.985
 130  969.4329
 131  949.4857
 132  583.5332
 133  641.9054
 134  606.0568
 135  740.8046
 136  1184.172
 137  988.9131
 138  1400.323
 139  1195.034
 140  1255.99
 141  882.8876
 142  913.7046
 143  1247.013
 144  1192.749
 145  1085.073
 146  1293.642
 147  873.4134
 148  758.7376
 149  776.8797
 150  685.0031
 151  975.3201
 152  1015.838
 153  1006.408
 154  1227.674
 155  1181.608
 156  883.0221
 157  974.7354
 158  859.5897
 159  1226.57
 160  1242.007
 161  996.2264
 162  1225.807
 163  961.411
 164  920.1561
 165  975.0203
 166  980.9421
 167  700.5555
 168  653.6572
 169  697.5354
 170  996.6252
 171  844.0564
 172  743.1899
 173  1058.556
 174  1125.049
 175  748.1897
 176  846.3782
 177  1135.731
 178  913.6455
 179  963.1409
 180  980.2441
 181  1190.735
 182  1161.581
 183  1390.208
 184  1056.214
 185  789.3782
 186  873.5206
 187  1198.372
 188  1195.343
 189  1225.008
 190  1426.659
 191  1225.014
 192  1275.284
 193  827.0364
 194  1058.94
 195  994.5706
 196  973.7312
 197  1450.837
 198  1460.709
 199  1126.46
 200  851.6275
 201  846.9876
 202  1020.661
 203  965.3772
 204  827.7697
 205  1134.902
 206  955.8381
 207  1336.961
 208  1444.609
 209  1038.501
 210  866.7627
 211  1099.393
 212  1183.426
 213  1224.234
 214  1213.973
 215  1005.664
 216  988.1602
 217  824.1929
 218  671.736
 219  717.6196
 220  875.4393
 221  1059.293
 222  1056.271
 223  615.4461
 224  705.7335
 225  749.8868
 226  808.8046
 227  832.7007
 228  602.9797
 229  529.494
 230  615.8597
 231  846.7936
 232  1061.612
 233  963.3684
 234  965.1422
 235  883.1006
 236  966.1401
 237  711.3395
 238  973.1502
 239  766.8519
 240  823.8962
 241  928.2227
 242  894.8245
 243  1023.368
 244  736.6312
 245  1209.358
 246  1446.901
 247  1172.916
 248  1157.926
 249  949.7061
 250  990.2778
 251  927.1942
 252  950.2674
 253  1299.751
 254  1039.022
 255  1088.159
 256  801.1345
 257  576.0543
 258  622.0439
 259  1323.34
 260  1513.21
 261  1207.329
 262  1282.507
 263  1053.471
 264  886.4324
 265  856.3837
 266  834.8275
 267  830.9427
 268  820.9585
 269  952.0672
 270  1353.101
 271  1332.422
 272  1042.444
 273  713.9559
 274  628.5421
 275  559.1865
 276  913.7334
 277  985.4507
 278  894.2696
 279  1257.352
 280  1433.597
 281  1305.458
 282  915.9224
 283  723.0936
 284  857.4687
 285  899.3295
 286  1363.705
 287  1592.149
 288  1380.662
 289  999.8906
 290  1124.549
 291  1282.021
 292  1063.309
 293  856.3757
 294  1087.949
 295  1264.796
 296  1276.763
 297  1143.583
 298  1263.809
 299  1174.151
 300  1200.949
 301  1201.098
 302  1134.754
 303  1249.843
 304  1461.277
 305  1674.83
 306  1291.708
 307  1028.774
 308  1234.154
 309  1421.625
 310  1118.682
 311  1298.3
 312  1285.602
 313  1222.06
 314  1416.312
 315  2198.285
 316  3013.341
 317  3011.144
 318  2723.984
 319  2402.604
 320  2016.47
 321  1352.891
 322  856.3696
 323  892.0531
 324  664.1697
 325  1052.923
 326  1197.627
 327  1379.898
 328  1280.673
 329  1531.233
 330  1293.395
 331  1210.63
 332  1205.067
 333  1307.375
 334  1071.035
 335  1167.871
 336  1052.562
 337  1407.086
 338  900.6469
 339  736.2846
 340  950.8854
 341  1166.434
 342  1343.856
 343  1584.455
 344  1496.005
 345  1083.656
 346  1128.268
 347  1110.431
 348  1346.594
 349  1253.79
 350  1487.073
 351  829.8945
 352  1167.735
 353  1434.74
 354  1485.629
 355  1345.446
 356  815.1153
 357  1020.892
 358  1334.785
 359  1217.169
 360  1146.627
 361  1378.66
 362  1074.808
 363  922.7555
 364  1331.857
 365  881.5329
 366  631.0981
 367  748.3638
 368  942.1698
 369  1010.505
 370  1416.34
 371  939.0109
 372  981.6992
 373  791.8414
 374  851.7463
 375  939.2501
 376  1374.749
 377  1831.289
 378  1648.402
 379  1489.745
 380  1624.867
 381  1526.723
 382  1288.886
 383  1444.855
 384  1239.93
 385  1194.979
 386  1266.189
 387  1215.63
 388  1076.229
 389  974.3483
 390  1094.138
 391  1372.048
 392  1235.016
 393  1157.955
 394  1564.847
 395  1254.176
 396  1084.372
 397  1067.879
 398  1273.347
 399  1191.685
 400  758.1091
 401  1035.721
 402  1245.681
 403  1178.912
 404  1120.144
 405  1222.962
 406  1094.746
 407  979.5951
 408  1237.794
 409  1140.557
 410  1150.872
 411  1371.969
 412  1146.405
 413  839.6533
 414  1107.115
 415  1222.587
 416  998.981
 417  1008.774
 418  1295.261
 419  1405.095
 420  1408.758
 421  1122.98
 422  994.3981
 423  897.1055
 424  1057.927
 425  1151.342
 426  1236.688
 427  1291.107
 428  1373.57
 429  1166.081
 430  1031.928
 431  954.5032
 432  1339.159
 433  1259.606
 434  1157.975
 435  1037.69
 436  597.171
 437  668.1029
 438  1015.388
 439  1039.542
 440  886.5205
 441  954.1363
 442  899.9387
 443  1067.145
 444  1343.015
 445  1391.365
 446  1070.7
 447  722.4164
 448  517.3189
 449  712.2126
 450  827.129
 451  1230.594
 452  1404.287
 453  1172.249
 454  1031.027
 455  894.6258
 456  935.4814
 457  822.6072
 458  700.0273
 459  1258.405
 460  1182.315
 461  1544.233
 462  1638.18
 463  1263.237
 464  1133.324
 465  1380.898
 466  1385.761
 467  1297.651
 468  1287.154
 469  1360.938
 470  1188.415
 471  955.2587
 472  1013.766
 473  1099.497
 474  1295.527
 475  959.2701
 476  1149.881
 477  1075.686
 478  1251.269
 479  1093.61
 480  1067.466
 481  1383.112
 482  1376.275
 483  1050.011
 484  1215.745
 485  1379.475
 486  1085.367
 487  1226.538
 488  1117.019
 489  934.054
 490  859.1617
 491  1446.655
 492  1878.407
 493  1345.865
 494  1286.644
 495  1532.197
 496  1097.152
 497  1251.069
 498  1563.701
 499  1552.606
 500  1318.672
 501  1271.824
 502  1318.502
 503  914.2891
 504  711.0881
 505  985.4717
 506  1043.109
 507  936.6486
 508  882.7303
 509  1136.629
 510  1202.035
 511  1195.539
