# Input file       =  1193089133.132607_cleaned.dat
# Candidate        =  PSR_0332+5434
# Telescope        =  AR
# Epoch_topo       =  58052.902223757024
# Epoch_bary       =  N/A
# T_sample         =  0.002
# Data Folded      =  7340032
# Data Avg         =  0.0480793357076305
# Data StdDev      =  2.48647503363597 
# Profile Bins     =  512
# Profile Avg      =  689.69094317524  
# Profile StdDev   =  297.713205652256 
# Reduced chi-sqr  =  1.224
# Prob(Noise)      <  0.000381   (~3.4 sigma)
# P_topo (ms)      =  714.491158167113  +/- 0.000286
# P'_topo (s/s)    =  -0                +/- 1.51e-10
# P''_topo (s/s^2) =  0                 +/- 6.66e-14
# P_bary (ms)      =  N/A
# P'_bary (s/s)    =  N/A
# P''_bary (s/s^2) =  N/A
# P_orb (s)        =  N/A
# asin(i)/c (s)    =  N/A
# eccentricity     =  N/A
# w (rad)          =  N/A
# T_peri           =  N/A
######################################################
   0  891.8877
   1  1109.206
   2  1009.735
   3  873.0037
   4  822.2065
   5  925.3257
   6  973.5048
   7  623.9814
   8  716.1536
   9  605.8918
  10  708.5407
  11  620.2742
  12  726.6244
  13  773.9268
  14  578.1033
  15  712.2501
  16  697.5218
  17  548.5887
  18  627.0447
  19  856.9689
  20  929.9355
  21  826.0053
  22  750.2748
  23  656.2951
  24  650.3921
  25  212.4423
  26  263.563
  27  573.1403
  28  929.037
  29  812.39
  30  504.5372
  31  768.8859
  32  682.5109
  33  700.6364
  34  803.0219
  35  886.9266
  36  898.3049
  37  567.7922
  38  671.5518
  39  597.1911
  40  633.0609
  41  245.7455
  42  90.32616
  43  466.395
  44  616.6144
  45  598.2774
  46  343.9221
  47  364.2416
  48  299.0557
  49  354.7545
  50  670.8655
  51  775.9464
  52  646.5095
  53  534.5347
  54  434.3435
  55  658.4154
  56  607.5894
  57  573.6649
  58  701.4712
  59  620.289
  60  319.2074
  61  613.4219
  62  333.6297
  63  677.7175
  64  656.8292
  65  654.9542
  66  1012.166
  67  681.9221
  68  595.6158
  69  518.1896
  70  216.8503
  71  506.6526
  72  533.9063
  73  618.5168
  74  651.2781
  75  682.6138
  76  639.1047
  77  582.6731
  78  523.9586
  79  685.7441
  80  681.8412
  81  494.1929
  82  518.3303
  83  715.2143
  84  670.4303
  85  597.4872
  86  615.0703
  87  656.0651
  88  500.4872
  89  517.5034
  90  704.7969
  91  602.1531
  92  461.5731
  93  487.4166
  94  776.767
  95  746.437
  96  658.8074
  97  647.9992
  98  483.6646
  99  354.1317
 100  304.4654
 101  535.7326
 102  510.9118
 103  419.0246
 104  181.899
 105  379.2347
 106  587.6278
 107  564.8629
 108  728.7239
 109  731.453
 110  827.428
 111  603.309
 112  676.4018
 113  594.1202
 114  581.2259
 115  481.8783
 116  718.2811
 117  641.7894
 118  768.8822
 119  714.8729
 120  680.59
 121  767.4948
 122  668.228
 123  722.246
 124  750.899
 125  878.9196
 126  646.1311
 127  529.7786
 128  532.0621
 129  567.8399
 130  539.9095
 131  355.2358
 132  658.6642
 133  581.2952
 134  487.2477
 135  184.9321
 136  512.4453
 137  513.1216
 138  313.7891
 139  151.2638
 140  288.1336
 141  501.9727
 142  779.5784
 143  443.2492
 144  341.4309
 145  264.1966
 146  485.8888
 147  736.7353
 148  557.9313
 149  396.4534
 150  638.1188
 151  895.9957
 152  855.9722
 153  707.8486
 154  980.3733
 155  955.6104
 156  460.7214
 157  529.881
 158  970.6013
 159  743.8961
 160  507.0495
 161  607.7768
 162  572.1199
 163  922.6437
 164  1084.765
 165  1129.423
 166  725.5349
 167  837.9395
 168  1039.088
 169  1288.448
 170  2107.356
 171  2408.907
 172  2350.047
 173  1854.525
 174  1224.384
 175  916.7115
 176  886.8588
 177  843.9487
 178  865.2216
 179  836.9441
 180  738.2671
 181  717.8526
 182  681.114
 183  605.9019
 184  701.3705
 185  499.4141
 186  494.8555
 187  286.6544
 188  472.3831
 189  550.804
 190  655.3426
 191  503.3931
 192  497.6277
 193  991.399
 194  1074.766
 195  761.2149
 196  906.7405
 197  546.5534
 198  388.2102
 199  544.8609
 200  525.2769
 201  555.7884
 202  555.8212
 203  512.3351
 204  675.5164
 205  648.2136
 206  724.9183
 207  633.2983
 208  478.1795
 209  826.0165
 210  829.5251
 211  802.1812
 212  790.9425
 213  487.6328
 214  489.8684
 215  484.2491
 216  403.7484
 217  377.5861
 218  489.2586
 219  837.0809
 220  895.8821
 221  924.0582
 222  678.3415
 223  935.5176
 224  979.4077
 225  1019.56
 226  698.935
 227  545.1531
 228  814.7753
 229  843.9967
 230  440.0956
 231  723.9329
 232  601.5329
 233  571.3245
 234  635.2964
 235  474.1464
 236  533.2802
 237  713.0238
 238  666.1348
 239  347.1782
 240  588.3182
 241  464.0267
 242  502.7673
 243  712.9145
 244  811.4274
 245  986.1021
 246  609.3365
 247  561.3965
 248  349.9435
 249  466.0677
 250  814.5661
 251  628.9517
 252  699.5615
 253  786.4743
 254  598.4778
 255  806.1974
 256  809.3925
 257  526.5873
 258  395.4604
 259  1089.997
 260  961.0836
 261  537.0921
 262  521.3257
 263  754.1815
 264  771.4067
 265  776.503
 266  951.4299
 267  350.7697
 268  259.4633
 269  630.2728
 270  611.3379
 271  608.6445
 272  385.9065
 273  365.1366
 274  519.2149
 275  707.9193
 276  694.3936
 277  524.2367
 278  603.8727
 279  714.248
 280  621.9088
 281  505.113
 282  580.8531
 283  406.4442
 284  368.3121
 285  367.374
 286  778.5276
 287  1216.846
 288  737.9905
 289  808.2086
 290  729.5307
 291  816.9827
 292  852.0554
 293  811.827
 294  981.501
 295  929.5653
 296  681.3051
 297  774.8559
 298  951.4224
 299  737.0414
 300  495.7443
 301  544.0168
 302  542.1257
 303  565.0955
 304  305.9482
 305  455.6123
 306  666.283
 307  774.5523
 308  748.8397
 309  869.434
 310  902.0314
 311  691.1417
 312  860.3624
 313  738.4099
 314  518.9298
 315  146.3365
 316  408.7028
 317  338.7548
 318  513.8562
 319  785.6161
 320  922.0206
 321  875.3771
 322  900.917
 323  944.5089
 324  748.4977
 325  601.2476
 326  700.1638
 327  795.5996
 328  834.1994
 329  868.2955
 330  577.0847
 331  292.4349
 332  185.3432
 333  606.3085
 334  860.7496
 335  702.0668
 336  535.6375
 337  578.5898
 338  539.5696
 339  1012.377
 340  597.1849
 341  661.5533
 342  470.6536
 343  716.7147
 344  703.8813
 345  679.6533
 346  685.6624
 347  670.6782
 348  918.5999
 349  1001.022
 350  843.9778
 351  847.4724
 352  839.8427
 353  980.6224
 354  939.2653
 355  872.954
 356  894.695
 357  795.6267
 358  738.9252
 359  891.4268
 360  1038.823
 361  781.4777
 362  661.178
 363  823.1947
 364  424.3435
 365  564.142
 366  860.8248
 367  924.1487
 368  737.6641
 369  683.8102
 370  914.2949
 371  810.5342
 372  675.2786
 373  620.7004
 374  827.5862
 375  962.1884
 376  896.2852
 377  616.3005
 378  716.7933
 379  949.4261
 380  676.5884
 381  571.2993
 382  779.058
 383  654.9431
 384  708.153
 385  567.2357
 386  788.7704
 387  982.6763
 388  1117.192
 389  1114.548
 390  1128.647
 391  537.7952
 392  621.0849
 393  864.5007
 394  622.526
 395  676.4406
 396  765.6332
 397  867.8129
 398  815.6632
 399  695.5305
 400  731.6756
 401  898.6844
 402  906.3328
 403  818.8921
 404  810.1418
 405  913.5162
 406  909.3984
 407  730.6529
 408  576.4482
 409  728.1892
 410  788.7906
 411  795.3494
 412  565.5229
 413  246.0733
 414  130.3075
 415  746.0502
 416  951.4594
 417  1030.123
 418  785.6066
 419  838.3776
 420  617.5419
 421  644.3718
 422  835.8615
 423  751.5835
 424  616.1051
 425  966.3546
 426  1166.862
 427  1021.275
 428  917.613
 429  775.4614
 430  1023.399
 431  1000.272
 432  966.2437
 433  884.9507
 434  797.1111
 435  1020.687
 436  1034.03
 437  949.5644
 438  864.912
 439  916.6697
 440  855.9156
 441  628.7164
 442  796.3965
 443  493.1906
 444  356.1842
 445  650.3337
 446  767.4752
 447  672.9288
 448  613.2042
 449  881.6501
 450  815.7054
 451  862.4086
 452  785.8721
 453  861.4672
 454  631.3857
 455  801.1288
 456  916.4982
 457  642.7726
 458  279.1377
 459  581.6264
 460  951.5775
 461  817.0084
 462  492.4615
 463  529.3976
 464  827.818
 465  758.8171
 466  677.4066
 467  787.6537
 468  695.5176
 469  610.5069
 470  985.5782
 471  825.4919
 472  601.0287
 473  628.4843
 474  573.1601
 475  608.9066
 476  303.214
 477  655.7222
 478  882.9616
 479  731.4922
 480  700.248
 481  773.619
 482  765.532
 483  701.3423
 484  709.2651
 485  512.5402
 486  707.3472
 487  651.4007
 488  495.144
 489  623.3339
 490  642.1133
 491  718.0309
 492  735.7244
 493  846.322
 494  648.3071
 495  528.5584
 496  862.0093
 497  602.4376
 498  553.0096
 499  741.1469
 500  345.5194
 501  471.3032
 502  568.3765
 503  471.484
 504  406.7949
 505  469.5192
 506  665.4177
 507  523.1969
 508  659.3694
 509  617.9157
 510  599.6578
 511  589.6037
