# Input file       =  1193519894.150377_cleaned.dat
# Candidate        =  PSR_0332+5434
# Telescope        =  AR
# Epoch_topo       =  58057.887883684918
# Epoch_bary       =  N/A
# T_sample         =  0.002
# Data Folded      =  7340032
# Data Avg         =  0.0829555315503965
# Data StdDev      =  2.73034237485947 
# Profile Bins     =  1024
# Profile Avg      =  594.584481646018 
# Profile StdDev   =  231.161821374068 
# Reduced chi-sqr  =  1.188
# Prob(Noise)      <  2.73e-05   (~4.0 sigma)
# P_topo (ms)      =  714.495611019945  +/- 0.00021
# P'_topo (s/s)    =  -0                +/- 1.11e-10
# P''_topo (s/s^2) =  0                 +/- 4.9e-14
# P_bary (ms)      =  N/A
# P'_bary (s/s)    =  N/A
# P''_bary (s/s^2) =  N/A
# P_orb (s)        =  N/A
# asin(i)/c (s)    =  N/A
# eccentricity     =  N/A
# w (rad)          =  N/A
# T_peri           =  N/A
######################################################
   0  510.727
   1  567.3456
   2  479.2288
   3  416.0484
   4  427.2175
   5  467.7071
   6  478.9281
   7  557.5192
   8  710.5267
   9  640.4523
  10  606.3737
  11  602.6517
  12  734.7881
  13  708.2611
  14  651.6747
  15  518.1198
  16  631.2229
  17  704.3803
  18  728.1
  19  713.7602
  20  608.8168
  21  569.556
  22  466.3072
  23  565.0369
  24  698.0424
  25  729.9711
  26  651.6825
  27  562.624
  28  626.2074
  29  626.3052
  30  620.4782
  31  513.6177
  32  420.5878
  33  356.1583
  34  246.6382
  35  197.2672
  36  269.7759
  37  385.9962
  38  407.8527
  39  315.854
  40  310.1016
  41  458.25
  42  571.5098
  43  524.5867
  44  505.7089
  45  497.2978
  46  552.8842
  47  468.4106
  48  469.3969
  49  524.8671
  50  532.7916
  51  526.4299
  52  588.2716
  53  680.934
  54  717.2577
  55  684.4457
  56  626.1351
  57  719.0841
  58  733.9362
  59  771.3318
  60  624.4696
  61  555.9741
  62  546.7714
  63  560.4611
  64  510.8938
  65  522.7161
  66  647.6705
  67  654.8254
  68  626.5236
  69  505.6418
  70  593.8463
  71  664.2896
  72  717.0192
  73  673.6201
  74  648.2026
  75  754.4556
  76  846.2715
  77  804.3577
  78  665.9774
  79  604.3959
  80  568.9962
  81  580.9574
  82  595.0469
  83  660.2578
  84  690.722
  85  677.5019
  86  694.2139
  87  658.7478
  88  511.6908
  89  506.2435
  90  494.2554
  91  460.878
  92  358.4619
  93  343.3082
  94  501.931
  95  577.3764
  96  589.1688
  97  629.6769
  98  671.1754
  99  669.8058
 100  595.9615
 101  557.1937
 102  548.0698
 103  536.8989
 104  531.451
 105  518.4426
 106  506.8541
 107  493.7858
 108  596.088
 109  591.2891
 110  649.7336
 111  614.7939
 112  520.7273
 113  511.885
 114  560.7219
 115  792.1658
 116  754.5677
 117  649.4544
 118  540.1349
 119  535.887
 120  563.7692
 121  507.1139
 122  624.384
 123  669.1007
 124  738.9357
 125  585.6019
 126  505.7309
 127  501.3094
 128  548.8456
 129  641.9947
 130  558.7662
 131  469.6674
 132  357.2339
 133  340.9951
 134  389.5174
 135  494.7903
 136  572.894
 137  652.8183
 138  599.7582
 139  473.2741
 140  460.8641
 141  435.4336
 142  561.8768
 143  591.312
 144  708.2598
 145  680.4312
 146  569.544
 147  506.5364
 148  508.1597
 149  502.1994
 150  421.87
 151  489.1952
 152  542.4526
 153  622.871
 154  601.9213
 155  642.6266
 156  606.1978
 157  635.922
 158  615.6483
 159  601.6392
 160  555.0546
 161  522.2857
 162  577.6798
 163  614.0104
 164  580.0238
 165  500.2493
 166  543.4413
 167  631.2697
 168  694.2855
 169  643.461
 170  652.4373
 171  639.0128
 172  630.6623
 173  648.8168
 174  608.1199
 175  542.3721
 176  516.0377
 177  439.6711
 178  395.2713
 179  352.7193
 180  481.2251
 181  578.8606
 182  618.5596
 183  495.7865
 184  429.2679
 185  351.7213
 186  342.8494
 187  374.3441
 188  570.557
 189  610.8802
 190  543.6348
 191  388.9182
 192  392.8837
 193  410.0126
 194  547.7203
 195  537.329
 196  557.867
 197  578.3794
 198  629.2083
 199  610.5635
 200  693.2314
 201  810.6197
 202  828.9498
 203  701.5376
 204  487.0234
 205  523.2313
 206  505.5464
 207  610.7297
 208  586.3533
 209  682.0523
 210  648.8475
 211  640.4228
 212  558.4106
 213  660.7875
 214  647.0052
 215  671.2924
 216  659.2241
 217  670.906
 218  687.6459
 219  645.2111
 220  529.2574
 221  442.6729
 222  412.7772
 223  509.179
 224  525.2178
 225  584.3297
 226  610.1834
 227  696.6325
 228  619.5535
 229  547.7263
 230  553.5132
 231  662.947
 232  729.4615
 233  780.813
 234  723.3669
 235  721.8261
 236  669.675
 237  694.8914
 238  630.3377
 239  601.0653
 240  675.3403
 241  795.3524
 242  795.2783
 243  636.3795
 244  510.9627
 245  501.658
 246  503.2521
 247  437.0704
 248  465.7357
 249  510.6991
 250  586.873
 251  590.1072
 252  558.4281
 253  554.7302
 254  559.7126
 255  596.9725
 256  636.9644
 257  606.6351
 258  655.7339
 259  624.7347
 260  674.4853
 261  629.7526
 262  747.0646
 263  696.7545
 264  702.1136
 265  601.0361
 266  608.3123
 267  564.736
 268  536.0545
 269  500.9938
 270  630.8721
 271  716.0858
 272  815.7941
 273  851.9751
 274  767.9395
 275  664.6223
 276  536.4735
 277  528.3508
 278  521.7057
 279  464.7884
 280  527.5384
 281  609.6343
 282  640.1443
 283  648.6578
 284  593.8961
 285  594.6705
 286  559.3517
 287  573.3964
 288  587.5456
 289  520.0678
 290  562.7493
 291  631.9295
 292  640.7178
 293  542.3222
 294  552.2078
 295  605.5898
 296  674.3126
 297  701.0994
 298  718.4753
 299  769.5376
 300  746.9838
 301  699.3171
 302  664.7787
 303  544.9752
 304  552.9525
 305  482.3134
 306  515.835
 307  563.1951
 308  651.4735
 309  659.7228
 310  684.7473
 311  654.7546
 312  663.1961
 313  620.2075
 314  524.3821
 315  609.7319
 316  653.4982
 317  661.3937
 318  486.0016
 319  458.6583
 320  509.7535
 321  545.4821
 322  564.5306
 323  542.6295
 324  530.4357
 325  398.0551
 326  429.2798
 327  501.6568
 328  534.3482
 329  526.3784
 330  422.996
 331  511.9497
 332  517.5277
 333  551.536
 334  667.5192
 335  696.5056
 336  784.6258
 337  707.5972
 338  756.8687
 339  664.3024
 340  657.0192
 341  639.6433
 342  643.0944
 343  607.257
 344  584.6763
 345  585.4836
 346  527.9622
 347  482.1256
 348  523.8279
 349  495.6277
 350  432.1719
 351  367.6807
 352  421.7786
 353  538.2275
 354  565.6534
 355  528.4752
 356  590.8568
 357  681.0752
 358  740.64
 359  699.6097
 360  641.3895
 361  629.7065
 362  616.2773
 363  623.3163
 364  679.451
 365  649.7361
 366  708.6675
 367  692.5246
 368  783.6118
 369  816.7924
 370  796.7963
 371  741.38
 372  669.6271
 373  612.3819
 374  670.6118
 375  684.0227
 376  659.8778
 377  566.8355
 378  587.2771
 379  588.4758
 380  545.086
 381  579.1727
 382  731.3688
 383  824.1996
 384  817.3669
 385  814.0027
 386  858.3506
 387  762.5717
 388  684.2687
 389  639.4528
 390  753.6807
 391  736.5386
 392  605.3601
 393  479.5773
 394  488.7104
 395  572.3899
 396  675.1428
 397  693.8053
 398  739.7363
 399  736.598
 400  604.6888
 401  548.5318
 402  670.3286
 403  806.3437
 404  773.6866
 405  626.701
 406  641.6196
 407  709.0718
 408  729.9754
 409  665.4586
 410  606.5843
 411  607.4501
 412  634.8663
 413  647.9825
 414  642.9143
 415  572.2142
 416  536.0059
 417  523.6996
 418  526.4283
 419  515.2105
 420  551.3901
 421  542.0156
 422  594.4542
 423  579.3888
 424  589.1105
 425  473.574
 426  492.8205
 427  516.3214
 428  674.7424
 429  595.8842
 430  589.6965
 431  603.6993
 432  652.7667
 433  565.3025
 434  581.2675
 435  566.9393
 436  580.9333
 437  543.3046
 438  579.3807
 439  612.3821
 440  536.3408
 441  447.9856
 442  374.3531
 443  440.8747
 444  475.1498
 445  507.1571
 446  476.9914
 447  530.4788
 448  603.9081
 449  604.2956
 450  495.5891
 451  449.909
 452  459.4261
 453  477.2243
 454  455.5736
 455  507.1336
 456  542.0653
 457  510.4059
 458  486.6556
 459  453.6425
 460  474.6064
 461  464.3244
 462  469.6591
 463  515.7404
 464  576.8348
 465  604.9475
 466  625.3812
 467  571.264
 468  588.6418
 469  588.8927
 470  674.7878
 471  744.9771
 472  760.0506
 473  726.4744
 474  606.7407
 475  573.0666
 476  641.884
 477  681.5662
 478  646.2451
 479  618.0054
 480  638.0728
 481  672.4245
 482  624.9612
 483  600.1753
 484  654.4579
 485  618.3777
 486  582.5908
 487  485.1104
 488  487.7317
 489  467.632
 490  435.7755
 491  435.7385
 492  476.7231
 493  579.7055
 494  548.7661
 495  544.092
 496  533.8431
 497  616.1802
 498  646.7093
 499  580.8418
 500  484.2563
 501  525.3661
 502  583.4407
 503  637.0146
 504  653.7289
 505  684.1731
 506  713.4445
 507  676.5905
 508  633.4935
 509  653.0806
 510  716.337
 511  742.1253
 512  634.7538
 513  633.5234
 514  619.0452
 515  626.6582
 516  553.6813
 517  656.525
 518  672.6697
 519  657.2612
 520  622.0086
 521  644.0461
 522  699.0193
 523  638.8782
 524  639.6926
 525  714.3481
 526  785.0338
 527  681.1033
 528  549.3445
 529  498.7643
 530  575.199
 531  730.8239
 532  789.4812
 533  803.7529
 534  739.8615
 535  761.2298
 536  732.9945
 537  625.7322
 538  598.6175
 539  578.328
 540  597.3256
 541  557.5859
 542  539.9954
 543  597.4143
 544  665.5228
 545  642.8553
 546  543.4446
 547  470.1308
 548  563.879
 549  619.8218
 550  669.5926
 551  643.8947
 552  703.3044
 553  560.3467
 554  492.6246
 555  501.4054
 556  623.7462
 557  677.3234
 558  620.6025
 559  531.9161
 560  607.462
 561  643.8506
 562  816.9001
 563  809.5344
 564  775.9768
 565  650.5276
 566  581.699
 567  541.0337
 568  542.9706
 569  516.442
 570  504.261
 571  434.9157
 572  419.8953
 573  438.9588
 574  470.1269
 575  494.3422
 576  518.7262
 577  542.7172
 578  593.8062
 579  560.2375
 580  509.5416
 581  466.0284
 582  429.03
 583  418.8139
 584  413.3621
 585  491.5602
 586  474.175
 587  455.6769
 588  571.8798
 589  684.4846
 590  745.692
 591  765.443
 592  785.9016
 593  752.994
 594  681.7367
 595  690.8398
 596  652.0726
 597  551.2831
 598  560.6095
 599  588.4977
 600  639.5123
 601  575.1573
 602  550.1427
 603  600.8105
 604  644.1732
 605  624.2791
 606  611.4456
 607  612.811
 608  724.5002
 609  697.2029
 610  608.6469
 611  477.4579
 612  500.5399
 613  539.6239
 614  577.2241
 615  557.4458
 616  759.2902
 617  803.4208
 618  844.7872
 619  805.6766
 620  816.5537
 621  765.0189
 622  805.6777
 623  869.2062
 624  921.618
 625  893.1191
 626  954.8647
 627  1035.796
 628  1079.516
 629  1112.392
 630  1291.69
 631  1461.067
 632  1501.526
 633  1465.796
 634  1462.874
 635  1481.893
 636  1424.818
 637  1307.48
 638  1234.619
 639  1092.786
 640  984.5186
 641  907.3314
 642  894.9617
 643  885.3784
 644  807.6484
 645  770.2272
 646  726.6869
 647  698.1411
 648  635.9586
 649  585.9553
 650  580.7909
 651  643.2974
 652  645.3078
 653  662.2747
 654  657.7982
 655  723.9387
 656  769.0204
 657  822.3712
 658  795.9528
 659  717.2339
 660  703.9384
 661  738.9664
 662  772.0284
 663  607.1041
 664  505.2906
 665  545.1074
 666  638.3849
 667  728.8687
 668  706.7404
 669  638.6774
 670  502.7213
 671  391.4813
 672  427.012
 673  541.0889
 674  593.2955
 675  642.3591
 676  681.7721
 677  713.8716
 678  624.6451
 679  528.382
 680  513.8991
 681  544.2818
 682  542.8038
 683  542.0031
 684  585.2179
 685  670.1931
 686  628.6711
 687  584.9529
 688  632.2181
 689  762.8295
 690  731.7912
 691  661.3096
 692  640.9726
 693  660.9506
 694  641.1617
 695  587.174
 696  570.7187
 697  548.0917
 698  627.9999
 699  648.751
 700  673.1924
 701  639.9615
 702  660.8818
 703  557.8969
 704  477.779
 705  520.444
 706  638.1354
 707  710.9049
 708  759.9511
 709  791.5882
 710  806.3139
 711  770.783
 712  589.1373
 713  533.4607
 714  561.5411
 715  695.0009
 716  725.8202
 717  751.1436
 718  694.3788
 719  697.0013
 720  622.264
 721  631.3303
 722  599.4292
 723  550.4641
 724  540.0983
 725  412.2504
 726  440.9561
 727  497.4446
 728  507.796
 729  554.8466
 730  571.2004
 731  700.9431
 732  750.7495
 733  747.4511
 734  641.517
 735  567.0036
 736  576.4046
 737  630.5163
 738  570.0532
 739  547.2817
 740  457.5929
 741  518.9487
 742  536.8729
 743  603.8484
 744  649.4098
 745  634.5312
 746  547.4133
 747  518.3762
 748  644.3254
 749  758.2053
 750  739.7997
 751  707.5316
 752  736.4615
 753  771.6077
 754  773.3405
 755  770.7468
 756  688.1841
 757  620.5162
 758  592.1893
 759  635.1693
 760  620.4304
 761  581.5147
 762  510.6006
 763  478.2579
 764  499.3817
 765  513.558
 766  486.6195
 767  479.4147
 768  477.147
 769  452.2448
 770  389.5422
 771  381.9814
 772  434.1367
 773  409.6048
 774  394.1742
 775  404.2028
 776  401.1727
 777  464.2523
 778  602.1871
 779  757.7986
 780  781.0233
 781  683.9877
 782  644.9196
 783  655.106
 784  666.2101
 785  686.2731
 786  738.5969
 787  660.213
 788  632.1477
 789  693.4778
 790  676.3296
 791  644.2769
 792  507.4182
 793  552.9191
 794  517.8569
 795  600.4893
 796  586.2953
 797  608.442
 798  518.4245
 799  507.5109
 800  506.7679
 801  477.9431
 802  535.3224
 803  515.0165
 804  483.7203
 805  431.0325
 806  401.6581
 807  436.0475
 808  438.732
 809  438.2581
 810  498.085
 811  581.0402
 812  626.7817
 813  577.2726
 814  592.707
 815  654.3975
 816  742.2985
 817  762.4517
 818  888.9676
 819  955.3721
 820  898.6966
 821  794.4362
 822  682.7081
 823  604.3242
 824  570.9354
 825  543.5522
 826  573.0333
 827  558.7189
 828  518.554
 829  485.2055
 830  399.486
 831  405.6747
 832  533.5516
 833  612.1913
 834  640.2018
 835  552.7684
 836  562.8448
 837  533.3652
 838  454.8376
 839  433.7838
 840  372.6242
 841  324.3128
 842  388.0327
 843  564.4364
 844  701.6592
 845  676.7871
 846  714.5034
 847  711.2329
 848  665.855
 849  572.987
 850  476.1444
 851  508.6261
 852  520.1119
 853  591.8936
 854  471.3569
 855  566.0905
 856  579.9775
 857  667.7992
 858  615.0372
 859  532.7573
 860  328.0421
 861  281.7152
 862  385.5341
 863  471.1891
 864  431.3349
 865  455.2376
 866  531.622
 867  603.3223
 868  567.9438
 869  491.5936
 870  404.908
 871  480.311
 872  527.6768
 873  449.1905
 874  374.8613
 875  417.7421
 876  471.8319
 877  433.8428
 878  411.5643
 879  520.9089
 880  665.0575
 881  693.5251
 882  736.9057
 883  698.4337
 884  612.5051
 885  515.9811
 886  533.6721
 887  636.5955
 888  610.6163
 889  502.8899
 890  410.5411
 891  502.8927
 892  587.4223
 893  573.324
 894  596.5114
 895  572.1559
 896  554.1302
 897  479.6749
 898  568.7439
 899  696.3433
 900  682.811
 901  652.5817
 902  561.496
 903  514.8606
 904  356.6673
 905  318.9366
 906  370.7979
 907  464.5247
 908  457.8956
 909  451.6917
 910  493.142
 911  570.7552
 912  615.2803
 913  579.779
 914  552.3072
 915  568.9186
 916  542.8027
 917  563.4761
 918  537.5041
 919  479.9267
 920  401.1958
 921  388.8857
 922  422.4553
 923  439.2762
 924  373.477
 925  395.4325
 926  359.896
 927  421.8599
 928  400.0815
 929  484.395
 930  505.1499
 931  513.4813
 932  526.8276
 933  534.6653
 934  568.5944
 935  598.0586
 936  553.397
 937  562.2685
 938  552.428
 939  516.9058
 940  559.2582
 941  638.1809
 942  658.8497
 943  498.8393
 944  474.0122
 945  514.8821
 946  598.5422
 947  621.7154
 948  593.6829
 949  620.7194
 950  598.1273
 951  615.1534
 952  479.4291
 953  420.5633
 954  478.7432
 955  548.8899
 956  566.5163
 957  462.7325
 958  407.6481
 959  294.7759
 960  276.7159
 961  275.7095
 962  359.8078
 963  356.2401
 964  357.3392
 965  435.9675
 966  530.2861
 967  630.1857
 968  607.7768
 969  566.5588
 970  463.914
 971  544.0156
 972  494.6551
 973  521.4116
 974  488.0225
 975  534.3754
 976  638.7145
 977  688.4896
 978  717.9599
 979  650.1133
 980  514.2527
 981  465.9259
 982  491.8388
 983  565.4899
 984  482.6552
 985  462.6007
 986  509.7075
 987  713.5311
 988  696.5398
 989  735.391
 990  626.5491
 991  625.8907
 992  553.3789
 993  513.4724
 994  488.1392
 995  568.4813
 996  640.0807
 997  677.3766
 998  679.3632
 999  581.2469
1000  420.6264
1001  297.8121
1002  274.9311
1003  390.4956
1004  489.0074
1005  537.5248
1006  535.3174
1007  564.3697
1008  593.1949
1009  604.0641
1010  572.6851
1011  578.5017
1012  572.4368
1013  510.3368
1014  365.1355
1015  294.3889
1016  390.0749
1017  486.2428
1018  534.9861
1019  497.052
1020  497.0824
1021  554.3159
1022  567.4556
1023  531.7132
