# Input file       =  1193433754.154644_cleaned.dat
# Candidate        =  PSR_0332+5434
# Telescope        =  AR
# Epoch_topo       =  58056.890892993564
# Epoch_bary       =  N/A
# T_sample         =  0.002
# Data Folded      =  7340032
# Data Avg         =  0.0561478069555181
# Data StdDev      =  2.74118545457275 
# Profile Bins     =  1024
# Profile Avg      =  402.328939040602 
# Profile StdDev   =  232.079840329825 
# Reduced chi-sqr  =  0.922
# Prob(Noise)      <  0.963   (~0.0 sigma)
# P_topo (ms)      =  714.4947046846    +/- 0.000637
# P'_topo (s/s)    =  -0                +/- 3.36e-10
# P''_topo (s/s^2) =  0                 +/- 1.48e-13
# P_bary (ms)      =  N/A
# P'_bary (s/s)    =  N/A
# P''_bary (s/s^2) =  N/A
# P_orb (s)        =  N/A
# asin(i)/c (s)    =  N/A
# eccentricity     =  N/A
# w (rad)          =  N/A
# T_peri           =  N/A
######################################################
   0  147.7964
   1  179.4366
   2  175.6082
   3  253.0279
   4  238.1826
   5  345.7891
   6  314.602
   7  364.4561
   8  424.8655
   9  479.8591
  10  453.7666
  11  459.0723
  12  445.9795
  13  467.2087
  14  402.8527
  15  353.8167
  16  254.1212
  17  303.092
  18  369.2092
  19  346.8082
  20  379.8492
  21  404.3326
  22  445.3537
  23  316.5454
  24  303.6953
  25  264.008
  26  300.4827
  27  327.6173
  28  450.1478
  29  444.3523
  30  383.6923
  31  360.4406
  32  392.1119
  33  355.7014
  34  330.6253
  35  253.0609
  36  254.475
  37  251.419
  38  288.6819
  39  292.876
  40  257.7961
  41  262.3054
  42  289.3288
  43  489.8374
  44  555.639
  45  524.2704
  46  453.982
  47  393.2589
  48  349.3911
  49  307.5171
  50  304.6874
  51  353.0122
  52  316.1785
  53  221.0123
  54  155.7466
  55  145.1473
  56  142.3767
  57  404.4034
  58  545.8262
  59  514.88
  60  270.4491
  61  315.4323
  62  412.7348
  63  419.8201
  64  310.7831
  65  318.5968
  66  393.0487
  67  332.3296
  68  402.6377
  69  377.9071
  70  349.0393
  71  275.6484
  72  228.3329
  73  356.5072
  74  364.0155
  75  337.3804
  76  382.2787
  77  465.8968
  78  556.6273
  79  493.8014
  80  437.1753
  81  418.1894
  82  349.0038
  83  245.9707
  84  259.1676
  85  261.8906
  86  349.5876
  87  406.4411
  88  461.7084
  89  515.7806
  90  577.2812
  91  623.0739
  92  587.3878
  93  501.2105
  94  432.98
  95  389.7879
  96  388.784
  97  431.2478
  98  417.629
  99  351.4409
 100  382.4727
 101  348.2359
 102  414.8804
 103  399.8508
 104  429.1807
 105  529.256
 106  639.6821
 107  599.5759
 108  508.2978
 109  334.6114
 110  374.3476
 111  416.426
 112  513.8455
 113  499.3191
 114  414.1488
 115  293.0674
 116  253.574
 117  258.9841
 118  361.1053
 119  416.2607
 120  386.8115
 121  426.8209
 122  343.8521
 123  346.2813
 124  268.2947
 125  304.7458
 126  383.7531
 127  435.2662
 128  480.1278
 129  392.9308
 130  381.9677
 131  331.5836
 132  375.3681
 133  363.1509
 134  441.0992
 135  435.518
 136  456.433
 137  461.5847
 138  551.4916
 139  581.8126
 140  493.9251
 141  460.8189
 142  472.2532
 143  460.2132
 144  402.6957
 145  354.5076
 146  457.0766
 147  393.171
 148  468.627
 149  455.0292
 150  445.5742
 151  382.12
 152  234.1452
 153  173.7305
 154  167.8534
 155  239.7162
 156  322.4633
 157  268.8165
 158  282.2426
 159  400.0671
 160  450.1068
 161  358.8211
 162  315.5326
 163  392.2751
 164  408.0578
 165  301.1027
 166  175.4283
 167  307.1586
 168  436.5573
 169  502.381
 170  416.5261
 171  369.1658
 172  267.0737
 173  271.0694
 174  291.1381
 175  438.6543
 176  459.7963
 177  487.1176
 178  467.0134
 179  416.9337
 180  313.2992
 181  270.0316
 182  252.5573
 183  324.2044
 184  405.7287
 185  458.0286
 186  489.9342
 187  416.4648
 188  313.2681
 189  192.6508
 190  185.7029
 191  324.457
 192  397.171
 193  400.5099
 194  459.1548
 195  453.4405
 196  453.1889
 197  397.4492
 198  356.0598
 199  362.5103
 200  284.7052
 201  437.4143
 202  458.5753
 203  388.4993
 204  234.2827
 205  284.0725
 206  444.796
 207  556.2884
 208  464.5664
 209  394.9456
 210  452.892
 211  497.3277
 212  422.0951
 213  341.1975
 214  321.0518
 215  388.5159
 216  400.4237
 217  362.0332
 218  251.0496
 219  294.4028
 220  378.4896
 221  483.9119
 222  364.5346
 223  378.2758
 224  479.2264
 225  529.4901
 226  436.3492
 227  424.6463
 228  466.0005
 229  542.5135
 230  572.2561
 231  581.5255
 232  661.9704
 233  592.9582
 234  529.6166
 235  379.837
 236  367.6681
 237  335.5085
 238  351.3157
 239  392.4142
 240  504.6551
 241  543.1469
 242  480.4363
 243  434.5777
 244  481.6668
 245  510.9845
 246  504.4837
 247  435.76
 248  481.4715
 249  482.6572
 250  441.4876
 251  380.37
 252  422.9436
 253  458.32
 254  362.6783
 255  294.4052
 256  293.8556
 257  453.4888
 258  499.4395
 259  455.2495
 260  417.6293
 261  389.5479
 262  421.3857
 263  465.8557
 264  467.8151
 265  377.888
 266  362.6901
 267  423.3326
 268  551.032
 269  554.5617
 270  541.2168
 271  483.3771
 272  450.5687
 273  380.8358
 274  354.4951
 275  451.4826
 276  429.0235
 277  376.8557
 278  263.404
 279  299.5193
 280  324.2179
 281  358.3153
 282  319.9641
 283  316.776
 284  258.0232
 285  277.7637
 286  295.3495
 287  356.444
 288  434.4537
 289  343.127
 290  407.9074
 291  419.9912
 292  532.5793
 293  497.4374
 294  509.6238
 295  522.6019
 296  541.4073
 297  642.9758
 298  526.9071
 299  422.4703
 300  207.8535
 301  355.2105
 302  317.429
 303  292.0522
 304  227.9585
 305  290.3557
 306  380.8528
 307  422.9458
 308  451.903
 309  514.2188
 310  456.6259
 311  432.4736
 312  361.7215
 313  293.7129
 314  322.2681
 315  475.3609
 316  661.3078
 317  638.4489
 318  464.6053
 319  314.4406
 320  309.7188
 321  382.1878
 322  435.8049
 323  447.2603
 324  451.9828
 325  446.8939
 326  484.3405
 327  418.0046
 328  485.1574
 329  483.3367
 330  525.7325
 331  415.7363
 332  269.5144
 333  244.1224
 334  231.9263
 335  328.5762
 336  279.2681
 337  314.402
 338  331.6734
 339  315.0445
 340  250.2164
 341  165.6471
 342  216.7016
 343  233.0584
 344  229.3151
 345  327.0248
 346  329.1927
 347  386.9887
 348  350.1926
 349  347.2333
 350  382.4037
 351  327.8297
 352  335.5239
 353  238.9412
 354  227.1758
 355  173.694
 356  307.0934
 357  356.8003
 358  446.2996
 359  343.9684
 360  332.0974
 361  333.1556
 362  404.8662
 363  556.9589
 364  530.9475
 365  505.3077
 366  375.5617
 367  338.911
 368  400.0968
 369  463.3323
 370  450.2533
 371  451.5147
 372  423.1901
 373  416.5874
 374  358.7002
 375  359.9702
 376  408.3337
 377  479.4996
 378  576.7374
 379  561.6094
 380  420.9722
 381  307.3176
 382  301.968
 383  362.4749
 384  424.7893
 385  551.3398
 386  542.2708
 387  545.9436
 388  477.6673
 389  503.7183
 390  560.7485
 391  524.4448
 392  452.9759
 393  416.3193
 394  515.0273
 395  542.8279
 396  511.0495
 397  494.9376
 398  532.9174
 399  506.7704
 400  367.0331
 401  281.2048
 402  259.9522
 403  299.2578
 404  341.1436
 405  284.5397
 406  414.4745
 407  454.3511
 408  594.4742
 409  552.2016
 410  452.2214
 411  434.0171
 412  431.2824
 413  483.2399
 414  475.9722
 415  526.8487
 416  547.61
 417  468.9532
 418  401.7741
 419  335.5508
 420  359.3225
 421  347.0244
 422  424.2951
 423  371.7946
 424  330.4584
 425  338.988
 426  408.761
 427  450.2007
 428  516.1968
 429  567.6813
 430  505.1688
 431  427.0839
 432  371.2498
 433  342.6926
 434  222.9307
 435  200.1204
 436  315.377
 437  448.7181
 438  581.597
 439  602.3263
 440  531.1813
 441  385.834
 442  340.1776
 443  390.4121
 444  444.0086
 445  304.5363
 446  248.5364
 447  221.1126
 448  294.9629
 449  399.5276
 450  535.8366
 451  623.0464
 452  518.8057
 453  358.3146
 454  287.4243
 455  416.3063
 456  448.1099
 457  480.8332
 458  435.5696
 459  516.9197
 460  521.8317
 461  484.8778
 462  414.0223
 463  456.8179
 464  492.459
 465  473.0222
 466  381.3064
 467  354.9835
 468  472.4305
 469  596.4985
 470  575.6974
 471  442.557
 472  445.745
 473  401.2062
 474  434.7085
 475  290.7031
 476  309.6856
 477  257.5155
 478  315.0174
 479  283.3723
 480  332.6875
 481  470.4844
 482  492.1115
 483  441.3607
 484  415.8849
 485  440.1884
 486  489.4847
 487  481.5594
 488  538.036
 489  492.5787
 490  505.0292
 491  404.2753
 492  382.9666
 493  457.8441
 494  462.5043
 495  373.8894
 496  290.8
 497  418.9552
 498  536.9318
 499  513.0016
 500  432.3535
 501  427.7799
 502  350.3914
 503  280.5356
 504  178.6825
 505  185.1225
 506  251.767
 507  392.4136
 508  308.1884
 509  235.5295
 510  200.658
 511  377.1873
 512  340.2428
 513  240.1813
 514  233.5081
 515  284.2417
 516  318.8662
 517  311.8276
 518  315.415
 519  364.8864
 520  278.1965
 521  316.9847
 522  410.0812
 523  466.7527
 524  503.7276
 525  489.5558
 526  540.475
 527  473.226
 528  351.939
 529  316.3397
 530  303.6918
 531  331.1857
 532  293.5093
 533  391.8989
 534  308.3666
 535  319.3029
 536  360.4809
 537  427.6584
 538  428.7698
 539  280.8178
 540  284.8588
 541  304.7744
 542  418.568
 543  436.1006
 544  428.2761
 545  393.6289
 546  336.8815
 547  238.1336
 548  284.4703
 549  309.4954
 550  377.4953
 551  440.7204
 552  569.753
 553  604.6534
 554  499.2
 555  412.0282
 556  395.375
 557  429.4886
 558  492.6414
 559  529.3661
 560  562.5515
 561  372.8818
 562  337.8487
 563  312.8884
 564  349.9637
 565  318.8007
 566  303.8979
 567  288.2271
 568  349.0993
 569  479.6129
 570  506.0259
 571  352.9099
 572  229.2746
 573  237.8141
 574  284.5876
 575  210.042
 576  193.8092
 577  213.9447
 578  294.2397
 579  330.6797
 580  321.5878
 581  384.4861
 582  353.258
 583  288.1169
 584  264.4169
 585  359.4309
 586  446.6104
 587  476.1296
 588  492.1758
 589  530.2472
 590  534.0818
 591  457.3503
 592  364.5736
 593  408.3058
 594  487.3559
 595  392.0198
 596  375.5436
 597  301.4643
 598  379.0318
 599  241.8246
 600  365.7833
 601  416.6112
 602  355.6043
 603  290.7908
 604  294.3598
 605  428.3488
 606  369.97
 607  389.2521
 608  494.9308
 609  546.0598
 610  463.1506
 611  392.2427
 612  464.1923
 613  570.912
 614  688.4302
 615  658.9724
 616  571.5314
 617  458.3242
 618  574.6727
 619  682.4299
 620  663.3957
 621  562.3535
 622  537.1227
 623  503.758
 624  523.6025
 625  589.9974
 626  632.9982
 627  737.81
 628  774.0131
 629  860.1765
 630  911.5818
 631  979.048
 632  1083.785
 633  1137.251
 634  1152.706
 635  1042.626
 636  1129.993
 637  1157.417
 638  1043.361
 639  877.6741
 640  779.8063
 641  699.6534
 642  539.1501
 643  415.4267
 644  374.3506
 645  406.9027
 646  477.729
 647  524.2977
 648  423.6346
 649  312.7574
 650  325.8331
 651  395.3137
 652  393.0164
 653  437.4861
 654  521.006
 655  539.7114
 656  379.9202
 657  310.6561
 658  420.7563
 659  477.8331
 660  474.1757
 661  504.4349
 662  527.2695
 663  443.3573
 664  417.9067
 665  409.9891
 666  460.8526
 667  412.7837
 668  350.5303
 669  273.9636
 670  308.5831
 671  360.2964
 672  354.9388
 673  305.3961
 674  222.1669
 675  254.5554
 676  338.4208
 677  426.5315
 678  399.249
 679  314.383
 680  311.7052
 681  297.2893
 682  219.0109
 683  204.6765
 684  320.2503
 685  470.7545
 686  559.2248
 687  496.3895
 688  482.6415
 689  484.9484
 690  452.7706
 691  335.0645
 692  247.7
 693  223.0189
 694  285.1245
 695  276.9023
 696  340.5399
 697  374.925
 698  311.61
 699  295.5672
 700  409.2545
 701  549.3842
 702  556.4497
 703  358.2148
 704  228.008
 705  164.0469
 706  96.99471
 707  117.8331
 708  91.64915
 709  227.6356
 710  351.2822
 711  486.2408
 712  417.4861
 713  385.8834
 714  369.2711
 715  454.2719
 716  438.4908
 717  427.366
 718  409.1797
 719  376.2162
 720  407.8829
 721  403.0358
 722  435.462
 723  400.8
 724  356.0321
 725  267.8843
 726  410.6229
 727  476.9681
 728  483.4276
 729  388.0091
 730  322.2512
 731  269.1726
 732  246.7622
 733  233.34
 734  283.6196
 735  323.61
 736  398.2804
 737  482.6778
 738  356.8893
 739  251.9135
 740  218.6586
 741  375.8387
 742  475.8321
 743  521.986
 744  501.7066
 745  506.8345
 746  455.4228
 747  395.5837
 748  436.2058
 749  566.4415
 750  613.7022
 751  504.981
 752  351.2913
 753  254.0099
 754  272.8837
 755  271.1278
 756  382.5343
 757  400.4086
 758  505.2897
 759  579.6356
 760  580.0625
 761  483.2173
 762  303.0323
 763  224.6311
 764  324.1069
 765  403.092
 766  461.8851
 767  351.1062
 768  337.0969
 769  322.0629
 770  431.0923
 771  462.9851
 772  546.7535
 773  553.7433
 774  510.8527
 775  411.4247
 776  277.2374
 777  352.5426
 778  333.7895
 779  469.5062
 780  485.8424
 781  440.0858
 782  314.5476
 783  306.6829
 784  331.5955
 785  375.2459
 786  347.5443
 787  343.2851
 788  287.7724
 789  294.8406
 790  244.6306
 791  251.7041
 792  145.487
 793  182.7001
 794  178.0695
 795  310.898
 796  377.2187
 797  430.6986
 798  358.0071
 799  300.0072
 800  280.7784
 801  347.0431
 802  385.7232
 803  252.0331
 804  198.8092
 805  199.025
 806  341.975
 807  295.5149
 808  312.5884
 809  342.2882
 810  379.8684
 811  403.9552
 812  359.0457
 813  422.0365
 814  341.9072
 815  334.804
 816  275.8028
 817  377.3555
 818  424.2057
 819  380.2733
 820  305.9363
 821  307.6765
 822  350.9933
 823  307.3001
 824  294.5079
 825  364.4578
 826  527.9121
 827  544.1736
 828  443.8347
 829  377.4612
 830  328.6
 831  430.0072
 832  487.0923
 833  530.3058
 834  462.8708
 835  338.822
 836  235.5984
 837  234.3584
 838  292.7742
 839  384.7746
 840  350.2932
 841  354.3845
 842  329.5194
 843  384.8264
 844  391.2647
 845  375.6232
 846  307.5554
 847  382.7301
 848  530.8775
 849  660.1908
 850  597.7625
 851  378.1726
 852  247.0712
 853  264.1981
 854  379.7234
 855  322.3682
 856  293.3658
 857  251.3453
 858  234.2197
 859  102.4561
 860  102.8279
 861  218.8908
 862  364.3256
 863  520.2341
 864  582.4907
 865  486.2499
 866  419.2542
 867  379.7769
 868  372.4395
 869  299.7378
 870  229.5493
 871  247.1547
 872  311.1122
 873  324.084
 874  346.2328
 875  342.2295
 876  438.6743
 877  416.7393
 878  407.8069
 879  428.0484
 880  525.3016
 881  488.1193
 882  321.4002
 883  215.2165
 884  249.7169
 885  339.4631
 886  326.3035
 887  301.4831
 888  360.8617
 889  378.8991
 890  482.2995
 891  447.9102
 892  518.4323
 893  483.1913
 894  378.7752
 895  303.3983
 896  304.5769
 897  330.0083
 898  378.157
 899  455.1327
 900  455.8651
 901  490.1546
 902  462.9594
 903  484.2775
 904  401.0378
 905  376.4967
 906  487.3256
 907  506.819
 908  521.3622
 909  457.6255
 910  455.4069
 911  427.2754
 912  402.4329
 913  396.3065
 914  386.7407
 915  435.4639
 916  453.1781
 917  382.9319
 918  361.6389
 919  355.9886
 920  339.1634
 921  360.3526
 922  399.6944
 923  424.4159
 924  349.5432
 925  391.9392
 926  378.4267
 927  403.8894
 928  374.1778
 929  391.7739
 930  318.5634
 931  359.2306
 932  351.4141
 933  389.2986
 934  354.2666
 935  437.6977
 936  483.4941
 937  441.3238
 938  441.2911
 939  415.4752
 940  485.117
 941  524.7322
 942  586.5442
 943  662.7183
 944  559.2745
 945  534.0352
 946  502.6341
 947  544.7476
 948  495.0287
 949  530.6117
 950  420.3007
 951  294.7591
 952  294.1857
 953  468.4926
 954  467.4995
 955  282.2664
 956  243.5855
 957  345.4664
 958  484.181
 959  563.467
 960  578.4946
 961  587.8621
 962  483.8204
 963  421.0442
 964  438.7196
 965  485.7878
 966  543.1334
 967  436.351
 968  462.6586
 969  411.7771
 970  308.0084
 971  297.0126
 972  292.457
 973  438.4509
 974  423.3784
 975  455.3791
 976  349.4186
 977  431.5241
 978  459.4405
 979  469.3508
 980  300.049
 981  354.3099
 982  409.8245
 983  490.8239
 984  440.2585
 985  348.0193
 986  383.3396
 987  444.5056
 988  519.105
 989  400.6135
 990  275.1392
 991  314.9927
 992  480.2069
 993  563.6321
 994  578.3982
 995  540.3611
 996  462.4623
 997  465.557
 998  506.8383
 999  501.253
1000  425.8552
1001  478.7402
1002  553.1971
1003  506.8689
1004  319.2123
1005  229.484
1006  282.486
1007  348.186
1008  415.367
1009  407.1361
1010  508.5004
1011  511.0991
1012  374.5836
1013  296.807
1014  259.8447
1015  328.0069
1016  360.1076
1017  377.2371
1018  383.8116
1019  541.8665
1020  590.4874
1021  559.8369
1022  389.6888
1023  257.5612
