# Input file       =  1193074493.154612_cleaned.dat
# Candidate        =  PSR_0332+5434
# Telescope        =  AR
# Epoch_topo       =  58052.732779567268
# Epoch_bary       =  N/A
# T_sample         =  0.002
# Data Folded      =  7208960
# Data Avg         =  0.00741637188376971
# Data StdDev      =  1.00020956331974 
# Profile Bins     =  512
# Profile Avg      =  104.411630824667 
# Profile StdDev   =  118.684042404327 
# Reduced chi-sqr  =  1.390
# Prob(Noise)      <  1.17e-08   (~5.6 sigma)
# P_topo (ms)      =  714.49099914551   +/- 0.000146
# P'_topo (s/s)    =  -0                +/- 7.83e-11
# P''_topo (s/s^2) =  0                 +/- 3.52e-14
# P_bary (ms)      =  N/A
# P'_bary (s/s)    =  N/A
# P''_bary (s/s^2) =  N/A
# P_orb (s)        =  N/A
# asin(i)/c (s)    =  N/A
# eccentricity     =  N/A
# w (rad)          =  N/A
# T_peri           =  N/A
######################################################
   0  -2.453852
   1  145.9265
   2  210.9704
   3  51.35798
   4  160.5982
   5  121.5176
   6  5.802284
   7  35.94686
   8  122.4995
   9  118.913
  10  135.557
  11  49.11376
  12  115.7896
  13  184.5969
  14  75.84828
  15  46.96022
  16  118.3967
  17  78.07899
  18  90.24313
  19  57.86602
  20  52.24008
  21  163.6308
  22  102.1502
  23  66.72751
  24  37.68209
  25  108.7221
  26  130.9453
  27  122.6679
  28  119.1414
  29  164.4475
  30  184.2469
  31  153.753
  32  104.2843
  33  -69.91617
  34  23.55668
  35  66.61223
  36  -49.57593
  37  47.60155
  38  -6.040523
  39  -63.49425
  40  -26.9748
  41  60.81062
  42  48.70976
  43  67.91113
  44  77.72215
  45  159.3582
  46  46.80635
  47  -21.39392
  48  -31.36515
  49  -54.46673
  50  76.18507
  51  200.6761
  52  224.126
  53  85.06355
  54  95.57535
  55  255.0893
  56  99.67735
  57  91.55203
  58  37.92886
  59  152.0771
  60  231.2498
  61  173.9567
  62  48.45452
  63  95.05821
  64  116.9196
  65  109.1368
  66  63.72628
  67  79.16467
  68  153.5134
  69  164.3407
  70  42.45514
  71  -51.20492
  72  -52.69136
  73  147.3209
  74  139.4244
  75  167.4911
  76  102.4399
  77  92.6137
  78  79.22499
  79  62.09437
  80  79.372
  81  66.29455
  82  -0.5936348
  83  22.26397
  84  93.71629
  85  129.4604
  86  121.5046
  87  130.7357
  88  74.5841
  89  -111.5505
  90  -130.3209
  91  -2.150318
  92  146.1549
  93  227.2658
  94  140.8518
  95  -14.31431
  96  80.07957
  97  14.69047
  98  99.90933
  99  213.1193
 100  228.7816
 101  99.785
 102  30.83691
 103  116.7157
 104  106.4893
 105  63.94321
 106  121.8538
 107  92.20322
 108  121.2569
 109  86.69511
 110  164.5212
 111  239.9523
 112  186.2633
 113  147.0167
 114  47.02222
 115  31.10587
 116  -42.67694
 117  13.25923
 118  -36.16188
 119  -45.71037
 120  144.3592
 121  170.0301
 122  81.29079
 123  39.77264
 124  106.8945
 125  133.871
 126  135.0562
 127  271.6034
 128  201.0059
 129  109.6976
 130  37.2289
 131  69.22854
 132  108.9157
 133  31.324
 134  91.2002
 135  176.8848
 136  181.1807
 137  121.5759
 138  137.6772
 139  229.5838
 140  194.5224
 141  165.7755
 142  184.1408
 143  157.6056
 144  137.9497
 145  78.96848
 146  104.1693
 147  25.61331
 148  -61.41979
 149  41.47219
 150  110.0244
 151  77.08197
 152  123.9427
 153  214.0758
 154  22.67549
 155  -53.97052
 156  33.16616
 157  69.77406
 158  105.3794
 159  109.9721
 160  108.7475
 161  122.2869
 162  104.2524
 163  91.94328
 164  77.49764
 165  38.57272
 166  -23.60663
 167  73.8195
 168  266.2882
 169  122.3525
 170  130.3479
 171  6.979765
 172  -12.17863
 173  -15.93717
 174  45.73569
 175  217.9933
 176  124.7777
 177  -48.53733
 178  -28.11233
 179  206.5257
 180  216.0489
 181  1.889142
 182  58.50109
 183  44.80908
 184  22.7985
 185  63.98574
 186  156.9061
 187  83.60058
 188  -66.20288
 189  -42.30382
 190  -89.22998
 191  55.06199
 192  192.2551
 193  278.5136
 194  247.8044
 195  118.3183
 196  90.40905
 197  85.50851
 198  138.2698
 199  -45.33451
 200  -6.146279
 201  71.41153
 202  36.52982
 203  -80.48055
 204  69.58103
 205  172.5732
 206  205.715
 207  215.6962
 208  266.6126
 209  496.0685
 210  653.0196
 211  811.5494
 212  938.24
 213  664.0629
 214  360.5815
 215  320.1765
 216  211.3368
 217  87.88573
 218  180.2984
 219  205.2136
 220  118.628
 221  88.91495
 222  95.30779
 223  94.5719
 224  131.8887
 225  190.4982
 226  246.0956
 227  230.6411
 228  257.4672
 229  101.4278
 230  102.6924
 231  -47.93093
 232  84.43311
 233  127.5711
 234  63.10812
 235  -18.26566
 236  87.35009
 237  -11.78017
 238  -75.4285
 239  53.72206
 240  -13.02547
 241  12.63597
 242  102.6418
 243  247.8577
 244  237.7789
 245  260.0176
 246  105.4255
 247  51.88461
 248  202.9624
 249  127.979
 250  132.1541
 251  92.93242
 252  107.5135
 253  24.5919
 254  76.15589
 255  14.95194
 256  135.3941
 257  168.9165
 258  187.0165
 259  -15.35241
 260  11.29837
 261  158.7774
 262  190.2205
 263  242.699
 264  -11.21628
 265  -11.23643
 266  101.5374
 267  122.4223
 268  68.3306
 269  -16.58643
 270  -60.73584
 271  33.22919
 272  78.78461
 273  39.94099
 274  -18.37238
 275  36.67027
 276  43.65196
 277  8.085297
 278  -34.56786
 279  116.8485
 280  65.07705
 281  23.30979
 282  32.24232
 283  36.20053
 284  18.60981
 285  77.73225
 286  141.9662
 287  146.0807
 288  83.14758
 289  49.86168
 290  107.1223
 291  214.0833
 292  69.98669
 293  37.61453
 294  149.787
 295  211.8966
 296  93.53211
 297  32.20772
 298  217.1447
 299  142.826
 300  7.390424
 301  91.26779
 302  128.7744
 303  218.5722
 304  168.9269
 305  -8.842785
 306  77.00952
 307  105.4451
 308  221.4852
 309  130.8641
 310  90.94815
 311  145.4022
 312  101.453
 313  176.6061
 314  44.497
 315  73.6348
 316  148.8121
 317  217.2418
 318  156.1577
 319  40.43788
 320  87.50419
 321  -7.197452
 322  111.3993
 323  37.41021
 324  102.7088
 325  219.1792
 326  210.7648
 327  35.67596
 328  42.40179
 329  165.3716
 330  183.7747
 331  115.23
 332  240.1225
 333  174.4112
 334  77.31454
 335  98.70481
 336  151.2948
 337  122.4569
 338  49.5564
 339  15.16943
 340  -14.71013
 341  36.23376
 342  51.14201
 343  87.88548
 344  132.3782
 345  168.0799
 346  155.4452
 347  119.2384
 348  153.1104
 349  191.3252
 350  73.2782
 351  51.47062
 352  119.6834
 353  71.96333
 354  -6.118132
 355  94.994
 356  179.8185
 357  154.8161
 358  101.9097
 359  56.49383
 360  70.22907
 361  163.3579
 362  172.2924
 363  77.7202
 364  -74.77264
 365  -63.45024
 366  150.978
 367  283.8376
 368  126.521
 369  44.75634
 370  121.871
 371  85.32742
 372  25.75386
 373  28.28016
 374  113.0117
 375  206.4828
 376  37.88084
 377  -43.68302
 378  116.5713
 379  -0.5520599
 380  47.48878
 381  87.05545
 382  173.2182
 383  277.4223
 384  128.1655
 385  251.206
 386  191.5213
 387  179.2215
 388  155.8831
 389  130.8063
 390  110.0112
 391  119.7153
 392  66.64235
 393  4.081468
 394  113.5991
 395  32.93563
 396  72.73425
 397  31.14548
 398  33.79453
 399  79.298
 400  227.8268
 401  134.9152
 402  -23.53402
 403  15.26534
 404  -81.21455
 405  24.27305
 406  172.8014
 407  157.9649
 408  163.2479
 409  146.1945
 410  68.994
 411  8.346517
 412  37.58794
 413  37.68725
 414  11.42269
 415  84.8696
 416  87.79436
 417  72.63041
 418  53.23117
 419  226.6739
 420  122.4393
 421  11.43188
 422  149.2326
 423  141.4755
 424  150.8118
 425  172.1181
 426  38.1515
 427  51.20018
 428  100.9991
 429  128.9466
 430  49.76467
 431  124.6463
 432  166.5411
 433  81.72276
 434  142.036
 435  159.1996
 436  76.86748
 437  212.4168
 438  120.8413
 439  109.1214
 440  153.6517
 441  152.145
 442  281.153
 443  159.6949
 444  136.0607
 445  45.28248
 446  81.00709
 447  63.28088
 448  13.13665
 449  -53.27895
 450  102.3311
 451  284.3273
 452  175.6961
 453  28.04024
 454  80.47539
 455  -43.305
 456  19.75634
 457  87.16129
 458  87.4642
 459  -39.18671
 460  -75.06178
 461  70.93096
 462  70.59692
 463  103.9915
 464  151.4905
 465  -27.25572
 466  14.7761
 467  81.12883
 468  100.6119
 469  80.55057
 470  118.9696
 471  127.7246
 472  125.9091
 473  107.5879
 474  105.8334
 475  209.5815
 476  168.9147
 477  210.5885
 478  151.3903
 479  45.53436
 480  282.3099
 481  216.5539
 482  176.5965
 483  153.4282
 484  193.6939
 485  90.18484
 486  119.742
 487  112.7817
 488  81.38968
 489  225.6529
 490  290.8423
 491  179.4755
 492  84.60625
 493  4.631289
 494  114.3133
 495  92.85067
 496  114.723
 497  314.4526
 498  211.1656
 499  135.0206
 500  106.3153
 501  110.5941
 502  106.6444
 503  82.4622
 504  101.6338
 505  -27.0362
 506  211.6071
 507  204.0981
 508  92.70752
 509  97.56973
 510  46.22622
 511  60.72219
