# Input file       =  1193362522.147271_cleaned.dat
# Candidate        =  PSR_0332+5434
# Telescope        =  AR
# Epoch_topo       =  58056.066448463782
# Epoch_bary       =  N/A
# T_sample         =  0.002
# Data Folded      =  7340032
# Data Avg         =  0.0451255959550118
# Data StdDev      =  2.62259059799551 
# Profile Bins     =  256
# Profile Avg      =  1293.80426668555 
# Profile StdDev   =  444.078240834066 
# Reduced chi-sqr  =  1.447
# Prob(Noise)      <  3.81e-06   (~4.5 sigma)
# P_topo (ms)      =  714.494294792996  +/- 0.000228
# P'_topo (s/s)    =  -0                +/- 1.2e-10
# P''_topo (s/s^2) =  0                 +/- 5.32e-14
# P_bary (ms)      =  N/A
# P'_bary (s/s)    =  N/A
# P''_bary (s/s^2) =  N/A
# P_orb (s)        =  N/A
# asin(i)/c (s)    =  N/A
# eccentricity     =  N/A
# w (rad)          =  N/A
# T_peri           =  N/A
######################################################
   0  1038.658
   1  990.2238
   2  1666.868
   3  1582.317
   4  1010.938
   5  1374.281
   6  1459.602
   7  1442.978
   8  1353.745
   9  1102.221
  10  985.774
  11  1529
  12  1860.295
  13  1562.769
  14  1697.509
  15  1393.274
  16  1760.027
  17  1566.19
  18  1638.881
  19  1310.058
  20  749.6998
  21  998.3623
  22  732.6963
  23  788.3825
  24  1857.732
  25  1108.836
  26  1268.98
  27  1643.33
  28  1437.765
  29  871.3877
  30  1059.315
  31  1417.808
  32  1241.102
  33  1948.654
  34  1638.425
  35  1375.484
  36  1383.427
  37  2029.309
  38  1451.489
  39  870.3099
  40  672.7104
  41  1345.865
  42  1708.026
  43  1315.262
  44  1267.777
  45  1235.312
  46  548.9095
  47  705.915
  48  696.2187
  49  1237.092
  50  970.0103
  51  1109.017
  52  1344.241
  53  1028.055
  54  1459.997
  55  1364.915
  56  1208.065
  57  1535.343
  58  764.0164
  59  1514.389
  60  1967.078
  61  1749.521
  62  1378.75
  63  1438.871
  64  1617.909
  65  1604.531
  66  1358.401
  67  1542.508
  68  1999.36
  69  1510.376
  70  1231.619
  71  2085.922
  72  1636.161
  73  1234.792
  74  721.2516
  75  1121.805
  76  1105.765
  77  1912.599
  78  821.5791
  79  786.3458
  80  1761.74
  81  1682.442
  82  1199.874
  83  1232.967
  84  1400.383
  85  1433.176
  86  1071.087
  87  758.5988
  88  675.551
  89  1518.538
  90  1621.371
  91  2166.022
  92  1440.277
  93  874.2264
  94  1523.078
  95  1112.317
  96  1145.892
  97  1197.506
  98  1569.356
  99  710.2083
 100  1351.162
 101  1498.575
 102  1133.758
 103  1463.088
 104  637.046
 105  1557.105
 106  1203.208
 107  1454.894
 108  1281.695
 109  1581.638
 110  1638.175
 111  1224.689
 112  744.5056
 113  1103.035
 114  1110.774
 115  1394.642
 116  733.0171
 117  1624.442
 118  1804.852
 119  1265.198
 120  845.7546
 121  1181.016
 122  1225.201
 123  972.3991
 124  1680.197
 125  774.1066
 126  1153.131
 127  1231.902
 128  1291.054
 129  1260.632
 130  1172.727
 131  1249.478
 132  1713.494
 133  1123.54
 134  1469.357
 135  1394.036
 136  1266.066
 137  1032.49
 138  1018.429
 139  1450.944
 140  1122.52
 141  1600.618
 142  951.25
 143  1027.442
 144  928.9829
 145  860.9148
 146  687.6431
 147  524.1141
 148  682.3359
 149  1298.3
 150  1076.156
 151  1471.533
 152  1294.662
 153  1693.062
 154  1116.606
 155  2012.209
 156  1783.119
 157  3160.764
 158  4550.561
 159  4005.377
 160  2203.328
 161  925.2064
 162  1502.618
 163  1379.461
 164  1471.548
 165  1404.571
 166  1251.9
 167  1513.121
 168  924.8328
 169  521.329
 170  794.0982
 171  1312.577
 172  966.9788
 173  651.8146
 174  369.7272
 175  1058.694
 176  1069.621
 177  1081.552
 178  678.5945
 179  594.2136
 180  1540.073
 181  1593.568
 182  1150.798
 183  970.8692
 184  904.8194
 185  1194.547
 186  884.3467
 187  893.0049
 188  1490.078
 189  1604.442
 190  1928.656
 191  1290.546
 192  1420.568
 193  1522.556
 194  1160.93
 195  1914.363
 196  999.0699
 197  581.9995
 198  1071.016
 199  1163.217
 200  803.4754
 201  1622.948
 202  1011.879
 203  1181.53
 204  1865.122
 205  2200.217
 206  1020.701
 207  1297.219
 208  789.606
 209  1547.193
 210  1250.609
 211  1046.369
 212  1369.716
 213  1181.276
 214  1052.9
 215  1349.98
 216  1560.545
 217  1244.024
 218  1266.855
 219  823.2988
 220  768.6202
 221  774.4437
 222  1503.06
 223  2004.074
 224  1961.973
 225  1552.142
 226  1121.454
 227  1281.76
 228  1579.996
 229  1131.977
 230  1682.872
 231  1132.848
 232  1440.286
 233  1410.619
 234  1352.368
 235  1379.345
 236  1257.3
 237  1529.189
 238  738.9833
 239  1306.611
 240  745.4625
 241  572.3119
 242  644.8832
 243  1381.79
 244  1084.05
 245  887.1612
 246  818.4186
 247  776.3621
 248  1571.858
 249  1450.009
 250  1363.999
 251  1463.626
 252  1306.87
 253  990.8984
 254  1312.798
 255  1184.142
