# Input file       =  1193692179.151799_cleaned.dat
# Candidate        =  PSR_0332+5434
# Telescope        =  AR
# Epoch_topo       =  58059.881923053232
# Epoch_bary       =  N/A
# T_sample         =  0.002
# Data Folded      =  7340032
# Data Avg         =  0.10752168160356 
# Data StdDev      =  3.59259049403395 
# Profile Bins     =  512
# Profile Avg      =  1540.73213670629 
# Profile StdDev   =  430.151768308991 
# Reduced chi-sqr  =  0.854
# Prob(Noise)      <  0.993   (~0.0 sigma)
# P_topo (ms)      =  714.497444951249  +/- 0.000482
# P'_topo (s/s)    =  -0                +/- 2.54e-10
# P''_topo (s/s^2) =  0                 +/- 1.12e-13
# P_bary (ms)      =  N/A
# P'_bary (s/s)    =  N/A
# P''_bary (s/s^2) =  N/A
# P_orb (s)        =  N/A
# asin(i)/c (s)    =  N/A
# eccentricity     =  N/A
# w (rad)          =  N/A
# T_peri           =  N/A
######################################################
   0  1581.988
   1  1478.97
   2  1586.505
   3  1602.857
   4  1386.788
   5  1461.052
   6  1643.958
   7  1979.726
   8  1836.484
   9  1434.789
  10  1276.799
  11  1015.357
  12  1412.347
  13  1340.075
  14  1733.158
  15  1798.451
  16  1498.609
  17  1528.122
  18  1586.689
  19  1538.381
  20  1552.355
  21  1279.438
  22  1359.158
  23  1586.955
  24  1590.25
  25  2003.543
  26  1616.569
  27  1368.028
  28  1364.306
  29  1334.578
  30  1680.831
  31  1566.774
  32  1382.806
  33  820.2817
  34  783.0495
  35  1199.248
  36  1288.609
  37  1332.141
  38  1440.023
  39  1310.622
  40  1617.097
  41  1598.989
  42  1496.013
  43  1254.38
  44  1213.818
  45  1356.475
  46  1631.231
  47  1559.654
  48  1615.16
  49  1810.901
  50  1422.475
  51  1096.889
  52  1307.227
  53  1145.916
  54  1362.363
  55  1634.888
  56  1679.401
  57  1306.659
  58  1125.181
  59  1498.312
  60  1112.552
  61  955.3246
  62  1176.127
  63  1005.29
  64  1126.549
  65  1104.017
  66  1440.909
  67  1644.704
  68  1554.737
  69  1362.913
  70  1761.382
  71  1740.708
  72  1332.614
  73  1217.38
  74  1150.829
  75  1007.029
  76  640.5767
  77  1143.085
  78  1368.017
  79  1372.569
  80  1167.894
  81  989.432
  82  1048.644
  83  962.1746
  84  1147.459
  85  1214.298
  86  1399.727
  87  1610.924
  88  1645.728
  89  1643.729
  90  1511.077
  91  1413.599
  92  1317.182
  93  938.4657
  94  1243.482
  95  1553.032
  96  1546.295
  97  1321.486
  98  1343.54
  99  1138.62
 100  1129.266
 101  938.0331
 102  1319.373
 103  1292.029
 104  1300.041
 105  1707.247
 106  1289.388
 107  1168.522
 108  1221.428
 109  1422.272
 110  1784.762
 111  1805.362
 112  1668.735
 113  1679.717
 114  1721.44
 115  1730.064
 116  1584.754
 117  1143.4
 118  1333.286
 119  1689.688
 120  2004.034
 121  1834.151
 122  1449.305
 123  1480.577
 124  1417.714
 125  1762.683
 126  1908.617
 127  1942.33
 128  1831.02
 129  1689.256
 130  1538.817
 131  1259.586
 132  1225.589
 133  1328.999
 134  1659.694
 135  1723.298
 136  1707.74
 137  1868.705
 138  1477.684
 139  1292.53
 140  1146.263
 141  1285.521
 142  1293.081
 143  1341.48
 144  1309.452
 145  1276.583
 146  1506.162
 147  1424.396
 148  1329.973
 149  1266.546
 150  1211.126
 151  1211.995
 152  1266.244
 153  1482.151
 154  1777.016
 155  1729.382
 156  1609.556
 157  1465.651
 158  1728.326
 159  1784.1
 160  1457.772
 161  1706.311
 162  1557.001
 163  1609.354
 164  1532.898
 165  1311.598
 166  1209.413
 167  1271.318
 168  1317.166
 169  1142.146
 170  1309.718
 171  1529.135
 172  1674.013
 173  1349.125
 174  1210.762
 175  1220.19
 176  1397.608
 177  1301.646
 178  1507.035
 179  1682.068
 180  1615.464
 181  1372.551
 182  1397.853
 183  922.3347
 184  1048.247
 185  1190.182
 186  837.8392
 187  1020.465
 188  1089.013
 189  1425.128
 190  1152.628
 191  1040.555
 192  1296.634
 193  1425.801
 194  1125.102
 195  842.1273
 196  1092.212
 197  1088.506
 198  1476.268
 199  1609.194
 200  1505.36
 201  1348.763
 202  1686.996
 203  1794.226
 204  1597.9
 205  1298.267
 206  1465.75
 207  1645.766
 208  1543.574
 209  1666.857
 210  1301.766
 211  1264.817
 212  1404.672
 213  1454.912
 214  1439.777
 215  1539.998
 216  1438.536
 217  1543.861
 218  1417.578
 219  1409.959
 220  1504.264
 221  1527.4
 222  1693.354
 223  1614.267
 224  1380.231
 225  1374.695
 226  993.3953
 227  953.767
 228  1195.991
 229  1485.302
 230  1536.562
 231  1107.511
 232  1562.486
 233  1627.06
 234  1640.22
 235  1734.168
 236  1614.562
 237  1753.344
 238  1959.092
 239  1800.254
 240  1604.053
 241  1767.852
 242  2017.798
 243  1550.593
 244  1380.899
 245  1570.436
 246  1809.924
 247  1932.43
 248  1595.037
 249  1591.476
 250  1735
 251  1577.61
 252  1490.014
 253  1338.766
 254  1437.933
 255  1287.282
 256  1207.938
 257  1610.156
 258  1508.401
 259  1815.781
 260  1758.352
 261  1544.45
 262  1360.726
 263  1401.595
 264  1438.554
 265  1670.687
 266  1592.484
 267  1651.146
 268  1711.928
 269  1749.177
 270  1992.296
 271  1942.015
 272  1643.958
 273  1413.172
 274  1799.02
 275  1594.855
 276  1499.55
 277  1795.95
 278  1533.952
 279  1346.325
 280  1406.265
 281  1558.072
 282  1366.527
 283  1361.573
 284  1509.286
 285  1576.311
 286  1472.631
 287  1386.84
 288  1417.772
 289  1561.068
 290  1678.586
 291  1570.884
 292  1414.991
 293  1325.312
 294  1302.253
 295  1649.688
 296  2109.536
 297  1884.47
 298  1445.921
 299  1438.069
 300  1434.112
 301  1369.033
 302  1516.209
 303  1423.145
 304  1487.468
 305  1503.052
 306  1496.888
 307  1575.914
 308  1521.657
 309  1723.235
 310  1699.241
 311  1605.143
 312  1734.804
 313  1998.034
 314  2432.901
 315  2570.322
 316  2771.347
 317  3275.939
 318  3038.922
 319  2792.795
 320  2185.31
 321  1620.881
 322  1513.447
 323  1421.942
 324  1510.276
 325  1792.692
 326  1711.298
 327  1586.739
 328  1589.145
 329  1378.684
 330  1358.987
 331  1662.719
 332  1703.521
 333  1370.158
 334  1407.349
 335  1423.812
 336  1256.875
 337  1336.086
 338  1267.232
 339  1459.078
 340  1610.702
 341  1353.566
 342  1449.978
 343  1658.98
 344  1456.227
 345  1175.604
 346  1094.604
 347  1234.061
 348  1099.987
 349  1203.495
 350  1599.188
 351  1871.328
 352  1520.038
 353  1664.351
 354  1816.327
 355  2124.381
 356  1789.873
 357  1571.177
 358  1833.758
 359  1815.351
 360  2068.602
 361  1852.658
 362  1619.334
 363  1649.412
 364  1661.659
 365  2125.924
 366  1564.504
 367  1531.345
 368  1667.285
 369  1685.23
 370  1756.164
 371  1728.346
 372  1803.779
 373  1666.04
 374  1828.167
 375  1818.759
 376  1427.946
 377  1441.618
 378  1730.658
 379  2004.442
 380  1687.254
 381  1778.016
 382  2057.152
 383  2021.472
 384  1880.316
 385  1892.637
 386  1530.759
 387  1920.533
 388  2082.196
 389  1965.708
 390  1738.286
 391  1978.824
 392  1702.637
 393  1956.636
 394  1908.337
 395  1645.198
 396  1703.342
 397  1732.14
 398  1827.05
 399  1839.643
 400  1823.701
 401  1684.141
 402  1771.604
 403  1685.426
 404  1672.331
 405  1765.209
 406  1749.433
 407  1600.164
 408  1515.932
 409  1618.303
 410  1821.085
 411  1820.004
 412  1470.264
 413  1425.254
 414  1782.328
 415  1670.167
 416  1429.948
 417  1804.688
 418  2089.777
 419  1769.466
 420  1643.584
 421  1535.406
 422  1510.616
 423  1476.865
 424  1943.977
 425  1847.848
 426  1684.496
 427  1799.118
 428  1699.291
 429  1804.264
 430  1611.384
 431  1911.6
 432  2009.079
 433  2099.003
 434  2075.611
 435  1935.326
 436  1304.553
 437  1359.373
 438  1515.31
 439  1683.901
 440  1563.309
 441  1523.108
 442  1673.031
 443  1709.491
 444  1419.46
 445  1172.534
 446  1233.126
 447  1397.565
 448  1367.386
 449  1663.047
 450  1562.077
 451  1522.881
 452  1303.875
 453  1466.162
 454  1502.407
 455  1434.668
 456  1461.626
 457  1424.344
 458  1610.191
 459  1351.406
 460  1350.944
 461  1652.744
 462  1550.867
 463  1351.657
 464  1627.071
 465  1799.076
 466  1860.3
 467  1742.962
 468  1793.307
 469  1829.234
 470  1797.284
 471  1401.941
 472  1148.287
 473  1336.119
 474  1511.401
 475  1329.603
 476  1320.81
 477  1517.828
 478  1555.682
 479  1639.42
 480  1575.066
 481  1604.616
 482  1859.257
 483  1980.499
 484  1818.047
 485  1774.683
 486  1878.041
 487  1537.862
 488  1641.879
 489  1684.49
 490  1650.331
 491  1517.813
 492  1599.788
 493  1728.836
 494  1651.104
 495  1493.785
 496  1539.547
 497  1651.481
 498  1593.754
 499  1606.872
 500  1742.094
 501  1740.094
 502  1404.27
 503  1422.838
 504  1318.369
 505  1620.685
 506  1761.638
 507  1620.527
 508  1717.364
 509  1455.475
 510  1769.682
 511  1685.433
