# Input file       =  1193764322.14598_cleaned.dat
# Candidate        =  PSR_0332+5434
# Telescope        =  AR
# Epoch_topo       =  58060.716911411808
# Epoch_bary       =  N/A
# T_sample         =  0.002
# Data Folded      =  7208960
# Data Avg         =  0.105456030232281
# Data StdDev      =  3.70526785966224 
# Profile Bins     =  512
# Profile Avg      =  1484.74033293137 
# Profile StdDev   =  439.664030321781 
# Reduced chi-sqr  =  0.697
# Prob(Noise)      <  1   (~0.0 sigma)
# P_topo (ms)      =  714.498205260307  +/- 0.000189
# P'_topo (s/s)    =  -0                +/- 1.01e-10
# P''_topo (s/s^2) =  0                 +/- 4.56e-14
# P_bary (ms)      =  N/A
# P'_bary (s/s)    =  N/A
# P''_bary (s/s^2) =  N/A
# P_orb (s)        =  N/A
# asin(i)/c (s)    =  N/A
# eccentricity     =  N/A
# w (rad)          =  N/A
# T_peri           =  N/A
######################################################
   0  1595.305
   1  905.4936
   2  1231.996
   3  1530.511
   4  1367.428
   5  1009.369
   6  1249.24
   7  1384.28
   8  1107.644
   9  1136.599
  10  1350.44
  11  1409.61
  12  1046.409
  13  1019.94
  14  1173.22
  15  1524.111
  16  1509.041
  17  1159.5
  18  1407.534
  19  1108.69
  20  1213.582
  21  1295.571
  22  1411.071
  23  1659.34
  24  1589.704
  25  1393.103
  26  1506.51
  27  1513.076
  28  1735.043
  29  1437.364
  30  1161.196
  31  1258.485
  32  1288.677
  33  1535.854
  34  1284.899
  35  1203.045
  36  1354.734
  37  1428.606
  38  1126.101
  39  1807.308
  40  1302.749
  41  1433.127
  42  1449.563
  43  1388.391
  44  1055.345
  45  1034.148
  46  1311.463
  47  1552.055
  48  1652.952
  49  1692.644
  50  1842.285
  51  1563.021
  52  1682.227
  53  1302.866
  54  1445.486
  55  1850.179
  56  1939.086
  57  1666.819
  58  1179.143
  59  893.42
  60  1397.516
  61  1323.352
  62  1158.197
  63  1357.246
  64  1610.725
  65  1482.95
  66  1150.25
  67  1352.814
  68  1420.103
  69  1222.659
  70  1248.994
  71  1245.932
  72  1111.419
  73  1437.44
  74  1606.063
  75  1420.239
  76  1511.566
  77  1141.86
  78  1143.292
  79  623.4052
  80  886.9836
  81  1415.572
  82  1425.4
  83  1400.327
  84  1394.169
  85  1574.636
  86  1565.177
  87  1315.922
  88  1055.734
  89  1145.428
  90  980.0741
  91  1175.119
  92  1498.681
  93  1795.62
  94  1865.308
  95  1301.07
  96  1200.897
  97  1309.039
  98  1298.374
  99  1609.735
 100  1526.83
 101  1428.716
 102  1457.084
 103  1236.931
 104  1513.687
 105  1593.602
 106  1357.37
 107  1335.792
 108  1424.643
 109  1420.261
 110  1416.313
 111  1704.685
 112  1115.626
 113  1427.004
 114  1212.59
 115  1451.743
 116  1714.643
 117  1620.453
 118  1854.9
 119  1657.326
 120  1738.937
 121  1250.134
 122  1370.207
 123  1718.754
 124  1477.768
 125  1517.528
 126  1503.353
 127  1194.467
 128  1268.513
 129  1618.427
 130  1826.324
 131  1666.368
 132  2038.884
 133  1304.321
 134  1008.558
 135  1086.829
 136  1550.931
 137  1447.969
 138  1375.823
 139  1451.262
 140  1211.459
 141  1338.169
 142  1021.876
 143  1310.36
 144  1417.001
 145  1467.296
 146  1485.147
 147  1392.887
 148  1859.724
 149  1624.409
 150  1906.232
 151  1467.229
 152  1725.095
 153  1570.336
 154  1596.447
 155  1453.015
 156  1632.924
 157  1549.577
 158  1330.793
 159  1474.371
 160  1316.438
 161  1370.171
 162  1100.303
 163  1546.281
 164  1515.987
 165  1245.32
 166  1419.396
 167  1412.037
 168  1772.01
 169  1640.558
 170  1416.299
 171  1314.572
 172  1698.534
 173  1904.181
 174  1880.647
 175  1754.438
 176  1740.411
 177  1226.687
 178  1401.251
 179  1643.51
 180  1780.191
 181  1678.259
 182  1168.35
 183  1521.517
 184  1754.883
 185  1861.878
 186  1704.177
 187  1724.32
 188  1477.415
 189  1411.665
 190  1713.094
 191  1423.767
 192  1315.775
 193  1431.406
 194  1470.635
 195  1424.26
 196  1224.244
 197  1672.106
 198  1733.508
 199  1497.379
 200  1919.026
 201  1650.022
 202  1634.71
 203  1689.146
 204  1577.88
 205  1516.755
 206  1655.985
 207  1140.017
 208  1139.869
 209  1308.887
 210  1743.562
 211  1498.703
 212  1141.085
 213  1555.052
 214  1432.995
 215  1274.801
 216  1299.2
 217  1599.803
 218  1398.858
 219  1568.005
 220  1367.888
 221  1345.959
 222  1294.613
 223  1203.226
 224  1279.709
 225  1253.373
 226  1337.545
 227  1285.779
 228  1670.749
 229  1490.115
 230  1275.021
 231  1417.948
 232  1236.649
 233  1283.468
 234  1209.761
 235  1582.676
 236  1835.975
 237  1483.886
 238  1541.07
 239  1534.538
 240  1471.493
 241  1348.561
 242  1567.289
 243  1643.069
 244  1264.513
 245  1320.582
 246  1595.4
 247  1803.905
 248  1569.693
 249  1612.32
 250  1635.015
 251  1396.277
 252  1518.184
 253  1448.904
 254  1498.51
 255  1460.589
 256  1700.496
 257  1427.69
 258  1511.905
 259  1795.561
 260  1586.652
 261  1626.899
 262  1950.179
 263  2034.514
 264  1657.865
 265  1803.721
 266  1308.14
 267  1463.208
 268  1504.552
 269  1267.303
 270  1515.029
 271  1520.183
 272  1868.919
 273  1746.273
 274  1684.156
 275  1949.822
 276  2192.737
 277  2211.076
 278  2552.641
 279  2741.027
 280  3180.874
 281  2865.052
 282  2414.217
 283  1898.145
 284  1866.522
 285  1588.115
 286  1585.934
 287  1378.885
 288  1614.458
 289  1666.007
 290  1107.982
 291  1632.572
 292  1683.077
 293  1739.353
 294  1474.246
 295  1582.347
 296  1468.161
 297  1341.276
 298  1573.915
 299  1212.057
 300  1546.662
 301  1282.991
 302  1668.778
 303  1262.692
 304  1380.77
 305  1249.426
 306  1414.275
 307  1419.115
 308  1337.563
 309  1556.615
 310  1516.382
 311  1464.311
 312  1173.375
 313  1099.859
 314  1245.146
 315  1394.017
 316  1594.567
 317  1480.039
 318  1551.225
 319  1315.009
 320  1356.178
 321  1408.267
 322  1240.848
 323  1585.373
 324  1460.204
 325  1369.377
 326  1289.794
 327  1281.447
 328  1676.204
 329  1700.539
 330  1415.088
 331  1489.134
 332  1846.345
 333  1728.815
 334  1555.599
 335  1631.391
 336  1965.149
 337  2059.557
 338  1690.708
 339  1323.989
 340  1248.619
 341  1293.485
 342  1046.93
 343  1193.829
 344  1465.861
 345  1844.254
 346  1771.903
 347  1862.735
 348  1943.194
 349  1705.857
 350  1358.204
 351  1412.929
 352  1505.738
 353  1534.229
 354  1177.081
 355  1721.821
 356  1787.511
 357  1586.128
 358  1795.789
 359  1609.107
 360  1744.937
 361  1844.024
 362  1970.547
 363  1969.622
 364  1517.164
 365  1727.423
 366  1681.578
 367  1652.671
 368  1228.847
 369  1409.185
 370  1618.752
 371  1773.21
 372  1878.293
 373  1706.102
 374  1738.696
 375  1345.658
 376  1461.946
 377  1413.555
 378  1540.433
 379  1611.219
 380  1486.641
 381  1606.301
 382  1689.202
 383  1697.435
 384  1454.751
 385  1630.677
 386  1625.072
 387  1671.128
 388  1714.863
 389  1515.055
 390  1533.301
 391  1673.261
 392  1703.127
 393  1271.143
 394  1160.192
 395  1492.939
 396  1711.428
 397  1930.892
 398  1627.881
 399  1599.235
 400  1433.527
 401  1333.019
 402  1262.039
 403  1726.496
 404  1622.987
 405  1656.36
 406  1565.53
 407  1189.593
 408  1193.39
 409  1558.827
 410  1556.074
 411  1207.473
 412  1344.348
 413  1226.738
 414  1330.815
 415  1417.026
 416  1301.024
 417  1524.749
 418  1525.862
 419  1624.929
 420  1452.963
 421  1440.349
 422  1283.472
 423  1726.05
 424  1443.798
 425  1304.368
 426  1440.471
 427  1475.536
 428  1533.895
 429  1823.155
 430  1482.129
 431  1377.823
 432  1299.936
 433  1390.109
 434  1300.921
 435  927.1389
 436  1219.316
 437  1241.753
 438  1739.548
 439  1654.103
 440  1556.817
 441  1508.958
 442  1120.821
 443  960.9334
 444  865.1041
 445  1458.217
 446  1590.643
 447  1500.487
 448  1328.463
 449  1659.315
 450  1309.829
 451  1646.463
 452  1809.503
 453  1618.719
 454  1513.469
 455  1025.374
 456  1370.464
 457  1273.441
 458  1489.598
 459  993.0778
 460  1062.539
 461  1366.917
 462  1429.89
 463  1757.972
 464  1614.366
 465  1530.851
 466  1316.306
 467  1432.18
 468  1945.204
 469  1918.286
 470  1526.898
 471  1759.405
 472  1426.56
 473  1056.76
 474  1031.605
 475  1221.355
 476  1472.749
 477  1456.145
 478  1646.882
 479  1811.76
 480  1686.579
 481  1388.47
 482  1072.572
 483  809.0873
 484  1181.766
 485  1214.13
 486  1674.568
 487  1500.344
 488  1568.025
 489  1287.164
 490  1295.686
 491  1308.769
 492  1097.255
 493  1238.112
 494  1706.804
 495  1662.471
 496  1385.302
 497  1447.859
 498  1622.452
 499  1549.365
 500  1353.533
 501  1550.003
 502  1514.905
 503  1883.594
 504  1683.717
 505  1699.586
 506  1608.266
 507  1407.783
 508  1381.209
 509  1154.685
 510  1309.906
 511  1684.701
