# Input file       =  1194625430.102127_cleaned.dat
# Candidate        =  PSR_0332+5434
# Telescope        =  AR
# Epoch_topo       =  58070.683438682026
# Epoch_bary       =  N/A
# T_sample         =  0.002
# Data Folded      =  7143424
# Data Avg         =  0.101410297643813
# Data StdDev      =  4.73746690366634 
# Profile Bins     =  1024
# Profile Avg      =  707.414159783508 
# Profile StdDev   =  395.684852400768 
# Reduced chi-sqr  =  0.605
# Prob(Noise)      <  1   (~0.0 sigma)
# P_topo (ms)      =  714.507860949163  +/- 1.61e-05
# P'_topo (s/s)    =  -0                +/- 8.71e-12
# P''_topo (s/s^2) =  0                 +/- 3.95e-15
# P_bary (ms)      =  N/A
# P'_bary (s/s)    =  N/A
# P''_bary (s/s^2) =  N/A
# P_orb (s)        =  N/A
# asin(i)/c (s)    =  N/A
# eccentricity     =  N/A
# w (rad)          =  N/A
# T_peri           =  N/A
######################################################
   0  760.3079
   1  626.7488
   2  522.4009
   3  430.7101
   4  547.8427
   5  504.3358
   6  516.3229
   7  406.5296
   8  580.3328
   9  655.0658
  10  638.1473
  11  626.3807
  12  773.6656
  13  879.7348
  14  770.577
  15  477.4321
  16  420.7809
  17  491.962
  18  612.7987
  19  716.4847
  20  733.5232
  21  788.7748
  22  766.3059
  23  591.5532
  24  573.0504
  25  634.1734
  26  821.6212
  27  948.6456
  28  828.7309
  29  626.3939
  30  563.5313
  31  689.2139
  32  754.1522
  33  681.4444
  34  740.6901
  35  917.1711
  36  900.8461
  37  652.8318
  38  454.923
  39  451.8787
  40  656.9914
  41  695.975
  42  573.3951
  43  519.9258
  44  588.5774
  45  636.5864
  46  669.6217
  47  681.5812
  48  700.7877
  49  792.2068
  50  891.5617
  51  850.2325
  52  623.5798
  53  588.5626
  54  749.9083
  55  779.9497
  56  549.9816
  57  432.9179
  58  563.2925
  59  686.2853
  60  725.2083
  61  531.7382
  62  576.257
  63  637.0767
  64  816.1146
  65  685.8628
  66  439.2341
  67  572.2419
  68  717.1312
  69  865.1039
  70  701.8391
  71  594.6287
  72  682.3195
  73  814.0335
  74  793.7782
  75  579.1047
  76  527.3228
  77  580.4583
  78  718.1644
  79  610.7191
  80  539.1395
  81  418.0226
  82  486.0457
  83  409.4308
  84  403.9578
  85  377.4667
  86  463.7216
  87  608.2267
  88  688.208
  89  627.033
  90  636.0017
  91  747.2084
  92  896.934
  93  738.1388
  94  687.124
  95  812.7534
  96  962.9313
  97  748.6388
  98  582.6732
  99  607.3632
 100  720.2357
 101  599.0469
 102  572.0462
 103  491.6593
 104  539.367
 105  642.6115
 106  776.0007
 107  719.8109
 108  663.8723
 109  561.3315
 110  741.6089
 111  657.8767
 112  485.4652
 113  476.7042
 114  649.7011
 115  687.9247
 116  606.9034
 117  559.8449
 118  687.5042
 119  774.1957
 120  750.0139
 121  786.253
 122  636.0789
 123  727.629
 124  705.8975
 125  714.3669
 126  587.8617
 127  757.4128
 128  921.1292
 129  938.9797
 130  712.5279
 131  580.8599
 132  679.6679
 133  652.6167
 134  522.9129
 135  471.2289
 136  451.8827
 137  662.1949
 138  793.4517
 139  876.6949
 140  751.8417
 141  815.7026
 142  912.4617
 143  962.0223
 144  817.3444
 145  803.5607
 146  886.914
 147  890.7018
 148  702.2962
 149  380.931
 150  410.4166
 151  724.5809
 152  857.3246
 153  712.819
 154  682.1657
 155  821.91
 156  811.6614
 157  769.2723
 158  662.3339
 159  773.0991
 160  1024.132
 161  1119.945
 162  1009.164
 163  621.6258
 164  663.4231
 165  755.5361
 166  732.2492
 167  525.2947
 168  475.6375
 169  670.277
 170  768.9352
 171  656.2062
 172  634.1043
 173  615.6107
 174  796.2129
 175  833.0723
 176  848.1063
 177  793.3554
 178  933.408
 179  1091.728
 180  1007.482
 181  768.3906
 182  630.0614
 183  695.7756
 184  788.7321
 185  666.3848
 186  546.7405
 187  558.3502
 188  769.3079
 189  781.0506
 190  718.2738
 191  643.7254
 192  797.7626
 193  973.9849
 194  970.3005
 195  727.1578
 196  666.8946
 197  798.679
 198  865.5307
 199  761.7768
 200  629.8033
 201  796.1843
 202  857.8768
 203  649.9825
 204  480.7837
 205  622.9415
 206  821.9747
 207  935.1177
 208  900.2419
 209  784.8993
 210  691.0464
 211  774.7215
 212  875.6893
 213  732.7214
 214  673.9916
 215  653.6245
 216  865.8458
 217  770.6643
 218  621.995
 219  481.8362
 220  683.4681
 221  798.9917
 222  778.5
 223  616.6573
 224  754.0685
 225  926.665
 226  937.7751
 227  839.3782
 228  702.8956
 229  790.157
 230  868.9982
 231  808.2941
 232  698.4785
 233  654.9633
 234  891.7717
 235  1108.83
 236  915.3638
 237  761.5947
 238  695.6541
 239  924.0583
 240  885.6845
 241  799.31
 242  691.1891
 243  875.7766
 244  937.3022
 245  742.4357
 246  521.811
 247  560.3624
 248  780.5367
 249  817.4716
 250  816.9235
 251  807.6408
 252  856.314
 253  808.2333
 254  734.7235
 255  624.2957
 256  530.7879
 257  692.2925
 258  693.2357
 259  530.4014
 260  337.5076
 261  694.0383
 262  950.5967
 263  912.0693
 264  654.7956
 265  617.9991
 266  814.7076
 267  710.237
 268  561.1906
 269  408.377
 270  679.6934
 271  707.8149
 272  805.4772
 273  600.6088
 274  674.3091
 275  726.1443
 276  961.0819
 277  882.0656
 278  751.5896
 279  639.9344
 280  654.3301
 281  583.2555
 282  408.2871
 283  448.4918
 284  743.4867
 285  1026.101
 286  953.1752
 287  770.7017
 288  653.2136
 289  679.1426
 290  781.868
 291  738.3323
 292  674.5414
 293  594.2101
 294  634.3798
 295  707.172
 296  594.2526
 297  629.4481
 298  846.0715
 299  1008.634
 300  901.8633
 301  677.0013
 302  636.8149
 303  595.3416
 304  460.4265
 305  353.8682
 306  255.587
 307  342.0623
 308  490.8047
 309  589.8463
 310  508.1926
 311  543.4202
 312  636.264
 313  696.3595
 314  529.9521
 315  513.0656
 316  580.9262
 317  652.8858
 318  649.1505
 319  646.4255
 320  614.7714
 321  693.9363
 322  784.3335
 323  802.3083
 324  750.3049
 325  763.9686
 326  982.8671
 327  1032.644
 328  1028.264
 329  958.0982
 330  904.8239
 331  937.4772
 332  752.2147
 333  570.0417
 334  382.1636
 335  604.0918
 336  780.3182
 337  713.8892
 338  514.9804
 339  424.6124
 340  645.9116
 341  795.2699
 342  692.915
 343  674.4732
 344  670.8114
 345  771.45
 346  680.5829
 347  575.4229
 348  503.3718
 349  674.9755
 350  792.4758
 351  815.3346
 352  581.5688
 353  611.4751
 354  558.5533
 355  552.4132
 356  538.0655
 357  626.4708
 358  773.3924
 359  843.6359
 360  776.1954
 361  561.6011
 362  485.8225
 363  557.8441
 364  700.6368
 365  658.3559
 366  525.6699
 367  570.8118
 368  771.3607
 369  808.7012
 370  667.9417
 371  547.4932
 372  775.2103
 373  784.306
 374  675.4062
 375  515.6141
 376  637.2375
 377  808.6341
 378  886.6602
 379  648.4573
 380  450.2877
 381  417.9167
 382  552.773
 383  500.6839
 384  510.7886
 385  501.5611
 386  622.7582
 387  574.7878
 388  502.0399
 389  511.3804
 390  609.2889
 391  798.3986
 392  934.2746
 393  764.7528
 394  609.6089
 395  604.182
 396  586.4478
 397  485.3902
 398  478.1609
 399  785.6282
 400  910.1345
 401  928.2643
 402  754.3176
 403  660.0002
 404  511.6678
 405  713.7657
 406  696.9677
 407  612.1188
 408  527.3546
 409  664.148
 410  803.0311
 411  612.3136
 412  320.1228
 413  361.3806
 414  613.3389
 415  757.6468
 416  719.6819
 417  748.0591
 418  795.9081
 419  834.4634
 420  826.2133
 421  739.7182
 422  696.3156
 423  640.9285
 424  662.4444
 425  643.013
 426  667.1298
 427  931.6265
 428  1068.004
 429  1036.674
 430  825.53
 431  654.6872
 432  763.0695
 433  764.1374
 434  635.3591
 435  581.0276
 436  670.2023
 437  926.0658
 438  957.3378
 439  768.5084
 440  646.6068
 441  653.2687
 442  764.6146
 443  804.5585
 444  639.4409
 445  518.0391
 446  601.6461
 447  621.7992
 448  506.8301
 449  331.395
 450  460.024
 451  770.3935
 452  912.6309
 453  713.5325
 454  611.1927
 455  735.8035
 456  980.6531
 457  972.1166
 458  723.7101
 459  736.7675
 460  804.3409
 461  847.1652
 462  640.4614
 463  498.9013
 464  642.5318
 465  959.7648
 466  992.7837
 467  908.4048
 468  705.3729
 469  650.5448
 470  717.3212
 471  695.0497
 472  679.6307
 473  588.4769
 474  662.0126
 475  687.0164
 476  614.5172
 477  562.3459
 478  680.5979
 479  819.0662
 480  678.8499
 481  702.0352
 482  636.8284
 483  712.9249
 484  714.8506
 485  692.5171
 486  683.5506
 487  637.3429
 488  719.4183
 489  771.4053
 490  645.8097
 491  762.0542
 492  930.0403
 493  1020.558
 494  918.3279
 495  789.4706
 496  703.5101
 497  749.5598
 498  727.4456
 499  713.3283
 500  686.162
 501  700.1722
 502  776.9839
 503  688.2825
 504  564.2637
 505  601.1369
 506  680.2545
 507  758.2829
 508  654.8847
 509  604.8438
 510  783.2559
 511  852.9404
 512  783.5292
 513  690.2252
 514  704.3544
 515  677.2515
 516  746.8094
 517  833.0254
 518  840.4808
 519  750.2747
 520  668.9788
 521  660.0303
 522  612.2479
 523  562.7507
 524  682.7555
 525  823.9602
 526  802.2238
 527  631.7379
 528  617.7282
 529  763.5035
 530  805.5657
 531  649.5419
 532  643.8252
 533  595.9684
 534  747.7261
 535  837.0511
 536  839.9031
 537  803.1943
 538  879.9913
 539  865.9324
 540  691.8619
 541  520.1348
 542  467.002
 543  715.8179
 544  791.0881
 545  831.5845
 546  823.5734
 547  941.3907
 548  1140.987
 549  988.3075
 550  786.5817
 551  734.8628
 552  855.1932
 553  787.4233
 554  644.6282
 555  615.2393
 556  830.5576
 557  996.1284
 558  930.4308
 559  672.5984
 560  469.196
 561  675.3154
 562  748.1777
 563  751.6418
 564  665.8968
 565  905.0046
 566  1072.413
 567  1151.012
 568  1039.023
 569  922.2667
 570  898.7182
 571  769.2704
 572  752.2188
 573  626.6961
 574  538.6074
 575  519.7612
 576  573.4338
 577  603.7403
 578  681.6273
 579  916.4
 580  1073.526
 581  988.4091
 582  741.3929
 583  605.3445
 584  642.6459
 585  758.3203
 586  728.4095
 587  564.9004
 588  475.0777
 589  719.2612
 590  818.3669
 591  694.2568
 592  570.8441
 593  736.7366
 594  912.9987
 595  807.199
 596  584.2358
 597  615.3329
 598  649.9373
 599  766.5016
 600  670.8044
 601  670.1017
 602  650.8964
 603  601.5593
 604  691.0582
 605  762.5044
 606  764.0602
 607  746.5606
 608  878.6657
 609  914.7119
 610  662.5953
 611  516.3968
 612  633.2874
 613  809.1312
 614  781.4528
 615  774.217
 616  666.3886
 617  743.3322
 618  747.0483
 619  922.2944
 620  1000.116
 621  1115.22
 622  1239.708
 623  1212.167
 624  1051.631
 625  1100.327
 626  1455.422
 627  1594.063
 628  1394.363
 629  1407.304
 630  1518.539
 631  1627.603
 632  1442.992
 633  1275.248
 634  1220.611
 635  1188.632
 636  1150.95
 637  1088.564
 638  987.3452
 639  853.547
 640  796.8086
 641  783.1649
 642  800.4674
 643  747.7382
 644  732.8223
 645  731.7367
 646  726.9003
 647  719.168
 648  662.5515
 649  797.8319
 650  916.3794
 651  835.7725
 652  590.694
 653  620.4003
 654  860.6379
 655  990.026
 656  996.6329
 657  804.2394
 658  862.8252
 659  1004.17
 660  987.7089
 661  739.9208
 662  725.1546
 663  802.3981
 664  851.0372
 665  712.7985
 666  568.0891
 667  565.9843
 668  630.4254
 669  718.5554
 670  748.7946
 671  722.05
 672  929.9818
 673  953.4833
 674  893.2488
 675  786.2686
 676  792.4708
 677  959.9421
 678  837.1315
 679  537.5739
 680  446.617
 681  543.118
 682  675.2021
 683  648.1188
 684  668.713
 685  784.4703
 686  966.1385
 687  960.1572
 688  902.3857
 689  798.4171
 690  1003.989
 691  1233.916
 692  1061.406
 693  639.4038
 694  475.0968
 695  723.9357
 696  855.9696
 697  639.7992
 698  571.5762
 699  715.6744
 700  835.2985
 701  769.0666
 702  748.7514
 703  683.6421
 704  753.3911
 705  701.495
 706  752.2485
 707  625.5062
 708  804.5241
 709  946.2299
 710  1031.72
 711  780.7109
 712  637.2306
 713  717.7166
 714  848.7372
 715  805.3781
 716  627.9904
 717  664.7289
 718  761.3929
 719  829.65
 720  697.5046
 721  638.2569
 722  718.7135
 723  979.012
 724  932.6848
 725  779.2133
 726  606.7839
 727  744.6893
 728  903.8248
 729  839.1499
 730  741.9919
 731  595.7446
 732  785.7936
 733  840.1635
 734  818.7452
 735  707.9509
 736  658.3455
 737  770.1942
 738  690.7234
 739  604.9178
 740  536.6875
 741  630.2509
 742  757.4937
 743  765.2819
 744  678.9089
 745  703.9064
 746  763.4563
 747  790.1907
 748  681.8784
 749  712.3154
 750  778.0238
 751  852.0116
 752  725.7532
 753  610.8
 754  629.4696
 755  718.7977
 756  853.3333
 757  740.7872
 758  652.9286
 759  614.1596
 760  686.1272
 761  654.8786
 762  478.1574
 763  415.6198
 764  571.4341
 765  742.4238
 766  744.4607
 767  498.0508
 768  412.1806
 769  518.6695
 770  674.4077
 771  585.8376
 772  597.4363
 773  599.0554
 774  735.7057
 775  643.1051
 776  537.1219
 777  585.827
 778  776.4954
 779  846.5417
 780  603.2311
 781  430.1008
 782  468.0975
 783  427.6344
 784  470.485
 785  489.3582
 786  619.1172
 787  751.7518
 788  967.8726
 789  1042.151
 790  814.2546
 791  642.8098
 792  750.7836
 793  805.7557
 794  707.582
 795  484.5816
 796  442.6664
 797  394.1227
 798  348.6616
 799  293.9243
 800  376.8452
 801  401.9378
 802  619.6642
 803  544.5145
 804  445.3774
 805  362.8191
 806  570.2064
 807  778.5552
 808  745.2627
 809  570.4257
 810  571.7146
 811  711.6298
 812  556.2153
 813  363.2018
 814  258.3392
 815  534.397
 816  579.9866
 817  654.7679
 818  548.6115
 819  742.7258
 820  843.3606
 821  947.338
 822  873.5614
 823  880.7143
 824  852.1349
 825  886.2544
 826  532.3734
 827  285.9152
 828  276.936
 829  679.4836
 830  929.251
 831  812.938
 832  690.8328
 833  616.1393
 834  719.8155
 835  746.3824
 836  687.5358
 837  713.5026
 838  892.3549
 839  853.9577
 840  739.8994
 841  588.9448
 842  602.0433
 843  742.9551
 844  783.6461
 845  674.9727
 846  536.1993
 847  466.7209
 848  456.2165
 849  478.2253
 850  593.7775
 851  764.1987
 852  851.3315
 853  811.8972
 854  837.3279
 855  729.5013
 856  741.7558
 857  724.4991
 858  770.9883
 859  597.5919
 860  617.5581
 861  700.101
 862  748.707
 863  675.7853
 864  638.5382
 865  648.8091
 866  595.4618
 867  485.1935
 868  383.6981
 869  261.0136
 870  437.1603
 871  596.9828
 872  676.1243
 873  509.7296
 874  334.6798
 875  314.5671
 876  338.4113
 877  428.457
 878  468.8718
 879  770.0551
 880  899.4856
 881  867.5294
 882  569.2616
 883  616.081
 884  788.2026
 885  922.6923
 886  705.8436
 887  538.0999
 888  544.5005
 889  708.4824
 890  662.1254
 891  493.7611
 892  495.7052
 893  643.3723
 894  886.1027
 895  862.3582
 896  677.6213
 897  627.1464
 898  638.3461
 899  821.1032
 900  737.5998
 901  624.6107
 902  720.1224
 903  766.8285
 904  749.5787
 905  577.8097
 906  540.9367
 907  745.2495
 908  834.2589
 909  610.9744
 910  465.424
 911  616.3239
 912  848.4464
 913  847.0112
 914  795.3611
 915  761.4046
 916  837.5207
 917  818.5889
 918  796.3124
 919  660.1771
 920  596.6241
 921  671.0188
 922  769.7301
 923  851.5482
 924  751.6519
 925  765.9603
 926  843.4097
 927  838.8348
 928  655.3263
 929  632.8743
 930  730.7791
 931  676.552
 932  492.9468
 933  339.6987
 934  361.0836
 935  497.6796
 936  449.6745
 937  472.1473
 938  403.1179
 939  521.0946
 940  647.1827
 941  708.7466
 942  651.1083
 943  648.8148
 944  721.5545
 945  706.2535
 946  703.8006
 947  396.2774
 948  483.9941
 949  575.8198
 950  766.2063
 951  665.4542
 952  530.1558
 953  693.0483
 954  874.981
 955  785.9618
 956  597.4282
 957  424.6187
 958  603.8651
 959  711.5329
 960  738.394
 961  655.5482
 962  612.3444
 963  681.6834
 964  639.2933
 965  570.5637
 966  507.1922
 967  690.3281
 968  778.895
 969  612.7357
 970  580.2072
 971  553.222
 972  748.0898
 973  773.8376
 974  681.7986
 975  600.6951
 976  591.4548
 977  653.9679
 978  633.3554
 979  541.2633
 980  482.1427
 981  560.1493
 982  536.3456
 983  563.3696
 984  489.129
 985  611.0078
 986  733.217
 987  730.2953
 988  586.3788
 989  742.2684
 990  941.8981
 991  1037.211
 992  890.481
 993  730.7531
 994  759.4995
 995  770.9808
 996  725.2564
 997  608.9896
 998  393.6977
 999  478.5662
1000  542.3152
1001  676.0959
1002  689.3474
1003  816.2135
1004  965.5975
1005  1055.884
1006  801.1959
1007  712.7233
1008  669.2685
1009  681.5758
1010  571.8552
1011  584.2839
1012  586.1431
1013  660.8305
1014  666.3025
1015  600.0125
1016  644.8166
1017  661.4582
1018  875.6365
1019  898.9905
1020  845.9069
1021  795.0903
1022  711.3417
1023  850.6164
