# Input file       =  1194539265.099607_cleaned.dat
# Candidate        =  PSR_0332+5434
# Telescope        =  AR
# Epoch_topo       =  58069.686158560267
# Epoch_bary       =  N/A
# T_sample         =  0.002
# Data Folded      =  7143424
# Data Avg         =  0.69412062115382 
# Data StdDev      =  6.07787625906317 
# Profile Bins     =  1024
# Profile Avg      =  4842.18545025919 
# Profile StdDev   =  507.639128542801 
# Reduced chi-sqr  =  0.731
# Prob(Noise)      <  1   (~0.0 sigma)
# P_topo (ms)      =  714.506864249264  +/- 0.000347
# P'_topo (s/s)    =  -0                +/- 1.88e-10
# P''_topo (s/s^2) =  0                 +/- 8.53e-14
# P_bary (ms)      =  N/A
# P'_bary (s/s)    =  N/A
# P''_bary (s/s^2) =  N/A
# P_orb (s)        =  N/A
# asin(i)/c (s)    =  N/A
# eccentricity     =  N/A
# w (rad)          =  N/A
# T_peri           =  N/A
######################################################
   0  4821.14
   1  4891.859
   2  4870.994
   3  4867.366
   4  4877.844
   5  4877.698
   6  4806.332
   7  4819.825
   8  4888.936
   9  4973.67
  10  4989.49
  11  4919.562
  12  4920.499
  13  4831.451
  14  4920.838
  15  4945.009
  16  4833.369
  17  4789.655
  18  4776.955
  19  4997.158
  20  5002.803
  21  4807.719
  22  4729.407
  23  4654.993
  24  4816.154
  25  4907.712
  26  4988.188
  27  4905.071
  28  4887.886
  29  4849.823
  30  4919.287
  31  4916.675
  32  4752.962
  33  4758.018
  34  4899.648
  35  4843.37
  36  4833.993
  37  4792.34
  38  4791.787
  39  4765.214
  40  4748.047
  41  4807.357
  42  4743.889
  43  4650.903
  44  4832.389
  45  4896.103
  46  4924.42
  47  4884.119
  48  4865.524
  49  4927.013
  50  4901.774
  51  4843.773
  52  4837.564
  53  4733.016
  54  4813.11
  55  4943.756
  56  4995.382
  57  4908.75
  58  4969.064
  59  5012.085
  60  5203.829
  61  5216.683
  62  5175.776
  63  5183.409
  64  4971.599
  65  4782.438
  66  4684.653
  67  4708.594
  68  4870.586
  69  5131.507
  70  5122.705
  71  5117.642
  72  4947.079
  73  4907.96
  74  4794.027
  75  4836.536
  76  4833.393
  77  4967.463
  78  4820.696
  79  4677.767
  80  4580.898
  81  4529.414
  82  4758.177
  83  4947.894
  84  5041.043
  85  5063.151
  86  5072.741
  87  5208.746
  88  5038.711
  89  4759.999
  90  4789.524
  91  4848.938
  92  4890.239
  93  4893.053
  94  4823.35
  95  4776.187
  96  4698.085
  97  4705.75
  98  4789.886
  99  4876.507
 100  5031.464
 101  5246.332
 102  5333.896
 103  5237.717
 104  5176.079
 105  5325.702
 106  5319.845
 107  5228.541
 108  5098.52
 109  5211.612
 110  5330.251
 111  5199.566
 112  5147.708
 113  4997.81
 114  5146.553
 115  5138.907
 116  5143.597
 117  5052.751
 118  4941.378
 119  5033.426
 120  5188.068
 121  5090.059
 122  4848.835
 123  4692.1
 124  4686.338
 125  4605.049
 126  4602.288
 127  4719.74
 128  4975.622
 129  4971.637
 130  5117.576
 131  5150.817
 132  4994.673
 133  4837.253
 134  4948.545
 135  4968.396
 136  4961.27
 137  4814.599
 138  4928.097
 139  4954.917
 140  4822.49
 141  4851.856
 142  4933.27
 143  5155.299
 144  5022.05
 145  4899.376
 146  4761.914
 147  4832.853
 148  4870.982
 149  4924.524
 150  4917.634
 151  4995.18
 152  5025.352
 153  5056.423
 154  4939.512
 155  5036.667
 156  4829.546
 157  4929.926
 158  4912.623
 159  4999.088
 160  4895.305
 161  4876.236
 162  4865.845
 163  4896.32
 164  4800.34
 165  4876.475
 166  4719.45
 167  4595.195
 168  4441.159
 169  4519.208
 170  4639.181
 171  4913.551
 172  4961.495
 173  4833.438
 174  4609.996
 175  4777.48
 176  4844.678
 177  4784.763
 178  4688.257
 179  4764.523
 180  4692.587
 181  4569.472
 182  4542.646
 183  4636.887
 184  4668.412
 185  4617.252
 186  4604.274
 187  4651.56
 188  4649.876
 189  4559.16
 190  4504.152
 191  4556.978
 192  4706.444
 193  4786.765
 194  4672.371
 195  4438.591
 196  4427.339
 197  4633.677
 198  4826.824
 199  4673.623
 200  4639.976
 201  4609.757
 202  4702.832
 203  4578.333
 204  4458.447
 205  4499.999
 206  4425.136
 207  4481.279
 208  4496.899
 209  4536.942
 210  4691.45
 211  4744.771
 212  4817.878
 213  4630.347
 214  4581.664
 215  4555.116
 216  4723.243
 217  4723.028
 218  4697.619
 219  4620.447
 220  4566.108
 221  4437.861
 222  4597.823
 223  4613.239
 224  4618.023
 225  4523.739
 226  4704.358
 227  4826.976
 228  4785
 229  4749.333
 230  4847.821
 231  4867.042
 232  4950.632
 233  4825.024
 234  4840.043
 235  4592.408
 236  4684.662
 237  4767.532
 238  4940.521
 239  4942.568
 240  4849.222
 241  4791.77
 242  4635.784
 243  4659.034
 244  4748.763
 245  4933.05
 246  4874.628
 247  4902.784
 248  4846.54
 249  4878.784
 250  4647.74
 251  4602.837
 252  4520.357
 253  4761.826
 254  4742.719
 255  4730.839
 256  4580.69
 257  4544.522
 258  4691.597
 259  4792.893
 260  4784.813
 261  4664.629
 262  4559.162
 263  4612.899
 264  4433.723
 265  4600.688
 266  4753.38
 267  4894.305
 268  4721.579
 269  4656.479
 270  4629.409
 271  4690.106
 272  4693.585
 273  4703.356
 274  4533.743
 275  4374.989
 276  4530.497
 277  4740.086
 278  4718.063
 279  4510.908
 280  4532.97
 281  4675.146
 282  4741.196
 283  4626.142
 284  4715.88
 285  4676.578
 286  4765.694
 287  4682.134
 288  4595.106
 289  4292.305
 290  4422.515
 291  4443.631
 292  4642.888
 293  4505.037
 294  4555.777
 295  4565.528
 296  4751.16
 297  4772.026
 298  4861.22
 299  4800.657
 300  4777.801
 301  4781.043
 302  4790.907
 303  4703.693
 304  4631.6
 305  4612.179
 306  4595.978
 307  4599.816
 308  4560
 309  4578.887
 310  4602.013
 311  4699.623
 312  4639.135
 313  4725.858
 314  4627.865
 315  4505.962
 316  4338.304
 317  4292.969
 318  4482.042
 319  4565.388
 320  4693.401
 321  4685.528
 322  4762.071
 323  4828.466
 324  4895.452
 325  4867.18
 326  4763.415
 327  4791.176
 328  4749.912
 329  4541.106
 330  4356.663
 331  4411.625
 332  4722.221
 333  4723.953
 334  4643.342
 335  4560.233
 336  4630.343
 337  4646.579
 338  4623.41
 339  4420.88
 340  4364.347
 341  4467.136
 342  4650.225
 343  4885.262
 344  4729.646
 345  4788.912
 346  4599.207
 347  4735.322
 348  4687.251
 349  4807.157
 350  4810.127
 351  4947.498
 352  4972.828
 353  4829.229
 354  4646.419
 355  4770.067
 356  4892.711
 357  5023.236
 358  4910.671
 359  5026.025
 360  5060.28
 361  5139.108
 362  5218.295
 363  5257.568
 364  5198.134
 365  5208.952
 366  5295.289
 367  5457.014
 368  5334.214
 369  5445.689
 370  5411.53
 371  5266.947
 372  4931.504
 373  4854.135
 374  4972.693
 375  4891.76
 376  4997.007
 377  5102.064
 378  5021.373
 379  4798.8
 380  4898.477
 381  5131.908
 382  5161.13
 383  5101.222
 384  5144.861
 385  5108.472
 386  5168.626
 387  5170.148
 388  5136.259
 389  4849.715
 390  4885.172
 391  5063.547
 392  5208.797
 393  5135.276
 394  5084.903
 395  5184.965
 396  5174.172
 397  4985.478
 398  5060.631
 399  5092.071
 400  5246.036
 401  5412.115
 402  5396.386
 403  5338.806
 404  5311.758
 405  5522.159
 406  5593.255
 407  5465.458
 408  5380.317
 409  5460.07
 410  5521.22
 411  5677.763
 412  5648.762
 413  5740.586
 414  5621.251
 415  5502.93
 416  5470.725
 417  5482.593
 418  5467.016
 419  5463.509
 420  5341.211
 421  5150.367
 422  5068.672
 423  5136.337
 424  5027.482
 425  5032.972
 426  4877.807
 427  4956.425
 428  5075.694
 429  5241.139
 430  5355.068
 431  5418.606
 432  5331.345
 433  5301.968
 434  5262.641
 435  5081.875
 436  4852.935
 437  4748.984
 438  4783.395
 439  4663.328
 440  4489.193
 441  4673.188
 442  4867.38
 443  5038.3
 444  5099.141
 445  5191.217
 446  5205.854
 447  5113.396
 448  5064.311
 449  4979.439
 450  4838.802
 451  4810.255
 452  4818.681
 453  4664.8
 454  4433.807
 455  4523.341
 456  4610.371
 457  4676.183
 458  4852.029
 459  4964.376
 460  4980.272
 461  4864.123
 462  4981.831
 463  4943.549
 464  4790.367
 465  4711.044
 466  4788.043
 467  4747.508
 468  4603.608
 469  4497.957
 470  4553.919
 471  4536.449
 472  4684.241
 473  4767.047
 474  4925.023
 475  4854.929
 476  4905.839
 477  5054.606
 478  4990.86
 479  4884.073
 480  4941.149
 481  4882.175
 482  4873.43
 483  4690.748
 484  4930.95
 485  4639.313
 486  4689.073
 487  4826.133
 488  4950.381
 489  4765.366
 490  4755.168
 491  5026.355
 492  5046.451
 493  4871.657
 494  4835.166
 495  5024.463
 496  5100.577
 497  5134.381
 498  5171.132
 499  4970.44
 500  4758.243
 501  4792.053
 502  4894.581
 503  4698.141
 504  4566.796
 505  4569.438
 506  4705.658
 507  4746.584
 508  4725.785
 509  4838.416
 510  4714.459
 511  4976.375
 512  5091.248
 513  5105.445
 514  4924.894
 515  4774.085
 516  4885.784
 517  4682.757
 518  4504.042
 519  4482.642
 520  4707.5
 521  4661.688
 522  4714.886
 523  4709.752
 524  4830.017
 525  4808.314
 526  4785.03
 527  4687.997
 528  4580.338
 529  4740.378
 530  4845.604
 531  4926.453
 532  4731.449
 533  4711.627
 534  4744.84
 535  4577.289
 536  4477.727
 537  4460.712
 538  4734.468
 539  4690.288
 540  4790.71
 541  4682.301
 542  4724.01
 543  4576.847
 544  4639.684
 545  4678.521
 546  4759.268
 547  4773.308
 548  4826.125
 549  4787.797
 550  4638.598
 551  4408.226
 552  4544.58
 553  4665.514
 554  4751.47
 555  4580.662
 556  4543.166
 557  4597.304
 558  4720.548
 559  4657.784
 560  4506.545
 561  4467.284
 562  4597.997
 563  4699.287
 564  4586.302
 565  4523.69
 566  4590.174
 567  4599.303
 568  4556.515
 569  4494.48
 570  4567.507
 571  4549.882
 572  4502.579
 573  4481.469
 574  4503.62
 575  4514.413
 576  4477.077
 577  4698.726
 578  4684.312
 579  4679.799
 580  4560.927
 581  4657.52
 582  4721.231
 583  4617.937
 584  4644.883
 585  4747.544
 586  4689.735
 587  4674.992
 588  4721.838
 589  4951.48
 590  5043.613
 591  4980.261
 592  5243.845
 593  5131.473
 594  5069.757
 595  5107.567
 596  5066.66
 597  5014.674
 598  4869.851
 599  5061.984
 600  5097.146
 601  5096.011
 602  4991.662
 603  4941.771
 604  4825.242
 605  4676.101
 606  4705.687
 607  4750.6
 608  4868.902
 609  4770.94
 610  4876.674
 611  4873.979
 612  4754.077
 613  4830.378
 614  4808.35
 615  4764.475
 616  4804.901
 617  5028.901
 618  4936.098
 619  4660.105
 620  4668.441
 621  4823.583
 622  4861.536
 623  4791.952
 624  4882.746
 625  5091.871
 626  5161.433
 627  5200.764
 628  5269.723
 629  5228.812
 630  5205.243
 631  5349.023
 632  5440.446
 633  5269.04
 634  5121.519
 635  5030.098
 636  4985.367
 637  4703.933
 638  4560.808
 639  4543.49
 640  4642.202
 641  4582.871
 642  4805.56
 643  4745.293
 644  4848.21
 645  4809.261
 646  4923.183
 647  4811.701
 648  4571
 649  4523.86
 650  4536.206
 651  4685.343
 652  4829.454
 653  4828.433
 654  4900.861
 655  4859.523
 656  4902.192
 657  4796.713
 658  4741.161
 659  4679.172
 660  4871.913
 661  4990.694
 662  5021.83
 663  5008.924
 664  5098.69
 665  4923.875
 666  4980.496
 667  5010.902
 668  5158.758
 669  5009.229
 670  4824.788
 671  4875.83
 672  4817.535
 673  4919.81
 674  4788.422
 675  4871.623
 676  4728.535
 677  4818.037
 678  5069.302
 679  5267.684
 680  5357.398
 681  5505.578
 682  5447.518
 683  5230.834
 684  5063.736
 685  5125.609
 686  5139.624
 687  5136.158
 688  4942.904
 689  4955.778
 690  4895.26
 691  4855.58
 692  4957.436
 693  4986.668
 694  5118.125
 695  5187.3
 696  5219.988
 697  4934.512
 698  4655.348
 699  4583.081
 700  4716.239
 701  4696.955
 702  4644.383
 703  4647.716
 704  4785.082
 705  4982.251
 706  5085.211
 707  5039.646
 708  5006.985
 709  4828.154
 710  4779.476
 711  4672.892
 712  4636.943
 713  4681.543
 714  4779.011
 715  4561.473
 716  4423.051
 717  4398.175
 718  4506.618
 719  4727.403
 720  4792.144
 721  4845.272
 722  5111.755
 723  5091.553
 724  5090.904
 725  4964.495
 726  4777.757
 727  4789.582
 728  4781.818
 729  4786.184
 730  4702.817
 731  4865.786
 732  5076.531
 733  5071.6
 734  5081.982
 735  5022.362
 736  5017.223
 737  5058.803
 738  5113.201
 739  5130.628
 740  5020.049
 741  5075.716
 742  5025.322
 743  5076.75
 744  5045.935
 745  5082.584
 746  5205.032
 747  5256.811
 748  5297.41
 749  5162.355
 750  4796.088
 751  4677.855
 752  4599.867
 753  4699.958
 754  4759.809
 755  4863.078
 756  4914.362
 757  4944.17
 758  4984.615
 759  5186.211
 760  5307.917
 761  5484.332
 762  5412.375
 763  5491.941
 764  5274.958
 765  5101.427
 766  4979.318
 767  4934.255
 768  4838.182
 769  4785.349
 770  4772.631
 771  4728.186
 772  4681.272
 773  4767.551
 774  4908.296
 775  4949.19
 776  4956.112
 777  5027.635
 778  4993.469
 779  4918.042
 780  4963.721
 781  5035.25
 782  4978.516
 783  4799.659
 784  4737.363
 785  4768.699
 786  4542.729
 787  4593.809
 788  4657.593
 789  4900.091
 790  4813.281
 791  4702.078
 792  4761.62
 793  4855.866
 794  4826.208
 795  4992.595
 796  5203.034
 797  5120.324
 798  4907.986
 799  4908.657
 800  4868.547
 801  4784.14
 802  4822.474
 803  4944.771
 804  4958.105
 805  4691.807
 806  4696.149
 807  4735.814
 808  4716.075
 809  4638.94
 810  4680.385
 811  4905.964
 812  4993.516
 813  4968.778
 814  4892.292
 815  4425.325
 816  4476.128
 817  4514.985
 818  4715.049
 819  4541.896
 820  4582.781
 821  4561.316
 822  4572.634
 823  4431.833
 824  4485.228
 825  4540.562
 826  4456.391
 827  4409.933
 828  4540.275
 829  4626.106
 830  4314.179
 831  4252.707
 832  4365.363
 833  4597.69
 834  4537.443
 835  4496.238
 836  4402.029
 837  4416.227
 838  4476.732
 839  4556.911
 840  4462.201
 841  4340.982
 842  4346.654
 843  4466.494
 844  4499.202
 845  4508.694
 846  4438.644
 847  4671.442
 848  4610.276
 849  4494.868
 850  4230.458
 851  4222.874
 852  4296.976
 853  4551.422
 854  4616.044
 855  4583.406
 856  4452.698
 857  4414.416
 858  4474.348
 859  4499.471
 860  4403.971
 861  4423.723
 862  4419.76
 863  4571.719
 864  4638.586
 865  4631.041
 866  4699.63
 867  4791.942
 868  4966.527
 869  5018.549
 870  5105.42
 871  5093.989
 872  5259.622
 873  5049.822
 874  4881.771
 875  4701.979
 876  4651.184
 877  4564.89
 878  4703.446
 879  4851.835
 880  4920.947
 881  4840.235
 882  4875.079
 883  4724.266
 884  4845.275
 885  4820.239
 886  5082.082
 887  5074.175
 888  5168.872
 889  5094.158
 890  5116.005
 891  4936.471
 892  5026.289
 893  5242.495
 894  5419.187
 895  5324.895
 896  5038.596
 897  4828.496
 898  4886.064
 899  4986.223
 900  5079.881
 901  4841.339
 902  4829.58
 903  4834.371
 904  5107.498
 905  5016.914
 906  4860.34
 907  4746.512
 908  4892.102
 909  5041.464
 910  5075.945
 911  5029.94
 912  5056.576
 913  5022.573
 914  4861.222
 915  4798.411
 916  4712.311
 917  4967.287
 918  4937.57
 919  5058.336
 920  5091.958
 921  4971.393
 922  4880.87
 923  4709.411
 924  4718.657
 925  4582.179
 926  4636.493
 927  4788.635
 928  4893.738
 929  4789.185
 930  4697.4
 931  4865.417
 932  4774.975
 933  4796.918
 934  4685.578
 935  4822.899
 936  4932.498
 937  4891.974
 938  4834.194
 939  4800.23
 940  4820.638
 941  4927.301
 942  4980.424
 943  5051.021
 944  5044.686
 945  5256.499
 946  5159.13
 947  5013.278
 948  4608.197
 949  4837.086
 950  4874.607
 951  4924.241
 952  4874.601
 953  4941.401
 954  4659.571
 955  4650.426
 956  4601.402
 957  4692.13
 958  4660.135
 959  4740.365
 960  5052.191
 961  5146.506
 962  5180.686
 963  5124.113
 964  5115.008
 965  4970.485
 966  4840.851
 967  4735.903
 968  4707.294
 969  4712.688
 970  4801.959
 971  4741.027
 972  4574.299
 973  4525.905
 974  4663.522
 975  4621.156
 976  4716.094
 977  4935.336
 978  5176.954
 979  5007.028
 980  4971.543
 981  5045.646
 982  5262.232
 983  5019.607
 984  4876.703
 985  4694.622
 986  4793.319
 987  4714.655
 988  4803.333
 989  4872.587
 990  4952.632
 991  4968.083
 992  5069.365
 993  5029.582
 994  4958.971
 995  5053.63
 996  5097.557
 997  5010.872
 998  4949.135
 999  4754.603
1000  4716.925
1001  4621.049
1002  4483.341
1003  4414.577
1004  4471.365
1005  4674.472
1006  4787.934
1007  4814.571
1008  4804.874
1009  4839.781
1010  4915.819
1011  5054.201
1012  4914.854
1013  4715.885
1014  4711.351
1015  4774.936
1016  4730.442
1017  4720.776
1018  4616.805
1019  4899.248
1020  4972.038
1021  5042.678
1022  4949.943
1023  4830.522
