# Input file       =  1194741724.105465_cleaned.dat
# Candidate        =  PSR_0332+5434
# Telescope        =  AR
# Epoch_topo       =  58072.029434091026
# Epoch_bary       =  N/A
# T_sample         =  0.002
# Data Folded      =  7340032
# Data Avg         =  0.0535850803218115
# Data StdDev      =  3.65189922045537 
# Profile Bins     =  512
# Profile Avg      =  768.33601114102  
# Profile StdDev   =  437.252982207067 
# Reduced chi-sqr  =  0.952
# Prob(Noise)      <  0.775   (~0.0 sigma)
# P_topo (ms)      =  714.509574674299  +/- 0.000284
# P'_topo (s/s)    =  -0                +/- 1.5e-10
# P''_topo (s/s^2) =  0                 +/- 6.61e-14
# P_bary (ms)      =  N/A
# P'_bary (s/s)    =  N/A
# P''_bary (s/s^2) =  N/A
# P_orb (s)        =  N/A
# asin(i)/c (s)    =  N/A
# eccentricity     =  N/A
# w (rad)          =  N/A
# T_peri           =  N/A
######################################################
   0  981.4709
   1  837.8481
   2  677.7032
   3  686.8904
   4  688.8071
   5  930.9207
   6  833.9179
   7  1046.918
   8  858.8755
   9  648.7253
  10  592.6476
  11  580.932
  12  425.7712
  13  928.1487
  14  803.7268
  15  612.4945
  16  619.7455
  17  536.8148
  18  611.3435
  19  715.4003
  20  817.4077
  21  586.04
  22  457.4733
  23  401.8626
  24  423.3381
  25  390.5119
  26  867.834
  27  1059.265
  28  730.8724
  29  817.9372
  30  474.5202
  31  579.069
  32  1137.406
  33  831.2737
  34  1218.54
  35  1160.003
  36  1256.788
  37  1061.584
  38  1053.771
  39  1488.078
  40  1499.866
  41  1147.635
  42  1122.254
  43  1385.56
  44  890.5147
  45  753.3281
  46  1184.306
  47  1282.351
  48  1058.697
  49  723.8941
  50  669.3641
  51  798.4017
  52  929.6274
  53  973.9378
  54  1018.644
  55  1089.782
  56  1116.22
  57  1439.548
  58  1557.846
  59  1150.114
  60  1301.813
  61  1080.969
  62  1157.446
  63  1219.278
  64  790.1198
  65  813.6258
  66  611.35
  67  712.2097
  68  831.8257
  69  997.1891
  70  882.7743
  71  561.4155
  72  441.6873
  73  888.6183
  74  1121.265
  75  740.0029
  76  1027.124
  77  525.0314
  78  628.5827
  79  733.7424
  80  677.5452
  81  1034.894
  82  1115.205
  83  954.2706
  84  934.129
  85  606.426
  86  711.1925
  87  1208.772
  88  1433.112
  89  1041.16
  90  1062.038
  91  1152.922
  92  973.5158
  93  1173.029
  94  1120.989
  95  1169.822
  96  993.1602
  97  1107.839
  98  1063.202
  99  886.6138
 100  971.1561
 101  745.0174
 102  906.543
 103  884.0772
 104  554.8482
 105  1011.251
 106  1316.088
 107  1271.361
 108  917.4514
 109  711.4485
 110  785.5401
 111  1017.952
 112  1252.817
 113  1107.097
 114  958.7869
 115  666.2478
 116  791.7657
 117  1089.516
 118  862.3086
 119  800.4274
 120  1101.394
 121  835.1207
 122  832.4749
 123  1231.954
 124  1116.883
 125  1347.387
 126  1444.635
 127  1053.232
 128  812.0879
 129  618.1263
 130  658.8544
 131  751.5541
 132  928.0054
 133  1306.154
 134  1129.556
 135  813.5904
 136  853.5501
 137  1095.893
 138  767.8533
 139  605.9328
 140  860.7007
 141  645.8962
 142  706.1223
 143  937.4794
 144  1202.675
 145  1034.472
 146  571.2474
 147  502.3055
 148  1082.411
 149  1216.831
 150  1160.199
 151  1360.404
 152  1026.836
 153  787.4844
 154  733.5291
 155  996.8766
 156  1243.005
 157  859.7018
 158  917.423
 159  1146.008
 160  1199.727
 161  1146.779
 162  1024.905
 163  1377.128
 164  1418.831
 165  1104.229
 166  840.7328
 167  648.3188
 168  390.2007
 169  754.915
 170  905.8937
 171  977.1118
 172  949.037
 173  378.6999
 174  797.397
 175  821.7955
 176  1050.095
 177  585.5236
 178  601.1362
 179  863.3385
 180  894.8724
 181  947.9199
 182  1122.881
 183  830.0503
 184  872.7274
 185  909.5921
 186  785.9802
 187  617.276
 188  837.0654
 189  1050.507
 190  870.8575
 191  891.7519
 192  744.8565
 193  665.0618
 194  770.6143
 195  817.1699
 196  983.5342
 197  887.8864
 198  1029.846
 199  893.2949
 200  1010.14
 201  747.467
 202  1132.565
 203  753.5581
 204  647.0728
 205  768.386
 206  961.7216
 207  994.481
 208  1088.17
 209  754.1423
 210  801.6571
 211  1107.998
 212  767.9105
 213  873.7155
 214  820.1414
 215  844.5542
 216  1227.666
 217  1203.192
 218  931.1407
 219  1111.51
 220  1089.728
 221  987.7405
 222  875.2165
 223  625.2646
 224  1152.37
 225  1055.523
 226  795.3575
 227  950.1874
 228  779.1309
 229  568.3835
 230  894.5223
 231  1112.213
 232  945.8993
 233  679.2016
 234  819.6394
 235  1058.373
 236  1005.416
 237  799.5834
 238  1041.199
 239  828.7612
 240  1173.073
 241  1244.904
 242  646.1174
 243  677.5955
 244  664.6615
 245  533.9875
 246  644.8886
 247  1093.354
 248  950.8521
 249  653.3702
 250  492.5032
 251  808.0143
 252  835.8252
 253  780.4085
 254  940.9274
 255  924.4225
 256  891.6402
 257  648.6652
 258  869.7828
 259  757.7681
 260  794.4919
 261  912.8423
 262  932.7537
 263  911.2056
 264  900.499
 265  976.6675
 266  1021.491
 267  951.6506
 268  813.1532
 269  1087.562
 270  747.4841
 271  721.9612
 272  862.4569
 273  898.6282
 274  922.9597
 275  858.3403
 276  833.3189
 277  1158.423
 278  1048.619
 279  958.0225
 280  774.722
 281  438.8835
 282  502.1544
 283  874.0823
 284  956.3341
 285  589.8288
 286  624.169
 287  787.6025
 288  497.7498
 289  361.9455
 290  587.1774
 291  587.5652
 292  680.1111
 293  596.1688
 294  653.0358
 295  908.0228
 296  775.4177
 297  521.2866
 298  129.1729
 299  517.2784
 300  513.7831
 301  574.5918
 302  716.4111
 303  836.1567
 304  861.0015
 305  563.1338
 306  998.7667
 307  812.5423
 308  545.2404
 309  610.8177
 310  903.6578
 311  793.7545
 312  441.2104
 313  631.4407
 314  629.7436
 315  771.4077
 316  1134.106
 317  610.7416
 318  162.5912
 319  400.2986
 320  739.6504
 321  728.9182
 322  658.2986
 323  757.4936
 324  128.5083
 325  450.4305
 326  562.1998
 327  284.5178
 328  33.30289
 329  306.4461
 330  429.4124
 331  431.4658
 332  291.9018
 333  538.6483
 334  450.8542
 335  485.779
 336  679.873
 337  560.2464
 338  321.0954
 339  224.0615
 340  171.3949
 341  366.9473
 342  552.7262
 343  425.2974
 344  367.4669
 345  131.3859
 346  371.6569
 347  473.6227
 348  407.865
 349  608.2063
 350  547.0337
 351  452.7145
 352  516.6254
 353  541.2123
 354  447.7027
 355  -47.08297
 356  175.0639
 357  468.691
 358  614.6134
 359  749.0947
 360  692.0019
 361  828.0425
 362  715.0596
 363  696.3384
 364  656.7182
 365  418.0283
 366  436.1427
 367  367.2648
 368  807.9368
 369  876.5942
 370  800.837
 371  735.975
 372  236.1893
 373  182.3005
 374  623.0646
 375  745.6254
 376  932.4111
 377  1270.833
 378  1499.027
 379  2161.886
 380  2389.801
 381  2183.331
 382  1661.277
 383  1283.926
 384  1311.081
 385  862.7589
 386  837.7916
 387  845.1547
 388  972.8018
 389  813.4429
 390  651.0291
 391  539.6685
 392  551.8807
 393  679.106
 394  861.1047
 395  747.9045
 396  641.781
 397  998.5818
 398  1091.956
 399  1109.863
 400  568.7615
 401  352.5136
 402  324.0559
 403  497.0588
 404  1090.695
 405  705.3073
 406  511.9163
 407  650.0298
 408  511.7303
 409  413.0493
 410  466.1919
 411  362.6058
 412  273.2496
 413  479.4618
 414  470.1339
 415  504.9275
 416  615.6832
 417  654.7588
 418  575.1578
 419  330.2023
 420  301.1856
 421  654.2576
 422  747.0115
 423  504.3047
 424  348.515
 425  481.0343
 426  393.0721
 427  424.5222
 428  666.8566
 429  937.4338
 430  460.3187
 431  406.7015
 432  771.4866
 433  364.0149
 434  751.5951
 435  847.8622
 436  584.0545
 437  739.9496
 438  655.0833
 439  508.7845
 440  897.8447
 441  654.3257
 442  709.6158
 443  795.4548
 444  954.5413
 445  604.673
 446  769.3301
 447  692.1669
 448  699.9371
 449  402.0456
 450  286.5537
 451  717.38
 452  963.9528
 453  478.4196
 454  562.4631
 455  411.5252
 456  789.0638
 457  825.1514
 458  880.4073
 459  757.998
 460  594.4204
 461  273.4002
 462  284.3948
 463  183.4039
 464  518.2299
 465  425.0808
 466  185.7732
 467  301.6512
 468  234.0188
 469  327.6291
 470  555.4554
 471  658.4357
 472  516.7549
 473  483.5655
 474  518.5537
 475  419.3878
 476  345.1226
 477  382.1518
 478  611.8661
 479  328.8475
 480  512.6793
 481  470.3404
 482  711.2086
 483  561.9163
 484  523.5765
 485  694.6932
 486  533.6971
 487  293.6201
 488  595.062
 489  229.5898
 490  156.9373
 491  425.0886
 492  736.1208
 493  458.1573
 494  735.5579
 495  685.2817
 496  660.4482
 497  489.2135
 498  415.5551
 499  479.7566
 500  319.3517
 501  269.3944
 502  475.7158
 503  665.8987
 504  196.6128
 505  126.6434
 506  173.0998
 507  601.3793
 508  553.3261
 509  355.9541
 510  597.0134
 511  738.903
