# Input file       =  1194625430.102127_cleaned.dat
# Candidate        =  PSR_0332+5434
# Telescope        =  AR
# Epoch_topo       =  58070.683438682026
# Epoch_bary       =  N/A
# T_sample         =  0.002
# Data Folded      =  7143424
# Data Avg         =  0.101410297643813
# Data StdDev      =  4.73746690366634 
# Profile Bins     =  512
# Profile Avg      =  1414.82831956702 
# Profile StdDev   =  559.582884690762 
# Reduced chi-sqr  =  0.615
# Prob(Noise)      <  1   (~0.0 sigma)
# P_topo (ms)      =  714.507860949163  +/- 2.13e-05
# P'_topo (s/s)    =  -0                +/- 1.16e-11
# P''_topo (s/s^2) =  0                 +/- 5.24e-15
# P_bary (ms)      =  N/A
# P'_bary (s/s)    =  N/A
# P''_bary (s/s^2) =  N/A
# P_orb (s)        =  N/A
# asin(i)/c (s)    =  N/A
# eccentricity     =  N/A
# w (rad)          =  N/A
# T_peri           =  N/A
######################################################
   0  1101.663
   1  1077.962
   2  1481.535
   3  1317.669
   4  1327.874
   5  1097.597
   6  1205.092
   7  1233.837
   8  1305.763
   9  1530.008
  10  1421.654
  11  1420.877
  12  1282.81
  13  1755.521
  14  1565.759
  15  1271.694
  16  1101.831
  17  981.5889
  18  1559.286
  19  1575.756
  20  1776.071
  21  1746.806
  22  1714.761
  23  1449.009
  24  821.4698
  25  1643.166
  26  1404.828
  27  1647.134
  28  1400.396
  29  1919.8
  30  2019.466
  31  1270.016
  32  1452.114
  33  1009.248
  34  1450.759
  35  1257.781
  36  1486.946
  37  1648.681
  38  1836.373
  39  2037.489
  40  1332.719
  41  1504.063
  42  1178.13
  43  1410.238
  44  1425.695
  45  1535.951
  46  1909.539
  47  1370.893
  48  1682.591
  49  1391.574
  50  1648.385
  51  1083.349
  52  1525.366
  53  1813.867
  54  1443.743
  55  1684.386
  56  1332.22
  57  1590.852
  58  1299.477
  59  1265.913
  60  1519.658
  61  1411.897
  62  1882.077
  63  1517.108
  64  1685.679
  65  1418.257
  66  1698.464
  67  1956.84
  68  1449.11
  69  1798.739
  70  1509.139
  71  1812.307
  72  1152.224
  73  1437.156
  74  1652.758
  75  1662.982
  76  1497.149
  77  1138.392
  78  1368.242
  79  867.9422
  80  1773.843
  81  1439.5
  82  1484.089
  83  1187.536
  84  1156.179
  85  1485.447
  86  1287.252
  87  1780.964
  88  1562.26
  89  1268.524
  90  915.5364
  91  1363.189
  92  1954.892
  93  1341.697
  94  1507.095
  95  1371.837
  96  1258.968
  97  1260.04
  98  1594.56
  99  1829.39
 100  1292.492
 101  980.8747
 102  587.3008
 103  925.4233
 104  1080.5
 105  1238.851
 106  1140.281
 107  1139.073
 108  1319.847
 109  1250.181
 110  1509.564
 111  1531.013
 112  1854.497
 113  2030.559
 114  1845.64
 115  1623.05
 116  890.8547
 117  1470.348
 118  1120.729
 119  1185.822
 120  1477.79
 121  1365.415
 122  1405.85
 123  1071.937
 124  1555.115
 125  1304.184
 126  1151.554
 127  1110.319
 128  1473.015
 129  1563.863
 130  1004.756
 131  1304.215
 132  1153.15
 133  1439.355
 134  1355.201
 135  1421.186
 136  1408.027
 137  1206.082
 138  1655.545
 139  1013.559
 140  1041.042
 141  970.3729
 142  1148.013
 143  1068.538
 144  1177.669
 145  1736.022
 146  1321.173
 147  1176.864
 148  1026.055
 149  1749.006
 150  1623.691
 151  1139.839
 152  1440.801
 153  1104.878
 154  1499.49
 155  799.4335
 156  1119.515
 157  1485.186
 158  1544.538
 159  1661.634
 160  1404.119
 161  1296.545
 162  1348.267
 163  2091.551
 164  1738.11
 165  1456.58
 166  1320.369
 167  1369.558
 168  1865.962
 169  1329.19
 170  1485.626
 171  1383.196
 172  1135.841
 173  1040.96
 174  885.1622
 175  1723.599
 176  1273.245
 177  1827.015
 178  1613.695
 179  1568.578
 180  1402.069
 181  1258.43
 182  1986.61
 183  1501.905
 184  1377.605
 185  1364.79
 186  1271.193
 187  1255.018
 188  1316.341
 189  1474.585
 190  1319.315
 191  1421.663
 192  1355.628
 193  1434.699
 194  1379.739
 195  1771.113
 196  1879.198
 197  1476.426
 198  1479.195
 199  1384.797
 200  1470.192
 201  1223.991
 202  1339.814
 203  1345.919
 204  1468.668
 205  1621.213
 206  1371.138
 207  1430.835
 208  1698.626
 209  1389.601
 210  1250.209
 211  1285.493
 212  1605.013
 213  1252.542
 214  1547.635
 215  1268.075
 216  1422.672
 217  1704.999
 218  1691.544
 219  1446.19
 220  1008.56
 221  1583.496
 222  1659.797
 223  2135.057
 224  1648.362
 225  1651.327
 226  1353.347
 227  1537.215
 228  1879.316
 229  1108.272
 230  1493.941
 231  1389.943
 232  2080.217
 233  2157.98
 234  1768.473
 235  1458.692
 236  1133.861
 237  1134.115
 238  1348.111
 239  2028.588
 240  1612.083
 241  1284.388
 242  1484.692
 243  1020.132
 244  1563.804
 245  1245.45
 246  1717.188
 247  1307.087
 248  1313.426
 249  1412.532
 250  1300.768
 251  1352.613
 252  1489.322
 253  1689.369
 254  1458.528
 255  1225.853
 256  1579.165
 257  1443.058
 258  1533.23
 259  1975.601
 260  2403.532
 261  2208.452
 262  2742.025
 263  2887.759
 264  3006.554
 265  2992.919
 266  2478.534
 267  2293.658
 268  2005.94
 269  1611.862
 270  1596.712
 271  1450.231
 272  1477.546
 273  1358.77
 274  1787.749
 275  1328.62
 276  1578.011
 277  1934.868
 278  1727.072
 279  1961.983
 280  1449.038
 281  1645.732
 282  1228.527
 283  1228.728
 284  1446.838
 285  1717.865
 286  1840.398
 287  1621.541
 288  1679.987
 289  945.4017
 290  1275.663
 291  1334.807
 292  1825.577
 293  1798.176
 294  1938.841
 295  2189.012
 296  1056.47
 297  1610.23
 298  1191.249
 299  1602.817
 300  1477.346
 301  1426.628
 302  1445.217
 303  1501.12
 304  1963.047
 305  1347.639
 306  1641.749
 307  1396.313
 308  1457.664
 309  1485.689
 310  1432.835
 311  1879.939
 312  1316.312
 313  1721.335
 314  1509.443
 315  1449.16
 316  1612.567
 317  1379.238
 318  1437.764
 319  1113.811
 320  1439.976
 321  1406.712
 322  1527.693
 323  1445.684
 324  1542.359
 325  1489.482
 326  1253.277
 327  1621.932
 328  1327.178
 329  1325.126
 330  1051.072
 331  1088.399
 332  1443.259
 333  858.6666
 334  1244.964
 335  1179.286
 336  1355.902
 337  1130.622
 338  1475.431
 339  1337.833
 340  882.6514
 341  903.7829
 342  1167.069
 343  1848.656
 344  1744.847
 345  1420.755
 346  1420.127
 347  904.8361
 348  732.9517
 349  653.5293
 350  1096.684
 351  940.2263
 352  1040.353
 353  1462.35
 354  1162.679
 355  1226.49
 356  624.3817
 357  1130.927
 358  1218.718
 359  1696.247
 360  1793.268
 361  1732.841
 362  1255.99
 363  624.0323
 364  1691.828
 365  1429.275
 366  1366.221
 367  1435.019
 368  1661.468
 369  1506.286
 370  1227.294
 371  1545.555
 372  1129.936
 373  890.8141
 374  1162.422
 375  1633.48
 376  1646.201
 377  1443.068
 378  1498.895
 379  1211.734
 380  1482.646
 381  1258.089
 382  1208.217
 383  814.8115
 384  785.3219
 385  1283.043
 386  755.1564
 387  681.0927
 388  974.2856
 389  1762.356
 390  1314.576
 391  1518.305
 392  1525.696
 393  1092.552
 394  1342.684
 395  1016.501
 396  1628.248
 397  1462.282
 398  1318.674
 399  1502.628
 400  1363.072
 401  1492.183
 402  1122.538
 403  1591.199
 404  1031
 405  1566.997
 406  1581.755
 407  1622.614
 408  1586.624
 409  1217.83
 410  1535.069
 411  1540.888
 412  1673.636
 413  1413.263
 414  1407.699
 415  1051.591
 416  720.797
 417  977.8293
 418  875.6221
 419  1220.437
 420  1346.288
 421  1412.212
 422  1311.887
 423  896.0938
 424  1408.986
 425  1164.941
 426  1627.708
 427  1256.209
 428  1109.672
 429  1471.273
 430  1223.76
 431  1278.892
 432  1128.08
 433  1489.975
 434  1122.885
 435  1368.395
 436  1451.3
 437  1188.283
 438  1256.561
 439  1006.761
 440  1120.684
 441  1054.256
 442  1389.968
 443  1293.197
 444  1792.594
 445  1870.683
 446  1452.239
 447  1485.141
 448  942.2969
 449  1083.378
 450  1363.288
 451  1868.395
 452  1772.548
 453  1410.196
 454  1185.396
 455  1184.12
 456  1323.977
 457  1255.108
 458  1629.18
 459  1711.606
 460  1512.523
 461  1553.519
 462  1073.914
 463  1013.165
 464  1012.362
 465  1030.426
 466  1272.113
 467  1480.017
 468  1562.711
 469  857.072
 470  1198.645
 471  1469.104
 472  1525.465
 473  1134.292
 474  1568.676
 475  1698.322
 476  1165.763
 477  1482.465
 478  1456.462
 479  1782.088
 480  996.8527
 481  1234.017
 482  1193.327
 483  1127.755
 484  1316.351
 485  1428.071
 486  1716.801
 487  1372.698
 488  1409.41
 489  1211.824
 490  1087.546
 491  1371.774
 492  1099.664
 493  1501.462
 494  1084.426
 495  1392.716
 496  1466.961
 497  1331.411
 498  1589.78
 499  1064.659
 500  1321.496
 501  1108.07
 502  893.4307
 503  790.0753
 504  869.9652
 505  1363.245
 506  1258.887
 507  1693.16
 508  1376.875
 509  1826.713
 510  1260.186
 511  1336.364
