# Input file       =  1194381597.099506_cleaned.dat
# Candidate        =  PSR_0332+5434
# Telescope        =  AR
# Epoch_topo       =  58067.861297447984
# Epoch_bary       =  N/A
# T_sample         =  0.002
# Data Folded      =  7340032
# Data Avg         =  0.120033950611416
# Data StdDev      =  3.77566499028581 
# Profile Bins     =  512
# Profile Avg      =  1722.2144148159  
# Profile StdDev   =  452.071833628373 
# Reduced chi-sqr  =  0.640
# Prob(Noise)      <  1   (~0.0 sigma)
# P_topo (ms)      =  714.505068470414  +/- 0.000465
# P'_topo (s/s)    =  -0                +/- 2.45e-10
# P''_topo (s/s^2) =  0                 +/- 1.08e-13
# P_bary (ms)      =  N/A
# P'_bary (s/s)    =  N/A
# P''_bary (s/s^2) =  N/A
# P_orb (s)        =  N/A
# asin(i)/c (s)    =  N/A
# eccentricity     =  N/A
# w (rad)          =  N/A
# T_peri           =  N/A
######################################################
   0  1833.461
   1  1843.489
   2  1818.49
   3  1906.438
   4  2078.657
   5  1925.766
   6  1907.125
   7  1873.609
   8  1538.543
   9  1144.653
  10  1425.018
  11  1675.801
  12  1829.281
  13  1822.058
  14  1724.306
  15  1449.099
  16  1605.948
  17  1636.035
  18  1394.006
  19  1416.776
  20  1598.031
  21  1705.367
  22  1760.511
  23  1683.448
  24  1741.497
  25  1840.75
  26  1912.682
  27  1631.02
  28  1456.532
  29  1560.898
  30  1397.73
  31  1533.083
  32  1666.904
  33  1884.433
  34  2446.434
  35  1884.003
  36  1833.205
  37  1957.553
  38  1855.349
  39  1603.708
  40  1604.523
  41  1925.496
  42  1867.749
  43  1930.766
  44  1839.208
  45  1771.227
  46  1908.242
  47  2122.266
  48  2391.908
  49  2784.385
  50  3200.556
  51  2740.642
  52  2457.929
  53  2150.98
  54  1731.047
  55  1451.703
  56  1250.99
  57  1243.655
  58  1429.076
  59  1057.842
  60  1282.589
  61  1411.765
  62  1419.441
  63  1458.89
  64  1562.333
  65  1689.131
  66  1499.964
  67  1690.846
  68  1750.545
  69  1648.634
  70  1745.63
  71  1695.85
  72  1416.32
  73  1562.74
  74  1557.854
  75  1460.417
  76  1873.295
  77  1770.611
  78  1719.57
  79  1620.753
  80  1580.452
  81  1750.477
  82  1535.064
  83  1753.369
  84  1941.104
  85  1888.708
  86  1825.478
  87  1822.166
  88  1877.839
  89  1725.644
  90  1791.17
  91  1949.083
  92  1576.932
  93  1327.535
  94  1416.909
  95  1593.612
  96  1441.526
  97  1600.135
  98  1738.933
  99  1307.793
 100  1375.716
 101  1705.88
 102  1342.494
 103  1089.048
 104  1314.562
 105  1487.086
 106  1591.277
 107  1644.027
 108  1280.947
 109  1333.329
 110  1366.477
 111  1141.241
 112  1137.961
 113  1365.328
 114  1475.774
 115  1390.701
 116  1423.038
 117  1620.348
 118  1392.885
 119  1565.462
 120  1636.408
 121  1330.231
 122  1425.629
 123  1665.459
 124  1497.23
 125  1423.784
 126  1693.96
 127  1615.507
 128  1698.6
 129  1532.665
 130  1266.678
 131  1131.383
 132  1286.643
 133  1576.076
 134  1496.641
 135  1363.86
 136  1344.611
 137  1340.054
 138  1389.396
 139  1564.012
 140  1581.891
 141  1334.773
 142  1317.808
 143  1399.212
 144  1552.433
 145  1548.165
 146  1702.446
 147  1949.13
 148  1885.819
 149  1320.14
 150  1458.013
 151  1977.606
 152  1788.392
 153  1656.521
 154  1749.178
 155  2183.781
 156  1640.964
 157  1498.12
 158  1541.87
 159  1367.07
 160  1444.472
 161  1890.091
 162  1788.881
 163  1932.167
 164  1785.197
 165  1751.573
 166  1966.42
 167  1906.742
 168  2028.899
 169  2037.388
 170  2110.376
 171  1977.853
 172  1900.094
 173  1970.306
 174  2157.823
 175  2216.272
 176  1839.653
 177  1860.794
 178  1744.706
 179  1809.812
 180  1969.928
 181  2058.766
 182  2276.941
 183  1948.306
 184  1930.121
 185  1871.898
 186  1491.204
 187  2042.31
 188  1999.032
 189  1781.859
 190  1663.025
 191  1792.558
 192  1908.432
 193  1994.587
 194  2032.192
 195  2211.451
 196  1945.758
 197  2178.493
 198  2301.11
 199  2083.59
 200  1990.594
 201  2062.463
 202  1879.963
 203  2073.993
 204  1951.544
 205  1785.975
 206  1505.728
 207  1518.491
 208  1595.081
 209  1618.676
 210  1560.783
 211  1624.825
 212  1455.224
 213  1681.264
 214  1362.948
 215  1296.53
 216  1653.113
 217  1347.873
 218  1347.477
 219  1395.014
 220  1717.249
 221  1463.776
 222  1534.806
 223  1491.911
 224  1637.26
 225  1730.096
 226  1690.194
 227  1636.365
 228  1623.053
 229  2003.391
 230  2101.777
 231  1735.003
 232  1619.209
 233  1754.148
 234  1700.13
 235  1791.979
 236  1538.638
 237  1423.032
 238  1560.597
 239  1635.917
 240  1900.215
 241  1891.716
 242  1869.785
 243  1475.786
 244  1396.435
 245  1861.699
 246  1963.419
 247  2157.013
 248  2155.6
 249  2312.221
 250  2233.952
 251  2047.469
 252  2060.542
 253  1998.446
 254  2119.902
 255  2083.298
 256  1892.824
 257  2066.68
 258  2131.877
 259  2098.691
 260  1810.78
 261  1672.735
 262  1887.966
 263  1814.384
 264  1767.083
 265  2012.829
 266  2250.737
 267  1985.135
 268  1938.31
 269  2017.778
 270  1847.726
 271  1922.269
 272  1882.272
 273  2105.883
 274  1936.999
 275  1802.193
 276  1854.27
 277  2115.235
 278  2080.928
 279  2303.813
 280  1968.087
 281  1937.715
 282  1921.454
 283  1975.845
 284  1952.897
 285  1955.192
 286  1888.028
 287  1953.477
 288  2012.057
 289  1901.395
 290  1850.801
 291  1804.525
 292  1874.206
 293  1759.916
 294  1877.891
 295  2064.545
 296  2104.094
 297  2167.502
 298  1830.534
 299  1888.13
 300  1860.473
 301  1868.907
 302  1672.559
 303  1664.448
 304  1570.619
 305  1564.282
 306  1510.398
 307  1389.538
 308  1102.059
 309  1450.374
 310  1811.982
 311  1885.595
 312  1793.237
 313  1728.592
 314  1693.124
 315  1744.99
 316  1770.154
 317  1780.808
 318  1785.944
 319  1966.386
 320  2171.573
 321  1866.453
 322  1667.613
 323  1538.115
 324  1933.844
 325  1773.741
 326  2082.752
 327  1950.104
 328  2026.855
 329  1856.671
 330  1864.995
 331  2061.843
 332  2078.132
 333  1856.367
 334  1767.508
 335  1894.337
 336  2107.398
 337  1993.153
 338  1798.111
 339  1783.702
 340  1894.788
 341  1783.396
 342  1599.955
 343  1842.101
 344  1691.848
 345  1518.386
 346  1592.793
 347  1806.13
 348  1854.495
 349  1790.929
 350  1881.466
 351  1715.944
 352  1725.116
 353  1782.695
 354  1603.297
 355  1720.636
 356  1654.947
 357  1788.964
 358  1825.562
 359  1654.141
 360  1969.24
 361  1898.159
 362  1732.337
 363  1668.803
 364  1703.193
 365  1907.528
 366  1892.389
 367  1744.915
 368  1676.906
 369  1723.736
 370  1695.831
 371  1775.927
 372  1543.378
 373  1572.507
 374  1802.445
 375  1768.268
 376  1440.974
 377  1443.289
 378  1692.481
 379  1832.28
 380  1781.639
 381  1942.235
 382  1891.319
 383  1803.844
 384  1787.837
 385  1816.4
 386  1666.911
 387  1618.478
 388  1599.511
 389  1622.966
 390  1845.673
 391  1806.423
 392  1693.923
 393  1788.88
 394  2001.647
 395  1793.676
 396  1686.112
 397  1865.979
 398  2018.485
 399  1800.19
 400  1914.79
 401  1758.107
 402  1617.957
 403  1647.612
 404  1498.509
 405  1736.966
 406  1845.654
 407  1603.49
 408  1815.125
 409  1689.796
 410  2087.159
 411  1746.494
 412  1564.939
 413  1852.909
 414  1613.087
 415  1426.593
 416  1445.914
 417  1666.062
 418  1430.275
 419  1332.771
 420  1847.525
 421  2000.622
 422  1931.036
 423  1681.052
 424  2032.844
 425  1827.72
 426  1806.294
 427  1549.242
 428  1457.092
 429  1357.975
 430  1597.785
 431  2028.952
 432  1813.926
 433  1742.12
 434  1734.692
 435  1550.113
 436  1754.853
 437  1596.878
 438  1669.24
 439  1780.065
 440  1882.748
 441  1527.092
 442  1426.897
 443  1404.239
 444  1610.117
 445  1590.31
 446  1354.384
 447  1212.769
 448  1220.677
 449  1282.147
 450  1580.83
 451  1781.162
 452  1756.388
 453  1811.324
 454  1554.809
 455  1520.612
 456  1154.385
 457  1326.991
 458  1390.319
 459  1761.18
 460  1780.981
 461  1761.785
 462  1666.011
 463  1499.941
 464  1748.745
 465  1638.442
 466  1602.498
 467  1538.117
 468  1631.214
 469  1496.974
 470  1160.057
 471  1039.788
 472  1347.58
 473  1638.382
 474  1561.864
 475  1577.54
 476  1899.908
 477  1767.629
 478  1777.272
 479  1515.963
 480  1564.885
 481  1764.767
 482  1655.668
 483  1714.31
 484  1728.514
 485  1613.552
 486  1565.215
 487  1730.525
 488  2119.619
 489  1495.186
 490  1449.038
 491  1587.428
 492  1601.347
 493  1611.023
 494  1550.266
 495  1584.003
 496  1320.814
 497  1325.26
 498  1445.711
 499  1270.394
 500  1553.955
 501  1834.306
 502  1525.895
 503  1704.974
 504  1588.664
 505  1567.789
 506  1458.144
 507  1303.216
 508  1387.333
 509  1857.976
 510  2147.257
 511  1729.321
