# Input file       =  1194625430.102127_cleaned.dat
# Candidate        =  PSR_0332+5434
# Telescope        =  AR
# Epoch_topo       =  58070.683438682026
# Epoch_bary       =  N/A
# T_sample         =  0.002
# Data Folded      =  7143424
# Data Avg         =  0.101410297643813
# Data StdDev      =  4.73746690366634 
# Profile Bins     =  512
# Profile Avg      =  1414.82831965895 
# Profile StdDev   =  559.582884690762 
# Reduced chi-sqr  =  0.616
# Prob(Noise)      <  1   (~0.0 sigma)
# P_topo (ms)      =  714.507861094695  +/- 2.11e-05
# P'_topo (s/s)    =  -0                +/- 1.14e-11
# P''_topo (s/s^2) =  0                 +/- 5.18e-15
# P_bary (ms)      =  N/A
# P'_bary (s/s)    =  N/A
# P''_bary (s/s^2) =  N/A
# P_orb (s)        =  N/A
# asin(i)/c (s)    =  N/A
# eccentricity     =  N/A
# w (rad)          =  N/A
# T_peri           =  N/A
######################################################
   0  1509.984
   1  1038.966
   2  1029.618
   3  994.8684
   4  1083.26
   5  1248.694
   6  1546.774
   7  1469.907
   8  859.0293
   9  1246.405
  10  1487.097
  11  1479.611
  12  1149.553
  13  1638.626
  14  1639.304
  15  1157.568
  16  1477.601
  17  1515.084
  18  1738.621
  19  934.3946
  20  1288.318
  21  1168.156
  22  1145.762
  23  1318.793
  24  1449.893
  25  1760.077
  26  1288.676
  27  1456.933
  28  1118.711
  29  1151.785
  30  1356.333
  31  1106.44
  32  1516.257
  33  1064.974
  34  1465.684
  35  1392.497
  36  1372.847
  37  1559.103
  38  1054.489
  39  1318.46
  40  1078.561
  41  897.1388
  42  782.92
  43  908.1082
  44  1364.919
  45  1287.411
  46  1704.73
  47  1375.561
  48  1815.066
  49  1241.452
  50  1330.497
  51  1064.324
  52  1118.196
  53  1506.196
  54  1279.516
  55  1356.9
  56  1048.329
  57  1252.928
  58  1211.931
  59  1362.233
  60  1516.315
  61  1412.912
  62  1420.438
  63  1275.66
  64  1812.291
  65  1489.501
  66  1295.2
  67  1057.12
  68  1016.369
  69  1602.401
  70  1575.199
  71  1798.66
  72  1708.915
  73  1724.938
  74  1352.82
  75  878.8426
  76  1634.082
  77  1445.876
  78  1646.506
  79  1392.847
  80  1987.259
  81  1911.114
  82  1303.031
  83  1407.766
  84  1029.959
  85  1443.986
  86  1258.44
  87  1538.178
  88  1633.541
  89  1892.049
  90  1993.404
  91  1290.565
  92  1509.881
  93  1144.029
  94  1487.389
  95  1380.546
  96  1602.692
  97  1854.084
  98  1386.818
  99  1688.942
 100  1397.465
 101  1619.06
 102  1062.601
 103  1597.947
 104  1781.318
 105  1437.742
 106  1673.184
 107  1324.209
 108  1611.785
 109  1229.743
 110  1337.061
 111  1498.511
 112  1460.438
 113  1867.718
 114  1501.566
 115  1698.317
 116  1379.819
 117  1791.582
 118  1887.352
 119  1490.97
 120  1769.256
 121  1511.127
 122  1808.974
 123  1097.713
 124  1484.996
 125  1655.156
 126  1670.038
 127  1454.963
 128  1166.058
 129  1324.257
 130  890.7965
 131  1841.647
 132  1355.377
 133  1513.34
 134  1115.876
 135  1223.372
 136  1456.532
 137  1304.36
 138  1830.687
 139  1519.945
 140  1266.988
 141  868.9969
 142  1476.725
 143  1916.509
 144  1310.531
 145  1522.365
 146  1332.932
 147  1306.524
 148  1225.577
 149  1680.391
 150  1761.044
 151  1282.258
 152  927.1703
 153  579.414
 154  983.5897
 155  1074.551
 156  1273.947
 157  1086.21
 158  1168.64
 159  1322.59
 160  1249.892
 161  1540.044
 162  1510.927
 163  1931.38
 164  2015.945
 165  1829.52
 166  1536.136
 167  913.4883
 168  1501.319
 169  1050.013
 170  1260.951
 171  1451.724
 172  1393.075
 173  1362.14
 174  1083.568
 175  1616.801
 176  1249.641
 177  1121.84
 178  1123.71
 179  1521.899
 180  1515.012
 181  995.3071
 182  1336.389
 183  1113.951
 184  1514.668
 185  1279.414
 186  1470.557
 187  1365.484
 188  1268.63
 189  1621.717
 190  945.6887
 191  1073.933
 192  970.931
 193  1158.924
 194  1049.175
 195  1250.752
 196  1723.236
 197  1286.815
 198  1157.378
 199  1085.309
 200  1790.131
 201  1561.552
 202  1147.038
 203  1424.76
 204  1116.927
 205  1492.417
 206  722.0504
 207  1204.714
 208  1498.771
 209  1566.902
 210  1623.491
 211  1380.326
 212  1313.167
 213  1397.985
 214  2126.579
 215  1649.826
 216  1491.752
 217  1277.89
 218  1433.698
 219  1830.791
 220  1306.978
 221  1525.598
 222  1314.171
 223  1164.763
 224  976.4288
 225  970.1819
 226  1715.376
 227  1266.92
 228  1883.034
 229  1575.312
 230  1604.523
 231  1305.828
 232  1351.568
 233  2007.554
 234  1432.256
 235  1372.279
 236  1363.072
 237  1285.961
 238  1222.861
 239  1364.189
 240  1465.78
 241  1308.561
 242  1415.69
 243  1347.96
 244  1477.532
 245  1371.507
 246  1819.694
 247  1811.122
 248  1485.636
 249  1469.47
 250  1380.624
 251  1473.298
 252  1193.382
 253  1383.534
 254  1310.045
 255  1523.29
 256  1584.379
 257  1380.833
 258  1456.936
 259  1660.593
 260  1378.794
 261  1245.305
 262  1330.824
 263  1556.162
 264  1289.824
 265  1522.293
 266  1256.531
 267  1474.965
 268  1707.54
 269  1689.372
 270  1380.591
 271  1055.652
 272  1601.326
 273  1684.063
 274  2144.488
 275  1589.96
 276  1666.941
 277  1314.619
 278  1623.803
 279  1808.796
 280  1111.371
 281  1502.726
 282  1420.827
 283  2145.368
 284  2093.632
 285  1760.495
 286  1418.75
 287  1099.645
 288  1146.568
 289  1431.32
 290  2046.962
 291  1514.954
 292  1322.878
 293  1444.039
 294  1052.532
 295  1557.682
 296  1244.482
 297  1745.52
 298  1265.912
 299  1353.977
 300  1387.1
 301  1269.558
 302  1412.211
 303  1464.177
 304  1727.172
 305  1384.705
 306  1281.324
 307  1574.22
 308  1424.925
 309  1576.258
 310  2010.718
 311  2438.816
 312  2162.164
 313  2867.429
 314  2846.029
 315  3048.476
 316  2907.841
 317  2476.93
 318  2280.703
 319  1950.355
 320  1592.087
 321  1583.282
 322  1454.814
 323  1475.449
 324  1376.093
 325  1799.967
 326  1279.524
 327  1643.828
 328  1898.278
 329  1764.864
 330  1934.748
 331  1446.15
 332  1637.753
 333  1194.141
 334  1256.333
 335  1437.943
 336  1761.126
 337  1823.349
 338  1660.413
 339  1588.557
 340  932.8785
 341  1298.327
 342  1367.432
 343  1864.931
 344  1752.952
 345  2042.411
 346  2075.704
 347  1055.457
 348  1606.851
 349  1191.527
 350  1636.26
 351  1444.074
 352  1426.776
 353  1413.532
 354  1596.246
 355  1929.96
 356  1316.683
 357  1663.394
 358  1378.831
 359  1506.65
 360  1430.511
 361  1494.37
 362  1853.944
 363  1296.069
 364  1742.657
 365  1459.372
 366  1503.463
 367  1586.904
 368  1388.125
 369  1398.787
 370  1115.478
 371  1484.986
 372  1374.64
 373  1551.548
 374  1432.849
 375  1575.354
 376  1438.9
 377  1254.383
 378  1640.844
 379  1302.576
 380  1348.601
 381  986.9731
 382  1156.083
 383  1398.079
 384  863.9897
 385  1243.576
 386  1196.793
 387  1376.42
 388  1094.638
 389  1535.851
 390  1251.901
 391  875.551
 392  920.4979
 393  1221.018
 394  1913.157
 395  1666.057
 396  1453.388
 397  1356.047
 398  880.2141
 399  714.9321
 400  664.06
 401  1126.716
 402  907.1855
 403  1127.767
 404  1429.364
 405  1190.083
 406  1153.986
 407  655.9722
 408  1163.308
 409  1211.245
 410  1748.019
 411  1794.41
 412  1745.197
 413  1116.338
 414  699.0499
 415  1722.12
 416  1386.957
 417  1393.061
 418  1415.159
 419  1702.171
 420  1456.216
 421  1263.576
 422  1534.409
 423  1077.661
 424  885.7485
 425  1222.237
 426  1638.28
 427  1654.939
 428  1427.327
 429  1464.788
 430  1245.711
 431  1470.37
 432  1259.945
 433  1166.062
 434  762.8025
 435  866.3293
 436  1271.852
 437  697.7687
 438  712.653
 439  1032.607
 440  1806.15
 441  1249.432
 442  1576.205
 443  1445.992
 444  1138.584
 445  1295.198
 446  1031.899
 447  1691.05
 448  1425.9
 449  1349.686
 450  1452.748
 451  1398.231
 452  1463.607
 453  1141.881
 454  1561.201
 455  1035.367
 456  1622.921
 457  1560.771
 458  1620.456
 459  1564.521
 460  1225.302
 461  1568.404
 462  1522.778
 463  1700.271
 464  1363.578
 465  1405.884
 466  987.898
 467  759.165
 468  981.9219
 469  869.9217
 470  1256.985
 471  1324.777
 472  1443.779
 473  1248.347
 474  909.729
 475  1453.604
 476  1161.056
 477  1652.523
 478  1164.033
 479  1173.63
 480  1471.224
 481  1232.137
 482  1243.872
 483  1164.67
 484  1462.932
 485  1108.239
 486  1405.216
 487  1427.441
 488  1201.092
 489  1238.52
 490  1011.594
 491  1117.065
 492  1061.268
 493  1419.595
 494  1294.949
 495  1848.784
 496  1815.636
 497  1458.724
 498  1445.5
 499  912.6141
 500  1141.529
 501  1372.239
 502  1936.624
 503  1687.128
 504  1406.771
 505  1172.009
 506  1193.43
 507  1304.339
 508  1259.053
 509  1697.486
 510  1694.999
 511  1511.671
