# Input file       =  1194741724.105465_cleaned.dat
# Candidate        =  PSR_0332+5434
# Telescope        =  AR
# Epoch_topo       =  58072.029434091026
# Epoch_bary       =  N/A
# T_sample         =  0.002
# Data Folded      =  7340032
# Data Avg         =  0.0535850803218115
# Data StdDev      =  3.65189922045537 
# Profile Bins     =  512
# Profile Avg      =  768.336011480601 
# Profile StdDev   =  437.252982207067 
# Reduced chi-sqr  =  0.950
# Prob(Noise)      <  0.784   (~0.0 sigma)
# P_topo (ms)      =  714.509574836306  +/- 0.000285
# P'_topo (s/s)    =  -0                +/- 1.5e-10
# P''_topo (s/s^2) =  0                 +/- 6.63e-14
# P_bary (ms)      =  N/A
# P'_bary (s/s)    =  N/A
# P''_bary (s/s^2) =  N/A
# P_orb (s)        =  N/A
# asin(i)/c (s)    =  N/A
# eccentricity     =  N/A
# w (rad)          =  N/A
# T_peri           =  N/A
######################################################
   0  815.2958
   1  599.1086
   2  709.7419
   3  860.0555
   4  999.0781
   5  848.4545
   6  548.7018
   7  445.3631
   8  956.711
   9  1077.618
  10  762.5531
  11  1028.876
  12  454.321
  13  674.3146
  14  718.9391
  15  708.8443
  16  1063.004
  17  1099.036
  18  937.3712
  19  926.4871
  20  572.659
  21  769.803
  22  1242.117
  23  1412.382
  24  1005.386
  25  1093.132
  26  1139.315
  27  959.3512
  28  1223.388
  29  1095.936
  30  1188.185
  31  963.0645
  32  1134.87
  33  1025.36
  34  893.6852
  35  970.1804
  36  721.7488
  37  938.968
  38  835.7675
  39  573.9923
  40  1052.587
  41  1342.664
  42  1236.107
  43  878.7972
  44  723.4944
  45  795.243
  46  1049.126
  47  1246.882
  48  1106.31
  49  919.6175
  50  664.5251
  51  818.4344
  52  1099.363
  53  827.8029
  54  834.7636
  55  1089.917
  56  803.9502
  57  857.0609
  58  1261.003
  59  1095.093
  60  1391.599
  61  1416.575
  62  1017.201
  63  814.0229
  64  589.692
  65  690.9087
  66  747.9152
  67  955.6488
  68  1329.63
  69  1092.489
  70  802.0278
  71  876.9224
  72  1082.157
  73  745.4839
  74  599.4911
  75  876.7506
  76  618.1355
  77  742.2388
  78  956.1257
  79  1207.29
  80  1010.165
  81  514.8334
  82  560.1559
  83  1118.121
  84  1203.08
  85  1172.987
  86  1335.795
  87  1008.01
  88  778.8192
  89  756.2637
  90  1009.285
  91  1249.681
  92  819.9586
  93  962.9409
  94  1141.986
  95  1200.11
  96  1131.71
  97  1045.808
  98  1394.723
  99  1398.661
 100  1074.885
 101  840.3334
 102  598.0978
 103  415.8338
 104  769.6741
 105  928.778
 106  973.7156
 107  913.7028
 108  369.4419
 109  828.0715
 110  828.2773
 111  1042.668
 112  549.1426
 113  641.249
 114  875.1081
 115  885.7408
 116  972.2087
 117  1098.443
 118  830.4128
 119  883.3893
 120  907.3766
 121  747.4729
 122  621.9177
 123  883.9312
 124  1038.275
 125  862.9095
 126  880.8099
 127  731.9073
 128  684.7822
 129  766.4484
 130  838.0583
 131  958.0074
 132  914.9546
 133  1005.497
 134  910.2374
 135  978.0836
 136  771.8377
 137  1142.916
 138  715.8254
 139  662.7022
 140  771.5926
 141  970.5219
 142  1001.419
 143  1086.996
 144  726.6563
 145  845.0084
 146  1092.635
 147  760.6837
 148  869.9485
 149  803.5232
 150  856.5231
 151  1278.228
 152  1163.217
 153  947.7891
 154  1110.487
 155  1084.233
 156  982.1321
 157  840.3425
 158  653.7607
 159  1168.915
 160  1039.997
 161  768.043
 162  991.1461
 163  728.9148
 164  599.6296
 165  909.1453
 166  1121.178
 167  906.3411
 168  698.6276
 169  825.1213
 170  1088.39
 171  939.9355
 172  849.1642
 173  1020.437
 174  833.8408
 175  1215.881
 176  1190.137
 177  633.7382
 178  684.6275
 179  645.3364
 180  528.4064
 181  686.9142
 182  1091.256
 183  931.4138
 184  624.9336
 185  518.8107
 186  837.8037
 187  816.6927
 188  795.545
 189  947.8232
 190  916.5872
 191  875.8805
 192  633.2274
 193  893.6971
 194  756.5909
 195  799.096
 196  930.8665
 197  932.5618
 198  897.006
 199  910.8013
 200  982.8524
 201  1010.972
 202  927.277
 203  838.999
 204  1069.311
 205  736.3591
 206  720.1647
 207  894.9451
 208  865.7262
 209  930.6207
 210  842.9805
 211  878.1796
 212  1161.958
 213  1025.475
 214  953.079
 215  760.1847
 216  419.1828
 217  539.8741
 218  890.7654
 219  931.3566
 220  566.5316
 221  652.0128
 222  781.1305
 223  458.4149
 224  377.6742
 225  593.7277
 226  592.1853
 227  681.9119
 228  592.8163
 229  667.3865
 230  928.1362
 231  752.17
 232  487.7487
 233  109.0511
 234  553.7148
 235  497.365
 236  618.5162
 237  699.0395
 238  872.2054
 239  817.4893
 240  579.2721
 241  1027.966
 242  785.2624
 243  521.622
 244  641.6687
 245  915.8154
 246  757.5353
 247  438.849
 248  642.9422
 249  622.5726
 250  816.9181
 251  1113.697
 252  553.5043
 253  163.4142
 254  435.1883
 255  751.2983
 256  707.393
 257  688.6013
 258  718.2578
 259  93.66486
 260  496.7249
 261  539.6017
 262  255.9579
 263  46.88381
 264  329.8389
 265  435.7593
 266  412.0038
 267  307.2239
 268  542.295
 269  446.7424
 270  484.6592
 271  720.4046
 272  504.66
 273  336.3282
 274  201.0287
 275  191.9372
 276  385.2403
 277  551.4066
 278  415.9605
 279  343.8709
 280  135.0799
 281  402.4351
 282  474.4974
 283  393.894
 284  625.9565
 285  523.9369
 286  466.1606
 287  524.39
 288  542.9389
 289  411.1699
 290  -71.04974
 291  224.5396
 292  472.7554
 293  642.7977
 294  727.4605
 295  709.9642
 296  827.6329
 297  709.1265
 298  693.6783
 299  630.9366
 300  411.0655
 301  435.0419
 302  391.2086
 303  839.4449
 304  860.8771
 305  800.1624
 306  715.2503
 307  180.6716
 308  240.8794
 309  633.4084
 310  758.5186
 311  973.9525
 312  1271.319
 313  1563.349
 314  2191.543
 315  2399.398
 316  2134.799
 317  1613.205
 318  1289.887
 319  1286.416
 320  825.3228
 321  851.9026
 322  857.4046
 323  972.7244
 324  785.3717
 325  649.4944
 326  517.2114
 327  578.1429
 328  686.3589
 329  853.3524
 330  733.5069
 331  669.7144
 332  1011.135
 333  1096.413
 334  1080.092
 335  534.7642
 336  357.4836
 337  305.0819
 338  555.8107
 339  1092.53
 340  663.0819
 341  521.4748
 342  670.684
 343  473.7177
 344  419.5909
 345  459.2827
 346  355.0237
 347  283.0286
 348  493.1175
 349  460.4628
 350  523.6123
 351  633.4512
 352  628.3307
 353  565.7881
 354  303.5327
 355  342.35
 356  659.2033
 357  737.0831
 358  476.7652
 359  352.4179
 360  492.6154
 361  379.5861
 362  448.084
 363  701.4676
 364  934.4957
 365  410.7584
 366  455.5771
 367  739.4224
 368  374.2906
 369  785.4049
 370  827.7063
 371  566.1803
 372  764.4011
 373  616.6635
 374  539.6438
 375  909.4249
 376  634.6542
 377  730.9361
 378  796.9393
 379  929.4177
 380  602.913
 381  805.5309
 382  672.0325
 383  693.0143
 384  364.6112
 385  297.3284
 386  760.2463
 387  945.2507
 388  469.8875
 389  554.6127
 390  420.7219
 391  812.142
 392  833.5068
 393  871.2196
 394  761.2666
 395  536.6825
 396  280.3232
 397  260.7802
 398  211.9906
 399  538.1973
 400  392.218
 401  197.9515
 402  286.5572
 403  216.4425
 404  363.8357
 405  561.881
 406  680.244
 407  472.7997
 408  506.5236
 409  516.8926
 410  406.5176
 411  332.7876
 412  409.5764
 413  620.4017
 414  294.9094
 415  546.2986
 416  472.5212
 417  726.6765
 418  524.6625
 419  548.7688
 420  691.5391
 421  500.6453
 422  312.98
 423  602.6797
 424  187.0263
 425  178.2002
 426  457.7812
 427  714.9353
 428  468.0923
 429  756.7917
 430  665.9087
 431  659.8274
 432  473.6549
 433  420.7923
 434  473.6512
 435  305.4905
 436  283.0119
 437  518.8407
 438  623.7477
 439  178.5493
 440  109.4053
 441  210.3401
 442  628.3174
 443  522.593
 444  379.9838
 445  593.9835
 446  774.4514
 447  973.4424
 448  825.3542
 449  662.7785
 450  702.4668
 451  688.1639
 452  956.7571
 453  823.4277
 454  1057.537
 455  808.3701
 456  659.0788
 457  608.8632
 458  559.0458
 459  439.7426
 460  948.2522
 461  766.248
 462  633.3185
 463  606.043
 464  536.8833
 465  620.5051
 466  726.242
 467  809.2969
 468  554.1037
 469  453.7167
 470  405.0583
 471  426.8338
 472  393.8401
 473  933.9046
 474  1031.388
 475  725.3836
 476  808.5579
 477  428.3021
 478  663.8701
 479  1109.596
 480  851.2816
 481  1246.238
 482  1152.63
 483  1248.648
 484  1037.63
 485  1079.027
 486  1514.318
 487  1477.88
 488  1122.589
 489  1171.231
 490  1341.194
 491  846.476
 492  793.0443
 493  1220.18
 494  1250.866
 495  1028.073
 496  710.2635
 497  699.7023
 498  806.6962
 499  938.2651
 500  967.5871
 501  1023.81
 502  1101.227
 503  1122.318
 504  1474.865
 505  1518.159
 506  1159.145
 507  1316.578
 508  1053.444
 509  1169.32
 510  1193.098
 511  771.7011
