# Input file       =  1194884445.113245_cleaned.dat
# Candidate        =  PSR_0332+5434
# Telescope        =  AR
# Epoch_topo       =  58073.681297607000
# Epoch_bary       =  N/A
# T_sample         =  0.002
# Data Folded      =  7208960
# Data Avg         =  0.119532882848712
# Data StdDev      =  3.44755167486271 
# Profile Bins     =  512
# Profile Avg      =  1682.85211467125 
# Profile StdDev   =  409.083640244816 
# Reduced chi-sqr  =  0.980
# Prob(Noise)      <  0.62   (~0.0 sigma)
# P_topo (ms)      =  714.510883623774  +/- 2.5e-05
# P'_topo (s/s)    =  -0                +/- 1.34e-11
# P''_topo (s/s^2) =  0                 +/- 6.04e-15
# P_bary (ms)      =  N/A
# P'_bary (s/s)    =  N/A
# P''_bary (s/s^2) =  N/A
# P_orb (s)        =  N/A
# asin(i)/c (s)    =  N/A
# eccentricity     =  N/A
# w (rad)          =  N/A
# T_peri           =  N/A
######################################################
   0  1583.032
   1  1430.165
   2  1820.728
   3  1742.355
   4  929.3698
   5  1001.311
   6  1481.106
   7  1354.235
   8  1200.792
   9  1248.623
  10  1265.342
  11  1442.812
  12  1280.685
  13  1691.401
  14  1723.214
  15  1195.66
  16  1529.403
  17  1736.037
  18  1723.498
  19  1387.994
  20  1383.541
  21  1548.098
  22  1266.482
  23  1414.165
  24  1968.491
  25  1840.361
  26  1539.37
  27  1596.879
  28  1763.837
  29  1586.253
  30  1536.685
  31  1412.633
  32  1754.681
  33  1504.599
  34  1769.916
  35  1983.501
  36  1745.013
  37  1541.259
  38  1574.611
  39  1880.237
  40  1396.478
  41  1615.923
  42  2085.964
  43  1792.032
  44  1222.199
  45  1567.797
  46  2124.644
  47  1361.101
  48  1180.74
  49  1461.094
  50  1388.158
  51  1391.341
  52  1196.892
  53  1624.773
  54  1598.571
  55  1846.653
  56  2031.251
  57  2223.474
  58  1952.078
  59  1575.278
  60  1892.395
  61  1984.047
  62  1809.834
  63  1791.854
  64  1997.793
  65  1843.122
  66  1795.941
  67  1913.428
  68  1524.473
  69  1739.783
  70  1647.862
  71  1639.455
  72  1420.18
  73  1643.169
  74  2004.072
  75  1947.183
  76  1900.214
  77  1492.072
  78  1711.574
  79  1669.402
  80  1731.661
  81  1793.404
  82  2052.968
  83  1973.994
  84  1617.751
  85  1698.369
  86  1731.75
  87  1291.004
  88  1473.872
  89  1707.932
  90  1669.729
  91  1239.789
  92  1419.007
  93  1392.116
  94  1542.946
  95  1265.202
  96  1822.875
  97  1727.852
  98  1234.949
  99  1442.528
 100  1602.805
 101  1737.108
 102  1515.087
 103  1916.981
 104  1836.047
 105  1325.488
 106  1762.533
 107  2095.05
 108  1762.355
 109  1608.086
 110  1922.184
 111  1898.705
 112  1564.644
 113  1591.625
 114  1971.554
 115  1912.182
 116  1191.903
 117  1470.532
 118  1544.189
 119  1774.471
 120  1679.667
 121  1759.828
 122  1628.775
 123  1082.657
 124  1489.978
 125  1977.746
 126  1808.603
 127  1489.126
 128  1541.294
 129  1539.48
 130  1139.73
 131  1343.073
 132  1574.745
 133  1336.383
 134  1515.15
 135  1681.603
 136  1918.184
 137  1576.09
 138  1901.689
 139  1785.733
 140  1747.556
 141  1727.114
 142  1840.662
 143  1623.146
 144  1441.265
 145  1536.866
 146  1676.272
 147  1350.791
 148  1208.818
 149  1586.536
 150  1703.526
 151  1599.13
 152  1412.413
 153  1260.801
 154  1327.595
 155  1173.612
 156  1264.828
 157  1402.716
 158  1443.337
 159  1535.679
 160  1527.334
 161  1290.386
 162  1113.036
 163  1571.06
 164  1674.086
 165  1556.726
 166  1397.159
 167  1419.378
 168  1762.692
 169  1407.466
 170  1157.939
 171  1776.147
 172  1609.838
 173  1418.145
 174  1690.275
 175  2052.6
 176  1862.118
 177  1515.439
 178  1869.698
 179  1710.091
 180  1616.777
 181  1541.576
 182  1754.256
 183  1871.01
 184  1656.404
 185  1647.493
 186  1592.883
 187  1465.662
 188  1438.401
 189  1748.642
 190  1417.109
 191  1257.024
 192  1487.45
 193  1960.982
 194  1358.703
 195  1352.8
 196  1926.126
 197  1687.521
 198  1613.226
 199  1698.942
 200  2083.579
 201  1788.894
 202  1882.392
 203  1972.157
 204  1925.644
 205  1484.502
 206  1344.55
 207  1777.73
 208  1843.81
 209  1754.563
 210  1760.568
 211  1811.588
 212  1849.471
 213  1593.391
 214  1964.932
 215  1979.556
 216  1968.645
 217  1881.031
 218  1586.261
 219  1699.599
 220  1422.872
 221  1586.164
 222  1655.153
 223  1586.829
 224  1337.737
 225  1543.752
 226  1624.781
 227  1261.899
 228  1579.437
 229  1501.765
 230  1365.757
 231  1238.672
 232  1641.045
 233  2221.211
 234  1729.575
 235  1635.952
 236  1786.658
 237  1960.78
 238  1851.804
 239  1670.833
 240  1743.246
 241  1566.104
 242  1907.641
 243  1700.527
 244  1634.685
 245  1452.482
 246  2031.066
 247  2028.127
 248  1452.064
 249  1680.94
 250  1930.465
 251  1898.344
 252  1902.493
 253  2106.676
 254  2309.839
 255  1641.957
 256  1491.931
 257  1778.673
 258  1776.599
 259  1985.285
 260  2072.504
 261  2014.253
 262  1819.351
 263  1262.687
 264  1810.287
 265  2116.996
 266  1580.986
 267  1598.701
 268  1852.311
 269  1722.382
 270  1226.805
 271  1325.315
 272  1714.075
 273  1568.611
 274  1475.66
 275  1689.486
 276  1629.93
 277  1655.294
 278  1807.56
 279  1899.992
 280  1412.219
 281  1585.477
 282  1761.161
 283  1583.777
 284  1431.864
 285  1895.972
 286  2159.613
 287  1387.622
 288  1396.263
 289  1805.574
 290  2156.016
 291  2117.917
 292  1905.044
 293  2030.399
 294  1962.241
 295  1860.758
 296  1905.978
 297  2277.378
 298  1513.046
 299  1701.357
 300  2154.466
 301  1773.536
 302  1504.851
 303  1977.503
 304  1840.414
 305  1847.526
 306  1722.381
 307  2013.642
 308  1859.365
 309  2016.116
 310  2399.145
 311  2620.13
 312  2556.496
 313  2672.868
 314  2893.435
 315  3260.333
 316  3259.62
 317  3073.478
 318  3026.194
 319  2042.82
 320  1609.295
 321  1713.518
 322  1659.827
 323  1288.268
 324  1727.296
 325  2113.312
 326  2086.907
 327  1811.72
 328  1782.925
 329  1960.122
 330  2025.663
 331  1782.572
 332  1950.28
 333  2008.442
 334  1937.655
 335  1462.57
 336  1781.255
 337  1813.482
 338  1654.17
 339  1759.16
 340  1919.346
 341  1647.84
 342  1431.901
 343  2072.042
 344  1481.263
 345  1584.821
 346  1828.045
 347  1978.518
 348  2110.22
 349  1983.921
 350  2262.571
 351  1887.131
 352  1863.499
 353  2114.748
 354  1881.611
 355  1768.796
 356  1620.374
 357  2122.29
 358  1975.362
 359  1709.136
 360  1382.176
 361  1676.427
 362  1808.052
 363  1536.647
 364  1720.686
 365  1673.802
 366  1473.403
 367  1573.61
 368  1448.399
 369  1626.662
 370  1598.868
 371  1767.954
 372  1834.544
 373  1651.767
 374  1385.555
 375  1645.593
 376  1706.7
 377  1526.236
 378  1692.216
 379  1511.161
 380  1326.609
 381  1562.572
 382  1500.817
 383  1658.276
 384  1710.778
 385  1607.177
 386  1977.78
 387  1606.693
 388  1108.903
 389  1508.385
 390  1637.485
 391  1387.902
 392  1855.165
 393  1953.784
 394  1675.007
 395  1271.009
 396  1609.062
 397  2048.542
 398  1811.627
 399  1584.874
 400  1861.635
 401  2002.341
 402  1701.651
 403  1561.321
 404  1823.552
 405  2082.648
 406  1604.578
 407  1706.748
 408  1774.995
 409  1621.059
 410  1773.807
 411  1827.53
 412  1820.79
 413  1520.139
 414  1661.698
 415  2009.322
 416  1353.741
 417  1359.548
 418  1447.984
 419  1615.953
 420  1611.635
 421  1366.106
 422  1312
 423  1298.521
 424  1500.598
 425  1697.955
 426  1829.831
 427  1192.369
 428  1589.496
 429  1856.082
 430  1342.156
 431  1533.551
 432  1628.296
 433  1869.223
 434  1453.361
 435  1220.42
 436  1686.487
 437  1469.524
 438  1008.702
 439  1162.856
 440  1682.576
 441  1721.393
 442  1530.009
 443  1947.559
 444  1915.377
 445  1801.625
 446  1426.768
 447  1597.442
 448  1629.22
 449  1518.62
 450  1637.688
 451  2142.821
 452  2181.804
 453  1588.274
 454  1846.511
 455  1712.011
 456  1341.594
 457  1643.777
 458  1809.333
 459  1996.482
 460  1819.589
 461  1833.354
 462  1835.381
 463  1970.983
 464  2145.656
 465  2151.975
 466  1754.567
 467  1532.796
 468  1647.704
 469  2069.118
 470  1883.018
 471  1596.566
 472  1668.641
 473  1434.567
 474  1082.648
 475  1719.07
 476  1802.144
 477  1533.13
 478  1598.408
 479  1747.148
 480  1775.772
 481  1659.505
 482  1680.274
 483  1830.767
 484  1900.711
 485  1421.828
 486  1732.046
 487  1585.817
 488  1364.518
 489  1496.547
 490  1385.946
 491  1480.492
 492  1656.144
 493  1973.979
 494  1867.729
 495  1324.382
 496  1448.196
 497  1486.198
 498  1535.08
 499  1255.186
 500  1328.481
 501  1592.734
 502  1403.009
 503  1553.341
 504  1488.246
 505  1613.467
 506  1259.785
 507  1431.082
 508  1642.066
 509  1422.745
 510  1436.225
 511  1811.095
