# Input file       =  1194914014.106114_cleaned.dat
# Candidate        =  PSR_0332+5434
# Telescope        =  AR
# Epoch_topo       =  58074.023531320760
# Epoch_bary       =  N/A
# T_sample         =  0.002
# Data Folded      =  7340032
# Data Avg         =  0.176436455478585
# Data StdDev      =  4.84278518083954 
# Profile Bins     =  1024
# Profile Avg      =  1264.66187596464 
# Profile StdDev   =  410.009767725132 
# Reduced chi-sqr  =  0.810
# Prob(Noise)      <  1   (~0.0 sigma)
# P_topo (ms)      =  714.511597148011  +/- 0.0011
# P'_topo (s/s)    =  -0                +/- 5.8e-10
# P''_topo (s/s^2) =  0                 +/- 2.56e-13
# P_bary (ms)      =  N/A
# P'_bary (s/s)    =  N/A
# P''_bary (s/s^2) =  N/A
# P_orb (s)        =  N/A
# asin(i)/c (s)    =  N/A
# eccentricity     =  N/A
# w (rad)          =  N/A
# T_peri           =  N/A
######################################################
   0  1383.635
   1  1486.959
   2  1369.809
   3  1385.877
   4  1325.847
   5  1239.077
   6  1259.909
   7  1326.346
   8  1520.826
   9  1482.385
  10  1532.778
  11  1456.374
  12  1435.042
  13  1232.7
  14  1219.875
  15  1263.693
  16  1413.28
  17  1386.041
  18  1151.456
  19  1016.678
  20  1219.168
  21  1292.515
  22  1224.451
  23  1004.056
  24  901.6336
  25  1007.861
  26  1050.359
  27  1197.944
  28  1260.307
  29  1400.923
  30  1439.093
  31  1433.137
  32  1328.126
  33  1269.552
  34  1221.37
  35  1256.274
  36  1225.89
  37  1117.517
  38  1083.39
  39  1159.558
  40  1176.058
  41  1263.071
  42  1294.221
  43  1246.353
  44  1112.281
  45  1108.154
  46  1061.752
  47  1148.756
  48  1128.818
  49  1287.156
  50  1380.114
  51  1424.136
  52  1400.832
  53  1287.608
  54  1071.391
  55  1125.006
  56  1224.985
  57  1417.549
  58  1286.162
  59  1250.689
  60  1061.027
  61  1141.962
  62  1193.284
  63  1362.399
  64  1340.171
  65  1320.993
  66  1359.372
  67  1299.714
  68  1365.581
  69  1334.532
  70  1345.603
  71  1406.256
  72  1441.078
  73  1351.128
  74  1272.732
  75  1288.508
  76  1527.999
  77  1617.4
  78  1543.116
  79  1400.82
  80  1290.408
  81  1286.131
  82  1196.424
  83  1121.159
  84  1201.203
  85  1206.929
  86  1162.399
  87  1184.9
  88  1183.905
  89  1184.414
  90  1252.088
  91  1411.665
  92  1516.463
  93  1507.276
  94  1506.15
  95  1664.263
  96  1590.003
  97  1457.594
  98  1376.048
  99  1326.029
 100  1334.031
 101  1296.919
 102  1396.706
 103  1381.985
 104  1360.563
 105  1363.485
 106  1216.327
 107  1186.395
 108  1201.537
 109  1428.857
 110  1447.189
 111  1414.701
 112  1488.03
 113  1484.391
 114  1484.634
 115  1337.716
 116  1416.274
 117  1302.351
 118  1107.002
 119  1098.456
 120  1164.899
 121  1187.47
 122  1329.051
 123  1500.213
 124  1727.804
 125  1586.178
 126  1554.747
 127  1567.138
 128  1728.451
 129  1681.642
 130  1530.665
 131  1302.392
 132  1111.604
 133  1114.61
 134  1231.673
 135  1426.701
 136  1422.711
 137  1490.05
 138  1542.598
 139  1588.481
 140  1375.516
 141  1388.743
 142  1388.721
 143  1365.275
 144  1128.191
 145  1149.326
 146  1211.048
 147  1287.532
 148  1258.319
 149  1447.706
 150  1418.904
 151  1401.469
 152  1412.388
 153  1388.693
 154  1316.952
 155  1471.557
 156  1597.555
 157  1666.608
 158  1497.836
 159  1393.8
 160  1250.452
 161  1189.57
 162  1240.763
 163  1407.24
 164  1555.212
 165  1590.339
 166  1393.161
 167  1254.063
 168  1298.682
 169  1400.536
 170  1549.582
 171  1494.351
 172  1416.023
 173  1279.349
 174  1254.752
 175  1194.498
 176  1264.584
 177  1280.993
 178  1295.448
 179  1309.097
 180  1399.084
 181  1461.537
 182  1405.711
 183  1282.731
 184  1308.661
 185  1337.929
 186  1353.032
 187  1188.709
 188  1238.899
 189  1329.96
 190  1211.235
 191  1072.225
 192  1131.344
 193  1301.521
 194  1245.97
 195  1263.066
 196  1306.22
 197  1391.786
 198  1256.159
 199  1228.237
 200  1372.039
 201  1288.426
 202  1314.924
 203  1352.073
 204  1316.033
 205  1235.585
 206  1317.754
 207  1594.786
 208  1723.017
 209  1675.78
 210  1705.382
 211  1557.657
 212  1462.321
 213  1345.641
 214  1408.145
 215  1288.848
 216  1231.414
 217  1277.06
 218  1328.719
 219  1340.363
 220  1297.081
 221  1494.691
 222  1515.426
 223  1383.384
 224  1349.799
 225  1215.899
 226  1258.827
 227  1230.217
 228  1265.401
 229  1243.001
 230  1194.967
 231  1172.883
 232  1215.425
 233  1187.373
 234  1189.225
 235  1185.041
 236  1350.023
 237  1443.035
 238  1443.989
 239  1372.034
 240  1231.607
 241  1190.195
 242  1110.617
 243  1110.134
 244  1051.441
 245  1174.973
 246  1211.124
 247  1182.812
 248  1143.656
 249  1159.766
 250  1247.74
 251  1281.866
 252  1173.288
 253  1144.176
 254  1072.193
 255  1103.137
 256  1084.55
 257  1078.499
 258  957.7936
 259  945.9345
 260  1019.478
 261  1002.414
 262  1085.748
 263  1015.855
 264  1120.517
 265  1142.587
 266  1233.069
 267  1307.545
 268  1163.03
 269  1120.845
 270  1099.139
 271  1163.696
 272  1227.216
 273  1308.971
 274  1345.316
 275  1294.884
 276  1038.783
 277  958.1039
 278  1064.513
 279  1085.661
 280  1241.114
 281  1219.567
 282  1428.544
 283  1412.249
 284  1380.461
 285  1132.086
 286  1099.677
 287  1066.659
 288  1174.709
 289  1063.186
 290  1026.585
 291  1025.749
 292  982.2045
 293  985.5875
 294  819.877
 295  811.1732
 296  862.9127
 297  942.2358
 298  1020.156
 299  1111.026
 300  1202.106
 301  1129.847
 302  1078.858
 303  1077.182
 304  1005.85
 305  1122.551
 306  1075.531
 307  1052.577
 308  896.2905
 309  909.8526
 310  907.4984
 311  864.8511
 312  820.7426
 313  956.7614
 314  979.598
 315  1083.909
 316  956.0098
 317  942.0791
 318  858.493
 319  1038.531
 320  1153.199
 321  1096.421
 322  935.7617
 323  981.0052
 324  1054.967
 325  1047.6
 326  875.965
 327  906.7024
 328  897.2062
 329  1114.855
 330  1140.845
 331  1153.972
 332  1045.384
 333  953.4218
 334  950.2934
 335  1047.056
 336  1056.158
 337  968.326
 338  854.7564
 339  882.2221
 340  1109.723
 341  1122.692
 342  1129.115
 343  1055.501
 344  1156.564
 345  1264.828
 346  1298.031
 347  1233.452
 348  1181.619
 349  1159.977
 350  1275.15
 351  1156.854
 352  1101.271
 353  1096.624
 354  1189.898
 355  1146.534
 356  1168.214
 357  1101.951
 358  1067.184
 359  934.3931
 360  1101.033
 361  1200.977
 362  1315.96
 363  1230.458
 364  1182.409
 365  1085.341
 366  1015.997
 367  955.5604
 368  1017.51
 369  1131.037
 370  1191.994
 371  1162.124
 372  1051.894
 373  967.8137
 374  1024.001
 375  1088.986
 376  1034.216
 377  1064.603
 378  1071.864
 379  1113.355
 380  1088.192
 381  1106.551
 382  1137.062
 383  1065.637
 384  1070.154
 385  1155.194
 386  1316.431
 387  1380.813
 388  1342.927
 389  1171.45
 390  1091.012
 391  1112.424
 392  1186.234
 393  1153.848
 394  857.2137
 395  874.3009
 396  923.5306
 397  1088.132
 398  1221.942
 399  1269.281
 400  1191.978
 401  1028.606
 402  929.9966
 403  873.1271
 404  823.8497
 405  862.1174
 406  915.1046
 407  1012.001
 408  898.5801
 409  849.7435
 410  877.9293
 411  964.8745
 412  1012.053
 413  1038.743
 414  985.61
 415  1097.607
 416  1087.929
 417  1221.063
 418  1113.84
 419  998.3865
 420  1026.084
 421  985.9786
 422  1106.236
 423  1065.785
 424  1134.063
 425  1035.45
 426  954.2905
 427  858.6454
 428  849.5912
 429  767.6896
 430  914.4515
 431  907.9864
 432  1018.198
 433  795.9654
 434  870.8074
 435  1004.687
 436  1123.495
 437  930.2776
 438  859.9948
 439  780.7766
 440  993.7047
 441  1022.846
 442  1195.514
 443  1171.466
 444  1058.639
 445  889.4683
 446  1010.555
 447  1098.503
 448  1269.266
 449  1293.05
 450  1423.807
 451  1197.574
 452  1010.089
 453  774.6104
 454  913.5295
 455  1006
 456  1116.089
 457  1015.738
 458  894.8788
 459  767.0859
 460  773.5811
 461  720.5217
 462  870.7321
 463  1107.251
 464  1311.096
 465  1324.216
 466  1259.171
 467  1190.232
 468  1221.683
 469  1178.87
 470  1338.302
 471  1240.779
 472  1092.462
 473  925.0369
 474  914.071
 475  961.9612
 476  986.7033
 477  1128.554
 478  1165.263
 479  1299.094
 480  1319.961
 481  1395.94
 482  1261.84
 483  1161.401
 484  1109.307
 485  1144.501
 486  1141.05
 487  1162.152
 488  1022.313
 489  1153.721
 490  1201.728
 491  1343.773
 492  1261.163
 493  1265.736
 494  1191.506
 495  1206.285
 496  1270.344
 497  1277.365
 498  1336.959
 499  1256.525
 500  1242.237
 501  1192.767
 502  1127.525
 503  1139.541
 504  1172.256
 505  1284.794
 506  1275.156
 507  1181.579
 508  1195.878
 509  1248.825
 510  1424.06
 511  1439.021
 512  1348.006
 513  1232.734
 514  1392.315
 515  1527.707
 516  1468.014
 517  1284.025
 518  1370.503
 519  1461.586
 520  1342.56
 521  1236.842
 522  1368.007
 523  1395.032
 524  1273.109
 525  1207.81
 526  1270.158
 527  1337.772
 528  1510.266
 529  1464.292
 530  1408.993
 531  1170.939
 532  1326.175
 533  1381.836
 534  1568.075
 535  1622.144
 536  1720.204
 537  1484.197
 538  1309.6
 539  1191.436
 540  1243.603
 541  1313.718
 542  1415.926
 543  1507.236
 544  1412.736
 545  1477.484
 546  1563.512
 547  1494.945
 548  1285.918
 549  1263.345
 550  1283.625
 551  1271.381
 552  1305.794
 553  1461.334
 554  1400.128
 555  1191.75
 556  1148.6
 557  1349.437
 558  1449.65
 559  1457.847
 560  1391.162
 561  1385.26
 562  1226.604
 563  1237.221
 564  1210.595
 565  1271.643
 566  1285.976
 567  1327.847
 568  1327.834
 569  1341.182
 570  1485.626
 571  1555.761
 572  1510.392
 573  1526.202
 574  1546.546
 575  1479.954
 576  1379.978
 577  1403.692
 578  1446.239
 579  1415.054
 580  1334.157
 581  1349.765
 582  1425.257
 583  1350.51
 584  1385.209
 585  1424.234
 586  1472.683
 587  1401.284
 588  1263.849
 589  1415.471
 590  1407.085
 591  1422.172
 592  1374.512
 593  1446.386
 594  1511.396
 595  1481.269
 596  1462.397
 597  1300.938
 598  1247.348
 599  1315.965
 600  1417.539
 601  1520.534
 602  1600.186
 603  1653.73
 604  1468.332
 605  1237.276
 606  1175.526
 607  1129.957
 608  1255.563
 609  1253.867
 610  1360.162
 611  1338.743
 612  1342.729
 613  1447.993
 614  1560.776
 615  1690.838
 616  1623.786
 617  1495.872
 618  1348.563
 619  1328.557
 620  1451.536
 621  1511.264
 622  1583.206
 623  1442.991
 624  1428.305
 625  1528.354
 626  1752.565
 627  1968.277
 628  2096.551
 629  2288.123
 630  2255.526
 631  2288.29
 632  2197.42
 633  2228.861
 634  2109.209
 635  1963.885
 636  1832.497
 637  1694.23
 638  1461.71
 639  1305.659
 640  1115.709
 641  1146.911
 642  1177.736
 643  1435.731
 644  1606.05
 645  1675.369
 646  1673.606
 647  1495.163
 648  1473.607
 649  1482.443
 650  1459.943
 651  1577.378
 652  1649.226
 653  1807.762
 654  1711.398
 655  1752.068
 656  1667.65
 657  1488.741
 658  1372.867
 659  1458.741
 660  1499.109
 661  1554.813
 662  1475.555
 663  1525.046
 664  1420.29
 665  1457.161
 666  1288.578
 667  1352.725
 668  1481.478
 669  1536.036
 670  1456.317
 671  1314.23
 672  1365.299
 673  1377.964
 674  1478.76
 675  1521.032
 676  1337.391
 677  1138.752
 678  1059.708
 679  1257.587
 680  1311.521
 681  1408.513
 682  1458.432
 683  1406.281
 684  1433.611
 685  1293.165
 686  1434.771
 687  1344.751
 688  1306.555
 689  1245.281
 690  1218.046
 691  1215.399
 692  1335.574
 693  1449.807
 694  1555.685
 695  1382.799
 696  1417.03
 697  1358.193
 698  1311.337
 699  1285.559
 700  1245.922
 701  1227.191
 702  1229.699
 703  1369.404
 704  1337.088
 705  1213.858
 706  1234.428
 707  1298.37
 708  1399.728
 709  1177.47
 710  1267.974
 711  1236.6
 712  1346.139
 713  1227.711
 714  1231.556
 715  1199.874
 716  1150.849
 717  1196.711
 718  1148.287
 719  1064.102
 720  1009.568
 721  1061.744
 722  1189.916
 723  1168.065
 724  1094.943
 725  961.9531
 726  948.1282
 727  1025.966
 728  1163.733
 729  1195.62
 730  1202.125
 731  1142.12
 732  1249.284
 733  1425.885
 734  1518.978
 735  1503.661
 736  1469.491
 737  1425.921
 738  1196.241
 739  1231.704
 740  1320.406
 741  1503.599
 742  1521.632
 743  1500.711
 744  1481.151
 745  1292.087
 746  1255.244
 747  1254.445
 748  1295.488
 749  1393.772
 750  1454.521
 751  1521.488
 752  1312.51
 753  1198.168
 754  1163.518
 755  1145.686
 756  1185.071
 757  1297.285
 758  1473.439
 759  1552.91
 760  1563.437
 761  1574.784
 762  1448.783
 763  1333.12
 764  1334.472
 765  1388.587
 766  1472.494
 767  1513.399
 768  1564.626
 769  1406.342
 770  1380.935
 771  1283.907
 772  1339.627
 773  1284.583
 774  1198.544
 775  1282.344
 776  1218.146
 777  1255.943
 778  1265.796
 779  1270.798
 780  1152.529
 781  1014.948
 782  1240.231
 783  1375.907
 784  1494.313
 785  1439.908
 786  1404.722
 787  1285.392
 788  1143.23
 789  1259.554
 790  1330.284
 791  1371.2
 792  1379.229
 793  1471.946
 794  1577.788
 795  1356.615
 796  1254.662
 797  1129.962
 798  1167.89
 799  1282.82
 800  1349.964
 801  1320.407
 802  1258.929
 803  1383.895
 804  1535.909
 805  1426.975
 806  1365.649
 807  1333.177
 808  1365.696
 809  1330.431
 810  1261.967
 811  1395.257
 812  1272.151
 813  1250.285
 814  1230.74
 815  1320.062
 816  1360.285
 817  1416.132
 818  1313.925
 819  1272.628
 820  1082.107
 821  1117.521
 822  1069.204
 823  1188.921
 824  1150.625
 825  1210.118
 826  1147.322
 827  1205.223
 828  1166.819
 829  1169.833
 830  1253.976
 831  1298.512
 832  1314.989
 833  1181.594
 834  1159.998
 835  1250.882
 836  1309.009
 837  1295.729
 838  1226.897
 839  1197.555
 840  1233.393
 841  1218.345
 842  1159.303
 843  1176.249
 844  1177.961
 845  1164.576
 846  1017.544
 847  1082.688
 848  1048.695
 849  1089.857
 850  1117.521
 851  1149.04
 852  1240.742
 853  1209.039
 854  1217.467
 855  1222.768
 856  1319.765
 857  1387.938
 858  1402.74
 859  1300.312
 860  1234.87
 861  1189.601
 862  1158.307
 863  1077.705
 864  1074.442
 865  1156.193
 866  1317.981
 867  1156.459
 868  1065.535
 869  914.9991
 870  914.6869
 871  922.9586
 872  904.0469
 873  860.5843
 874  912.8383
 875  981.1975
 876  1036.505
 877  1185.287
 878  1238.935
 879  1290.767
 880  1177.406
 881  1157.607
 882  1177.319
 883  1203.119
 884  1131.948
 885  1140.918
 886  1098.03
 887  1099.496
 888  1001.91
 889  1023.167
 890  1092.632
 891  1160.776
 892  1228.203
 893  1301.005
 894  1269.966
 895  1286.403
 896  1195.329
 897  1267.47
 898  1383.902
 899  1439.861
 900  1398.066
 901  1301.317
 902  1356.96
 903  1280.037
 904  1347.869
 905  1258.652
 906  1127.106
 907  1101.9
 908  1156.451
 909  1242.86
 910  1153.754
 911  1216.68
 912  1197.035
 913  1212.63
 914  1115.439
 915  1262.826
 916  1201.045
 917  1176.893
 918  1151.92
 919  1221.264
 920  1169.313
 921  1121.557
 922  1088.304
 923  1196.286
 924  1081.248
 925  1343.437
 926  1474.117
 927  1537.868
 928  1419.293
 929  1437.868
 930  1518.061
 931  1403.963
 932  1454.396
 933  1504.75
 934  1445.039
 935  1226.854
 936  1249.154
 937  1321.106
 938  1247.515
 939  1232.934
 940  1260.173
 941  1315.167
 942  1449.205
 943  1403.854
 944  1447.494
 945  1210.073
 946  1234.098
 947  1193.842
 948  1233.591
 949  1138.65
 950  1067.242
 951  1216.55
 952  1402.148
 953  1419.056
 954  1422.615
 955  1313.611
 956  1337.345
 957  1245.547
 958  1328.933
 959  1273.21
 960  1306.335
 961  1184.544
 962  1039.413
 963  986.8259
 964  1153.963
 965  1186.436
 966  1148.524
 967  1021.984
 968  1092.555
 969  1165.483
 970  1351.859
 971  1496.327
 972  1481.627
 973  1360.209
 974  1199.608
 975  1121.018
 976  1147.422
 977  1126.741
 978  1095.892
 979  1029.506
 980  1032.618
 981  921.7254
 982  1044.173
 983  1043.354
 984  1170.284
 985  1183.395
 986  1352.348
 987  1266.181
 988  1143.866
 989  984.2734
 990  1034.726
 991  1085.259
 992  1134.307
 993  1227.937
 994  1158.775
 995  1301.603
 996  1327.36
 997  1504.339
 998  1436.315
 999  1461.014
1000  1311.299
1001  1394.641
1002  1312.869
1003  1392.503
1004  1191.477
1005  1055.954
1006  1049.964
1007  1137.014
1008  1327.325
1009  1467.941
1010  1557.919
1011  1627.693
1012  1738.047
1013  1786.156
1014  1909.26
1015  1854.203
1016  1576.117
1017  1341.725
1018  1224.759
1019  1313.15
1020  1443.814
1021  1395.509
1022  1320.91
1023  1327.701
