# Input file       =  1194539265.099607_cleaned.dat
# Candidate        =  PSR_0332+5434
# Telescope        =  AR
# Epoch_topo       =  58069.686158560267
# Epoch_bary       =  N/A
# T_sample         =  0.002
# Data Folded      =  7143424
# Data Avg         =  0.69412062115382 
# Data StdDev      =  6.07787625906317 
# Profile Bins     =  512
# Profile Avg      =  9684.37090049133 
# Profile StdDev   =  717.910140376488 
# Reduced chi-sqr  =  0.805
# Prob(Noise)      <  1   (~0.0 sigma)
# P_topo (ms)      =  714.50686416918   +/- 0.000354
# P'_topo (s/s)    =  -0                +/- 1.92e-10
# P''_topo (s/s^2) =  0                 +/- 8.7e-14
# P_bary (ms)      =  N/A
# P'_bary (s/s)    =  N/A
# P''_bary (s/s^2) =  N/A
# P_orb (s)        =  N/A
# asin(i)/c (s)    =  N/A
# eccentricity     =  N/A
# w (rad)          =  N/A
# T_peri           =  N/A
######################################################
   0  9695.954
   1  9785.08
   2  9735.217
   3  9625.201
   4  9820.055
   5  9922.129
   6  9793.604
   7  9805.303
   8  9697.439
   9  9670.851
  10  9926.062
  11  9435.678
  12  9612.026
  13  9950.209
  14  9719.349
  15  9802.166
  16  9551.412
  17  9755.026
  18  9611.372
  19  9568.479
  20  9573.093
  21  9447.8
  22  9594.801
  23  9868.899
  24  9762.072
  25  9766.047
  26  9625.683
  27  9620.436
  28  9981.95
  29  9888.896
  30  10309.98
  31  10417.27
  32  9957.409
  33  9395.579
  34  9795.673
  35  10296.48
  36  9919.695
  37  9645.495
  38  9751.2
  39  9650.276
  40  9152.696
  41  9468.896
  42  10085.94
  43  10227.18
  44  10001.04
  45  9558.12
  46  9782.667
  47  9697.723
  48  9427.494
  49  9550.273
  50  10070.06
  51  10640.88
  52  10419.4
  53  10612.89
  54  10287.87
  55  10580.89
  56  10229.91
  57  10193.33
  58  10279.93
  59  9947.214
  60  10301.86
  61  9684.325
  62  9378.511
  63  9234.5
  64  9843.428
  65  10185.71
  66  9972.797
  67  9866.269
  68  9859.341
  69  9827.267
  70  9669.712
  71  9978.341
  72  10077.43
  73  9571.887
  74  9733.731
  75  9914.685
  76  10054.87
  77  9977.424
  78  9794.549
  79  9899.042
  80  9831.263
  81  9746.952
  82  9686.477
  83  9480.342
  84  8942.582
  85  9342.619
  86  9924.107
  87  9354.842
  88  9644.903
  89  9430.641
  90  9398.253
  91  9088.406
  92  9328.116
  93  9261.188
  94  9253.05
  95  9007.535
  96  9402.337
  97  9320.298
  98  8914.695
  99  9538.394
 100  9260.034
 101  9306.211
 102  9004.68
 103  8907.409
 104  8974.562
 105  9324.629
 106  9570.557
 107  9122.418
 108  9382.735
 109  9399.019
 110  9072.004
 111  9124.363
 112  9163.724
 113  9409.969
 114  9540.679
 115  9668.121
 116  9811.202
 117  9568.576
 118  9322.268
 119  9805.343
 120  9767.693
 121  9330.078
 122  9509.202
 123  9787.42
 124  9779.782
 125  9382.611
 126  9179.213
 127  9517.471
 128  9189.539
 129  9363.459
 130  9546.2
 131  9185.648
 132  8995.379
 133  9524.514
 134  9472.723
 135  9316.82
 136  9425.177
 137  9066.901
 138  9042.294
 139  9363.979
 140  9113.725
 141  9406.982
 142  9373.782
 143  9447.602
 144  9081.214
 145  8774.996
 146  9169.214
 147  9036.175
 148  9417.795
 149  9655.409
 150  9607.862
 151  9540.689
 152  9298.374
 153  9172.85
 154  9145.604
 155  9238.19
 156  9367.829
 157  9258.596
 158  8720.842
 159  8894.581
 160  9313.883
 161  9510.405
 162  9757.823
 163  9583.956
 164  9482.363
 165  8734.656
 166  9336.112
 167  9264.849
 168  9254.862
 169  9150.22
 170  8786.445
 171  9314.33
 172  9592.812
 173  9347.485
 174  9469.899
 175  9683.115
 176  9920.276
 177  9356.056
 178  9797.643
 179  9948.57
 180  10163.05
 181  10389.7
 182  10448.45
 183  10621.39
 184  10803.51
 185  10801.52
 186  9940.582
 187  9860.546
 188  9982.475
 189  10001.08
 190  9845.851
 191  10281.32
 192  10234.51
 193  10313.07
 194  10206.71
 195  9766.336
 196  10340.57
 197  10231.64
 198  10270.58
 199  10073.34
 200  10528.6
 201  10793.53
 202  10701.96
 203  11111.02
 204  10809.76
 205  11113.6
 206  11349.25
 207  11257.71
 208  10934.23
 209  10984.95
 210  10626.83
 211  10171.52
 212  10124.51
 213  9879.735
 214  10170.02
 215  10716.31
 216  10718.45
 217  10444.31
 218  9709.203
 219  9539.155
 220  9093.145
 221  9741.184
 222  10250.98
 223  10363.78
 224  10118.2
 225  9710.403
 226  9565.853
 227  8977.545
 228  9258.201
 229  9674.77
 230  9880.695
 231  9926.097
 232  9583.146
 233  9534.251
 234  9214.101
 235  9069.804
 236  9311.884
 237  9754.938
 238  9834.979
 239  10013.92
 240  9817.198
 241  9638.322
 242  9638.062
 243  9385.999
 244  9800.019
 245  9564.747
 246  10031.48
 247  9757.183
 248  10194.11
 249  10262.89
 250  9612.238
 251  9682.405
 252  9149.496
 253  9366.761
 254  9509.883
 255  9620.708
 256  10157.2
 257  9795.639
 258  9692.341
 259  9057.119
 260  9279.045
 261  9366.544
 262  9634.701
 263  9551.492
 264  9243.853
 265  9711.659
 266  9521.293
 267  9435.197
 268  8947.592
 269  9302.45
 270  9516.218
 271  9382.986
 272  9211.959
 273  9465.368
 274  9646.162
 275  9242.928
 276  9054.363
 277  9435.886
 278  9090.555
 279  9390.233
 280  9028.144
 281  9195.415
 282  9188.286
 283  9155.316
 284  9077.854
 285  9073.742
 286  9057.024
 287  8994.026
 288  9066.441
 289  9396.589
 290  9242.425
 291  9374.912
 292  9293.156
 293  9423.234
 294  9489.598
 295  10026.12
 296  10325.53
 297  10171.09
 298  10153.95
 299  9873.372
 300  10178.31
 301  10019.75
 302  9640.81
 303  9414.459
 304  9629.604
 305  9709.847
 306  9552.345
 307  9628.414
 308  9694.441
 309  9828.292
 310  9367.226
 311  9691.676
 312  9800.9
 313  10307.51
 314  10502.79
 315  10456.64
 316  10834.94
 317  10232.23
 318  9871.54
 319  9139.559
 320  9219.089
 321  9478.468
 322  9617.072
 323  9769.162
 324  9240.598
 325  9115.653
 326  9576.894
 327  9742.504
 328  9759.437
 329  9471.051
 330  9694.59
 331  10008.17
 332  10089.28
 333  9924.926
 334  10203.13
 335  9750.167
 336  9707.608
 337  9700.533
 338  9519.714
 339  10139.21
 340  10775.57
 341  10835.31
 342  10166.16
 343  10287.26
 344  9993.729
 345  9788.841
 346  9885.718
 347  10182.05
 348  10361.47
 349  9375.405
 350  9351.589
 351  9317.685
 352  9598.448
 353  10074.1
 354  9935.006
 355  9554.82
 356  9309.888
 357  9462.005
 358  8824.04
 359  9107.859
 360  9538.379
 361  10102.84
 362  10137.27
 363  9633.132
 364  9588.793
 365  9477.922
 366  10078.47
 367  10143.91
 368  10062.6
 369  10215.2
 370  10113.78
 371  10094.15
 372  10126.32
 373  10349.14
 374  10566.36
 375  9698.089
 376  9276.712
 377  9516.878
 378  9836.186
 379  10033.1
 380  10671.22
 381  10890.63
 382  10578
 383  9995.237
 384  9705.357
 385  9539.706
 386  9374.792
 387  9782.619
 388  9938.419
 389  9954.539
 390  9966.035
 391  9925.621
 392  9499.931
 393  9215.399
 394  9400.808
 395  9602.541
 396  9556.705
 397  9729.516
 398  10298.49
 399  9912.781
 400  9731.317
 401  9663.238
 402  9789.069
 403  9379.977
 404  9429.288
 405  9425.187
 406  9944.246
 407  9615.572
 408  8919.689
 409  9298.957
 410  9101.984
 411  9079.007
 412  8959.237
 413  8927.796
 414  9058.162
 415  8757.885
 416  8778.373
 417  9114.025
 418  8833.466
 419  8975.878
 420  8907.45
 421  8756.077
 422  9005.083
 423  8970.286
 424  9237.641
 425  8568.423
 426  8684.98
 427  9225.227
 428  8911.043
 429  8929.581
 430  8867.213
 431  8931.954
 432  9217.961
 433  9394.245
 434  9895.036
 435  10123.11
 436  10355.52
 437  9766.225
 438  9264.126
 439  9400.926
 440  9765.893
 441  9683.761
 442  9591.55
 443  10067.11
 444  10231.93
 445  10159.21
 446  10092.59
 447  10734.51
 448  10095.96
 449  9813.943
 450  10014.44
 451  9597.022
 452  10117.4
 453  9701.988
 454  9808.768
 455  10105.69
 456  10080.76
 457  9743.999
 458  9596.241
 459  9973.779
 460  10118.2
 461  9692.12
 462  9390.996
 463  9288.832
 464  9719.836
 465  9465.837
 466  9655.72
 467  9459.109
 468  9793.787
 469  9663.51
 470  9713.048
 471  9970.485
 472  10131.93
 473  10373.91
 474  9474.078
 475  9807.593
 476  9785.958
 477  9451.319
 478  9280.245
 479  9352.307
 480  9977.885
 481  10363.15
 482  10171.31
 483  9676.988
 484  9426.631
 485  9553.202
 486  9200.838
 487  9240.844
 488  9443.982
 489  10198.05
 490  9976.687
 491  10345.43
 492  9674.146
 493  9495.576
 494  9631.015
 495  9864.793
 496  10070.02
 497  9995.744
 498  10166.09
 499  9811.204
 500  9381.308
 501  9020.622
 502  8989.585
 503  9553.093
 504  9611.018
 505  9882.605
 506  9834.97
 507  9428.348
 508  9493.544
 509  9366.753
 510  9970.755
 511  9868.499
