# Input file       =  1194453136.114215_cleaned.dat
# Candidate        =  PSR_0332+5434
# Telescope        =  AR
# Epoch_topo       =  58068.689295303411
# Epoch_bary       =  N/A
# T_sample         =  0.002
# Data Folded      =  7143424
# Data Avg         =  0.122373179446077
# Data StdDev      =  3.8285026324129  
# Profile Bins     =  512
# Profile Avg      =  1707.44080899186 
# Profile StdDev   =  452.217311625715 
# Reduced chi-sqr  =  0.721
# Prob(Noise)      <  1   (~0.0 sigma)
# P_topo (ms)      =  714.505874159451  +/- 8.92e-05
# P'_topo (s/s)    =  -0                +/- 4.83e-11
# P''_topo (s/s^2) =  0                 +/- 2.19e-14
# P_bary (ms)      =  N/A
# P'_bary (s/s)    =  N/A
# P''_bary (s/s^2) =  N/A
# P_orb (s)        =  N/A
# asin(i)/c (s)    =  N/A
# eccentricity     =  N/A
# w (rad)          =  N/A
# T_peri           =  N/A
######################################################
   0  1700.398
   1  2004.238
   2  2001.323
   3  1558.985
   4  1398.342
   5  1860.3
   6  1870.507
   7  1721.141
   8  1592.396
   9  1438.956
  10  1467.456
  11  1468.429
  12  1495.305
  13  1316.292
  14  1418.984
  15  1718.394
  16  2068.738
  17  1961.806
  18  1605.291
  19  2125.704
  20  1795.686
  21  1670.153
  22  1618.446
  23  1622.075
  24  1808.047
  25  1758.435
  26  1746.3
  27  1983.127
  28  1944.591
  29  1502.829
  30  1218.002
  31  1575.31
  32  1976.68
  33  1979.596
  34  2120.554
  35  2160.981
  36  1827.89
  37  1708.134
  38  1684.386
  39  1343.737
  40  1423.754
  41  1340.527
  42  1802.371
  43  1884.522
  44  1676.797
  45  1868.92
  46  1638.129
  47  1438.835
  48  1382.389
  49  1653.78
  50  1364.8
  51  1724.834
  52  1997.64
  53  1721.199
  54  2026.555
  55  2229.34
  56  1920.588
  57  1884.344
  58  1437.476
  59  1866.414
  60  1871.531
  61  1688.478
  62  2080.714
  63  1945.659
  64  1744.968
  65  1518.009
  66  1581.642
  67  1666.54
  68  1650.888
  69  1798.627
  70  1945.898
  71  1645.626
  72  1254.801
  73  1846.012
  74  2152.13
  75  2078.353
  76  2181.037
  77  2441.583
  78  1995.904
  79  1845.767
  80  1490.384
  81  1817.398
  82  2028.067
  83  1342.682
  84  1553.206
  85  1734.306
  86  1788.386
  87  1552.114
  88  1498.247
  89  1626.928
  90  1386.791
  91  1514.521
  92  1596.265
  93  1301.856
  94  1644.862
  95  1682.034
  96  1614.363
  97  1809.085
  98  2138.039
  99  1717.29
 100  1629.19
 101  2049.757
 102  1727.69
 103  2007.692
 104  1907.339
 105  1758.601
 106  1574.553
 107  1838.564
 108  1688.056
 109  2023.353
 110  2030.389
 111  1761.993
 112  1637.308
 113  1226.617
 114  1713.867
 115  1645.532
 116  1779.191
 117  1482.522
 118  1612.461
 119  2078.067
 120  1794.484
 121  1672.234
 122  1919.041
 123  1491.245
 124  1636.021
 125  1629.079
 126  1756.74
 127  1957.845
 128  1570.113
 129  1381.614
 130  1331.888
 131  1604.338
 132  1379.198
 133  1472.169
 134  1451.128
 135  1683.606
 136  1795.075
 137  1604.89
 138  1492.697
 139  1685.188
 140  2335.261
 141  2051.244
 142  1948.833
 143  1935.109
 144  1749.265
 145  1831.098
 146  1770.9
 147  1443.824
 148  1656.603
 149  2000.337
 150  2046.186
 151  2181.693
 152  1994.193
 153  2103.603
 154  2099.026
 155  2074.494
 156  1799.649
 157  1522.427
 158  1639.079
 159  1406.161
 160  1800.728
 161  2159.12
 162  1883.58
 163  1832.182
 164  1894.725
 165  2127.628
 166  2052.296
 167  1610.034
 168  1821.845
 169  2239.982
 170  2674.571
 171  3186.672
 172  3830.66
 173  3229.993
 174  2390.121
 175  1715.877
 176  1544.949
 177  1361.214
 178  1466.567
 179  1728.597
 180  1580.27
 181  2001.414
 182  1552.081
 183  1465.143
 184  1701.966
 185  1517.882
 186  1566.48
 187  1737.644
 188  1796.444
 189  1627.031
 190  1782.753
 191  1879.06
 192  1906.909
 193  1448.055
 194  1301.046
 195  1471.904
 196  1633.679
 197  1778.989
 198  1745.841
 199  1733.036
 200  1783.532
 201  1988.473
 202  1568.892
 203  1723.333
 204  1530.425
 205  1517.337
 206  1421.55
 207  1609.765
 208  1620.83
 209  1765.993
 210  1409.391
 211  1554.5
 212  1804.111
 213  1739.169
 214  1563.394
 215  1147.4
 216  1663.376
 217  1509.734
 218  1672.4
 219  1544.9
 220  1239.84
 221  1204.64
 222  1433.185
 223  1481.948
 224  1654.442
 225  2009.935
 226  1706.888
 227  1785.115
 228  1517.935
 229  1658.254
 230  1395.078
 231  1318.276
 232  1496.206
 233  1798.967
 234  1937.63
 235  1626.233
 236  1851.402
 237  1809.563
 238  1918.549
 239  1755.326
 240  1848.496
 241  1590.503
 242  1420.594
 243  1657.138
 244  1474.473
 245  1626.604
 246  1893.257
 247  1603.269
 248  1933.455
 249  1690.423
 250  1265.044
 251  1403.409
 252  1637.394
 253  1836.496
 254  1805.166
 255  2132.136
 256  1940.322
 257  1720.729
 258  1990.527
 259  1930.467
 260  1325.544
 261  1094.537
 262  1727.249
 263  1896.042
 264  1955.465
 265  1717.034
 266  1994.964
 267  1814.952
 268  1451.647
 269  1217.806
 270  1770.849
 271  1899.742
 272  1389.594
 273  1460.055
 274  1506.655
 275  1778.221
 276  2070.519
 277  1737.848
 278  1357.444
 279  1634.07
 280  1605.717
 281  1396.807
 282  1660.148
 283  1890.643
 284  1773.699
 285  1583.887
 286  1543.859
 287  1446.824
 288  1426.783
 289  1236.736
 290  1669.926
 291  1904.464
 292  1694.709
 293  1543.791
 294  1761.817
 295  1580.751
 296  1556.411
 297  1461.163
 298  1590.697
 299  1934.155
 300  1795.788
 301  1809.808
 302  1480.299
 303  1326.863
 304  1148.919
 305  1145.442
 306  1375.7
 307  1788.889
 308  1908.934
 309  2182.422
 310  2008.834
 311  2113.813
 312  2079.9
 313  1768.008
 314  1644.589
 315  1768.285
 316  1857.479
 317  1815.188
 318  2240.703
 319  1326.53
 320  1845.916
 321  2014.197
 322  2066.479
 323  1909.994
 324  1596.362
 325  1399.133
 326  1712.66
 327  1872.845
 328  1837.585
 329  1937.533
 330  1550.672
 331  1442.054
 332  1416.771
 333  1590.976
 334  1600.164
 335  1815.802
 336  2167.939
 337  2152.879
 338  1927.959
 339  1642.673
 340  1789.886
 341  1863.755
 342  1661.252
 343  1417.076
 344  1335.335
 345  1670.346
 346  1696.788
 347  1589.91
 348  1454.318
 349  1575.87
 350  1899.359
 351  1501.442
 352  1139.171
 353  1713.326
 354  1901.582
 355  1531.115
 356  1706.459
 357  1867.029
 358  1893.435
 359  1630.465
 360  1749.492
 361  1377.293
 362  1412.916
 363  2072.469
 364  1548.244
 365  1787.752
 366  1781.047
 367  1665.489
 368  1355.616
 369  1189.611
 370  1377.717
 371  1649.763
 372  1918.786
 373  1605.613
 374  1828.109
 375  1748.902
 376  1736.512
 377  1146.156
 378  1732.867
 379  1738.828
 380  1658.528
 381  1878.328
 382  1527.276
 383  1826.904
 384  1449.866
 385  1349.613
 386  1256.438
 387  1429.478
 388  1577.587
 389  1658.332
 390  1684.83
 391  1932.601
 392  1755.153
 393  1284.134
 394  1401.249
 395  1405.32
 396  1805.363
 397  1699.506
 398  2041.38
 399  1691.558
 400  1558.837
 401  1564.167
 402  1449.675
 403  1640.975
 404  2022.681
 405  1966.054
 406  1583.019
 407  1659.753
 408  1555.536
 409  1939.668
 410  1867.06
 411  1574.577
 412  1809.891
 413  1814.523
 414  1613.281
 415  1409.55
 416  1798.293
 417  1419.97
 418  1343.926
 419  1548
 420  2009.212
 421  2136.764
 422  1756.064
 423  1762.062
 424  1501.985
 425  1444.617
 426  1489.121
 427  1536.272
 428  2012.916
 429  1771.759
 430  1741.362
 431  1728.271
 432  1704.606
 433  1729.177
 434  1497.258
 435  1945.999
 436  1732.713
 437  1629.984
 438  1715.655
 439  1922.751
 440  1690.313
 441  1533.705
 442  1450.722
 443  1339.855
 444  1247.882
 445  1227.962
 446  1847.563
 447  1607.624
 448  1936.188
 449  1618.122
 450  1598.368
 451  1331.243
 452  1286.525
 453  1502.715
 454  1882.171
 455  1617.292
 456  1625.607
 457  1843.014
 458  1744.768
 459  1900.639
 460  1600.552
 461  1869.483
 462  1756.362
 463  1737.078
 464  1855.08
 465  1936.714
 466  1904.121
 467  1732.976
 468  1646.319
 469  1136.152
 470  1436.217
 471  2066.854
 472  2077.281
 473  1903.077
 474  1842.759
 475  1659.137
 476  1771.574
 477  1694.974
 478  1593.822
 479  1463.174
 480  1422.064
 481  1717.406
 482  1919.188
 483  2464.287
 484  1916.562
 485  1732.136
 486  1394.878
 487  1445.131
 488  1692.146
 489  1412.513
 490  1559.198
 491  1981.743
 492  2050.74
 493  1725.634
 494  1397.092
 495  1335.057
 496  1242.608
 497  1604.359
 498  1663.79
 499  1529.363
 500  1531.045
 501  2033.417
 502  2294.4
 503  2116.266
 504  1603.512
 505  1406.9
 506  1426.127
 507  1587.272
 508  1680.015
 509  1856.746
 510  1781.859
 511  1658.268
