# Input file       =  1194108959.124819_cleaned.dat
# Candidate        =  PSR_0332+5434
# Telescope        =  AR
# Epoch_topo       =  58064.705765333551
# Epoch_bary       =  N/A
# T_sample         =  0.002
# Data Folded      =  7208960
# Data Avg         =  0.119372194985309
# Data StdDev      =  3.5055439606936  
# Profile Bins     =  512
# Profile Avg      =  1680.55473517263 
# Profile StdDev   =  415.964957083891 
# Reduced chi-sqr  =  0.802
# Prob(Noise)      <  1   (~0.0 sigma)
# P_topo (ms)      =  714.501981801728  +/- 8.3e-05
# P'_topo (s/s)    =  -0                +/- 4.46e-11
# P''_topo (s/s^2) =  0                 +/- 2e-14
# P_bary (ms)      =  N/A
# P'_bary (s/s)    =  N/A
# P''_bary (s/s^2) =  N/A
# P_orb (s)        =  N/A
# asin(i)/c (s)    =  N/A
# eccentricity     =  N/A
# w (rad)          =  N/A
# T_peri           =  N/A
######################################################
   0  1287.367
   1  1645.724
   2  1537.522
   3  1528.798
   4  1785.243
   5  1850.226
   6  1384.902
   7  1266.201
   8  1655.469
   9  1785.895
  10  1698.27
  11  1326.208
  12  1529.797
  13  1734.826
  14  1531.036
  15  1342.197
  16  1760.731
  17  1696.594
  18  1835.638
  19  2002.93
  20  1973.472
  21  1954.277
  22  1588.384
  23  1576.706
  24  1481.747
  25  1437.411
  26  1742.874
  27  1878.445
  28  2182.896
  29  2033.216
  30  1654.757
  31  1830.245
  32  1539.21
  33  1701.068
  34  1399.523
  35  1683.715
  36  1525.492
  37  1840.228
  38  1747.162
  39  1927.994
  40  1781.165
  41  1384.496
  42  1193.897
  43  1462.656
  44  1547.436
  45  1570.43
  46  1694.834
  47  1995.648
  48  1973.769
  49  1657.662
  50  1553.559
  51  1653.8
  52  1866.569
  53  1851.393
  54  1806.201
  55  1748.296
  56  1558.901
  57  1405.188
  58  1831.786
  59  1988.598
  60  2120.958
  61  2136.602
  62  1952.548
  63  1900.867
  64  1978.575
  65  1829.46
  66  1704.506
  67  1835.75
  68  1748.286
  69  1821.375
  70  1937.589
  71  1503.592
  72  1767.756
  73  1569.465
  74  1366.932
  75  1558.047
  76  1479.963
  77  1846.523
  78  1595.479
  79  1536.251
  80  1695.715
  81  1524.378
  82  1542.177
  83  1682.373
  84  1667.502
  85  1436.6
  86  1619.253
  87  1504.523
  88  1719.405
  89  1548.651
  90  1817.841
  91  1673.041
  92  1453.31
  93  1890.71
  94  1887.271
  95  1655.181
  96  1359.44
  97  1205.019
  98  1267.194
  99  991.0516
 100  1274.576
 101  1705.633
 102  2148.727
 103  1297.14
 104  1391.807
 105  1326.466
 106  1678.219
 107  1421.885
 108  1523.025
 109  1915.728
 110  1916.739
 111  2061.048
 112  1612.87
 113  1829.417
 114  1582.528
 115  1510.039
 116  1412.405
 117  1487.568
 118  1687.812
 119  2051.32
 120  2316.621
 121  1525.429
 122  1430.815
 123  1632.364
 124  1439.337
 125  1594.15
 126  1806.391
 127  2121.921
 128  1683.211
 129  1688.669
 130  1592.253
 131  1444.041
 132  1265.21
 133  1252.141
 134  1516.117
 135  1756.716
 136  1623.455
 137  1751.68
 138  1581.761
 139  1617.687
 140  1395.955
 141  1674.709
 142  1569.687
 143  1398.604
 144  1777.865
 145  1710.9
 146  1526.893
 147  1304.154
 148  1524.33
 149  1672.493
 150  1611.052
 151  1488.01
 152  1420.006
 153  1291.285
 154  1227.492
 155  1410.504
 156  1430.954
 157  1803.586
 158  1962.926
 159  2028.819
 160  1622.521
 161  1610.656
 162  1905.34
 163  1781.336
 164  1633.692
 165  1755.916
 166  1868.53
 167  1396.427
 168  1526.525
 169  1780.707
 170  1512.544
 171  1554.417
 172  1755.384
 173  1697.021
 174  1520.531
 175  1188.168
 176  1575.866
 177  1684.875
 178  1608.579
 179  1516.137
 180  1819.522
 181  2065.761
 182  1501.455
 183  1392.364
 184  1175.167
 185  1603.558
 186  1653.034
 187  1920.555
 188  1990.114
 189  1736.16
 190  1867.975
 191  1480.45
 192  1598.537
 193  2086.178
 194  2218.902
 195  1833.067
 196  1600.17
 197  1629.775
 198  1955.388
 199  2164.665
 200  1808.77
 201  1930.431
 202  2044.918
 203  1927.588
 204  1549.878
 205  1676.039
 206  1710.564
 207  1320.031
 208  1742.586
 209  1855.517
 210  2212.326
 211  2156.3
 212  1870.119
 213  1524.135
 214  1020.088
 215  1220.576
 216  1564.209
 217  1722.861
 218  1906.238
 219  2238.705
 220  2024.36
 221  1706.948
 222  1674.844
 223  1512.573
 224  1738.192
 225  1915.081
 226  1937.445
 227  1994.901
 228  1685.92
 229  1950.989
 230  2080.895
 231  1891.978
 232  1962.885
 233  2042.658
 234  1715.781
 235  1498.776
 236  1249.709
 237  1198.272
 238  1429.49
 239  1360.021
 240  1306.707
 241  1368.755
 242  1625.19
 243  1920.135
 244  1612.842
 245  1785.755
 246  1381.758
 247  1417.337
 248  1613.296
 249  1476.597
 250  1334.628
 251  1878.059
 252  2195.872
 253  1777.997
 254  1724.068
 255  1773.168
 256  1503.022
 257  1539.85
 258  1648.655
 259  1795.445
 260  1530.093
 261  1509.027
 262  1503.002
 263  1597.398
 264  1432.304
 265  1713.335
 266  1769.624
 267  1707.788
 268  2066.968
 269  1919.061
 270  1812.61
 271  1372.073
 272  1509.843
 273  1874.589
 274  1855.013
 275  1663.413
 276  1775
 277  1864.981
 278  1849.842
 279  1761.383
 280  1791.123
 281  1538.619
 282  1297.028
 283  1455.942
 284  1933.996
 285  1508.725
 286  1527.714
 287  1779.539
 288  1540.552
 289  1483.973
 290  1467.582
 291  1609.146
 292  1682.803
 293  1693.151
 294  1971.716
 295  1619.639
 296  1280.693
 297  1371.526
 298  1589.598
 299  1746.667
 300  1787.935
 301  1739.921
 302  1608.392
 303  1149.216
 304  1092.923
 305  1720.922
 306  1760.468
 307  1692.543
 308  1739.623
 309  1712.51
 310  1591.053
 311  1537.47
 312  1770.885
 313  1712.715
 314  1786.327
 315  2126.982
 316  1642.93
 317  1501.462
 318  1369.741
 319  1833.863
 320  1648.131
 321  1809.978
 322  1725.128
 323  1079.156
 324  1510.397
 325  1419.551
 326  1956.414
 327  1380.836
 328  1559.703
 329  1482.246
 330  1436.053
 331  1427.953
 332  1283.673
 333  1611.618
 334  1729.943
 335  1906.417
 336  1677.615
 337  1609.462
 338  1432.645
 339  1349.245
 340  1389.146
 341  1686.681
 342  1778.591
 343  1797.453
 344  1774.634
 345  1683.049
 346  1703.824
 347  1368.526
 348  1458.491
 349  1745.569
 350  1852.566
 351  2304.529
 352  1756.611
 353  1519.859
 354  1293.536
 355  1385.241
 356  1720.23
 357  1569.192
 358  1955.112
 359  2024.621
 360  1765.722
 361  1441.788
 362  1340.931
 363  1538.342
 364  1351.947
 365  1592.694
 366  1561.048
 367  2073.299
 368  1710.468
 369  1622.226
 370  1721.396
 371  1863.084
 372  2012.12
 373  1911.153
 374  1689.379
 375  2111.434
 376  2030.089
 377  2044.71
 378  1662.396
 379  1625.77
 380  1827.023
 381  2159.278
 382  2195.012
 383  2407.201
 384  2620.632
 385  2868.284
 386  3079.224
 387  2926.778
 388  2714.116
 389  2048.951
 390  2072.38
 391  1917.649
 392  1792.951
 393  1946.479
 394  1416.388
 395  1566.169
 396  1626.486
 397  1658.446
 398  1585.835
 399  1874.784
 400  2100.056
 401  1489.951
 402  1907.767
 403  1865.127
 404  1727.91
 405  1809.621
 406  1544.896
 407  1500.687
 408  1475.159
 409  1631.701
 410  1638.636
 411  1462.622
 412  1474.504
 413  1488.733
 414  1196.204
 415  1592.713
 416  1911.923
 417  1802.863
 418  1720.537
 419  970.2964
 420  1518.4
 421  1582.057
 422  1532.99
 423  2016.012
 424  2031.51
 425  1851.52
 426  1651.174
 427  1651.399
 428  1596.022
 429  1549.985
 430  1518.802
 431  1323.06
 432  1854.728
 433  1976.3
 434  2336.923
 435  1754.707
 436  1341.138
 437  1917.961
 438  1587.715
 439  1831.491
 440  2080.79
 441  2032.099
 442  2093.092
 443  1645.675
 444  1650.529
 445  1687.832
 446  1582.008
 447  1639.78
 448  1464.249
 449  1373.498
 450  1709.988
 451  1724.095
 452  1816.023
 453  1501.218
 454  1444.297
 455  1350.768
 456  1422.219
 457  2023.223
 458  1635.591
 459  1873.247
 460  1496.259
 461  1369.069
 462  1834.788
 463  1905.308
 464  1884.52
 465  1273.684
 466  1615.172
 467  1943.763
 468  1850.27
 469  1830.011
 470  1377.611
 471  1824.764
 472  1757.399
 473  1816.885
 474  1762.346
 475  1592.545
 476  1545.388
 477  1515.487
 478  2010.155
 479  1982.56
 480  1942.153
 481  1598.385
 482  1390.56
 483  1505.591
 484  1436.632
 485  1798.29
 486  1618.194
 487  1783.943
 488  1633.661
 489  1752.054
 490  1776.328
 491  1576.479
 492  1510.575
 493  1822.897
 494  1797.61
 495  1361.033
 496  1535.472
 497  1821.228
 498  2268.741
 499  2357.68
 500  1874.046
 501  1724.945
 502  1177.29
 503  1516.186
 504  1262.228
 505  1011.828
 506  1583.02
 507  1567.581
 508  1602.031
 509  1643.465
 510  1440.041
 511  959.5179
