# Input file       =  1194884445.113245_cleaned.dat
# Candidate        =  PSR_0332+5434
# Telescope        =  AR
# Epoch_topo       =  58073.681297607000
# Epoch_bary       =  N/A
# T_sample         =  0.002
# Data Folded      =  7208960
# Data Avg         =  0.119532882848712
# Data StdDev      =  3.44755167486271 
# Profile Bins     =  1024
# Profile Avg      =  841.426057367211 
# Profile StdDev   =  289.265816089587 
# Reduced chi-sqr  =  0.936
# Prob(Noise)      <  0.93   (~0.0 sigma)
# P_topo (ms)      =  714.510883686945  +/- 2.3e-05
# P'_topo (s/s)    =  -0                +/- 1.24e-11
# P''_topo (s/s^2) =  0                 +/- 5.55e-15
# P_bary (ms)      =  N/A
# P'_bary (s/s)    =  N/A
# P''_bary (s/s^2) =  N/A
# P_orb (s)        =  N/A
# asin(i)/c (s)    =  N/A
# eccentricity     =  N/A
# w (rad)          =  N/A
# T_peri           =  N/A
######################################################
   0  796.3173
   1  689.4177
   2  772.199
   3  720.6791
   4  922.6482
   5  983.0482
   6  937.225
   7  592.0792
   8  465.7292
   9  438.8825
  10  495.5478
  11  614.0278
  12  720.5943
  13  827.8751
  14  673.8318
  15  545.6942
  16  601.36
  17  657.5054
  18  618.5218
  19  609.2227
  20  641.3168
  21  664.0577
  22  712.7455
  23  747.7814
  24  622.4271
  25  662.4819
  26  850.8508
  27  981.5798
  28  865.8876
  29  686.5906
  30  562.8743
  31  653.9106
  32  774.743
  33  843.0352
  34  869.3764
  35  883.1259
  36  861.6111
  37  793.8293
  38  695.4194
  39  597.067
  40  685.3546
  41  803.3194
  42  768.4659
  43  695.8921
  44  615.5056
  45  652.4979
  46  685.1537
  47  899.4406
  48  985.7013
  49  974.8903
  50  935.16
  51  818.2739
  52  784.4948
  53  688.11
  54  826.4447
  55  888.1365
  56  896.4949
  57  771.2454
  58  799.775
  59  839.2128
  60  776.7124
  61  675.3597
  62  695.7621
  63  814.8076
  64  880.0414
  65  885.3858
  66  715.5273
  67  779.3628
  68  844.9052
  69  1031.605
  70  988.0125
  71  923.6655
  72  853.5096
  73  839.9341
  74  771.9069
  75  673.7841
  76  799.2616
  77  971.818
  78  956.9874
  79  780.4412
  80  685.6038
  81  723.8615
  82  778.264
  83  970.6049
  84  1039.021
  85  1055.79
  86  870.4547
  87  757.7345
  88  591.1503
  89  588.0135
  90  769.1301
  91  1028.233
  92  1092.491
  93  920.476
  94  665.9752
  95  532.7231
  96  579.5176
  97  692.3524
  98  728.7733
  99  727.1367
 100  679.428
 101  739.5014
 102  697.3101
 103  606.0648
 104  532.038
 105  746.5547
 106  826.9926
 107  811.7112
 108  803.7136
 109  830.6524
 110  954.2701
 111  922.1891
 112  1029.794
 113  1075.16
 114  1157.717
 115  1072.161
 116  966.9972
 117  852.7396
 118  768.2486
 119  857.1149
 120  953.3379
 121  983.0935
 122  988.273
 123  956.1491
 124  931.6943
 125  787.3821
 126  963.2524
 127  972.1227
 128  1007.287
 129  941.301
 130  887.5568
 131  960.4088
 132  879.627
 133  927.9521
 134  986.0489
 135  862.5608
 136  759.0071
 137  725.2026
 138  926.6551
 139  848.2455
 140  844.6046
 141  800.8466
 142  834.8835
 143  774.5997
 144  721.8003
 145  642.7361
 146  835.271
 147  970.4059
 148  1031.433
 149  938.5116
 150  963.673
 151  1042.875
 152  940.9158
 153  852.3041
 154  711.9203
 155  793.0026
 156  884.0157
 157  843.0497
 158  837.7385
 159  832.3157
 160  866.6212
 161  848.7668
 162  907.8985
 163  930.5593
 164  1046.44
 165  1085.984
 166  991.3253
 167  862.6711
 168  766.3596
 169  846.5549
 170  842.2597
 171  924.3342
 172  859.7574
 173  766.5054
 174  638.3987
 175  590.2766
 176  754.6631
 177  797.3262
 178  897.2094
 179  872.0063
 180  835.1641
 181  673.3104
 182  597.8517
 183  738.4313
 184  690.5679
 185  684.7978
 186  647.1849
 187  829.3003
 188  778.1143
 189  673.8975
 190  596.8809
 191  754.3858
 192  913.0544
 193  986.2617
 194  858.9863
 195  738.5349
 196  597.863
 197  582.0718
 198  712.7842
 199  809.1935
 200  796.6221
 201  849.9738
 202  901.2707
 203  775.3322
 204  758.5786
 205  838.0451
 206  946.4132
 207  1003.915
 208  934.991
 209  774.1547
 210  636.8595
 211  657.118
 212  909.3151
 213  1047.37
 214  1101.196
 215  904.1589
 216  884.3685
 217  832.392
 218  806.5404
 219  860.2132
 220  966.6639
 221  1000.921
 222  942.4625
 223  912.7133
 224  768.3408
 225  706.6336
 226  795.6506
 227  916.2402
 228  994.2226
 229  1013.362
 230  961.6375
 231  800.8741
 232  593.5165
 233  506.4438
 234  787.3448
 235  816.4622
 236  735.3069
 237  796.8603
 238  908.9142
 239  890.6829
 240  813.5266
 241  895.9891
 242  873.5514
 243  881.5623
 244  834.6122
 245  669.4983
 246  525.6934
 247  525.1604
 248  751.8145
 249  915.1974
 250  1012.837
 251  947.4227
 252  905.2397
 253  845.9944
 254  700.5848
 255  750.8014
 256  761.8892
 257  838.1266
 258  775.5218
 259  707.8881
 260  551.2365
 261  521.9481
 262  660.4386
 263  815.8367
 264  813.8093
 265  650.5388
 266  650.3232
 267  731.6693
 268  785.6793
 269  721.755
 270  838.9876
 271  980.1469
 272  980.9697
 273  852.9866
 274  731.6227
 275  900.4131
 276  941.8307
 277  982.2292
 278  884.8948
 279  852.4579
 280  906.5895
 281  826.408
 282  883.8942
 283  885.6263
 284  936.9655
 285  837.1891
 286  817.4294
 287  788.5778
 288  723.0494
 289  667.694
 290  758.2789
 291  916.6968
 292  800.3322
 293  759.7235
 294  651.5727
 295  672.0627
 296  576.3116
 297  678.8069
 298  785.8531
 299  875.3505
 300  859.2711
 301  816.8663
 302  831.0726
 303  677.6962
 304  747.7855
 305  654.8486
 306  633.3633
 307  608.4407
 308  682.9617
 309  655.456
 310  558.6432
 311  607.2435
 312  638.7765
 313  677.2899
 314  704.559
 315  698.2452
 316  734.0464
 317  716.1179
 318  771.0661
 319  761.382
 320  790.6274
 321  719.2868
 322  647.259
 323  572.8925
 324  515.398
 325  653.7092
 326  805.6345
 327  861.9827
 328  819.1515
 329  838.0251
 330  764.58
 331  750.6959
 332  679.1149
 333  690.8303
 334  696.1546
 335  805.4354
 336  876.6602
 337  918.7352
 338  732.0938
 339  449.9644
 340  559.7329
 341  805.6302
 342  914.4774
 343  850.1319
 344  780.4575
 345  773.3598
 346  669.067
 347  777.2806
 348  813.2533
 349  961.826
 350  1043.557
 351  1057.814
 352  949.4554
 353  747.4836
 354  739.8241
 355  863.6147
 356  977.8737
 357  860.1721
 358  865.493
 359  841.4134
 360  804.5931
 361  779.5334
 362  743.9271
 363  813.7732
 364  881.5173
 365  975.9973
 366  925.3143
 367  862.7043
 368  824.0513
 369  837.6842
 370  805.9437
 371  808.6778
 372  771.6562
 373  828.1597
 374  724.7469
 375  639.9026
 376  707.776
 377  889.7325
 378  890.3171
 379  800.3542
 380  666.7078
 381  685.1035
 382  600.5643
 383  670.9796
 384  691.7192
 385  933.6108
 386  982.3817
 387  933.5251
 388  653.1765
 389  523.5284
 390  677.6836
 391  876.0638
 392  969.6033
 393  938.5995
 394  846.54
 395  783.2702
 396  812.4929
 397  789.4681
 398  877.0821
 399  923.0782
 400  1084.287
 401  1017.004
 402  884.208
 403  836.3246
 404  968.7679
 405  969.339
 406  1029.045
 407  936.8983
 408  999.5082
 409  848.4442
 410  749.0601
 411  642.6029
 412  659.2473
 413  782.8314
 414  916.9885
 415  930.5679
 416  923.2767
 417  881.7763
 418  850.0201
 419  907.2319
 420  895.2856
 421  850.1516
 422  898.3778
 423  970.9532
 424  963.4268
 425  800.2117
 426  763.0419
 427  888.9831
 428  988.8483
 429  1025.136
 430  958.8486
 431  1001.907
 432  981.0685
 433  1006.331
 434  911.6473
 435  905.2114
 436  762.3868
 437  822.4739
 438  874.3239
 439  720.0649
 440  721.2665
 441  736.9588
 442  813.4128
 443  824.106
 444  844.1505
 445  809.4612
 446  795.4866
 447  728.0035
 448  640.5491
 449  659.25
 450  774.3403
 451  927.1237
 452  797.2006
 453  698.1241
 454  595.1684
 455  716.8785
 456  792.1822
 457  781.5116
 458  789.727
 459  667.138
 460  711.0842
 461  640.3311
 462  637.6945
 463  592.5554
 464  812.8295
 465  1088.146
 466  1105.91
 467  1017.257
 468  838.2604
 469  787.5067
 470  810.8455
 471  924.1148
 472  856.2832
 473  923.5108
 474  993.6319
 475  997.0074
 476  976.9702
 477  748.6653
 478  881.8089
 479  835.7224
 480  914.8016
 481  761.0112
 482  787.5088
 483  898.7504
 484  977.4643
 485  922.0275
 486  825.1885
 487  849.5181
 488  819.4493
 489  750.761
 490  681.8574
 491  852.085
 492  1039.464
 493  1107.497
 494  1029.655
 495  829.2685
 496  713.1179
 497  657.9533
 498  859.7057
 499  989.7528
 500  962.1873
 501  957.3317
 502  919.7336
 503  1019.805
 504  918.7668
 505  940.6309
 506  1037.622
 507  1204.213
 508  1190.812
 509  976.0037
 510  799.9852
 511  743.1304
 512  723.399
 513  856.5464
 514  902.3588
 515  855.0681
 516  882.3572
 517  952.0215
 518  1014.821
 519  992.2271
 520  1025.092
 521  1053.217
 522  982.705
 523  1016.49
 524  892.9764
 525  779.9753
 526  592.8544
 527  683.9672
 528  909.1211
 529  1086.194
 530  1068.964
 531  933.4159
 532  823.5582
 533  673.963
 534  796.2817
 535  912.8926
 536  911.6726
 537  924.2612
 538  841.7743
 539  815.0055
 540  566.1527
 541  581.2764
 542  623.6326
 543  797.5684
 544  884.7178
 545  825.7029
 546  782.3835
 547  736.9674
 548  726.7225
 549  815.9485
 550  867.3718
 551  808.6221
 552  812.3836
 553  819.4764
 554  806.6232
 555  856.2619
 556  906.1699
 557  990.3719
 558  940.5189
 559  882.4301
 560  653.6772
 561  672.8801
 562  786.3771
 563  897.0944
 564  906.6979
 565  811.9332
 566  801.5584
 567  749.4586
 568  714.5123
 569  713.4971
 570  969.9191
 571  1148.773
 572  1112.448
 573  846.1235
 574  659.6183
 575  700.8386
 576  675.4989
 577  777.34
 578  907.9032
 579  979.394
 580  1129.899
 581  1080.304
 582  1130.584
 583  902.1836
 584  951.6005
 585  985.965
 586  1032.904
 587  995.1669
 588  951.1427
 589  1026.352
 590  903.4122
 591  906.5236
 592  923.8763
 593  1082.629
 594  1167.746
 595  1005.161
 596  744.5839
 597  629.4979
 598  858.4374
 599  1066.875
 600  1133.817
 601  942.6449
 602  927.5349
 603  756.707
 604  741.8051
 605  839.2181
 606  982.9171
 607  1047.374
 608  881.7895
 609  959.5504
 610  877.624
 611  933.8407
 612  803.4157
 613  961.3628
 614  1036.713
 615  909.2431
 616  934.3367
 617  978.405
 618  1018.972
 619  1043.933
 620  1207.818
 621  1323.016
 622  1311.585
 623  1247.824
 624  1268.013
 625  1315.125
 626  1328.491
 627  1432.018
 628  1406.483
 629  1533.265
 630  1629.628
 631  1737.467
 632  1646.294
 633  1454.537
 634  1542.068
 635  1626.131
 636  1543.671
 637  1265.802
 638  1006.387
 639  849.4984
 640  797.3167
 641  813.3909
 642  845.3455
 643  912.3129
 644  827.6873
 645  690.0022
 646  627.9385
 647  726.9432
 648  873.0317
 649  984.6541
 650  1101.063
 651  1027.23
 652  1060.614
 653  972.0817
 654  910.5202
 655  845.8998
 656  917.6375
 657  894.2295
 658  998.5368
 659  1032.731
 660  1014.577
 661  956.4395
 662  876.7579
 663  883.2731
 664  1029.791
 665  997.6086
 666  1012.465
 667  1007.657
 668  986.9933
 669  811.1353
 670  714.6758
 671  750.4075
 672  916.6071
 673  918.3976
 674  930.7934
 675  817.6451
 676  827.0017
 677  895.3179
 678  849.7867
 679  952.0957
 680  919.6705
 681  992.8903
 682  792.5527
 683  716.7004
 684  647.8529
 685  912.9833
 686  1075.197
 687  989.7105
 688  708.256
 689  659.809
 690  796.6717
 691  901.2132
 692  907.3797
 693  913.2746
 694  998.8049
 695  1069.619
 696  1063.886
 697  969.1459
 698  956.0093
 699  1138.733
 700  1125.578
 701  1098.86
 702  933.3077
 703  858.0323
 704  927.4503
 705  1052.964
 706  1091.858
 707  916.4462
 708  973.4795
 709  915.92
 710  915.7825
 711  741.4893
 712  815.0219
 713  934.0493
 714  1108.177
 715  1048.161
 716  1001.036
 717  909.2006
 718  855.8268
 719  768.5171
 720  678.4166
 721  708.1479
 722  832.4313
 723  948.8326
 724  911.1681
 725  799.1453
 726  793.5261
 727  754.939
 728  868.8834
 729  904.051
 730  829.3545
 731  714.9832
 732  746.4135
 733  820.2042
 734  752.674
 735  795.3057
 736  656.5543
 737  849.3042
 738  803.6556
 739  789.8675
 740  798.752
 741  804.3659
 742  903.1378
 743  904.8532
 744  932.3432
 745  875.9152
 746  817.9681
 747  787.2327
 748  667.8756
 749  664.5028
 750  872.8081
 751  890.7594
 752  883.9145
 753  722.8343
 754  772.5513
 755  811.6691
 756  849.0592
 757  840.3148
 758  764.3104
 759  670.3192
 760  657.2489
 761  736.1662
 762  799.9847
 763  729.1035
 764  747.7266
 765  796.5736
 766  827.0174
 767  846.1544
 768  886.7125
 769  781.2956
 770  786.8413
 771  934.492
 772  994.7164
 773  962.4495
 774  786.7999
 775  652.7901
 776  555.4654
 777  568.291
 778  734.3497
 779  901.9014
 780  823.5763
 781  694.924
 782  661.874
 783  826.4081
 784  955.2949
 785  950.8903
 786  1001.52
 787  932.0024
 788  859.2695
 789  689.5576
 790  612.4748
 791  693.6526
 792  750.2417
 793  1001.702
 794  1018.48
 795  1021.514
 796  883.066
 797  836.851
 798  789.2431
 799  812.7211
 800  944.92
 801  1009.566
 802  1019.497
 803  928.9787
 804  862.3395
 805  769.9943
 806  754.8771
 807  846.66
 808  905.286
 809  1025.237
 810  1081.81
 811  929.1561
 812  793.7789
 813  715.8608
 814  869.67
 815  916.8896
 816  885.5668
 817  845.3179
 818  796.573
 819  850.9458
 820  898.2478
 821  920.5628
 822  880.1552
 823  913.141
 824  905.5492
 825  923.8145
 826  740.6049
 827  664.6426
 828  840.8097
 829  1024.803
 830  1022.644
 831  801.9625
 832  687.6727
 833  606.9753
 834  699.6877
 835  710.5305
 836  737.8317
 837  734.3705
 838  799.719
 839  856.268
 840  820.0949
 841  724.3993
 842  660.9701
 843  729.3849
 844  658.4892
 845  594.1537
 846  619.2198
 847  760.3505
 848  741.6285
 849  761.675
 850  869.0571
 851  926.1486
 852  915.9268
 853  769.5436
 854  555.0016
 855  607.0175
 856  783.399
 857  933.6321
 858  977.6928
 859  845.5881
 860  641.4503
 861  613.511
 862  792.5083
 863  819.055
 864  822.2875
 865  844.1973
 866  982.845
 867  863.8162
 868  735.5026
 869  574.5518
 870  605.9998
 871  731.7219
 872  836.7277
 873  903.7658
 874  705.909
 875  618.7527
 876  473.3677
 877  490.349
 878  574.5741
 879  684.6284
 880  879.1376
 881  856.8739
 882  922.9659
 883  752.0497
 884  773.291
 885  840.0899
 886  995.2387
 887  978.3367
 888  984.3254
 889  933.2643
 890  924.2445
 891  769.4937
 892  687.1002
 893  777.8966
 894  770.2972
 895  864.3594
 896  779.121
 897  793.7061
 898  748.6985
 899  767.3318
 900  848.8849
 901  873.0246
 902  1104.149
 903  1136.563
 904  1140.665
 905  871.7674
 906  796.2089
 907  826.9835
 908  922.0844
 909  1006.384
 910  823.9172
 911  710.0994
 912  635.6812
 913  789.2728
 914  829.2974
 915  840.7571
 916  888.5591
 917  978.3959
 918  1029.763
 919  909.3914
 920  955.1071
 921  829.6846
 922  971.4059
 923  895.5098
 924  923.646
 925  930.5355
 926  1000.494
 927  1027.693
 928  1066.182
 929  1130.935
 930  1072.483
 931  997.9721
 932  853.3778
 933  821.6443
 934  724.4072
 935  786.1157
 936  810.8359
 937  960.7417
 938  1041.907
 939  1024.307
 940  930.7392
 941  885.1667
 942  772.9438
 943  786.9089
 944  832.6283
 945  884.7519
 946  679.4806
 947  564.0874
 948  497.4379
 949  733.0234
 950  878.9583
 951  905.5555
 952  916.4814
 953  823.4355
 954  775.1169
 955  725.6862
 956  831.1541
 957  816.1658
 958  888.9265
 959  903.3159
 960  869.8132
 961  881.0991
 962  798.0687
 963  834.3801
 964  799.4883
 965  930.0073
 966  891.3101
 967  1001.171
 968  957.8188
 969  790.0528
 970  691.0937
 971  738.3911
 972  911.7849
 973  852.6626
 974  842.8124
 975  645.8439
 976  715.1246
 977  686.0345
 978  787.2484
 979  712.2151
 980  703.6597
 981  646.9843
 982  766.7888
 983  830.9583
 984  810.1669
 985  881.6687
 986  972.8328
 987  1064.148
 988  920.511
 989  771.0179
 990  650.0176
 991  627.9737
 992  763.2377
 993  715.358
 994  756.2076
 995  763.1991
 996  788.6445
 997  716.2307
 998  613.1726
 999  552.1243
1000  681.2858
1001  823.9034
1002  779.9705
1003  721.5286
1004  681.7564
1005  767.4268
1006  782.2639
1007  751.1214
1008  729.9322
1009  776.3843
1010  814.6553
1011  742.5167
1012  620.5565
1013  607.2935
1014  732.6539
1015  784.4633
1016  824.998
1017  823.9398
1018  694.5599
1019  656.4096
1020  691.5126
1021  866.9177
1022  908.887
1023  870.5031
