# Input file       =  1194296026.116019_cleaned.dat
# Candidate        =  PSR_0332+5434
# Telescope        =  AR
# Epoch_topo       =  58066.870892546518
# Epoch_bary       =  N/A
# T_sample         =  0.002
# Data Folded      =  7340032
# Data Avg         =  0.106843722450971
# Data StdDev      =  3.50453635826801 
# Profile Bins     =  512
# Profile Avg      =  1530.15694471562 
# Profile StdDev   =  419.608779268204 
# Reduced chi-sqr  =  0.786
# Prob(Noise)      <  1   (~0.0 sigma)
# P_topo (ms)      =  714.504105963767  +/- 0.000545
# P'_topo (s/s)    =  -0                +/- 2.88e-10
# P''_topo (s/s^2) =  0                 +/- 1.27e-13
# P_bary (ms)      =  N/A
# P'_bary (s/s)    =  N/A
# P''_bary (s/s^2) =  N/A
# P_orb (s)        =  N/A
# asin(i)/c (s)    =  N/A
# eccentricity     =  N/A
# w (rad)          =  N/A
# T_peri           =  N/A
######################################################
   0  1358.167
   1  1539.746
   2  1732.067
   3  1523.332
   4  1422.601
   5  1335.29
   6  1667.541
   7  1854.35
   8  1744.261
   9  1634.577
  10  1499.324
  11  1745.744
  12  1749.087
  13  1950.663
  14  1934.486
  15  1837.977
  16  1857.839
  17  1697.457
  18  1335.926
  19  1483.958
  20  1627.582
  21  1545.531
  22  1567.889
  23  1514.063
  24  1380.242
  25  1445.179
  26  1559.872
  27  1443.692
  28  1684.763
  29  1979.355
  30  1941.089
  31  1709.332
  32  1686.87
  33  1680.466
  34  1328.456
  35  1441.343
  36  1505.627
  37  1765.221
  38  1866.26
  39  1426.128
  40  1486.675
  41  1614.999
  42  1507.169
  43  1568.347
  44  1196.206
  45  1720.402
  46  1666.953
  47  1100.707
  48  1250.034
  49  1310.256
  50  1346.378
  51  1328.95
  52  1667.786
  53  1831.085
  54  1612.742
  55  1476.821
  56  1232.527
  57  1192.983
  58  1421.37
  59  1517.166
  60  1456.902
  61  1373.683
  62  1302.768
  63  1493.103
  64  1108.516
  65  1430.61
  66  1558.654
  67  1742.457
  68  1739.903
  69  1505.87
  70  1228.136
  71  1330.497
  72  1147.92
  73  1253.627
  74  1225.741
  75  1384.044
  76  1285.347
  77  1338.009
  78  1485.566
  79  1336.792
  80  1473.321
  81  1598.886
  82  1250.319
  83  1327.976
  84  1716.898
  85  1694.281
  86  1653.721
  87  1545.024
  88  1657.284
  89  1685.695
  90  1479.177
  91  1461.483
  92  1266.495
  93  1267.895
  94  1463.66
  95  1104.51
  96  1258.91
  97  1471.356
  98  1178.099
  99  1163.561
 100  1496.905
 101  1493.326
 102  1573.682
 103  1340.324
 104  1274.642
 105  1611.93
 106  1456.766
 107  1351.813
 108  1691.13
 109  1377.151
 110  1010.19
 111  1102.16
 112  1445.457
 113  1454.464
 114  1378.773
 115  1363.288
 116  1284.38
 117  1295.016
 118  1299.887
 119  1295.001
 120  1392.753
 121  1601.306
 122  1457.215
 123  1308.308
 124  1089.327
 125  916.8197
 126  1015.268
 127  1246.97
 128  1192.293
 129  1431.502
 130  1390.028
 131  1486.648
 132  1328.333
 133  1281.726
 134  1292.064
 135  1441.236
 136  1453.656
 137  1351.768
 138  1343.699
 139  1397.805
 140  1480.328
 141  1486.958
 142  1352.876
 143  1263.883
 144  1387.639
 145  1679.765
 146  1369.085
 147  1703.428
 148  1783.791
 149  1482.116
 150  1455.075
 151  1391.993
 152  1578.302
 153  1803.845
 154  1739.969
 155  1467.67
 156  987.0555
 157  1083.464
 158  1142.115
 159  1242.995
 160  1259.417
 161  1337.839
 162  1306.098
 163  1383.717
 164  1328.762
 165  1403.376
 166  1140.926
 167  1258.995
 168  929.579
 169  848.0552
 170  1087.021
 171  1419.259
 172  1507.545
 173  1546.563
 174  1470.626
 175  1441.669
 176  1623.402
 177  1578.174
 178  1439.582
 179  1515.071
 180  1433.091
 181  1380.106
 182  1555.036
 183  1841.988
 184  1918.995
 185  1742.026
 186  1769.624
 187  1638.431
 188  1245.476
 189  1231.257
 190  1278.081
 191  1290.662
 192  1585.834
 193  1538.411
 194  1513.638
 195  1382.563
 196  1009.221
 197  1217.111
 198  1575.408
 199  1594.282
 200  1279.772
 201  1392.288
 202  1451.094
 203  1391.676
 204  1400.304
 205  1363.619
 206  1378.937
 207  1572.06
 208  1432.776
 209  1730.283
 210  1504.504
 211  1453.384
 212  1348.704
 213  1440.087
 214  1708.692
 215  1737.925
 216  1847.856
 217  1767.303
 218  1767.436
 219  1726.033
 220  1361.601
 221  1379.586
 222  1918.079
 223  1687.481
 224  1657.899
 225  1646.497
 226  1857.979
 227  1914.504
 228  1473.356
 229  1505.474
 230  1646.803
 231  1449.156
 232  1694.963
 233  1765.176
 234  1725.667
 235  1756.315
 236  2079.435
 237  1791.203
 238  1714.04
 239  1583.553
 240  1554.58
 241  1585.521
 242  1688.66
 243  1930.914
 244  1699.349
 245  1535.481
 246  1586.391
 247  1415.087
 248  1144.23
 249  1445.612
 250  1935.747
 251  1623.772
 252  1423.346
 253  1497.755
 254  1459.843
 255  1717.094
 256  1795.98
 257  1674.134
 258  1480.853
 259  1278.689
 260  1379.441
 261  1455.859
 262  1509.584
 263  1638.176
 264  1725.433
 265  1674.822
 266  1533.421
 267  1414.44
 268  1671.212
 269  1846.133
 270  2040.833
 271  1862.743
 272  2071.564
 273  1878.059
 274  1765.594
 275  1770.07
 276  1721.783
 277  1848.318
 278  1641.016
 279  1764.021
 280  1865.94
 281  1732.619
 282  1880.389
 283  1353.597
 284  1620.414
 285  1764.545
 286  1682.077
 287  1744.986
 288  1719.212
 289  1874.193
 290  1865.958
 291  1779.706
 292  1822.488
 293  1615.728
 294  1860.744
 295  1979.073
 296  2066.091
 297  2213.481
 298  2223.072
 299  2035.303
 300  1813.44
 301  1378.042
 302  1465.941
 303  1790.002
 304  1725.324
 305  1949.01
 306  1654.529
 307  1275.347
 308  1924.054
 309  2061.285
 310  2030.037
 311  1977.826
 312  1967.639
 313  2073.66
 314  2744.84
 315  2914.302
 316  3032.99
 317  3006.731
 318  2379.521
 319  2030.82
 320  1746.901
 321  1772.884
 322  2008.859
 323  1742.027
 324  1321.451
 325  1132.249
 326  1193.37
 327  1636.166
 328  1999.155
 329  2096.182
 330  1988.298
 331  1931.346
 332  1899.963
 333  1752.801
 334  1593.69
 335  1722.73
 336  1863.432
 337  1806.037
 338  1628.044
 339  1515.408
 340  1678.499
 341  1455.517
 342  1478.953
 343  1567.618
 344  1759.208
 345  1634.333
 346  1888.453
 347  1605.727
 348  1159.485
 349  1464.686
 350  1312.967
 351  1260.239
 352  1312.152
 353  1390.211
 354  1402.534
 355  1465.282
 356  1578.561
 357  1636.67
 358  1374.193
 359  1599.594
 360  1444.076
 361  1244.552
 362  1087.829
 363  1367.707
 364  1450.683
 365  1342.386
 366  1540.929
 367  1625.688
 368  1699.459
 369  1151.203
 370  1209.257
 371  1517.519
 372  1522.067
 373  1360.298
 374  1133.021
 375  1065.829
 376  1570.674
 377  1650.911
 378  1731.724
 379  1600.883
 380  1451.661
 381  1066.898
 382  1412.495
 383  1427.573
 384  1438.306
 385  1469.178
 386  1439.996
 387  1486.893
 388  1614.594
 389  1494.111
 390  1612.168
 391  1618.018
 392  1558.098
 393  1286.471
 394  1217.265
 395  1403.635
 396  1736.241
 397  1775.932
 398  1726.204
 399  1717.518
 400  1936.518
 401  1702.555
 402  1280.942
 403  1324.395
 404  1469.972
 405  1609.562
 406  1931.245
 407  1631.005
 408  1406.975
 409  1501.549
 410  1543.604
 411  1255.39
 412  1446.004
 413  1516.384
 414  1613.438
 415  1386.762
 416  1085.015
 417  1181.444
 418  1437.21
 419  1318.635
 420  1337.51
 421  1530.733
 422  1793.763
 423  1347.441
 424  1623.347
 425  1565.74
 426  1403.602
 427  1738.72
 428  1579.049
 429  1390.336
 430  1423.378
 431  1608.389
 432  1816.704
 433  1817.101
 434  1654.642
 435  1342.748
 436  1174.882
 437  1365.215
 438  1325.028
 439  1239.72
 440  1267.749
 441  1556.173
 442  1719.559
 443  1718.592
 444  1376.851
 445  1140.262
 446  1284.011
 447  1407.294
 448  1363.899
 449  1693.765
 450  1632.229
 451  1547.833
 452  1527.949
 453  1705.745
 454  1063.26
 455  1040.596
 456  1429.119
 457  1363.457
 458  1395.318
 459  1435.056
 460  1218.403
 461  1016.367
 462  1251.779
 463  1450.903
 464  1291.624
 465  1365.913
 466  1329.879
 467  1306.05
 468  1465.959
 469  1380.798
 470  1210.765
 471  1073.174
 472  1250.436
 473  1606.492
 474  1569.667
 475  1315.856
 476  1490.559
 477  1364.208
 478  1305.581
 479  1308.616
 480  1789.228
 481  1934.507
 482  1646.971
 483  1467.849
 484  1470.154
 485  1294.993
 486  1340.803
 487  1437.519
 488  1285.77
 489  1184.358
 490  1051.092
 491  1297.641
 492  1212.366
 493  1371.921
 494  1563.907
 495  1507.61
 496  1451.658
 497  1471.181
 498  1656.695
 499  1659.138
 500  1482.543
 501  1569.376
 502  1204.019
 503  1352.908
 504  1498.692
 505  1723.77
 506  1773.537
 507  1909.048
 508  1735.198
 509  1526.02
 510  1609.921
 511  1567.834
