# Input file       =  1194712115.107617-PSRB0329-2ms-sampling-dd.dat
# Candidate        =  PSR_0332+5434
# Telescope        =  AR
# Epoch_topo       =  58071.686737356678
# Epoch_bary       =  N/A
# T_sample         =  0.002
# Data Folded      =  7208960
# Data Avg         =  -4.51016363473467e-10
# Data StdDev      =  23.3453133986491 
# Profile Bins     =  512
# Profile Avg      =  -0.0895070581684826
# Profile StdDev   =  2770.13564652537 
# Reduced chi-sqr  =  1.196
# Prob(Noise)      <  0.00152   (~3.0 sigma)
# P_topo (ms)      =  714.508863068757  +/- 0.00048
# P'_topo (s/s)    =  -0                +/- 2.58e-10
# P''_topo (s/s^2) =  0                 +/- 1.16e-13
# P_bary (ms)      =  N/A
# P'_bary (s/s)    =  N/A
# P''_bary (s/s^2) =  N/A
# P_orb (s)        =  N/A
# asin(i)/c (s)    =  N/A
# eccentricity     =  N/A
# w (rad)          =  N/A
# T_peri           =  N/A
######################################################
   0  -411.0883
   1  -1489.994
   2  -1042.872
   3  -200.957
   4  606.2787
   5  837.7855
   6  -60.40789
   7  -816.8124
   8  -1292.188
   9  -1405.934
  10  -1196.735
  11  -1460.868
  12  -1517.57
  13  -1638.1
  14  -1879.56
  15  -1410.508
  16  -1420.599
  17  -989.1038
  18  -949.4277
  19  -1068.585
  20  -620.4814
  21  271.7704
  22  874.9749
  23  717.3712
  24  1286.05
  25  311.0716
  26  193.3479
  27  -15.60445
  28  88.96825
  29  330.9153
  30  -83.4216
  31  -171.3637
  32  -297.6979
  33  -696.3546
  34  -889.7422
  35  -1037.398
  36  -1637.112
  37  -1601.848
  38  -887.5672
  39  -366.6528
  40  -93.67619
  41  -197.797
  42  -568.7988
  43  -1066.248
  44  -864.166
  45  172.9656
  46  -320.3538
  47  -435.6136
  48  -640.8904
  49  717.194
  50  2072.835
  51  2772.169
  52  3884.531
  53  2471.268
  54  1132.614
  55  265.9604
  56  2171.368
  57  3845.767
  58  4651.529
  59  3855.759
  60  2298.043
  61  437.7802
  62  -1162.614
  63  -656.7144
  64  195.4031
  65  1089.431
  66  809.5285
  67  747.1711
  68  337.2127
  69  -1189.651
  70  210.1938
  71  1131.333
  72  1720.993
  73  1178.912
  74  386.703
  75  -176.6632
  76  -932.4226
  77  -1044.9
  78  -299.7462
  79  -201.1437
  80  209.7242
  81  507.6706
  82  1328.896
  83  2369.286
  84  2039.818
  85  2669.183
  86  2556.558
  87  959.6152
  88  498.5316
  89  1937.04
  90  3095.839
  91  2736.6
  92  2601.802
  93  97.2556
  94  -1686.513
  95  -1936
  96  -889.1847
  97  -1263.197
  98  -1346.534
  99  -933.1757
 100  -1491.176
 101  -1826.017
 102  -1932.965
 103  -1623.613
 104  -1621.975
 105  -1573.301
 106  -1748.116
 107  -1786.915
 108  -1548.736
 109  -1274.131
 110  -1340.468
 111  -1642.717
 112  -1290.093
 113  -1355.963
 114  -1375.011
 115  -1500.902
 116  -1403.461
 117  -799.1388
 118  -1043.479
 119  -952.2292
 120  -1665.111
 121  -1661.101
 122  -1731.56
 123  -1596.977
 124  -1202.798
 125  -1163.433
 126  -1162.171
 127  -1703.341
 128  -1563.625
 129  -1363.051
 130  -1558.525
 131  -1666.811
 132  -1602.235
 133  -1210.662
 134  -1235.768
 135  -1105.106
 136  -1404.585
 137  -1420.792
 138  -1436.146
 139  -1483.111
 140  -1605.214
 141  -2005.618
 142  -1077.973
 143  -1077.581
 144  -1056.608
 145  -1060.865
 146  -1321.773
 147  -1701.894
 148  -1424.929
 149  -771.6113
 150  -727.4482
 151  -854.9637
 152  -1408.396
 153  -1280.112
 154  -1519.377
 155  -1432.43
 156  -1042.393
 157  -1455.037
 158  -1265.763
 159  -1333.994
 160  -1424.151
 161  -1584.546
 162  -1691.165
 163  -1645.145
 164  -1728.172
 165  -1827.54
 166  -1794.149
 167  -1395.695
 168  -1467.389
 169  -1595.498
 170  -1426.915
 171  -1342.456
 172  -1302.884
 173  -1377.633
 174  -674.2811
 175  48.63531
 176  360.5277
 177  460.0191
 178  599.8911
 179  1086.01
 180  1556.324
 181  4211.878
 182  5029.782
 183  5252
 184  1133.931
 185  1985.408
 186  3622.63
 187  5535.855
 188  6728.971
 189  6849.036
 190  5587.241
 191  2602.645
 192  954.5814
 193  1165.674
 194  1929.154
 195  5248.906
 196  6762.729
 197  6631.959
 198  5425.34
 199  2679.548
 200  1604.668
 201  142.6255
 202  3701.881
 203  5131.227
 204  7035.816
 205  7564.834
 206  4510.593
 207  2788.971
 208  1509.568
 209  2518.166
 210  2047.373
 211  3811.444
 212  3563.256
 213  2894.458
 214  1777.11
 215  328.8499
 216  -564.3983
 217  -1915.254
 218  -1294.498
 219  -1036.686
 220  -760.5879
 221  -985.3837
 222  -950.8918
 223  -1278.616
 224  -1508.251
 225  -1333.67
 226  -1534.805
 227  -1198.229
 228  -1263.123
 229  -1449.591
 230  -1240.568
 231  -1542.341
 232  -1300.538
 233  -1278.167
 234  -1256.793
 235  -1579.751
 236  -1672.975
 237  -1672.515
 238  -1575.52
 239  -963.9451
 240  -419.1815
 241  -131.0508
 242  -276.7959
 243  -770.1335
 244  -1725.931
 245  -1544.262
 246  -183.4204
 247  -114.7498
 248  -53.39368
 249  -316.8649
 250  -699.1838
 251  338.8749
 252  1477.879
 253  1985.679
 254  1873.362
 255  1535.568
 256  -985.7462
 257  -508.6065
 258  1047.01
 259  3195.11
 260  2818.648
 261  1927.128
 262  866.4354
 263  -1124.682
 264  -801.6772
 265  -954.1505
 266  -824.4329
 267  -827.7608
 268  -1302.353
 269  -1029.4
 270  -1351.015
 271  -1140.106
 272  -803.2595
 273  -464.2332
 274  -895.6656
 275  -1053.876
 276  -1592.913
 277  -2128.994
 278  -1742.361
 279  -1278.514
 280  -1014.741
 281  -695.0526
 282  -548.457
 283  -718.6954
 284  -904.5148
 285  -954.6428
 286  -1346.92
 287  -1513.552
 288  -1746.178
 289  -1266.998
 290  -1422.978
 291  -1558.78
 292  -1801.206
 293  -1725.285
 294  -1499.744
 295  -1762.694
 296  -1681.75
 297  -1883.339
 298  -1535.279
 299  -1168.402
 300  -1489.378
 301  -1108.191
 302  -913.0573
 303  -1068.412
 304  -720.7242
 305  -1379.918
 306  -1209.989
 307  -1306.357
 308  -567.0294
 309  -695.2196
 310  -628.7435
 311  -276.0742
 312  -372.7226
 313  422.0526
 314  1080.941
 315  1325.959
 316  655.9624
 317  1.597116
 318  -295.144
 319  28.78041
 320  2074.77
 321  990.5986
 322  463.4054
 323  -172.5123
 324  -917.3767
 325  -962.0354
 326  -1078.226
 327  -1053.26
 328  -1098.429
 329  -1121.63
 330  -958.4553
 331  -855.0764
 332  -347.4372
 333  -337.8481
 334  -553.5012
 335  -870.0823
 336  -1258.09
 337  -1233.6
 338  -1025.376
 339  -144.0407
 340  -194.7021
 341  275.7868
 342  615.977
 343  -958.7434
 344  -1303.702
 345  -712.0087
 346  873.7664
 347  1179.235
 348  870.0768
 349  -255.9411
 350  -720.2277
 351  -1645.782
 352  -1198.684
 353  -666.4501
 354  -1245.251
 355  -1501.065
 356  650.1136
 357  2540.298
 358  3168.594
 359  7545.105
 360  6991.07
 361  6041.418
 362  3674.628
 363  4699.834
 364  4556.64
 365  6492.655
 366  10129.63
 367  7379.811
 368  4863.612
 369  1244.228
 370  90.54549
 371  -1317.636
 372  -660.9185
 373  -391.6305
 374  -869.9008
 375  -864.4609
 376  -939.9772
 377  -540.8246
 378  -234.0592
 379  -147.5948
 380  -668.2792
 381  -837.2487
 382  -1161.199
 383  -1321.124
 384  -1100.712
 385  -1400.045
 386  -1392.734
 387  -1239.536
 388  -1150.111
 389  -1261.311
 390  -1381.125
 391  -1114.098
 392  -1210.037
 393  -1206.024
 394  -945.7998
 395  -889.7373
 396  -1155.532
 397  -745.5186
 398  -643.3079
 399  -792.0195
 400  -592.9515
 401  -808.2151
 402  -1219.835
 403  -1654.407
 404  -1306.92
 405  -1030.456
 406  -946.1437
 407  -1164.889
 408  -1513.929
 409  -1484.882
 410  -1250.16
 411  -935.3204
 412  -991.1145
 413  -1086.328
 414  -900.1125
 415  -1235.125
 416  -1174.11
 417  -1308.745
 418  -1498.94
 419  -1357.937
 420  -1359.843
 421  -1337.914
 422  -688.7289
 423  -967.2349
 424  -1208.772
 425  1222.439
 426  5553.864
 427  8557.479
 428  8746.379
 429  9397.315
 430  6599.486
 431  -597.6619
 432  4381.875
 433  7199.684
 434  10718.94
 435  9393.769
 436  7336.318
 437  5394.229
 438  1479.483
 439  1298.07
 440  -632.9296
 441  -47.28312
 442  606.82
 443  1911.569
 444  1704.797
 445  1408.017
 446  937.8096
 447  -117.9861
 448  -158.9017
 449  -177.0203
 450  -1001.877
 451  -1149.997
 452  -815.1448
 453  208.81
 454  284.7253
 455  -63.16686
 456  -609.4216
 457  -930.873
 458  -1042.896
 459  -962.1725
 460  -832.2105
 461  -415.4596
 462  -576.8391
 463  -1085.301
 464  -1130.959
 465  -869.652
 466  -824.7004
 467  -955.3999
 468  -1182.053
 469  -966.1914
 470  -1445.28
 471  -1590.624
 472  -1720.029
 473  -1596.436
 474  -1669.022
 475  -1515.438
 476  -1728.441
 477  -1394.657
 478  -1442.942
 479  -1640.368
 480  -1673.456
 481  -1436.657
 482  -1050.418
 483  -656.3884
 484  -591.9706
 485  -920.618
 486  -1068.035
 487  -1413.103
 488  -1446.192
 489  -1135.449
 490  -87.42486
 491  -92.47102
 492  -761.0544
 493  -912.6486
 494  -1674.272
 495  -1361.176
 496  -1197.475
 497  -984.5481
 498  -705.679
 499  -1131.846
 500  -1217.244
 501  -1423.822
 502  -1228.833
 503  -1294.963
 504  -1302.256
 505  -1482.042
 506  -1706.288
 507  -1459.613
 508  -181.5093
 509  176.1535
 510  32.19344
 511  43.91872
