# Input file       =  1194539265.099607_cleaned.dat
# Candidate        =  PSR_0332+5434
# Telescope        =  AR
# Epoch_topo       =  58069.686158560267
# Epoch_bary       =  N/A
# T_sample         =  0.002
# Data Folded      =  7143424
# Data Avg         =  0.69412062115382 
# Data StdDev      =  6.07787625906317 
# Profile Bins     =  512
# Profile Avg      =  9684.37090051838 
# Profile StdDev   =  717.910140376488 
# Reduced chi-sqr  =  0.806
# Prob(Noise)      <  1   (~0.0 sigma)
# P_topo (ms)      =  714.506864249264  +/- 0.000354
# P'_topo (s/s)    =  -0                +/- 1.92e-10
# P''_topo (s/s^2) =  0                 +/- 8.71e-14
# P_bary (ms)      =  N/A
# P'_bary (s/s)    =  N/A
# P''_bary (s/s^2) =  N/A
# P_orb (s)        =  N/A
# asin(i)/c (s)    =  N/A
# eccentricity     =  N/A
# w (rad)          =  N/A
# T_peri           =  N/A
######################################################
   0  9265.287
   1  9423.044
   2  9471.674
   3  10020.82
   4  10299.97
   5  10180.53
   6  10162.06
   7  9862.598
   8  10175.4
   9  10044.54
  10  9671.283
  11  9412.572
  12  9612.078
  13  9702.828
  14  9564.992
  15  9635.536
  16  9654.244
  17  9874.66
  18  9348.751
  19  9705.725
  20  9761.074
  21  10294.06
  22  10489.44
  23  10445.44
  24  10848.22
  25  10256.47
  26  9920.321
  27  9159.7
  28  9210.584
  29  9452.362
  30  9618.275
  31  9771.799
  32  9262.707
  33  9100.892
  34  9554.396
  35  9741.417
  36  9771.531
  37  9474.562
  38  9660.686
  39  10021.97
  40  10083.34
  41  9915.63
  42  10210.23
  43  9765.605
  44  9701.938
  45  9694.566
  46  9532.29
  47  10092.56
  48  10745.35
  49  10856.6
  50  10184.14
  51  10288.07
  52  10007.98
  53  9821.573
  54  9861.64
  55  10157.97
  56  10388.99
  57  9417.071
  58  9340.945
  59  9320.98
  60  9558.049
  61  10068.27
  62  9969.344
  63  9568.534
  64  9306.086
  65  9462.515
  66  8864.935
  67  9051.022
  68  9541.377
  69  10064.36
  70  10149.67
  71  9657.326
  72  9580.945
  73  9477.043
  74  10051.89
  75  10157.69
  76  10053.77
  77  10199.88
  78  10116.14
  79  10103.63
  80  10133.67
  81  10316.65
  82  10569.65
  83  9760.826
  84  9284.224
  85  9500.549
  86  9810.474
  87  10003.86
  88  10635.4
  89  10890.09
  90  10631.61
  91  10011.23
  92  9723.384
  93  9543.878
  94  9373.971
  95  9768.084
  96  9936.868
  97  9959.503
  98  9940.72
  99  9954.689
 100  9504.086
 101  9244.384
 102  9367.636
 103  9617.703
 104  9540.583
 105  9723.066
 106  10267.6
 107  9937.027
 108  9757.843
 109  9639.892
 110  9823.511
 111  9370.172
 112  9446.215
 113  9388.536
 114  9938.275
 115  9686.158
 116  8906.939
 117  9294.039
 118  9096.834
 119  9097.187
 120  8945.931
 121  8941.035
 122  9031.274
 123  8802.638
 124  8744.422
 125  9118.126
 126  8842.104
 127  8954.947
 128  8937.66
 129  8743.007
 130  8987.997
 131  8953.163
 132  9268.337
 133  8597.094
 134  8643.146
 135  9221.951
 136  8934.263
 137  8918.106
 138  8879.21
 139  8916.793
 140  9209.024
 141  9376.88
 142  9866.667
 143  10117.22
 144  10370.88
 145  9797.725
 146  9274.859
 147  9375.375
 148  9760.728
 149  9708.486
 150  9577.186
 151  10023.93
 152  10239.5
 153  10176.04
 154  10054.24
 155  10721.34
 156  10166.24
 157  9786.312
 158  10026.04
 159  9617.952
 160  10084.33
 161  9737.011
 162  9761.129
 163  10106.84
 164  10084.24
 165  9781.665
 166  9564.418
 167  9959.224
 168  10131.08
 169  9727.521
 170  9411.134
 171  9258.672
 172  9723.313
 173  9456.995
 174  9661.107
 175  9451.655
 176  9798.245
 177  9675.655
 178  9688.376
 179  9947.944
 180  10122.91
 181  10393.41
 182  9496.412
 183  9802.362
 184  9780.099
 185  9482.688
 186  9273.92
 187  9353.325
 188  9933.439
 189  10369.06
 190  10186.19
 191  9705.089
 192  9421.558
 193  9556.231
 194  9224.918
 195  9219.417
 196  9422.246
 197  10186.34
 198  9972.448
 199  10340.53
 200  9721.937
 201  9489.468
 202  9619.272
 203  9841.976
 204  10064.32
 205  10003.88
 206  10152.65
 207  9844.575
 208  9407.513
 209  9033.333
 210  8970.148
 211  9537.346
 212  9594.116
 213  9861.557
 214  9879.897
 215  9414.207
 216  9495.411
 217  9352.504
 218  9958.791
 219  9900.456
 220  9681.619
 221  9781.062
 222  9743.345
 223  9631.534
 224  9799.054
 225  9933.458
 226  9804.715
 227  9780.286
 228  9720.862
 229  9640.164
 230  9964.201
 231  9451.881
 232  9567.539
 233  9959.157
 234  9725.98
 235  9786.165
 236  9581.045
 237  9738.228
 238  9622.253
 239  9573.335
 240  9555.409
 241  9478.72
 242  9566.975
 243  9868.476
 244  9745.474
 245  9796.174
 246  9629.69
 247  9594.373
 248  9981.885
 249  9872.938
 250  10287.87
 251  10425.04
 252  10003.87
 253  9405.017
 254  9742.516
 255  10298.27
 256  9945.604
 257  9651.339
 258  9733.789
 259  9702.812
 260  9165.436
 261  9410.959
 262  10076.63
 263  10200.49
 264  10060.83
 265  9558.823
 266  9761.372
 267  9711.375
 268  9446.339
 269  9529.615
 270  10021.26
 271  10646.2
 272  10399.67
 273  10627.51
 274  10299.16
 275  10580.39
 276  10244.82
 277  10182.76
 278  10286.97
 279  9951.798
 280  10302.54
 281  9727.146
 282  9388.646
 283  9227.503
 284  9801.942
 285  10166
 286  10013.48
 287  9842.672
 288  9879.529
 289  9808.665
 290  9691.495
 291  9938.867
 292  10102.5
 293  9582.091
 294  9723.346
 295  9905.185
 296  10051.54
 297  9973.294
 298  9797.713
 299  9906.227
 300  9846.907
 301  9733.179
 302  9696.524
 303  9508.476
 304  8959.882
 305  9292.749
 306  9929.931
 307  9363.086
 308  9653.306
 309  9428.576
 310  9413.767
 311  9095.7
 312  9325.401
 313  9250.609
 314  9265.753
 315  9008.982
 316  9373.087
 317  9364.945
 318  8883.122
 319  9547.495
 320  9255.577
 321  9318.222
 322  9008.026
 323  8916.669
 324  8968.426
 325  9298.258
 326  9580.335
 327  9142.384
 328  9353.453
 329  9403.996
 330  9098.008
 331  9105.87
 332  9178.878
 333  9369.349
 334  9555.624
 335  9647.818
 336  9814.609
 337  9601.141
 338  9295.991
 339  9791.223
 340  9787.987
 341  9327.138
 342  9489.193
 343  9803.311
 344  9766.205
 345  9416.114
 346  9158.293
 347  9518.153
 348  9219.627
 349  9333.024
 350  9550.294
 351  9202.982
 352  8996.294
 353  9489.026
 354  9507.038
 355  9312.882
 356  9416.646
 357  9107.072
 358  8997.604
 359  9403.381
 360  9092.063
 361  9415.601
 362  9359.207
 363  9440.942
 364  9137.172
 365  8755.126
 366  9150.201
 367  9034.699
 368  9397.183
 369  9649.465
 370  9607.847
 371  9553.188
 372  9312.045
 373  9167.248
 374  9154.549
 375  9218.516
 376  9368.941
 377  9290.252
 378  8740.426
 379  8854.497
 380  9312.113
 381  9497.892
 382  9739.819
 383  9594.229
 384  9508.173
 385  8766.381
 386  9285.822
 387  9290.372
 388  9240.265
 389  9186.997
 390  8767.51
 391  9263.793
 392  9611.5
 393  9350.924
 394  9454.13
 395  9669.06
 396  9939.573
 397  9368.482
 398  9762.556
 399  9943.321
 400  10142.79
 401  10386.29
 402  10459.67
 403  10587.03
 404  10802.35
 405  10824.36
 406  9987.735
 407  9862.153
 408  9952.84
 409  10044.83
 410  9801.848
 411  10283.47
 412  10238.15
 413  10299.62
 414  10249.59
 415  9741.804
 416  10329.79
 417  10226.9
 418  10293.04
 419  10057.78
 420  10487.15
 421  10796.8
 422  10685.16
 423  11118.41
 424  10819.07
 425  11075.5
 426  11345.92
 427  11284.27
 428  10941.87
 429  10988.87
 430  10663.8
 431  10177.81
 432  10127.71
 433  9889.647
 434  10138.94
 435  10690.3
 436  10729.91
 437  10473.36
 438  9760.724
 439  9531.464
 440  9107.599
 441  9692.957
 442  10236.85
 443  10367.19
 444  10134.74
 445  9737.021
 446  9575.841
 447  9000.981
 448  9240.808
 449  9633.103
 450  9898.196
 451  9910.545
 452  9612.021
 453  9529.17
 454  9254.211
 455  9049.837
 456  9297.392
 457  9749.688
 458  9806.763
 459  10021.96
 460  9816.557
 461  9668.3
 462  9657.91
 463  9349.725
 464  9799.811
 465  9539.074
 466  10049.67
 467  9736.617
 468  10187.26
 469  10280.71
 470  9633.992
 471  9692.607
 472  9165.435
 473  9345.436
 474  9501.27
 475  9594.394
 476  10147.39
 477  9849.997
 478  9678.047
 479  9095.05
 480  9257.33
 481  9358.622
 482  9615.309
 483  9580.354
 484  9233.494
 485  9681.816
 486  9554.25
 487  9452.297
 488  8962.984
 489  9278.233
 490  9519.996
 491  9390.833
 492  9188.666
 493  9467.418
 494  9641.572
 495  9284.949
 496  9028.667
 497  9442.216
 498  9080.769
 499  9389.024
 500  9051.529
 501  9168.978
 502  9205.283
 503  9148.76
 504  9089.775
 505  9078.213
 506  9053.686
 507  8987.489
 508  9049.904
 509  9387.618
 510  9254.094
 511  9388.587
