# Input file       =  1194108959.124819_cleaned.dat
# Candidate        =  PSR_0332+5434
# Telescope        =  AR
# Epoch_topo       =  58064.705765333551
# Epoch_bary       =  N/A
# T_sample         =  0.002
# Data Folded      =  7208960
# Data Avg         =  0.119372194985309
# Data StdDev      =  3.5055439606936  
# Profile Bins     =  512
# Profile Avg      =  1680.55473558313 
# Profile StdDev   =  415.964957083891 
# Reduced chi-sqr  =  0.806
# Prob(Noise)      <  1   (~0.0 sigma)
# P_topo (ms)      =  714.501981871286  +/- 8.31e-05
# P'_topo (s/s)    =  -0                +/- 4.47e-11
# P''_topo (s/s^2) =  0                 +/- 2.01e-14
# P_bary (ms)      =  N/A
# P'_bary (s/s)    =  N/A
# P''_bary (s/s^2) =  N/A
# P_orb (s)        =  N/A
# asin(i)/c (s)    =  N/A
# eccentricity     =  N/A
# w (rad)          =  N/A
# T_peri           =  N/A
######################################################
   0  2027.824
   1  1688.269
   2  1597.499
   3  1768.242
   4  1464.577
   5  1417.49
   6  1476.942
   7  1613.874
   8  1855.661
   9  1494.022
  10  1648.914
  11  1616.805
  12  1543.466
  13  1521.372
  14  1728.716
  15  1599.471
  16  1510.494
  17  1569.148
  18  1566.935
  19  1649.587
  20  1596.013
  21  1846.24
  22  1533.166
  23  1597.411
  24  1924.467
  25  1845.391
  26  1524.543
  27  1357.553
  28  1194.952
  29  1194.062
  30  997.6367
  31  1374.11
  32  1992.982
  33  1856.981
  34  1268.444
  35  1379.688
  36  1443.615
  37  1641.773
  38  1401.108
  39  1671.158
  40  1971.161
  41  1899.91
  42  1982.496
  43  1622.199
  44  1801.243
  45  1505.995
  46  1485.077
  47  1462.949
  48  1507.187
  49  1777.469
  50  2191.619
  51  2158.784
  52  1348.41
  53  1496.152
  54  1633.223
  55  1412.921
  56  1739.631
  57  1820.226
  58  2133.916
  59  1494.623
  60  1802.326
  61  1487.074
  62  1432.158
  63  1236.817
  64  1274.566
  65  1638.571
  66  1674.21
  67  1748.568
  68  1665.436
  69  1624.083
  70  1540.657
  71  1407.626
  72  1793.841
  73  1351.534
  74  1597.234
  75  1748.953
  76  1644.491
  77  1464.592
  78  1318.306
  79  1638.856
  80  1645.622
  81  1554.826
  82  1512.465
  83  1369.093
  84  1233.614
  85  1284.791
  86  1412.728
  87  1515.266
  88  1883.901
  89  1960.535
  90  2006.259
  91  1488.483
  92  1764.997
  93  1880.437
  94  1736.043
  95  1663.437
  96  1805.335
  97  1812.47
  98  1243.918
  99  1707.339
 100  1643.091
 101  1559.696
 102  1610.484
 103  1766.499
 104  1610.948
 105  1440.47
 106  1231.015
 107  1711.833
 108  1584.126
 109  1603.536
 110  1550.213
 111  1971.523
 112  1943.536
 113  1414.826
 114  1350.107
 115  1195.261
 116  1686.773
 117  1684.89
 118  2065.592
 119  1841.647
 120  1812.37
 121  1768.321
 122  1445.921
 123  1714.193
 124  2211.772
 125  2161.435
 126  1681.205
 127  1596.257
 128  1649.953
 129  2153.427
 130  2055.966
 131  1788.958
 132  1956.859
 133  2067.704
 134  1814.036
 135  1476.675
 136  1827.538
 137  1522.965
 138  1399.085
 139  1800.43
 140  1935.951
 141  2347.611
 142  2027.025
 143  1775.016
 144  1352.132
 145  947.7585
 146  1401.207
 147  1589.282
 148  1811.104
 149  2013.017
 150  2257.549
 151  1809.532
 152  1731.929
 153  1607.662
 154  1554.989
 155  1814.687
 156  1923.934
 157  2012.885
 158  1870.669
 159  1724.338
 160  2051.377
 161  2007.98
 162  1875.059
 163  1980.362
 164  2048.462
 165  1582.961
 166  1505.136
 167  1089.554
 168  1338.878
 169  1373.049
 170  1352.531
 171  1290.889
 172  1457.713
 173  1754.948
 174  1805.426
 175  1697.068
 176  1717.723
 177  1308.607
 178  1488.033
 179  1585.604
 180  1438.49
 181  1381.791
 182  2114.69
 183  2104.192
 184  1695.495
 185  1756.155
 186  1671.528
 187  1477.114
 188  1591.689
 189  1716.901
 190  1702.733
 191  1457.355
 192  1582.354
 193  1519.467
 194  1559.48
 195  1456.268
 196  1822.311
 197  1665.207
 198  1837.067
 199  2076.338
 200  1884.849
 201  1683.232
 202  1302.152
 203  1702.87
 204  1862.246
 205  1840.727
 206  1607.779
 207  1916.725
 208  1772.853
 209  1863.274
 210  1730.077
 211  1796.019
 212  1420.223
 213  1261.396
 214  1654.627
 215  1914.202
 216  1337.458
 217  1711.052
 218  1666.691
 219  1559.263
 220  1415.323
 221  1510.772
 222  1694.78
 223  1639.467
 224  1810.62
 225  1857.74
 226  1514.096
 227  1251.715
 228  1464.895
 229  1625.805
 230  1780.168
 231  1811.562
 232  1669.353
 233  1517.734
 234  1039.775
 235  1312.041
 236  1807.888
 237  1674.246
 238  1763.85
 239  1688.151
 240  1712.217
 241  1487.404
 242  1663.96
 243  1804.287
 244  1630.595
 245  1988.316
 246  1956.391
 247  1638.627
 248  1320.082
 249  1575.713
 250  1810.146
 251  1655.889
 252  1874.634
 253  1399.57
 254  1280.736
 255  1413.566
 256  1651.015
 257  1820.39
 258  1392.532
 259  1579.526
 260  1418.055
 261  1458.871
 262  1392.545
 263  1319.861
 264  1637.132
 265  1830.026
 266  1856.826
 267  1628.925
 268  1537.66
 269  1426.472
 270  1377.612
 271  1419.384
 272  1785.31
 273  1743.603
 274  1877.922
 275  1663.284
 276  1700.68
 277  1628.385
 278  1306.741
 279  1634.594
 280  1689.9
 281  2092.669
 282  2167.591
 283  1639.441
 284  1448.523
 285  1290.883
 286  1505.275
 287  1692.016
 288  1624.3
 289  2041.325
 290  1992.452
 291  1590.951
 292  1443.358
 293  1336.118
 294  1600.746
 295  1280.831
 296  1666.272
 297  1663.707
 298  2083.821
 299  1545.264
 300  1675.203
 301  1793.231
 302  1877.417
 303  2061.975
 304  1734.937
 305  1866.093
 306  2073.409
 307  2107.121
 308  1936.339
 309  1629.081
 310  1636.734
 311  1889.28
 312  2264.365
 313  2171.72
 314  2535.805
 315  2634.763
 316  3011.812
 317  3007.361
 318  2915.143
 319  2479.093
 320  2021.602
 321  2101.548
 322  1780.868
 323  1875.339
 324  1838.643
 325  1350.593
 326  1638.786
 327  1602.097
 328  1672.333
 329  1641.172
 330  1999.144
 331  1955.956
 332  1486.335
 333  2081.54
 334  1660.119
 335  1822.287
 336  1703.466
 337  1565.588
 338  1431.178
 339  1507.314
 340  1697.194
 341  1539.459
 342  1457.371
 343  1490.255
 344  1471.933
 345  1181.811
 346  1808.885
 347  1800.427
 348  1895.644
 349  1427.892
 350  1015.888
 351  1697.68
 352  1466.39
 353  1732.438
 354  2000.322
 355  2007.73
 356  1746.347
 357  1652.963
 358  1623.03
 359  1616.421
 360  1581.904
 361  1408.091
 362  1425.197
 363  1925.731
 364  2129.66
 365  2213.373
 366  1548.844
 367  1492.303
 368  1943.913
 369  1443.347
 370  2056.647
 371  2038.522
 372  2150.622
 373  1923.447
 374  1593.497
 375  1650.445
 376  1676.4
 377  1559.738
 378  1653.508
 379  1400.142
 380  1431.868
 381  1752.838
 382  1727.408
 383  1826.294
 384  1375.972
 385  1493.459
 386  1231.328
 387  1751.498
 388  1901.545
 389  1660.599
 390  1829.682
 391  1355.43
 392  1510.648
 393  1850.217
 394  1993.066
 395  1689.666
 396  1278.235
 397  1735.954
 398  1938.399
 399  1906.984
 400  1694.39
 401  1421.919
 402  1919.607
 403  1667.553
 404  1869.517
 405  1610.056
 406  1660.232
 407  1493.901
 408  1695.642
 409  2006.529
 410  1976.777
 411  1878.034
 412  1480.347
 413  1402.211
 414  1474.065
 415  1583.507
 416  1749.827
 417  1632.846
 418  1783.496
 419  1642.848
 420  1783.187
 421  1695.464
 422  1579.026
 423  1538.72
 424  1947.948
 425  1615.686
 426  1375.889
 427  1610.264
 428  1896.752
 429  2424.144
 430  2211.951
 431  1829.153
 432  1486.064
 433  1200.978
 434  1585.698
 435  1082.808
 436  1157.693
 437  1689.992
 438  1516.008
 439  1667.6
 440  1562.956
 441  1291.565
 442  996.6244
 443  1424.047
 444  1654.436
 445  1456.655
 446  1684.619
 447  1832.305
 448  1755.731
 449  1229.946
 450  1400.976
 451  1709.023
 452  1783.474
 453  1583.685
 454  1314.769
 455  1610.902
 456  1715.948
 457  1419.123
 458  1486.992
 459  1796.982
 460  1706.202
 461  1887.493
 462  2043.632
 463  1907.895
 464  1947.659
 465  1488.558
 466  1600.661
 467  1387.988
 468  1517.143
 469  1834.87
 470  1923.594
 471  2237.594
 472  1828.795
 473  1771.819
 474  1717.686
 475  1598.113
 476  1622.541
 477  1442.83
 478  1658.734
 479  1550.707
 480  1873.696
 481  1784.765
 482  1961.964
 483  1600.704
 484  1306.755
 485  1293.406
 486  1448.729
 487  1609.697
 488  1526.084
 489  1895.586
 490  1972.81
 491  1862.681
 492  1640.44
 493  1530.027
 494  1768.627
 495  1836.103
 496  1864.264
 497  1801.974
 498  1639.037
 499  1521.149
 500  1475.865
 501  1980.133
 502  1979.108
 503  2194.141
 504  2086.421
 505  1927.526
 506  1866.285
 507  1961.104
 508  1756.034
 509  1734.857
 510  1913.586
 511  1616.307
