# Input file       =  1194224056.102329_cleaned.dat
# Candidate        =  PSR_0332+5434
# Telescope        =  AR
# Epoch_topo       =  58066.037906276957
# Epoch_bary       =  N/A
# T_sample         =  0.002
# Data Folded      =  7340032
# Data Avg         =  0.194321438804244
# Data StdDev      =  5.448920712188   
# Profile Bins     =  1024
# Profile Avg      =  1393.33213195523 
# Profile StdDev   =  461.327651781068 
# Reduced chi-sqr  =  0.521
# Prob(Noise)      <  1   (~0.0 sigma)
# P_topo (ms)      =  714.503616469185  +/- 0.000266
# P'_topo (s/s)    =  -0                +/- 1.4e-10
# P''_topo (s/s^2) =  0                 +/- 6.19e-14
# P_bary (ms)      =  N/A
# P'_bary (s/s)    =  N/A
# P''_bary (s/s^2) =  N/A
# P_orb (s)        =  N/A
# asin(i)/c (s)    =  N/A
# eccentricity     =  N/A
# w (rad)          =  N/A
# T_peri           =  N/A
######################################################
   0  1436.067
   1  1557.572
   2  1582.002
   3  1519.817
   4  1474.858
   5  1544.703
   6  1710.862
   7  1616.097
   8  1559.442
   9  1394.349
  10  1209.254
  11  1203.43
  12  1278.704
  13  1412.35
  14  1393.328
  15  1308.373
  16  1290.345
  17  1247.517
  18  1337.409
  19  1522.753
  20  1710.406
  21  1699.725
  22  1632.992
  23  1495.986
  24  1455.841
  25  1372.316
  26  1561.357
  27  1573.654
  28  1697.667
  29  1742.131
  30  1733.568
  31  1559.047
  32  1461.486
  33  1567.36
  34  1581.184
  35  1590.5
  36  1452.262
  37  1412.759
  38  1178.666
  39  1241.205
  40  1184.188
  41  1425.246
  42  1380.866
  43  1527.477
  44  1499.503
  45  1502.273
  46  1422.026
  47  1385.079
  48  1279.276
  49  1197.994
  50  1242.786
  51  1383.708
  52  1377.86
  53  1203.495
  54  1182.255
  55  1285.98
  56  1256.173
  57  1207.146
  58  1344.661
  59  1520.128
  60  1510.28
  61  1434.752
  62  1383.238
  63  1336.481
  64  1333.831
  65  1491.093
  66  1566.624
  67  1490.476
  68  1334.411
  69  1197.038
  70  1195.832
  71  1288.567
  72  1409.798
  73  1438.21
  74  1548.43
  75  1575.342
  76  1602.287
  77  1549.212
  78  1538.964
  79  1541.586
  80  1503.168
  81  1477.448
  82  1470.165
  83  1458.289
  84  1530.175
  85  1539.44
  86  1522.161
  87  1431.585
  88  1467.336
  89  1444.276
  90  1432.776
  91  1490.148
  92  1471.711
  93  1379.483
  94  1292.006
  95  1330.574
  96  1462.298
  97  1447.33
  98  1416.698
  99  1366.532
 100  1381.931
 101  1397.017
 102  1311.471
 103  1236.207
 104  1307.569
 105  1394.584
 106  1497.634
 107  1343.551
 108  1326.751
 109  1281.219
 110  1284.712
 111  1285.112
 112  1270.495
 113  1193.473
 114  1158.786
 115  1244.906
 116  1292.942
 117  1175.821
 118  1077.8
 119  1111.707
 120  1251.926
 121  1240.75
 122  1117.287
 123  1064.073
 124  977.1991
 125  978.8099
 126  937.1348
 127  985.4908
 128  939.222
 129  1018.152
 130  1047.264
 131  1104.112
 132  1031.853
 133  1057.015
 134  917.0052
 135  887.4606
 136  850.2405
 137  898.6959
 138  910.7108
 139  1074.174
 140  1110.857
 141  1177.333
 142  1131.474
 143  1081.88
 144  1199.016
 145  1352.043
 146  1510.516
 147  1359.445
 148  1214.099
 149  1144.364
 150  1160.932
 151  1205.288
 152  1309.865
 153  1302.538
 154  1395.828
 155  1287.89
 156  1315.511
 157  1214.625
 158  1132.02
 159  1205.119
 160  1350.296
 161  1530.418
 162  1482.78
 163  1458.455
 164  1430.599
 165  1451.052
 166  1477.834
 167  1394.301
 168  1514.784
 169  1477.467
 170  1416.79
 171  1375.954
 172  1326.027
 173  1376.636
 174  1342.799
 175  1310.531
 176  1286.847
 177  1407.006
 178  1435.387
 179  1493.675
 180  1614.694
 181  1773.041
 182  1884.779
 183  1721.433
 184  1510.623
 185  1352.552
 186  1284.885
 187  1308.738
 188  1323.681
 189  1365.648
 190  1315.702
 191  1329.081
 192  1327.259
 193  1344.917
 194  1281.606
 195  1355.276
 196  1535.571
 197  1656.975
 198  1669.03
 199  1518.15
 200  1449.652
 201  1450.744
 202  1475.668
 203  1539.556
 204  1505.042
 205  1341.936
 206  1367.855
 207  1294.057
 208  1328.398
 209  1323.376
 210  1441.323
 211  1531.06
 212  1519.772
 213  1559.022
 214  1714.379
 215  1750.219
 216  1711.184
 217  1591.086
 218  1655.461
 219  1707.67
 220  1518.334
 221  1429.63
 222  1469.482
 223  1527.965
 224  1481.794
 225  1346.425
 226  1374.242
 227  1542.622
 228  1618.28
 229  1723.422
 230  1614.279
 231  1739.649
 232  1661.157
 233  1537.146
 234  1413.19
 235  1390.095
 236  1458.769
 237  1529.666
 238  1612.314
 239  1678.902
 240  1594.753
 241  1515.635
 242  1437.26
 243  1467.206
 244  1397.766
 245  1308.063
 246  1263.781
 247  1301.941
 248  1464.469
 249  1529.157
 250  1690.864
 251  1729.305
 252  1762.546
 253  1494.946
 254  1357.446
 255  1305.633
 256  1446.225
 257  1471.888
 258  1415.876
 259  1384.638
 260  1394.46
 261  1385.204
 262  1328.758
 263  1274.503
 264  1286.855
 265  1260.101
 266  1277.615
 267  1153.524
 268  1145.529
 269  1082.902
 270  1170.092
 271  1236.32
 272  1237.641
 273  1215.74
 274  1161.764
 275  1197.327
 276  1289.309
 277  1254.366
 278  1212.047
 279  1129.168
 280  1164.831
 281  1103.777
 282  1252.98
 283  1394.945
 284  1433.471
 285  1270.693
 286  1210.107
 287  1269.716
 288  1333.538
 289  1399.354
 290  1403.293
 291  1311.594
 292  1211.067
 293  1208.296
 294  1261.851
 295  1260.099
 296  1219.833
 297  1267.234
 298  1197.055
 299  1187.357
 300  1240.032
 301  1433.266
 302  1527.72
 303  1532.593
 304  1573.503
 305  1463.168
 306  1402.971
 307  1407.007
 308  1550.234
 309  1509.738
 310  1428.503
 311  1368.809
 312  1319.656
 313  1378.959
 314  1369.888
 315  1454.128
 316  1478.138
 317  1460.234
 318  1378.579
 319  1385.875
 320  1623.867
 321  1807.175
 322  1699.155
 323  1497.504
 324  1359.708
 325  1380.143
 326  1341.012
 327  1366.677
 328  1433.933
 329  1364.981
 330  1287.72
 331  1180.651
 332  1195.761
 333  1261.064
 334  1283.326
 335  1325.792
 336  1431.485
 337  1505.618
 338  1553.285
 339  1484.775
 340  1463.047
 341  1517.789
 342  1613.694
 343  1572.799
 344  1521.808
 345  1445.707
 346  1446.577
 347  1383.873
 348  1270.08
 349  1269.518
 350  1203.523
 351  1195.309
 352  1077.302
 353  1144.148
 354  1267.332
 355  1483.478
 356  1441.64
 357  1421.993
 358  1354.56
 359  1439.92
 360  1490.493
 361  1460.836
 362  1606.856
 363  1570.377
 364  1592.795
 365  1477.498
 366  1581.144
 367  1535.252
 368  1578.766
 369  1584.302
 370  1648.205
 371  1518.45
 372  1379.139
 373  1420.615
 374  1505.943
 375  1652.233
 376  1682.476
 377  1538.259
 378  1267.071
 379  1166.635
 380  1183.372
 381  1241.965
 382  1180.958
 383  1089.29
 384  1125.492
 385  1176.997
 386  1309.248
 387  1318.968
 388  1390.297
 389  1347.723
 390  1382.274
 391  1365.269
 392  1220.526
 393  1117.587
 394  1105.093
 395  1224.283
 396  1157.627
 397  1083.597
 398  1076.555
 399  1102.006
 400  1073.808
 401  945.7582
 402  913.2811
 403  839.026
 404  936.7247
 405  1074.664
 406  1279.28
 407  1362.447
 408  1356.299
 409  1408.055
 410  1250.885
 411  1174.894
 412  1197.844
 413  1257.583
 414  1344.704
 415  1361.923
 416  1278.19
 417  1166.752
 418  1032.919
 419  1136.117
 420  1111.942
 421  1230.374
 422  1305.413
 423  1435.734
 424  1351.27
 425  1193.303
 426  1233.533
 427  1336.447
 428  1361.143
 429  1236.699
 430  1158.99
 431  1287.964
 432  1355.641
 433  1317.669
 434  1228.391
 435  1200.591
 436  1321.932
 437  1501.719
 438  1502.423
 439  1350.559
 440  1187.887
 441  1260.373
 442  1330.236
 443  1207.454
 444  1089.031
 445  1168.014
 446  1261.582
 447  1206.318
 448  1051.79
 449  922.2863
 450  1102.97
 451  1187.264
 452  1348.62
 453  1302.796
 454  1241.566
 455  1169.319
 456  1160.035
 457  1276.107
 458  1246.499
 459  1230.018
 460  1175.07
 461  1341.059
 462  1386.884
 463  1354.391
 464  1311.649
 465  1339.179
 466  1339.829
 467  1226.71
 468  1142.313
 469  1142.411
 470  1178.997
 471  1166.229
 472  1176.424
 473  1191.857
 474  1274.909
 475  1284.49
 476  1279.987
 477  1265.381
 478  1207.873
 479  1214.965
 480  1273.789
 481  1354.565
 482  1268.178
 483  1139.498
 484  1181.249
 485  1389.039
 486  1483.667
 487  1313.634
 488  1230.698
 489  1306.471
 490  1500.438
 491  1536.297
 492  1525.469
 493  1535.638
 494  1542.609
 495  1490.361
 496  1359.01
 497  1350.971
 498  1220.485
 499  1161.078
 500  1108.325
 501  1275.972
 502  1386.764
 503  1434.78
 504  1414.528
 505  1467.77
 506  1485.314
 507  1414.291
 508  1332.293
 509  1290.828
 510  1342.401
 511  1349.972
 512  1421.829
 513  1399.021
 514  1275.393
 515  1176.155
 516  1086.28
 517  1206.988
 518  1331.446
 519  1352.42
 520  1433.671
 521  1371.719
 522  1423.45
 523  1289.791
 524  1478.583
 525  1589.498
 526  1525.244
 527  1430.78
 528  1301.288
 529  1352.073
 530  1230.85
 531  1161.563
 532  1138.218
 533  1160.536
 534  1161.972
 535  1094.583
 536  1185.655
 537  1329.094
 538  1394.995
 539  1474.92
 540  1421.95
 541  1392.255
 542  1451.065
 543  1415.045
 544  1440.621
 545  1432.55
 546  1414.35
 547  1315.084
 548  1293.14
 549  1380.245
 550  1318.922
 551  1202.482
 552  1166.083
 553  1247.273
 554  1322.049
 555  1220.647
 556  1411.03
 557  1467.163
 558  1510.284
 559  1294.784
 560  1266.897
 561  1171.271
 562  1139.701
 563  1220.068
 564  1360.838
 565  1507.797
 566  1591.05
 567  1586.555
 568  1610.859
 569  1557.957
 570  1517.935
 571  1386.816
 572  1390.362
 573  1359.479
 574  1299.763
 575  1335.313
 576  1453.707
 577  1503.277
 578  1515.844
 579  1480.746
 580  1437.446
 581  1437.83
 582  1500.958
 583  1497.764
 584  1488.577
 585  1408.674
 586  1384.558
 587  1352.972
 588  1341.122
 589  1300.135
 590  1288.949
 591  1362.962
 592  1391.655
 593  1327.577
 594  1200.067
 595  1138.057
 596  1130.328
 597  1271.869
 598  1272.14
 599  1368.585
 600  1412.645
 601  1344.043
 602  1316.559
 603  1299.629
 604  1435.684
 605  1427.957
 606  1348.384
 607  1314.345
 608  1292.634
 609  1270.692
 610  1182.458
 611  1117.89
 612  1130.193
 613  1046.062
 614  1183.621
 615  1458.684
 616  1535.623
 617  1492.933
 618  1395.85
 619  1474.677
 620  1403.526
 621  1480.3
 622  1516.673
 623  1633.398
 624  1602.674
 625  1540.003
 626  1602.015
 627  1624.687
 628  1731.613
 629  1658.75
 630  1692.302
 631  1877.964
 632  1992.259
 633  2016.516
 634  1966.687
 635  1984.118
 636  1976.071
 637  1857.614
 638  1640.026
 639  1636.712
 640  1591.559
 641  1683.673
 642  1509.444
 643  1348.706
 644  1300.056
 645  1406.459
 646  1540.312
 647  1542.648
 648  1433.929
 649  1340.245
 650  1179.263
 651  1084.72
 652  1135.006
 653  1185.958
 654  1269.47
 655  1302.443
 656  1235.628
 657  1292.234
 658  1330.892
 659  1404.654
 660  1226.271
 661  1224.755
 662  1383.406
 663  1529.677
 664  1459.277
 665  1324.271
 666  1337.919
 667  1332.706
 668  1367.78
 669  1319.356
 670  1269.833
 671  1346.155
 672  1459.079
 673  1482.945
 674  1344.574
 675  1327.418
 676  1415.991
 677  1480.597
 678  1319.767
 679  1273.141
 680  1246.257
 681  1388.078
 682  1513.725
 683  1540.642
 684  1353.174
 685  1231.053
 686  1222.002
 687  1309.984
 688  1408.073
 689  1444.753
 690  1440.924
 691  1351.381
 692  1310.641
 693  1222.523
 694  1088.995
 695  1061.803
 696  1161.993
 697  1235.033
 698  1176.441
 699  1178.968
 700  1153.864
 701  1176.847
 702  1272.227
 703  1343.161
 704  1378.149
 705  1274.522
 706  1328.315
 707  1380.694
 708  1357.521
 709  1317.343
 710  1274.984
 711  1305.005
 712  1397.3
 713  1437.934
 714  1390.275
 715  1295.493
 716  1238.284
 717  1309.751
 718  1312.514
 719  1327.445
 720  1426.62
 721  1413.074
 722  1514.965
 723  1498.44
 724  1363.77
 725  1271.897
 726  1174.798
 727  1263.014
 728  1160.278
 729  1158.317
 730  1266.051
 731  1310.962
 732  1274.236
 733  1293.659
 734  1490.608
 735  1635.121
 736  1617.911
 737  1712.795
 738  1722.549
 739  1791.891
 740  1624.364
 741  1482.016
 742  1416.418
 743  1327.318
 744  1351.787
 745  1341.11
 746  1484.709
 747  1493.307
 748  1451.65
 749  1358.146
 750  1345.915
 751  1347.155
 752  1395.521
 753  1312.625
 754  1240.93
 755  1241.731
 756  1386.353
 757  1477.912
 758  1431.369
 759  1418.448
 760  1489.718
 761  1461.104
 762  1614.831
 763  1609.943
 764  1671.688
 765  1623.252
 766  1581.843
 767  1597.182
 768  1564.861
 769  1661.098
 770  1621.701
 771  1518.582
 772  1551.897
 773  1488.832
 774  1577.838
 775  1611.287
 776  1785.33
 777  1872.748
 778  1906.39
 779  1725.651
 780  1610.2
 781  1457.391
 782  1487.435
 783  1492.685
 784  1485.802
 785  1512.742
 786  1543.104
 787  1718.573
 788  1797.743
 789  1917.86
 790  1908.641
 791  1927.98
 792  1929.599
 793  1940.924
 794  1860.287
 795  1846.245
 796  1483.724
 797  1385.197
 798  1352.044
 799  1669.147
 800  1654.269
 801  1615.175
 802  1510.231
 803  1590.599
 804  1659.353
 805  1745.568
 806  1685.864
 807  1654.802
 808  1791.123
 809  1767.474
 810  1713.071
 811  1500.459
 812  1400.91
 813  1302.628
 814  1330.313
 815  1236.348
 816  1155.453
 817  1108.865
 818  1086.722
 819  1043.772
 820  1173.716
 821  1266.373
 822  1438.877
 823  1401.418
 824  1472.639
 825  1446.321
 826  1552.665
 827  1467.003
 828  1351.823
 829  1280.006
 830  1174.995
 831  1124.779
 832  1105.398
 833  1330.378
 834  1425.778
 835  1451.661
 836  1417.722
 837  1436.431
 838  1327.057
 839  1329.727
 840  1422.004
 841  1470.692
 842  1415.934
 843  1348.235
 844  1429.269
 845  1508.369
 846  1528.989
 847  1492.102
 848  1335.724
 849  1207.724
 850  1262.948
 851  1273.575
 852  1236.491
 853  1140.442
 854  1252.261
 855  1390.569
 856  1380.027
 857  1329.777
 858  1339.431
 859  1370.673
 860  1375.304
 861  1379.204
 862  1432.342
 863  1477.769
 864  1614.648
 865  1599.587
 866  1603.212
 867  1625.225
 868  1645.505
 869  1591.029
 870  1373.805
 871  1303.511
 872  1373.845
 873  1470.77
 874  1402.374
 875  1417.563
 876  1422.95
 877  1288.827
 878  1189.361
 879  1183.887
 880  1375.156
 881  1373.379
 882  1425.791
 883  1383.337
 884  1282.457
 885  1252.213
 886  1301.067
 887  1376.561
 888  1407.324
 889  1370.716
 890  1410.854
 891  1320.696
 892  1260.416
 893  1221.18
 894  1328.566
 895  1359.825
 896  1545.379
 897  1548.614
 898  1613.296
 899  1441.009
 900  1495.616
 901  1427.991
 902  1477.358
 903  1492.875
 904  1479.638
 905  1455.59
 906  1383.338
 907  1493.964
 908  1564.582
 909  1611.478
 910  1573.813
 911  1487.067
 912  1576.105
 913  1623.586
 914  1585.935
 915  1451.207
 916  1416.462
 917  1340.776
 918  1416.695
 919  1473.481
 920  1563.194
 921  1607.143
 922  1660.219
 923  1844.273
 924  1830.201
 925  1834.236
 926  1742.657
 927  1776.407
 928  1716.566
 929  1691.653
 930  1604.437
 931  1588.192
 932  1599.031
 933  1757.206
 934  1791.71
 935  1728.155
 936  1577.155
 937  1595.935
 938  1600.946
 939  1577.68
 940  1461.561
 941  1472.049
 942  1506.422
 943  1588.676
 944  1709.419
 945  1610.95
 946  1440.356
 947  1290.552
 948  1318.026
 949  1385.318
 950  1488.471
 951  1495.289
 952  1425.039
 953  1229.461
 954  1250.576
 955  1456.953
 956  1642.587
 957  1651.447
 958  1504.127
 959  1499.333
 960  1610.187
 961  1731.779
 962  1787.548
 963  1855.686
 964  1925.29
 965  1918.699
 966  1733.029
 967  1619.885
 968  1560.43
 969  1563.158
 970  1587.259
 971  1694.722
 972  1612.412
 973  1431.236
 974  1424.226
 975  1543.764
 976  1572.438
 977  1625.547
 978  1587.231
 979  1586.839
 980  1542.122
 981  1482.814
 982  1483.073
 983  1447.874
 984  1417.373
 985  1467.042
 986  1441.922
 987  1500.241
 988  1367.333
 989  1419.444
 990  1421.829
 991  1509.292
 992  1543.145
 993  1470.925
 994  1299.255
 995  1152.803
 996  1249.669
 997  1496.816
 998  1501.052
 999  1433.843
1000  1375.926
1001  1365.929
1002  1278.902
1003  1271.549
1004  1230.94
1005  1170.024
1006  1248.142
1007  1285.14
1008  1273.881
1009  1331.015
1010  1342.988
1011  1313.282
1012  1228.988
1013  1253.839
1014  1288.125
1015  1185.233
1016  1187.724
1017  1229.243
1018  1205.148
1019  1052.684
1020  1161.633
1021  1199.316
1022  1308.195
1023  1271.728
