# Input file       =  1194712115.107617_cleaned.dat
# Candidate        =  PSR_0332+5434
# Telescope        =  AR
# Epoch_topo       =  58071.686737356678
# Epoch_bary       =  N/A
# T_sample         =  0.002
# Data Folded      =  7208960
# Data Avg         =  0.0755307991936044
# Data StdDev      =  3.54910176215153 
# Profile Bins     =  512
# Profile Avg      =  1063.32459006037 
# Profile StdDev   =  421.133489904267 
# Reduced chi-sqr  =  0.748
# Prob(Noise)      <  1   (~0.0 sigma)
# P_topo (ms)      =  714.50886301754   +/- 5.74e-05
# P'_topo (s/s)    =  -0                +/- 3.08e-11
# P''_topo (s/s^2) =  0                 +/- 1.39e-14
# P_bary (ms)      =  N/A
# P'_bary (s/s)    =  N/A
# P''_bary (s/s^2) =  N/A
# P_orb (s)        =  N/A
# asin(i)/c (s)    =  N/A
# eccentricity     =  N/A
# w (rad)          =  N/A
# T_peri           =  N/A
######################################################
   0  1223.381
   1  1061.685
   2  1120.393
   3  1088.532
   4  1162.744
   5  1090.923
   6  1266.77
   7  1319.759
   8  976.595
   9  1307.384
  10  1486.46
  11  1314.846
  12  590.9693
  13  627.619
  14  934.0748
  15  957.3481
  16  860.1427
  17  562.6972
  18  728.772
  19  1006.161
  20  1135.032
  21  1051.923
  22  901.9894
  23  1196.383
  24  976.0703
  25  1138.25
  26  1162.66
  27  943.0764
  28  801.6321
  29  755.4403
  30  951.4435
  31  1127.502
  32  1042.596
  33  1113.589
  34  1015.097
  35  1146.125
  36  1006.232
  37  1062.183
  38  1138.375
  39  1308.643
  40  1103.495
  41  1021.2
  42  1012.686
  43  1134.985
  44  887.4063
  45  754.7392
  46  1304.018
  47  1283.384
  48  920.1946
  49  1092.047
  50  1498.144
  51  1488.078
  52  1261.159
  53  1482.268
  54  1095.07
  55  1133.167
  56  1135.046
  57  979.6016
  58  1186.724
  59  787.799
  60  778.1132
  61  866.077
  62  1318.798
  63  1221.146
  64  1054.603
  65  682.2759
  66  685.8106
  67  1088.78
  68  1161.703
  69  1110.112
  70  1299.486
  71  1194.066
  72  981.0739
  73  850.6813
  74  1140.044
  75  1119.96
  76  1040.478
  77  1046.974
  78  1139.281
  79  923.087
  80  889.9766
  81  786.6922
  82  1085.966
  83  1242.463
  84  1243.843
  85  1140.017
  86  833.2322
  87  865.4701
  88  688.4279
  89  701.166
  90  932.0936
  91  1015.031
  92  1306.83
  93  1079.358
  94  859.7192
  95  793.8303
  96  882.0916
  97  978.3229
  98  927.5168
  99  1299.189
 100  1404.805
 101  1121.233
 102  1084.878
 103  767.0055
 104  1201.121
 105  1455.309
 106  1440.984
 107  1652.196
 108  1349.755
 109  1285.821
 110  1081.538
 111  1401.448
 112  1479.421
 113  1453.873
 114  1432.116
 115  924.3207
 116  895.6075
 117  1189.486
 118  1274.368
 119  1227.774
 120  1379.952
 121  1321.923
 122  1274.749
 123  989.8733
 124  1155.804
 125  1235.286
 126  1659.664
 127  1518.139
 128  831.5261
 129  915.5536
 130  694.1989
 131  1142.029
 132  851.779
 133  1060.769
 134  1092.793
 135  789.5955
 136  826.7994
 137  762.5133
 138  1124.156
 139  1304.189
 140  834.8688
 141  927.4708
 142  1126.09
 143  1365.943
 144  937.4006
 145  1306.981
 146  986.7678
 147  1075.548
 148  846.8202
 149  804.535
 150  1031.432
 151  637.8035
 152  621.8726
 153  892.5843
 154  1053.985
 155  1034.668
 156  1283.564
 157  844.7974
 158  551.3723
 159  1028.63
 160  1038.691
 161  1069.138
 162  1051.634
 163  1247.573
 164  1140.652
 165  631.4552
 166  1080.547
 167  999.0591
 168  925.1796
 169  782.7274
 170  1042.657
 171  1542.456
 172  1020.05
 173  932.7362
 174  1028.556
 175  1102.882
 176  1031.492
 177  1098.932
 178  1432.405
 179  1219.119
 180  1281.337
 181  1129.947
 182  828.5926
 183  906.7806
 184  991.4382
 185  1125.383
 186  1272.721
 187  1077.559
 188  1317.451
 189  1147.581
 190  1155.973
 191  1346.318
 192  1371.713
 193  1282.078
 194  1382.84
 195  1177.295
 196  1513.264
 197  1183.561
 198  942.0347
 199  1181.887
 200  1211.35
 201  1267.514
 202  694.7409
 203  1321.032
 204  1052.36
 205  753.6235
 206  1063.586
 207  1065.176
 208  1203.335
 209  761.6834
 210  999.5723
 211  925.5814
 212  899.8511
 213  818.1363
 214  843.0859
 215  556.6405
 216  742.2154
 217  770.0564
 218  616.771
 219  601.7066
 220  718.9257
 221  1015.513
 222  1030.734
 223  833.7469
 224  1172.766
 225  1133.823
 226  1196.401
 227  1058.662
 228  1008.486
 229  895.4033
 230  1180.241
 231  1090.631
 232  590.9242
 233  1007.043
 234  1155.822
 235  1223.93
 236  899.7491
 237  756.3678
 238  1317.754
 239  1116.802
 240  1271.272
 241  1090.958
 242  990.9866
 243  721.9849
 244  890.96
 245  1340.687
 246  1344.929
 247  1056.485
 248  722.878
 249  919.2886
 250  1165.819
 251  1079.997
 252  947.8582
 253  1043.47
 254  1313.439
 255  1245.66
 256  1275.374
 257  993.0483
 258  854.6953
 259  752.7708
 260  900.7683
 261  1140.901
 262  1071.576
 263  1271.061
 264  1070.422
 265  1031.476
 266  1134.85
 267  1195.318
 268  1004.767
 269  984.3934
 270  1444.412
 271  1344.259
 272  1312.654
 273  1052.719
 274  1107.489
 275  1035.69
 276  860.0816
 277  1476.56
 278  1286.254
 279  1241.759
 280  1151.391
 281  1103.259
 282  1065.643
 283  1131.135
 284  1126.661
 285  931.3495
 286  824.8313
 287  513.3698
 288  954.9603
 289  1049.934
 290  915.7999
 291  763.9126
 292  759.4609
 293  861.0056
 294  1090.886
 295  1154.953
 296  1342.943
 297  1204.118
 298  1035.988
 299  1021.604
 300  1005.604
 301  774.6395
 302  864.2942
 303  1099.128
 304  1333.042
 305  1208.607
 306  1044.89
 307  1584.868
 308  1252.654
 309  883.5482
 310  1019.13
 311  1515.746
 312  1768.222
 313  1935.515
 314  2284.631
 315  2300.04
 316  2433.917
 317  2247.708
 318  1713.086
 319  936.9844
 320  1165.257
 321  1464.267
 322  881.6202
 323  880.2295
 324  902.4827
 325  1125.033
 326  1241.76
 327  1093.05
 328  1289.091
 329  1426.975
 330  1237.406
 331  1318.975
 332  1346.507
 333  1144.722
 334  1323.681
 335  1231.973
 336  1086.954
 337  1244.534
 338  836.6356
 339  970.9413
 340  1015.544
 341  1383.853
 342  1260.262
 343  1504.034
 344  1545.142
 345  1326.14
 346  1264.648
 347  934.9174
 348  1197.685
 349  1186.729
 350  913.794
 351  1353.523
 352  1208.881
 353  1289.148
 354  1156.553
 355  1322.604
 356  1128.724
 357  906.7503
 358  927.7991
 359  807.1827
 360  1022.757
 361  1241.312
 362  1299.752
 363  1028.136
 364  1085.455
 365  729.4977
 366  498.6923
 367  1163.205
 368  1134.513
 369  1453.251
 370  1391.004
 371  1278.108
 372  1053.151
 373  1196.865
 374  1061.873
 375  699.6208
 376  867.9216
 377  829.8184
 378  803.2705
 379  952.9971
 380  951.5205
 381  1196.129
 382  1198.642
 383  1095.806
 384  1090.169
 385  1152.796
 386  891.2277
 387  1015.518
 388  1026.166
 389  761.6123
 390  1248.367
 391  840.2301
 392  969.2625
 393  968.3798
 394  962.7958
 395  892.6316
 396  609.3569
 397  690.4742
 398  403.175
 399  674.0187
 400  500.3924
 401  549.1301
 402  776.0547
 403  1233.778
 404  1058.468
 405  1233.711
 406  1258.708
 407  1023.123
 408  812.1772
 409  253.8649
 410  765.3771
 411  703.9046
 412  570.1356
 413  484.8311
 414  697.0873
 415  1024.797
 416  702.9916
 417  543.5198
 418  413.2839
 419  689.8232
 420  1271.239
 421  957.2028
 422  1120.777
 423  1170.218
 424  1210.118
 425  1530.365
 426  1273.414
 427  1272.768
 428  831.9193
 429  1212.332
 430  1236.627
 431  1023.562
 432  1353.279
 433  1251.817
 434  970.0073
 435  776.5883
 436  1035.588
 437  1049.333
 438  945.1235
 439  835.7472
 440  1248.268
 441  1435.505
 442  1100.333
 443  1229.496
 444  1323.73
 445  1069.921
 446  825.3058
 447  914.53
 448  953.5849
 449  1134.122
 450  960.0339
 451  993.3444
 452  1238.476
 453  1354.988
 454  1355.936
 455  1261.871
 456  1091.985
 457  874.4872
 458  891.9218
 459  1195.141
 460  755.6093
 461  623.5476
 462  734.8126
 463  616.9531
 464  758.7243
 465  717.9537
 466  850.9138
 467  568.9991
 468  732.7379
 469  790.4141
 470  750.734
 471  1013.62
 472  886.1055
 473  1131.876
 474  1085.524
 475  810.0618
 476  672.6006
 477  901.0334
 478  1565.662
 479  1003.024
 480  978.3868
 481  679.1202
 482  882.0948
 483  586.9971
 484  797.6636
 485  992.1895
 486  996.481
 487  1507.048
 488  1164.768
 489  1177.386
 490  1274.126
 491  1236.969
 492  772.4646
 493  1185.656
 494  1539.765
 495  944.0688
 496  1153.319
 497  1163.844
 498  1306.229
 499  1250.12
 500  1423.565
 501  1002.489
 502  706.069
 503  1029.196
 504  1033.206
 505  1254.664
 506  841.756
 507  818.9174
 508  934.6945
 509  1030.799
 510  1057.751
 511  848.9742
