# Input file       =  1194884445.113245_cleaned.dat
# Candidate        =  PSR_0332+5434
# Telescope        =  AR
# Epoch_topo       =  58073.681297607000
# Epoch_bary       =  N/A
# T_sample         =  0.002
# Data Folded      =  7208960
# Data Avg         =  0.119532882848712
# Data StdDev      =  3.44755167486271 
# Profile Bins     =  512
# Profile Avg      =  1682.85211473442 
# Profile StdDev   =  409.083640244816 
# Reduced chi-sqr  =  0.985
# Prob(Noise)      <  0.587   (~0.0 sigma)
# P_topo (ms)      =  714.510883686945  +/- 2.51e-05
# P'_topo (s/s)    =  -0                +/- 1.35e-11
# P''_topo (s/s^2) =  0                 +/- 6.07e-15
# P_bary (ms)      =  N/A
# P'_bary (s/s)    =  N/A
# P''_bary (s/s^2) =  N/A
# P_orb (s)        =  N/A
# asin(i)/c (s)    =  N/A
# eccentricity     =  N/A
# w (rad)          =  N/A
# T_peri           =  N/A
######################################################
   0  1577.486
   1  1377.4
   2  1294.384
   3  1362.595
   4  2174.207
   5  1883.976
   6  1602.016
   7  1777.468
   8  1896.29
   9  1993.934
  10  1633.746
  11  1746.127
  12  1554.446
  13  1866.393
  14  1757.086
  15  1672.948
  16  1442.689
  17  1856.675
  18  2140.916
  19  1577.308
  20  1480.422
  21  1954.72
  22  1878.532
  23  1941.358
  24  1957.787
  25  2399.249
  26  1809.752
  27  1470.851
  28  1754.188
  29  1729.126
  30  1950.576
  31  2014.49
  32  2036.077
  33  1927.128
  34  1409.651
  35  1538.536
  36  2153.917
  37  1795.766
  38  1453.52
  39  1814.238
  40  1778.359
  41  1417.962
  42  1177.568
  43  1666.921
  44  1624.667
  45  1455.854
  46  1671.064
  47  1633.372
  48  1620.876
  49  1748.823
  50  1937.969
  51  1572.416
  52  1419.455
  53  1813.086
  54  1618.108
  55  1475.768
  56  1633.187
  57  2278.183
  58  1540.459
  59  1366.915
  60  1666.451
  61  2095.545
  62  2215.323
  63  1854.709
  64  2019.393
  65  1949.709
  66  1946.378
  67  1803.046
  68  2235.95
  69  1813.182
  70  1445.456
  71  2191.773
  72  1900.362
  73  1504.084
  74  1789.18
  75  1955.865
  76  1831.633
  77  1748.252
  78  1973.355
  79  1843.938
  80  1991.538
  81  2229.674
  82  2626.163
  83  2514.917
  84  2634.691
  85  2831.417
  86  3136.874
  87  3402.875
  88  2996.4
  89  3174.956
  90  2333.031
  91  1666.656
  92  1646.369
  93  1749.757
  94  1331.099
  95  1573.42
  96  2070.989
  97  2093.244
  98  1895.697
  99  1754.603
 100  1880.215
 101  2054.015
 102  1845.272
 103  1906.74
 104  2009.3
 105  2002.479
 106  1545.798
 107  1637.915
 108  1848.354
 109  1661.184
 110  1744.351
 111  1853.35
 112  1811.673
 113  1364.886
 114  1956.648
 115  1750.579
 116  1431.678
 117  1797.152
 118  1894.284
 119  2138.309
 120  1924.706
 121  2251.803
 122  2070.682
 123  1771.157
 124  2136.556
 125  1898.053
 126  1843.64
 127  1546.458
 128  2025.366
 129  2059.539
 130  1778.052
 131  1471.188
 132  1504.873
 133  1863.264
 134  1612.537
 135  1605.906
 136  1742.229
 137  1459.951
 138  1570.951
 139  1466.456
 140  1650.568
 141  1586.34
 142  1689.713
 143  1830.763
 144  1714.678
 145  1466.416
 146  1515.417
 147  1778.814
 148  1496.263
 149  1648.722
 150  1629.596
 151  1325.517
 152  1527.705
 153  1482.599
 154  1614.253
 155  1727.796
 156  1572.334
 157  1915.029
 158  1779.517
 159  1233.571
 160  1259.816
 161  1735.653
 162  1363.863
 163  1758.817
 164  1935.843
 165  1823.199
 166  1323.601
 167  1408.768
 168  1998.402
 169  1932.896
 170  1636.039
 171  1731.144
 172  2026.407
 173  1812.605
 174  1530.135
 175  1739.207
 176  2088.41
 177  1758.118
 178  1569.73
 179  1804.406
 180  1649.879
 181  1736.545
 182  1801.11
 183  1821.998
 184  1688.715
 185  1480.128
 186  2043.328
 187  1523.05
 188  1292.2
 189  1455.446
 190  1513.852
 191  1688.997
 192  1391.426
 193  1405.041
 194  1203.948
 195  1496.677
 196  1604.272
 197  1851.465
 198  1356.035
 199  1345.387
 200  1918.049
 201  1523.821
 202  1377.315
 203  1650.013
 204  1804.197
 205  1633.483
 206  1184.318
 207  1541.251
 208  1635.182
 209  1108.168
 210  1047.188
 211  1532.421
 212  1791.702
 213  1533.037
 214  1803.823
 215  1968.794
 216  1867.208
 217  1483.206
 218  1531.936
 219  1641.555
 220  1550.406
 221  1605.565
 222  1943.795
 223  2294.127
 224  1684.305
 225  1730.475
 226  1853.64
 227  1355.931
 228  1614.358
 229  1706.116
 230  2003.467
 231  1865.873
 232  1803.048
 233  1818.779
 234  1924.818
 235  2085.045
 236  2212.836
 237  1870.963
 238  1557.351
 239  1579.529
 240  1989.265
 241  1970.431
 242  1666.818
 243  1605.807
 244  1604.388
 245  1067.472
 246  1572.297
 247  1827.468
 248  1610.887
 249  1546.367
 250  1703.537
 251  1773.709
 252  1680.906
 253  1635.313
 254  1805.356
 255  1963.243
 256  1508.359
 257  1628.024
 258  1706.987
 259  1369.425
 260  1466.61
 261  1426.702
 262  1399.339
 263  1635.407
 264  1832.386
 265  2005.314
 266  1444.308
 267  1367.464
 268  1479.559
 269  1548.065
 270  1348.545
 271  1220.043
 272  1600.255
 273  1410.598
 274  1539.683
 275  1488.828
 276  1573.156
 277  1389.569
 278  1322.521
 279  1602.367
 280  1539.321
 281  1341.865
 282  1749.687
 283  1685.859
 284  1464.145
 285  1612.503
 286  1942.225
 287  1106.845
 288  925.2476
 289  1292.643
 290  1535.041
 291  1146.719
 292  1279.182
 293  1239.404
 294  1372.774
 295  1388.47
 296  1468.397
 297  1872.346
 298  1265.922
 299  1407.082
 300  1704.896
 301  1744.027
 302  1508.276
 303  1271.732
 304  1567.854
 305  1336.809
 306  1321.781
 307  1854.664
 308  1918.543
 309  1625.567
 310  1489.087
 311  1785.145
 312  1579.148
 313  1623.224
 314  1373.998
 315  1679.898
 316  1620.506
 317  1595.126
 318  2026.292
 319  1776.845
 320  1629.151
 321  1455.151
 322  1926.028
 323  1494.854
 324  1482.205
 325  1987.484
 326  1952.441
 327  1381.247
 328  1317.25
 329  2101.754
 330  1637.479
 331  1108.893
 332  1413.17
 333  1404.166
 334  1445.427
 335  1144.974
 336  1540.007
 337  1623.504
 338  1770
 339  1938.159
 340  2226.393
 341  2063.293
 342  1637.068
 343  1789.945
 344  1968.288
 345  1889.925
 346  1748.546
 347  1981.504
 348  1838.532
 349  1842.078
 350  1901.312
 351  1649.38
 352  1631.59
 353  1705.816
 354  1632.278
 355  1506.662
 356  1453.959
 357  1995.714
 358  1893.264
 359  2007.434
 360  1576.077
 361  1666.376
 362  1683.812
 363  1689.163
 364  1743.946
 365  1975.406
 366  2087.545
 367  1647.045
 368  1681.771
 369  1795.725
 370  1423.249
 371  1320.983
 372  1691.636
 373  1708.64
 374  1294.84
 375  1417.14
 376  1333.855
 377  1605.732
 378  1286.591
 379  1624.909
 380  1858.063
 381  1371.321
 382  1264.368
 383  1598.651
 384  1756.542
 385  1547.354
 386  1749.319
 387  1953.102
 388  1431.109
 389  1532.211
 390  2146.004
 391  1811.534
 392  1632.945
 393  1811.853
 394  1957.957
 395  1697.412
 396  1489.711
 397  1898.14
 398  1978.489
 399  1445.942
 400  1251.505
 401  1559.959
 402  1684.217
 403  1721.284
 404  1765.257
 405  1720.728
 406  1233.904
 407  1230.204
 408  1909.214
 409  1866.571
 410  1567.721
 411  1498.588
 412  1630.955
 413  1288.309
 414  1144.887
 415  1631.475
 416  1310.585
 417  1506.648
 418  1536.064
 419  1968.839
 420  1594.948
 421  1827.441
 422  1880.417
 423  1760.427
 424  1707.825
 425  1818.869
 426  1659.892
 427  1529.552
 428  1405.682
 429  1728.982
 430  1418.864
 431  1261.909
 432  1438.462
 433  1730.986
 434  1653.449
 435  1434.042
 436  1300.819
 437  1280.964
 438  1228.811
 439  1233.789
 440  1378.508
 441  1430.074
 442  1469.184
 443  1561.195
 444  1380.212
 445  1099.714
 446  1421.915
 447  1689.827
 448  1603.134
 449  1442.122
 450  1386.978
 451  1660.062
 452  1687.677
 453  999.8665
 454  1698.08
 455  1635.364
 456  1454.024
 457  1564.539
 458  1989.789
 459  2041.677
 460  1489.215
 461  1814.475
 462  1746.341
 463  1654.592
 464  1513.588
 465  1682.921
 466  1906.409
 467  1695.349
 468  1644.511
 469  1582.494
 470  1562.77
 471  1336.669
 472  1776.381
 473  1481.001
 474  1298.664
 475  1345.416
 476  1887.391
 477  1638.953
 478  1178.59
 479  1823.891
 480  1794.166
 481  1596.896
 482  1661.238
 483  1980.125
 484  1930.24
 485  1794.922
 486  1997.137
 487  1937.03
 488  1626.533
 489  1292.205
 490  1690.029
 491  1844.662
 492  1744.168
 493  1794.385
 494  1748.088
 495  1934.613
 496  1579.767
 497  1852.229
 498  1982.383
 499  1987.261
 500  1922.621
 501  1685.265
 502  1690.668
 503  1463.014
 504  1533.637
 505  1661.655
 506  1614.583
 507  1388.717
 508  1397.204
 509  1740.544
 510  1312.4
 511  1492.87
