# Input file       =  1194051750.097979_cleaned.dat
# Candidate        =  PSR_0332+5434
# Telescope        =  AR
# Epoch_topo       =  58064.043623819205
# Epoch_bary       =  N/A
# T_sample         =  0.002
# Data Folded      =  7340032
# Data Avg         =  0.0705541583998379
# Data StdDev      =  2.80264532308303 
# Profile Bins     =  512
# Profile Avg      =  1011.41440619184 
# Profile StdDev   =  335.569234419874 
# Reduced chi-sqr  =  1.155
# Prob(Noise)      <  0.00872   (~2.4 sigma)
# P_topo (ms)      =  714.501695485003  +/- 0.000267
# P'_topo (s/s)    =  -0                +/- 1.41e-10
# P''_topo (s/s^2) =  0                 +/- 6.22e-14
# P_bary (ms)      =  N/A
# P'_bary (s/s)    =  N/A
# P''_bary (s/s^2) =  N/A
# P_orb (s)        =  N/A
# asin(i)/c (s)    =  N/A
# eccentricity     =  N/A
# w (rad)          =  N/A
# T_peri           =  N/A
######################################################
   0  1402.438
   1  1079.896
   2  925.3556
   3  1075.383
   4  1068.964
   5  1217.85
   6  1367.762
   7  1279.367
   8  1250.545
   9  792.3747
  10  913.6352
  11  814.5053
  12  574.8
  13  733.4843
  14  716.0831
  15  802.8167
  16  841.3707
  17  984.68
  18  915.1039
  19  854.0826
  20  786.5535
  21  699.7255
  22  796.4362
  23  1084.949
  24  1422.498
  25  1433.578
  26  1480.288
  27  1532.722
  28  986.1142
  29  1315.669
  30  1299.433
  31  978.8189
  32  917.5175
  33  1130.41
  34  1492.718
  35  1076.014
  36  820.989
  37  989.3734
  38  917.2134
  39  863.259
  40  1007.579
  41  1289.019
  42  907.9855
  43  920.955
  44  823.8016
  45  949.5096
  46  1073.801
  47  856.5681
  48  1174.478
  49  1195.54
  50  914.3148
  51  930.0915
  52  740.8062
  53  701.4159
  54  808.4711
  55  671.7971
  56  644.8132
  57  858.8832
  58  1036.583
  59  997.6094
  60  1263.279
  61  1146.807
  62  896.297
  63  1170.66
  64  1903.279
  65  1650.528
  66  1893.505
  67  2310.761
  68  2730.366
  69  2347.292
  70  2362.591
  71  2117.266
  72  1692.32
  73  1715.093
  74  1374.659
  75  1068.817
  76  1228.199
  77  1098.306
  78  899.2857
  79  1059.66
  80  1296.551
  81  1302.9
  82  1043.059
  83  1224.187
  84  1228.476
  85  1306.083
  86  1109.814
  87  1136.895
  88  1352.701
  89  1509.489
  90  1381.822
  91  990.1798
  92  996.0684
  93  981.5889
  94  830.3436
  95  1213.405
  96  779.367
  97  736.991
  98  949.7961
  99  1032.981
 100  815.9223
 101  741.2267
 102  719.9214
 103  1153.682
 104  1183.938
 105  1145.354
 106  667.0591
 107  873.0894
 108  1146.028
 109  1122.965
 110  1237.597
 111  1092.71
 112  1216.43
 113  835.3647
 114  978.1224
 115  1016.67
 116  773.8017
 117  963.9035
 118  684.7209
 119  712.8276
 120  881.6914
 121  852.9466
 122  1235.639
 123  1583.957
 124  1038.492
 125  707.1046
 126  711.9891
 127  870.3149
 128  870.7872
 129  1059.184
 130  1074.887
 131  905.5593
 132  1136.609
 133  981.8306
 134  754.8176
 135  654.9991
 136  903.4507
 137  1061.841
 138  983.9295
 139  754.0845
 140  1120.614
 141  1279.822
 142  1074.082
 143  1300.504
 144  1181.571
 145  1061.255
 146  1030.304
 147  926.3373
 148  780.797
 149  442.4797
 150  1093.388
 151  1336.337
 152  1058.171
 153  842.2032
 154  614.604
 155  590.2261
 156  1089.344
 157  1019.166
 158  969.8196
 159  1116.02
 160  1208.274
 161  1107.955
 162  899.4749
 163  705.0397
 164  764.2034
 165  677.0918
 166  1190.831
 167  1129.316
 168  882.0325
 169  930.6958
 170  671.0203
 171  724.4625
 172  722.1497
 173  760.6932
 174  813.3123
 175  918.7282
 176  993.6974
 177  954.2438
 178  1124.842
 179  963.7327
 180  908.9967
 181  1081.504
 182  1087.119
 183  861.9105
 184  856.6384
 185  849.9822
 186  715.9073
 187  880.7318
 188  930.0429
 189  973.7679
 190  1175.288
 191  790.3055
 192  766.7095
 193  906.7702
 194  808.3438
 195  877.0456
 196  812.1447
 197  845.6584
 198  700.3956
 199  864.6463
 200  883.646
 201  895.2169
 202  950.8808
 203  667.2736
 204  808.5148
 205  1127.564
 206  1207.563
 207  1055.848
 208  1118.206
 209  1279.551
 210  1062.347
 211  921.9302
 212  1000.488
 213  1145.925
 214  1299.301
 215  1376.264
 216  1238.629
 217  1272.622
 218  1041.101
 219  889.0156
 220  1181.98
 221  1216.786
 222  1154.191
 223  973.7042
 224  1101.536
 225  1074.426
 226  926.0394
 227  1191.744
 228  1201.188
 229  820.5934
 230  912.8967
 231  1205.854
 232  1019.792
 233  982.6521
 234  836.6896
 235  901.031
 236  779.2047
 237  740.3238
 238  707.9283
 239  987.8924
 240  1263.583
 241  999.6057
 242  893.2831
 243  634.4257
 244  676.2242
 245  568.1999
 246  797.3967
 247  1025.111
 248  977.4514
 249  827.8264
 250  946.8679
 251  1125.534
 252  1204.251
 253  843.2365
 254  1099.323
 255  1169.306
 256  773.7006
 257  755.86
 258  1021.414
 259  546.7224
 260  799.7046
 261  1279.155
 262  1059.181
 263  725.3743
 264  946.4337
 265  785.988
 266  872.283
 267  1465.23
 268  1356.026
 269  1076.34
 270  665.7789
 271  1046.56
 272  859.4192
 273  923.7717
 274  1126.256
 275  1152.418
 276  1063.6
 277  1287.303
 278  1319.091
 279  1398.519
 280  1432.315
 281  1507.364
 282  1474.892
 283  1304.739
 284  1031.329
 285  1225.892
 286  891.4514
 287  934.3515
 288  916.8634
 289  1341.553
 290  1250.739
 291  1194.013
 292  1051.744
 293  1203.232
 294  985.8627
 295  938.0709
 296  865.1318
 297  897.8718
 298  1192.733
 299  1229.873
 300  1237.94
 301  1168.031
 302  1183.771
 303  1360.891
 304  1168.09
 305  1001.231
 306  1307.003
 307  1349.588
 308  867.7399
 309  748.3248
 310  1388.801
 311  1029.208
 312  613.0652
 313  770.5627
 314  1103.749
 315  940.9832
 316  845.8387
 317  735.7868
 318  771.6725
 319  928.3785
 320  955.2951
 321  976.6324
 322  1201.437
 323  966.9026
 324  629.0419
 325  1180.068
 326  1247.568
 327  922.5547
 328  1245.569
 329  1600.173
 330  1296.787
 331  1174.477
 332  1262.603
 333  1394.207
 334  942.0554
 335  923.174
 336  723.4731
 337  675.9171
 338  787.7252
 339  885.626
 340  987.4235
 341  922.2972
 342  1055.011
 343  1133.136
 344  980.6788
 345  1054.557
 346  852.0959
 347  963.6274
 348  994.4305
 349  738.2324
 350  952.0321
 351  835.7793
 352  748.209
 353  1081.962
 354  1388.979
 355  922.3621
 356  1110.767
 357  1217.325
 358  814.1817
 359  954.3264
 360  714.8708
 361  1022.394
 362  929.4648
 363  972.3162
 364  1094.945
 365  737.1806
 366  1258.331
 367  1333.892
 368  1047.885
 369  1113.063
 370  1016.609
 371  782.5368
 372  767.8657
 373  948.8359
 374  1100.795
 375  1083.082
 376  972.2253
 377  989.7212
 378  896.4088
 379  619.6232
 380  545.3212
 381  876.9005
 382  959.283
 383  957.7426
 384  530.426
 385  800.3898
 386  971.2153
 387  1043.016
 388  1170.34
 389  1457.235
 390  1090.737
 391  879.4141
 392  879.2584
 393  1150.207
 394  1152.849
 395  1036.212
 396  1067.311
 397  861.0778
 398  968.3344
 399  994.694
 400  942.3851
 401  714.6254
 402  757.4483
 403  1062.018
 404  1016.72
 405  1224.78
 406  1093.721
 407  776.0264
 408  863.6649
 409  795.4761
 410  940.7436
 411  1250.595
 412  955.0557
 413  1073.191
 414  1136.959
 415  889.5808
 416  640.574
 417  908.9255
 418  1353.584
 419  1062.032
 420  548.0349
 421  814.0612
 422  840.2421
 423  951.3327
 424  925.4113
 425  868.5768
 426  1023.394
 427  1083.516
 428  1171.079
 429  1160.517
 430  1196.965
 431  894.9866
 432  1024.289
 433  1059.742
 434  1191.628
 435  1086.891
 436  1020.865
 437  1288.998
 438  1034.068
 439  1072.349
 440  1234.426
 441  1046.577
 442  856.2971
 443  738.7733
 444  812.0093
 445  812.9454
 446  1015.143
 447  1172.745
 448  990.1917
 449  783.8533
 450  702.0615
 451  775.856
 452  815.7723
 453  977.3631
 454  1009.713
 455  946.3055
 456  600.2079
 457  949.3235
 458  877.3725
 459  831.4373
 460  839.8285
 461  905.9327
 462  888.1985
 463  1216.698
 464  1049.803
 465  954.3256
 466  872.8665
 467  712.4996
 468  1020.491
 469  934.1808
 470  1063.359
 471  910.4329
 472  897.4213
 473  1052.186
 474  935.1175
 475  610.5735
 476  669.6061
 477  916.0215
 478  695.9389
 479  562.8354
 480  833.832
 481  1098.277
 482  1176.11
 483  661.7648
 484  1039.179
 485  740.2395
 486  994.0328
 487  1037.188
 488  1348.987
 489  1118.332
 490  1340.544
 491  1522.951
 492  1008.166
 493  775.2033
 494  825.9764
 495  478.0216
 496  667.6653
 497  646.3758
 498  622.2239
 499  588.3296
 500  752.6169
 501  1080.18
 502  970.4843
 503  920.1611
 504  746.9039
 505  903.1352
 506  1004.972
 507  887.2896
 508  1125.061
 509  1191.926
 510  1161.5
 511  1466.656
