# Input file       =  1194568782.105574_cleaned.dat
# Candidate        =  PSR_0332+5434
# Telescope        =  AR
# Epoch_topo       =  58070.027790573775
# Epoch_bary       =  N/A
# T_sample         =  0.002
# Data Folded      =  7340032
# Data Avg         =  0.198627475315464
# Data StdDev      =  4.54558061107319 
# Profile Bins     =  1024
# Profile Avg      =  1423.86105862707 
# Profile StdDev   =  384.847227561494 
# Reduced chi-sqr  =  0.702
# Prob(Noise)      <  1   (~0.0 sigma)
# P_topo (ms)      =  714.507548649143  +/- 0.0008
# P'_topo (s/s)    =  -0                +/- 4.22e-10
# P''_topo (s/s^2) =  0                 +/- 1.86e-13
# P_bary (ms)      =  N/A
# P'_bary (s/s)    =  N/A
# P''_bary (s/s^2) =  N/A
# P_orb (s)        =  N/A
# asin(i)/c (s)    =  N/A
# eccentricity     =  N/A
# w (rad)          =  N/A
# T_peri           =  N/A
######################################################
   0  1600.612
   1  1479.784
   2  1353.004
   3  1344.926
   4  1386.993
   5  1511.424
   6  1472.584
   7  1435.623
   8  1254.029
   9  1203.933
  10  1245.247
  11  1293.424
  12  1186.421
  13  1258.594
  14  1225.555
  15  1264.445
  16  1163.363
  17  1237.711
  18  1314.893
  19  1398.609
  20  1290.64
  21  1226.811
  22  1183.628
  23  1170.935
  24  1236.423
  25  1255.416
  26  1221.811
  27  1102.691
  28  1167.215
  29  1221.986
  30  1188.618
  31  1283.639
  32  1441.737
  33  1421.594
  34  1269.757
  35  1241.476
  36  1415.05
  37  1464.194
  38  1400.3
  39  1343.14
  40  1372.874
  41  1545.121
  42  1700.812
  43  1595.613
  44  1485.349
  45  1383.281
  46  1411.641
  47  1481.744
  48  1464.929
  49  1581.566
  50  1731.658
  51  1845.893
  52  1789.375
  53  1725.112
  54  1706.292
  55  1782.341
  56  1783.076
  57  1836.712
  58  1792.638
  59  1655.637
  60  1532.998
  61  1585.144
  62  1645.54
  63  1653.083
  64  1574.203
  65  1592.849
  66  1584.776
  67  1659.381
  68  1413.857
  69  1227.798
  70  1297.371
  71  1406.111
  72  1423.634
  73  1345.145
  74  1507.784
  75  1587.101
  76  1545.785
  77  1494.591
  78  1428.364
  79  1542.311
  80  1524.737
  81  1490.895
  82  1332.352
  83  1212.869
  84  1321.31
  85  1514.877
  86  1628.326
  87  1656.362
  88  1594.176
  89  1649.567
  90  1561.95
  91  1490.774
  92  1318.623
  93  1356.782
  94  1413.907
  95  1412.786
  96  1342.971
  97  1179.75
  98  1151.76
  99  1284.416
 100  1503.713
 101  1782.589
 102  1865.312
 103  1710.488
 104  1559.204
 105  1399.667
 106  1459.579
 107  1451.521
 108  1474.434
 109  1498.515
 110  1498.604
 111  1615.433
 112  1591.613
 113  1603.333
 114  1596.174
 115  1595.922
 116  1517.72
 117  1516.787
 118  1633.057
 119  1682.063
 120  1531.267
 121  1527.363
 122  1520.861
 123  1593.164
 124  1576.098
 125  1672.186
 126  1678.194
 127  1555.967
 128  1432.236
 129  1343.319
 130  1418.236
 131  1418.565
 132  1430.655
 133  1357.826
 134  1483.097
 135  1564.198
 136  1399.523
 137  1373.727
 138  1387.31
 139  1462.48
 140  1355.398
 141  1295.552
 142  1169.354
 143  1200.242
 144  1272.482
 145  1495.677
 146  1372.792
 147  1250.04
 148  1207.503
 149  1324.878
 150  1457.907
 151  1545.02
 152  1653.209
 153  1546.661
 154  1371.015
 155  1253.144
 156  1284.108
 157  1309.307
 158  1216.823
 159  1380.893
 160  1566.273
 161  1681.032
 162  1590.562
 163  1547.29
 164  1609.485
 165  1532.284
 166  1589.72
 167  1565.681
 168  1454.023
 169  1366.503
 170  1308.291
 171  1530.986
 172  1661.891
 173  1678.065
 174  1626.194
 175  1592.779
 176  1679.942
 177  1692.638
 178  1625.919
 179  1603.473
 180  1699.945
 181  1666.231
 182  1628.593
 183  1470.833
 184  1492.149
 185  1525.147
 186  1511.978
 187  1580.784
 188  1676.905
 189  1592.414
 190  1443.091
 191  1377.604
 192  1442.388
 193  1436.046
 194  1522.744
 195  1509.071
 196  1537.47
 197  1425.024
 198  1350.955
 199  1352.254
 200  1384.058
 201  1325.237
 202  1319.653
 203  1290.855
 204  1341.883
 205  1452.741
 206  1377.138
 207  1466.272
 208  1323.929
 209  1481.656
 210  1551.72
 211  1594.243
 212  1408.983
 213  1402.019
 214  1466.974
 215  1659.272
 216  1437.574
 217  1343.041
 218  1327.265
 219  1455.346
 220  1416.059
 221  1387.478
 222  1393.455
 223  1385.668
 224  1285.544
 225  1202.53
 226  1112.786
 227  1131.166
 228  1272.023
 229  1298.735
 230  1315.185
 231  1262.586
 232  1233.373
 233  1241.015
 234  1439.49
 235  1497.816
 236  1469.58
 237  1317.326
 238  1341.878
 239  1468.643
 240  1438.855
 241  1474.508
 242  1478.279
 243  1450.792
 244  1391.085
 245  1331.517
 246  1289.763
 247  1272.506
 248  1261.487
 249  1312.603
 250  1285.914
 251  1318.435
 252  1422.691
 253  1490.059
 254  1510.719
 255  1533.927
 256  1347.027
 257  1258.247
 258  1245.571
 259  1300.165
 260  1300.395
 261  1272.1
 262  1171.073
 263  1113.662
 264  1091.523
 265  1223.825
 266  1346.912
 267  1475.471
 268  1458.386
 269  1433.779
 270  1396.485
 271  1347.525
 272  1390.917
 273  1413.842
 274  1469.504
 275  1311.991
 276  1095.453
 277  930.096
 278  1027.818
 279  1235.094
 280  1097.229
 281  1089.774
 282  1226.824
 283  1285.006
 284  1145.922
 285  1099.266
 286  1097.139
 287  1067.834
 288  959.3043
 289  1128.575
 290  1278.589
 291  1374.577
 292  1380.118
 293  1551.303
 294  1455.375
 295  1269.912
 296  1133.053
 297  1254.693
 298  1343.576
 299  1131.463
 300  938.6837
 301  962.9162
 302  1167.333
 303  1307.875
 304  1301.909
 305  1225.555
 306  1343.969
 307  1435.845
 308  1411.293
 309  1288.012
 310  1164.098
 311  1341.241
 312  1377.475
 313  1309.725
 314  1302.191
 315  1296.491
 316  1312.808
 317  1200.667
 318  1181.025
 319  1183.888
 320  1201.213
 321  1094.862
 322  1150.132
 323  1209.764
 324  1288.113
 325  1321.726
 326  1347.196
 327  1502.65
 328  1561.685
 329  1450.059
 330  1434.394
 331  1299.179
 332  1428.277
 333  1407.849
 334  1478.512
 335  1437.189
 336  1395.095
 337  1288.757
 338  1250.263
 339  1274.139
 340  1146.885
 341  1038.203
 342  981.8925
 343  1159.973
 344  1285.156
 345  1272.304
 346  1224.581
 347  1248.319
 348  1300.052
 349  1282.186
 350  1305.378
 351  1294.611
 352  1178.547
 353  1152.312
 354  1183.022
 355  1243.239
 356  1065.599
 357  1097.32
 358  1148.057
 359  1331.732
 360  1275.747
 361  1214.845
 362  1239.518
 363  1211.61
 364  1162.634
 365  1130.799
 366  1199.861
 367  1290.272
 368  1265.389
 369  1266.76
 370  1174.562
 371  1182.033
 372  1125.117
 373  1051.585
 374  909.1414
 375  986.1993
 376  1188.116
 377  1326.896
 378  1285.609
 379  1259.268
 380  1185.806
 381  1191.472
 382  1075.376
 383  1110.069
 384  1047.231
 385  1043.107
 386  1021.312
 387  1040.252
 388  1014.09
 389  1149.14
 390  1350.329
 391  1448.875
 392  1479.844
 393  1511.143
 394  1595.458
 395  1543.977
 396  1423.698
 397  1321.12
 398  1288.147
 399  1255.637
 400  1196.725
 401  1179.261
 402  1165.365
 403  1144.583
 404  1273.584
 405  1371.745
 406  1430.616
 407  1354.169
 408  1468.76
 409  1345.001
 410  1273.126
 411  1170.698
 412  1225.033
 413  1174.415
 414  1186.557
 415  1244.694
 416  1241.166
 417  1146.492
 418  1219.759
 419  1241.586
 420  1235.23
 421  1271.305
 422  1364.018
 423  1371.586
 424  1387.584
 425  1491.359
 426  1477.701
 427  1333.213
 428  1201.797
 429  1080.986
 430  1070.489
 431  970.6581
 432  1132.41
 433  1229.975
 434  1272.455
 435  1316.408
 436  1343.439
 437  1404.907
 438  1402.078
 439  1389.385
 440  1331.777
 441  1230.497
 442  1183.598
 443  1244.815
 444  1247.476
 445  1278.179
 446  1317.637
 447  1245.567
 448  1200.654
 449  1246.177
 450  1397.578
 451  1406.14
 452  1338.906
 453  1293.9
 454  1384.548
 455  1454.123
 456  1407.927
 457  1396.779
 458  1314.043
 459  1356.718
 460  1269.036
 461  1125.669
 462  1086.062
 463  1182.614
 464  1355.724
 465  1459.796
 466  1424.011
 467  1321.85
 468  1375.851
 469  1481.477
 470  1681.239
 471  1621.462
 472  1466.411
 473  1195.182
 474  1097.3
 475  1272.423
 476  1408.249
 477  1575.52
 478  1530.647
 479  1548.26
 480  1413.76
 481  1436.251
 482  1521.496
 483  1342.126
 484  1133.571
 485  952.9507
 486  1074.433
 487  1204.973
 488  1218.115
 489  1249.394
 490  1368.234
 491  1575.923
 492  1662.593
 493  1531.858
 494  1403.744
 495  1345.369
 496  1474.22
 497  1486.609
 498  1509.323
 499  1531.179
 500  1490.474
 501  1533.97
 502  1605.463
 503  1589.258
 504  1524.011
 505  1359.99
 506  1451.63
 507  1433.844
 508  1478.172
 509  1416.39
 510  1460.152
 511  1580.638
 512  1620.394
 513  1597.069
 514  1511.294
 515  1333.112
 516  1318.652
 517  1333.296
 518  1444.492
 519  1328.402
 520  1212.88
 521  1152.818
 522  1222.151
 523  1260.138
 524  1362.091
 525  1447.649
 526  1528.718
 527  1564.205
 528  1329.155
 529  1251.352
 530  1176.767
 531  1303.454
 532  1426.905
 533  1268.25
 534  1232.31
 535  1177.823
 536  1367.217
 537  1453.597
 538  1448.598
 539  1441.053
 540  1338.612
 541  1218.147
 542  1179.39
 543  1168.186
 544  1231.603
 545  1418.216
 546  1618.424
 547  1762.133
 548  1797.645
 549  1808.151
 550  1742.406
 551  1688.019
 552  1636.918
 553  1700.84
 554  1633.929
 555  1546.517
 556  1397.709
 557  1343.81
 558  1274.518
 559  1310.935
 560  1435.141
 561  1622.396
 562  1607.19
 563  1656.767
 564  1558.051
 565  1567.675
 566  1496.105
 567  1542.454
 568  1484.543
 569  1571.427
 570  1598.211
 571  1577.989
 572  1507.207
 573  1517.404
 574  1560.512
 575  1631.798
 576  1566.483
 577  1540.021
 578  1467.951
 579  1459.779
 580  1339.372
 581  1177.109
 582  1153.77
 583  1219.764
 584  1202.302
 585  1260.739
 586  1263
 587  1354.493
 588  1556.487
 589  1726.221
 590  1795.463
 591  1628.241
 592  1474.315
 593  1536.369
 594  1471.944
 595  1421.317
 596  1441.38
 597  1452.583
 598  1539.801
 599  1389.379
 600  1331.762
 601  1310.533
 602  1389.223
 603  1382.349
 604  1325.364
 605  1461.033
 606  1553.555
 607  1680.566
 608  1639.639
 609  1536.888
 610  1446.223
 611  1517.314
 612  1657.674
 613  1699.364
 614  1509.442
 615  1583.876
 616  1619.15
 617  1659.806
 618  1737.025
 619  1738.061
 620  1724.926
 621  1525.612
 622  1551.455
 623  1627.964
 624  1706.955
 625  1667.129
 626  1652.222
 627  1626.089
 628  1780.64
 629  2003.696
 630  2058.371
 631  1933.717
 632  1870.159
 633  1854.662
 634  1894.322
 635  1805.623
 636  1858.641
 637  1857.138
 638  1773.073
 639  1638.927
 640  1515.515
 641  1412.215
 642  1373.701
 643  1392.392
 644  1481.418
 645  1407.148
 646  1329.325
 647  1482.373
 648  1596.704
 649  1643.08
 650  1683.005
 651  1664.215
 652  1713.026
 653  1651.178
 654  1567.908
 655  1498.311
 656  1383.676
 657  1472.044
 658  1653.728
 659  1736.243
 660  1653.804
 661  1568.098
 662  1591.062
 663  1588.03
 664  1462.311
 665  1522.643
 666  1586.887
 667  1518.983
 668  1516.818
 669  1509.346
 670  1495.834
 671  1438.047
 672  1396.755
 673  1363.313
 674  1454.591
 675  1418.255
 676  1480.435
 677  1528.301
 678  1551.142
 679  1598.073
 680  1651.625
 681  1453.818
 682  1274.2
 683  1185.764
 684  1403.583
 685  1503.791
 686  1520.725
 687  1626.851
 688  1713.486
 689  1463.295
 690  1354.969
 691  1392.214
 692  1626.128
 693  1564.562
 694  1549.076
 695  1511.589
 696  1436.042
 697  1308.167
 698  1356.077
 699  1440.602
 700  1500.462
 701  1622.359
 702  1615.669
 703  1742.221
 704  1642.946
 705  1489.265
 706  1461.39
 707  1455.357
 708  1425.623
 709  1399.761
 710  1460.124
 711  1394.925
 712  1343.354
 713  1336.455
 714  1351.778
 715  1303.889
 716  1284.505
 717  1480.681
 718  1460.601
 719  1475.961
 720  1466.9
 721  1528.351
 722  1548.931
 723  1616.046
 724  1587.22
 725  1389.739
 726  1373.34
 727  1546.159
 728  1585.749
 729  1399.738
 730  1225.734
 731  1395.766
 732  1473.136
 733  1542.357
 734  1498.62
 735  1373.776
 736  1264.192
 737  1291.876
 738  1268.799
 739  1263.556
 740  1134.339
 741  1307.87
 742  1494.112
 743  1561.054
 744  1637.944
 745  1617.245
 746  1674.41
 747  1675.361
 748  1749.633
 749  1667.834
 750  1554.537
 751  1402.28
 752  1444.892
 753  1491.583
 754  1445.215
 755  1422.978
 756  1432.771
 757  1461.645
 758  1385.65
 759  1439.905
 760  1595.79
 761  1659.791
 762  1648.622
 763  1710.962
 764  1567.812
 765  1521.633
 766  1500.426
 767  1605.524
 768  1562.777
 769  1572.945
 770  1545.454
 771  1628.819
 772  1445.921
 773  1434.523
 774  1501.763
 775  1474.3
 776  1512.107
 777  1470.548
 778  1488.246
 779  1520.109
 780  1581.397
 781  1640.887
 782  1631.519
 783  1529.681
 784  1592.076
 785  1630.518
 786  1606.887
 787  1515.495
 788  1409.262
 789  1462.034
 790  1408.747
 791  1474.601
 792  1519.158
 793  1660.084
 794  1725.358
 795  1759.689
 796  1741.886
 797  1641.595
 798  1648.188
 799  1588.878
 800  1511.12
 801  1581.13
 802  1589.687
 803  1671.128
 804  1567.724
 805  1527.903
 806  1400.608
 807  1256.436
 808  1403.87
 809  1507.36
 810  1583.107
 811  1472.82
 812  1389.308
 813  1425.732
 814  1510.721
 815  1482.933
 816  1425.392
 817  1317.287
 818  1377.342
 819  1395.974
 820  1600.932
 821  1675.653
 822  1698.387
 823  1635.619
 824  1514.532
 825  1376.678
 826  1327.867
 827  1458.482
 828  1522.257
 829  1507.648
 830  1309.362
 831  1222.35
 832  1295.593
 833  1528.503
 834  1595.87
 835  1516.292
 836  1401.238
 837  1275.468
 838  1238.449
 839  1197.517
 840  1322.466
 841  1443.636
 842  1327.663
 843  1350.651
 844  1275.223
 845  1403.984
 846  1396.125
 847  1424.071
 848  1295.922
 849  1235.805
 850  1316.941
 851  1328.918
 852  1219.016
 853  1207.173
 854  1484.773
 855  1647.392
 856  1492.921
 857  1380.423
 858  1281.34
 859  1333.09
 860  1304.737
 861  1254.158
 862  1308.484
 863  1361.118
 864  1520.751
 865  1524.544
 866  1450.728
 867  1308.491
 868  1255.737
 869  1229.653
 870  1351.648
 871  1468.895
 872  1470.334
 873  1355.456
 874  1326.452
 875  1322.725
 876  1269.92
 877  1247.09
 878  1166.835
 879  1165.838
 880  1189.519
 881  1350.108
 882  1442.588
 883  1554.783
 884  1617.83
 885  1535.242
 886  1378.107
 887  1424.913
 888  1385.055
 889  1439.504
 890  1476.387
 891  1558.878
 892  1439.734
 893  1472.058
 894  1385.573
 895  1431.85
 896  1418.374
 897  1657.54
 898  1574.708
 899  1464.464
 900  1442.644
 901  1605.979
 902  1612.47
 903  1586.208
 904  1580.17
 905  1549.056
 906  1409.963
 907  1323.614
 908  1392.551
 909  1407.514
 910  1346.349
 911  1464.13
 912  1535.81
 913  1462.787
 914  1329.722
 915  1380.43
 916  1412.991
 917  1527.374
 918  1623.897
 919  1766.319
 920  1599.209
 921  1519.622
 922  1498.027
 923  1524.739
 924  1662.63
 925  1656.438
 926  1653.394
 927  1566.187
 928  1641.129
 929  1698.184
 930  1803.628
 931  1736.072
 932  1862.366
 933  1933.898
 934  1866.418
 935  1699.603
 936  1594.616
 937  1691.492
 938  1753.444
 939  1692.441
 940  1660.161
 941  1556.824
 942  1452.829
 943  1447.748
 944  1309.276
 945  1321.744
 946  1374.687
 947  1474.093
 948  1535.221
 949  1585.339
 950  1524.248
 951  1582.505
 952  1503.16
 953  1761.746
 954  1846.831
 955  1833.77
 956  1779.939
 957  1695.576
 958  1671.813
 959  1492.514
 960  1449.942
 961  1544.948
 962  1539.397
 963  1439.457
 964  1393.118
 965  1482.013
 966  1528.698
 967  1541.41
 968  1519.037
 969  1449.934
 970  1448.555
 971  1508.665
 972  1679.126
 973  1703.486
 974  1544.895
 975  1422.638
 976  1393.042
 977  1432.229
 978  1302.843
 979  1221.338
 980  1231.252
 981  1278.111
 982  1486.402
 983  1509.051
 984  1449.537
 985  1142.528
 986  1068.27
 987  1045.924
 988  1146.704
 989  1185.449
 990  1233.386
 991  1343.242
 992  1356.184
 993  1293.573
 994  1348.003
 995  1433.923
 996  1525.804
 997  1386.701
 998  1344.335
 999  1398.824
1000  1439.703
1001  1371.444
1002  1226.093
1003  1118.494
1004  1073.133
1005  1108.824
1006  1072.964
1007  1132.835
1008  1306.935
1009  1383.756
1010  1469.66
1011  1271.502
1012  1311.006
1013  1419.557
1014  1492.812
1015  1495.853
1016  1480.427
1017  1463.389
1018  1480.63
1019  1296.792
1020  1260.474
1021  1201.88
1022  1348.127
1023  1483.919
