# Input file       =  1195689392.107103_cleaned.dat
# Candidate        =  PSR_0332+5434
# Telescope        =  AR
# Epoch_topo       =  58082.997813739617
# Epoch_bary       =  N/A
# T_sample         =  0.002
# Data Folded      =  7340032
# Data Avg         =  0.107146664771957
# Data StdDev      =  1.00049202206479 
# Profile Bins     =  512
# Profile Avg      =  1536.15744545491 
# Profile StdDev   =  119.791947672547 
# Reduced chi-sqr  =  0.836
# Prob(Noise)      <  0.997   (~0.0 sigma)
# P_topo (ms)      =  714.52084873527   +/- 3.05e-05
# P'_topo (s/s)    =  -0                +/- 1.61e-11
# P''_topo (s/s^2) =  0                 +/- 7.11e-15
# P_bary (ms)      =  N/A
# P'_bary (s/s)    =  N/A
# P''_bary (s/s^2) =  N/A
# P_orb (s)        =  N/A
# asin(i)/c (s)    =  N/A
# eccentricity     =  N/A
# w (rad)          =  N/A
# T_peri           =  N/A
######################################################
   0  1740.46
   1  1740.51
   2  1658.582
   3  1631.806
   4  1783.982
   5  1734.339
   6  1632.414
   7  1494.392
   8  1536.182
   9  1601.788
  10  1534.188
  11  1580.168
  12  1645.162
  13  1563.304
  14  1574.464
  15  1572.257
  16  1509.747
  17  1432.46
  18  1416.638
  19  1464.057
  20  1538.461
  21  1524.381
  22  1608.049
  23  1484.617
  24  1445.023
  25  1375.136
  26  1552.513
  27  1552.158
  28  1446.223
  29  1510.807
  30  1640.802
  31  1520.604
  32  1533.166
  33  1572.937
  34  1447.352
  35  1441.318
  36  1565.224
  37  1567.221
  38  1487.704
  39  1579.138
  40  1550.102
  41  1492.559
  42  1492.834
  43  1458.107
  44  1507.098
  45  1532.114
  46  1462.157
  47  1531.574
  48  1499.55
  49  1427.634
  50  1422.38
  51  1584.021
  52  1562.525
  53  1445.837
  54  1512.573
  55  1494.62
  56  1459.822
  57  1473.277
  58  1626.75
  59  1611.923
  60  1523.484
  61  1506.477
  62  1507.391
  63  1557.478
  64  1492.47
  65  1410.096
  66  1442.578
  67  1471.399
  68  1534.083
  69  1528.756
  70  1456.986
  71  1483.715
  72  1557.077
  73  1497.212
  74  1486.709
  75  1516.074
  76  1579.363
  77  1502.68
  78  1480.565
  79  1531.652
  80  1532.452
  81  1359.326
  82  1378.457
  83  1518.285
  84  1422.347
  85  1427.772
  86  1502.129
  87  1597.162
  88  1476.002
  89  1363.641
  90  1482.625
  91  1637
  92  1647.192
  93  1626.758
  94  1684.092
  95  1517.447
  96  1451.805
  97  1430.908
  98  1573.951
  99  1572.577
 100  1496.08
 101  1565.201
 102  1465.667
 103  1439.758
 104  1515.082
 105  1473.348
 106  1440.949
 107  1475.101
 108  1594.368
 109  1575.794
 110  1426.524
 111  1554.604
 112  1630.952
 113  1468.05
 114  1455.047
 115  1533.389
 116  1544.081
 117  1475.774
 118  1545.078
 119  1658.694
 120  1562.277
 121  1439.441
 122  1621.026
 123  1582.407
 124  1546.275
 125  1558.479
 126  1578.54
 127  1487.224
 128  1469.141
 129  1529.714
 130  1563.161
 131  1518.568
 132  1478.114
 133  1591.71
 134  1591.37
 135  1611.091
 136  1559.137
 137  1564.182
 138  1623.067
 139  1575.715
 140  1571.933
 141  1641.317
 142  1562.303
 143  1443.97
 144  1514.502
 145  1562.377
 146  1515.333
 147  1609.761
 148  1667.419
 149  1600.544
 150  1561.516
 151  1612.345
 152  1512.95
 153  1461.722
 154  1537.715
 155  1621.23
 156  1577.215
 157  1535.382
 158  1553.44
 159  1546.049
 160  1495.249
 161  1581.996
 162  1691.868
 163  1599.261
 164  1544.501
 165  1544.473
 166  1572.432
 167  1627.116
 168  1547.809
 169  1684.878
 170  1649.307
 171  1547.439
 172  1641.111
 173  1759.258
 174  1646.641
 175  1592.033
 176  1718.455
 177  1573.64
 178  1469.699
 179  1509.954
 180  1535.193
 181  1524.614
 182  1474.842
 183  1532.339
 184  1497.735
 185  1538.999
 186  1516.514
 187  1538.441
 188  1601.154
 189  1561.973
 190  1645.974
 191  1672.418
 192  1678.853
 193  1614.998
 194  1518.458
 195  1510.568
 196  1632.02
 197  1519.347
 198  1465.962
 199  1425.599
 200  1372.77
 201  1513.85
 202  1721.454
 203  1599.051
 204  1503.011
 205  1537.305
 206  1501.137
 207  1492.541
 208  1535.828
 209  1611.342
 210  1671.97
 211  1593.195
 212  1633.131
 213  1611.418
 214  1566.556
 215  1486.892
 216  1511.889
 217  1469
 218  1478.047
 219  1550.588
 220  1521.723
 221  1513.476
 222  1592.877
 223  1590.956
 224  1456.9
 225  1478.843
 226  1582.245
 227  1614.202
 228  1519.338
 229  1555.734
 230  1615.58
 231  1539.02
 232  1538.723
 233  1588.635
 234  1524.274
 235  1502.552
 236  1496.199
 237  1443.044
 238  1417.127
 239  1481.295
 240  1551.641
 241  1554.909
 242  1575.369
 243  1558.738
 244  1544.753
 245  1494.823
 246  1494.08
 247  1557.354
 248  1591.681
 249  1550.128
 250  1517.885
 251  1610.585
 252  1572.54
 253  1402.339
 254  1466.276
 255  1488.962
 256  1428.526
 257  1482.776
 258  1554.427
 259  1499.805
 260  1401.206
 261  1443.789
 262  1606.091
 263  1588.379
 264  1481.457
 265  1441.683
 266  1534.254
 267  1465.841
 268  1434.362
 269  1463.314
 270  1530.399
 271  1529.083
 272  1557.235
 273  1569.274
 274  1522.456
 275  1574.198
 276  1597.047
 277  1654.719
 278  1583.06
 279  1538.449
 280  1673.48
 281  1614.274
 282  1573.612
 283  1530.772
 284  1575.991
 285  1535.143
 286  1492.716
 287  1425.458
 288  1390.394
 289  1374
 290  1410.578
 291  1534.184
 292  1499.252
 293  1464.382
 294  1507.073
 295  1490.278
 296  1415.097
 297  1406.49
 298  1619.073
 299  1559.323
 300  1484.162
 301  1522.559
 302  1483.404
 303  1383.227
 304  1418.941
 305  1521.137
 306  1497.695
 307  1323.783
 308  1407.401
 309  1619.292
 310  1565.465
 311  1481.033
 312  1512.664
 313  1452.812
 314  1363.472
 315  1387.943
 316  1491.299
 317  1490.763
 318  1475.411
 319  1423.765
 320  1395.683
 321  1468.279
 322  1554.62
 323  1545.241
 324  1482.256
 325  1474.093
 326  1443.268
 327  1452.755
 328  1445.785
 329  1457.648
 330  1495.245
 331  1524.453
 332  1432.26
 333  1430.217
 334  1584.554
 335  1521.885
 336  1487.222
 337  1556.003
 338  1650.625
 339  1587.635
 340  1598.009
 341  1630.679
 342  1459.071
 343  1467.183
 344  1566.876
 345  1627.604
 346  1582.306
 347  1429.262
 348  1407.969
 349  1458.026
 350  1508.065
 351  1472.813
 352  1571.162
 353  1495.694
 354  1439.548
 355  1580.293
 356  1548.106
 357  1469.165
 358  1476.022
 359  1494.837
 360  1466.772
 361  1461.068
 362  1519.301
 363  1512.926
 364  1448.209
 365  1545.429
 366  1558.287
 367  1357.684
 368  1328.448
 369  1323.725
 370  1353.608
 371  1392.97
 372  1530.684
 373  1609.592
 374  1617.99
 375  1483.756
 376  1479.374
 377  1530.066
 378  1479.933
 379  1583.009
 380  1558.61
 381  1500.761
 382  1495.811
 383  1516.006
 384  1540.689
 385  1526.377
 386  1458.371
 387  1536.413
 388  1623.108
 389  1544.817
 390  1563.586
 391  1655.142
 392  1616.494
 393  1506.012
 394  1637.996
 395  1666.182
 396  1540.095
 397  1456.795
 398  1526.377
 399  1602.845
 400  1599.963
 401  1528.047
 402  1602.508
 403  1575.052
 404  1517.91
 405  1587.276
 406  1625.316
 407  1590.238
 408  1589.696
 409  1611.805
 410  1552.276
 411  1575.095
 412  1560.246
 413  1601.45
 414  1508.634
 415  1626.033
 416  1612.312
 417  1635.907
 418  1612.406
 419  1540.575
 420  1588.007
 421  1574.573
 422  1616.931
 423  1561.805
 424  1596.535
 425  1488.582
 426  1589.052
 427  1764.874
 428  1720.864
 429  1670.128
 430  1633.739
 431  1673.29
 432  1572.144
 433  1575.391
 434  1721.467
 435  1701.269
 436  1645.406
 437  1535.997
 438  1570.054
 439  1522.774
 440  1494.295
 441  1543.812
 442  1663.941
 443  1539.558
 444  1534.88
 445  1606.052
 446  1574.995
 447  1483.48
 448  1539.881
 449  1594.821
 450  1534.279
 451  1513.173
 452  1555.238
 453  1570.593
 454  1544.079
 455  1674.706
 456  1705.243
 457  1666.944
 458  1544.293
 459  1508.094
 460  1461.12
 461  1480.895
 462  1460.754
 463  1593.566
 464  1485.463
 465  1394.996
 466  1582.365
 467  1565.946
 468  1527.131
 469  1592.602
 470  1760.483
 471  1557.203
 472  1383.341
 473  1446.955
 474  1408.947
 475  1469.035
 476  1517.403
 477  1540.626
 478  1499.911
 479  1454.943
 480  1478.744
 481  1441.443
 482  1395.167
 483  1443.656
 484  1604.781
 485  1608.494
 486  1521.208
 487  1481.887
 488  1484.336
 489  1495.865
 490  1499.025
 491  1571.758
 492  1546.876
 493  1485.261
 494  1469.351
 495  1577.33
 496  1582.282
 497  1493.1
 498  1457.183
 499  1640.277
 500  1608.39
 501  1570.599
 502  1574.7
 503  1502.929
 504  1573.525
 505  1639.012
 506  1577.99
 507  1569.056
 508  1587.776
 509  1696.493
 510  1786.601
 511  1871.021
