# Input file       =  1195846833.110793_cleaned.dat
# Candidate        =  PSR_0332+5434
# Telescope        =  AR
# Epoch_topo       =  58084.820047578622
# Epoch_bary       =  N/A
# T_sample         =  0.002
# Data Folded      =  7340032
# Data Avg         =  0.676072763522304
# Data StdDev      =  6.52504351914176 
# Profile Bins     =  512
# Profile Avg      =  9692.35596728165 
# Profile StdDev   =  781.263273037382 
# Reduced chi-sqr  =  0.562
# Prob(Noise)      <  1   (~0.0 sigma)
# P_topo (ms)      =  714.522400205159  +/- 0.00022
# P'_topo (s/s)    =  -0                +/- 1.16e-10
# P''_topo (s/s^2) =  0                 +/- 5.13e-14
# P_bary (ms)      =  N/A
# P'_bary (s/s)    =  N/A
# P''_bary (s/s^2) =  N/A
# P_orb (s)        =  N/A
# asin(i)/c (s)    =  N/A
# eccentricity     =  N/A
# w (rad)          =  N/A
# T_peri           =  N/A
######################################################
   0  9307.68
   1  9086.454
   2  8932.517
   3  9489.431
   4  8878.089
   5  8560.261
   6  9041.334
   7  9357.903
   8  9491.744
   9  9164.849
  10  9512.587
  11  9473.376
  12  9096.931
  13  9347.633
  14  9252.352
  15  9221.726
  16  9091.11
  17  9038.001
  18  8614.747
  19  8433.052
  20  9200.168
  21  9274.829
  22  9224.582
  23  8802.247
  24  9252.65
  25  9487.512
  26  9323.932
  27  9254.054
  28  9100.777
  29  9405.245
  30  9321.285
  31  9388.303
  32  9776.062
  33  9046.135
  34  9544.218
  35  9504.522
  36  9269.361
  37  9174.223
  38  8868.66
  39  9393.201
  40  9155.744
  41  9169.809
  42  9785.348
  43  9424.746
  44  9356.983
  45  9125.357
  46  9253.82
  47  9303.724
  48  10033.86
  49  10029.26
  50  10184.64
  51  9989.519
  52  9918.44
  53  9894.593
  54  9551.016
  55  9539.185
  56  9878.118
  57  9686.273
  58  9443.675
  59  9662.743
  60  9817.855
  61  9926.355
  62  9477.866
  63  10188.06
  64  9762.521
  65  9784.334
  66  9652.446
  67  9805.868
  68  9503.76
  69  9898.239
  70  10031.51
  71  10219.78
  72  10184.53
  73  9951.433
  74  9798.824
  75  10225.4
  76  9036.43
  77  8730.093
  78  9115.768
  79  9406.759
  80  9261.457
  81  8944.744
  82  9596.679
  83  9448.864
  84  9655.154
  85  9751.903
  86  9610.257
  87  9839.79
  88  10098.88
  89  10139.23
  90  9509.675
  91  9475.11
  92  9759.39
  93  9339.296
  94  9469.523
  95  9720.823
  96  9747.51
  97  9570.808
  98  9361.879
  99  9708.42
 100  9732.093
 101  9704.393
 102  10147.04
 103  10332.15
 104  10257.36
 105  9435.813
 106  9900.279
 107  9749.848
 108  9643.17
 109  9557.811
 110  9457.275
 111  9916.021
 112  9841.055
 113  9470.882
 114  9424.28
 115  9501.749
 116  9687.481
 117  9510.186
 118  9245.716
 119  9182.914
 120  9314.109
 121  9759.586
 122  9836.532
 123  10520.89
 124  10155.25
 125  10157.93
 126  9687.549
 127  9428.134
 128  9653.91
 129  9677.688
 130  9842.922
 131  9864.199
 132  9688.217
 133  9064.148
 134  9000.87
 135  9250.668
 136  9448.038
 137  9576.818
 138  9301.504
 139  9711.658
 140  9628.917
 141  9571.623
 142  9778.071
 143  9995.342
 144  9789.168
 145  9696.554
 146  9991.274
 147  9978.19
 148  9368.458
 149  9387.436
 150  10054.65
 151  10617.73
 152  10253.73
 153  10345.82
 154  10086
 155  9927.612
 156  9883.471
 157  10233.21
 158  10289.79
 159  10679.91
 160  10262.66
 161  9979.089
 162  9261.965
 163  9619.098
 164  9991.884
 165  9889.119
 166  10155.61
 167  9855.369
 168  9460.975
 169  9087.537
 170  9242.562
 171  10022.1
 172  9800.829
 173  9648.238
 174  9599.497
 175  9569.785
 176  9489.396
 177  9204.871
 178  9194.869
 179  10159.83
 180  10367.59
 181  10452.77
 182  9922.655
 183  9816.452
 184  10058.96
 185  10399.64
 186  10306.19
 187  10068.87
 188  10105.55
 189  9733.022
 190  9566.744
 191  9371.134
 192  9584.204
 193  9147.606
 194  9524.709
 195  9832.977
 196  9958.723
 197  9667.063
 198  9640.598
 199  9934.187
 200  10062.87
 201  9330.103
 202  9664.684
 203  9857.53
 204  10426.31
 205  9883.312
 206  9717.83
 207  10001.15
 208  9935.547
 209  9880.53
 210  9649.95
 211  10120.81
 212  10422.11
 213  10245.03
 214  10307.04
 215  9977.78
 216  9889.201
 217  9974.46
 218  10315.69
 219  9905.012
 220  10159.18
 221  10172.96
 222  10428.4
 223  10328.88
 224  10325.23
 225  9922.742
 226  9993.462
 227  9678.891
 228  9173.265
 229  8842.451
 230  9423.517
 231  9909.102
 232  9737.667
 233  9448.225
 234  9132.463
 235  9722.424
 236  9787.008
 237  9675.912
 238  9632.196
 239  10089.68
 240  10191.63
 241  9990.457
 242  10042.58
 243  9829.165
 244  9327.478
 245  9881.806
 246  10130.84
 247  9933.949
 248  9406.095
 249  9843.011
 250  10547.9
 251  10533
 252  10399.68
 253  10979.96
 254  10669.82
 255  10295.85
 256  10518.12
 257  9872.099
 258  9058.493
 259  9970.373
 260  10370.14
 261  10489.7
 262  9874.741
 263  9540.252
 264  9630.429
 265  9691.332
 266  9483.644
 267  9585.414
 268  9145.862
 269  8804.056
 270  9299.508
 271  9477.395
 272  9581.683
 273  9381.761
 274  9941.597
 275  10102.15
 276  10029.93
 277  9651.301
 278  10210.3
 279  10170.51
 280  9747.9
 281  9768.102
 282  9905.787
 283  10021.82
 284  10497.44
 285  10297.88
 286  9469.222
 287  9132.954
 288  9927.021
 289  9551.118
 290  9868.443
 291  9682.087
 292  10070.45
 293  10148.66
 294  10352.12
 295  10460.92
 296  10420.06
 297  10313.42
 298  10055.5
 299  9675.898
 300  10363.59
 301  9755.037
 302  10033.82
 303  10084.07
 304  9974.583
 305  8912.215
 306  8775.957
 307  9512.011
 308  9961.194
 309  10180.73
 310  9846.249
 311  9330.974
 312  9753.115
 313  9512.698
 314  9765.178
 315  10050.07
 316  10015.44
 317  10085.54
 318  9606.467
 319  9395.144
 320  9123.671
 321  9386.387
 322  9580.917
 323  9186.77
 324  9776.963
 325  9949.976
 326  10080.89
 327  9604.127
 328  9644.157
 329  9721.447
 330  9087.675
 331  9461.584
 332  9722.757
 333  9982.928
 334  10128.95
 335  10521.47
 336  10248.24
 337  9847.905
 338  9655.201
 339  9789.155
 340  9612.746
 341  9412.211
 342  9447.642
 343  9780.633
 344  9023.491
 345  9151.917
 346  9257.872
 347  9177.023
 348  9467.432
 349  9455.803
 350  9613.222
 351  9705.347
 352  10013.28
 353  10081.2
 354  10010.36
 355  10124.76
 356  9986.418
 357  9903.063
 358  9399.138
 359  9365.163
 360  9867.812
 361  10003.66
 362  10007.79
 363  9366.613
 364  9522.466
 365  9369.11
 366  9909.446
 367  9817.205
 368  9915.13
 369  9511.869
 370  9798.981
 371  9931.151
 372  9355.951
 373  9020.956
 374  9269.397
 375  9341.181
 376  10033.59
 377  9420.271
 378  8867.27
 379  9133.364
 380  9228.475
 381  9228.408
 382  9204.572
 383  9628.645
 384  9961.941
 385  8997.245
 386  9528.081
 387  9332.151
 388  9583.423
 389  9607.085
 390  9435.92
 391  9320.928
 392  9343.773
 393  9277.307
 394  9331.635
 395  9009.487
 396  9129.096
 397  8728.358
 398  9545.738
 399  9628.415
 400  9198.816
 401  8953.883
 402  8944.802
 403  9609.62
 404  9760.054
 405  9431.544
 406  9157.755
 407  10162.53
 408  9802.36
 409  9473.052
 410  9576.038
 411  9223.815
 412  9796.028
 413  10409.17
 414  10401.67
 415  9451.207
 416  8742.516
 417  9200.856
 418  9625.537
 419  9799.853
 420  9276.546
 421  9402.756
 422  9489.425
 423  9037.88
 424  9129.625
 425  9878.723
 426  10011.02
 427  10160.14
 428  10600.24
 429  10447.63
 430  9933.665
 431  9939.716
 432  10293.04
 433  9909.939
 434  9986.362
 435  9870.772
 436  9948.799
 437  10040.1
 438  9820.926
 439  9748.203
 440  9428.679
 441  9652.784
 442  9667.406
 443  10189.39
 444  10119.33
 445  9159.823
 446  9645.601
 447  10062.4
 448  9743.962
 449  9559.369
 450  9832.336
 451  9486.66
 452  9345.918
 453  9528.517
 454  9721.553
 455  9432.14
 456  9909.297
 457  10332.63
 458  10367.7
 459  9720.129
 460  9969.027
 461  9875.611
 462  10047.49
 463  9835.413
 464  9951.664
 465  9880.595
 466  10153.87
 467  10143.21
 468  9779.514
 469  9477.74
 470  9537.573
 471  9574.712
 472  9634.663
 473  8928.389
 474  8832.073
 475  9024.677
 476  9182.289
 477  9079.522
 478  9021.138
 479  8889.395
 480  8834.408
 481  8972.844
 482  9498.384
 483  9876.921
 484  9620.908
 485  9538.192
 486  9807.002
 487  9515.267
 488  9727.564
 489  10467.1
 490  10162.87
 491  10049.5
 492  9644.249
 493  10045.7
 494  10339.56
 495  10433.59
 496  10865.31
 497  10486.14
 498  9775.71
 499  9592.963
 500  9357.93
 501  9961.58
 502  9979.406
 503  10389.93
 504  10261.83
 505  10124.18
 506  10099.25
 507  10278.95
 508  9537.717
 509  8874.94
 510  9140.583
 511  9467.854
