# Input file       =  1195775573.11255_cleaned.dat
# Candidate        =  PSR_0332+5434
# Telescope        =  AR
# Epoch_topo       =  58083.995279080438
# Epoch_bary       =  N/A
# T_sample         =  0.002
# Data Folded      =  7340032
# Data Avg         =  0.105169691871933
# Data StdDev      =  1.00061276285663 
# Profile Bins     =  512
# Profile Avg      =  1507.64804658243 
# Profile StdDev   =  119.80640433417  
# Reduced chi-sqr  =  0.802
# Prob(Noise)      <  1   (~0.0 sigma)
# P_topo (ms)      =  714.52188447422   +/- 0.000491
# P'_topo (s/s)    =  -0                +/- 2.59e-10
# P''_topo (s/s^2) =  0                 +/- 1.14e-13
# P_bary (ms)      =  N/A
# P'_bary (s/s)    =  N/A
# P''_bary (s/s^2) =  N/A
# P_orb (s)        =  N/A
# asin(i)/c (s)    =  N/A
# eccentricity     =  N/A
# w (rad)          =  N/A
# T_peri           =  N/A
######################################################
   0  1523.801
   1  1485.621
   2  1468.996
   3  1540.396
   4  1500.562
   5  1441.299
   6  1478.249
   7  1505.03
   8  1486.691
   9  1521.614
  10  1511.856
  11  1472.773
  12  1509.395
  13  1554.09
  14  1498.623
  15  1510.315
  16  1510.801
  17  1449.833
  18  1450.857
  19  1515.106
  20  1532.707
  21  1524.326
  22  1560.384
  23  1623.171
  24  1641.803
  25  1508.532
  26  1544.57
  27  1529.743
  28  1521.481
  29  1580.68
  30  1539.328
  31  1491.395
  32  1508.792
  33  1479.445
  34  1571.372
  35  1516.964
  36  1431.925
  37  1416.52
  38  1559.295
  39  1536.052
  40  1458.292
  41  1462.67
  42  1542.281
  43  1544.516
  44  1604.219
  45  1493.8
  46  1491.505
  47  1446.486
  48  1445.551
  49  1416.142
  50  1406.734
  51  1513.322
  52  1560.063
  53  1498.797
  54  1492.921
  55  1343.219
  56  1418.29
  57  1499.744
  58  1555.101
  59  1528.588
  60  1421.518
  61  1460.57
  62  1514.8
  63  1568.947
  64  1476.206
  65  1544.427
  66  1637.178
  67  1551.073
  68  1491.475
  69  1504.076
  70  1375.782
  71  1469.907
  72  1433.926
  73  1461.695
  74  1477.309
  75  1477.528
  76  1440.778
  77  1392.716
  78  1391.328
  79  1522.199
  80  1566.538
  81  1385.981
  82  1287.341
  83  1430.223
  84  1402.005
  85  1472.425
  86  1472.87
  87  1584.852
  88  1467.075
  89  1422.959
  90  1421.562
  91  1442.277
  92  1370.122
  93  1327.028
  94  1375.894
  95  1548.812
  96  1549.941
  97  1446.63
  98  1425.364
  99  1457.649
 100  1528.027
 101  1485.764
 102  1553.96
 103  1585.235
 104  1554.389
 105  1491.401
 106  1547.671
 107  1425.081
 108  1415.16
 109  1442.462
 110  1431.86
 111  1440.598
 112  1512.66
 113  1576.818
 114  1648.044
 115  1538.447
 116  1476.858
 117  1459.07
 118  1510.482
 119  1509.702
 120  1419.402
 121  1355.122
 122  1389.797
 123  1463.334
 124  1511.239
 125  1434.116
 126  1468.58
 127  1477.839
 128  1499.153
 129  1505.436
 130  1443.862
 131  1473.874
 132  1422.67
 133  1422.301
 134  1406.57
 135  1431.842
 136  1358.711
 137  1452.05
 138  1465.341
 139  1455.182
 140  1572.484
 141  1539.042
 142  1497.362
 143  1485.543
 144  1543.902
 145  1580.906
 146  1574.137
 147  1540.571
 148  1523.606
 149  1480.659
 150  1517.578
 151  1530.833
 152  1504.694
 153  1539.884
 154  1530.442
 155  1537.194
 156  1458.625
 157  1524.927
 158  1475.148
 159  1599.748
 160  1565.155
 161  1588.787
 162  1511.636
 163  1439.813
 164  1376.182
 165  1452.685
 166  1557.46
 167  1540.671
 168  1487.135
 169  1537.288
 170  1511.451
 171  1450.042
 172  1423.333
 173  1407.156
 174  1495.768
 175  1555.677
 176  1494.973
 177  1401.784
 178  1448.466
 179  1425.966
 180  1398.52
 181  1369.836
 182  1365.373
 183  1373.863
 184  1389.006
 185  1429.718
 186  1425.995
 187  1309.373
 188  1246.52
 189  1355.526
 190  1394.033
 191  1519.471
 192  1596.749
 193  1518.039
 194  1456.642
 195  1529.385
 196  1552.799
 197  1513.41
 198  1602.237
 199  1693.834
 200  1667.603
 201  1571.251
 202  1609.515
 203  1605.53
 204  1385.592
 205  1393.234
 206  1622.945
 207  1595.378
 208  1521.966
 209  1491.818
 210  1538.651
 211  1489.646
 212  1564.306
 213  1530.045
 214  1548.241
 215  1511.456
 216  1599.796
 217  1536.112
 218  1485.427
 219  1619.478
 220  1659.223
 221  1562.955
 222  1567.483
 223  1605.451
 224  1569.641
 225  1532.976
 226  1592.917
 227  1586.117
 228  1544.209
 229  1536.956
 230  1563.541
 231  1635.339
 232  1569.781
 233  1511.306
 234  1473.804
 235  1594.548
 236  1604.793
 237  1526.297
 238  1464.305
 239  1560.08
 240  1584.196
 241  1460.441
 242  1456.301
 243  1457.636
 244  1417.522
 245  1512.376
 246  1499.935
 247  1518.787
 248  1502.268
 249  1472.485
 250  1376.483
 251  1440.12
 252  1466.919
 253  1539.523
 254  1457.681
 255  1482.803
 256  1420.906
 257  1421.378
 258  1373.446
 259  1495.859
 260  1429.329
 261  1369.384
 262  1425.537
 263  1519.054
 264  1522.076
 265  1460.702
 266  1536.893
 267  1518.401
 268  1429.484
 269  1515.922
 270  1558.525
 271  1487.402
 272  1473.158
 273  1580.401
 274  1615.494
 275  1592.635
 276  1483.637
 277  1472.307
 278  1541.452
 279  1625.365
 280  1602.916
 281  1478.83
 282  1472.768
 283  1496.475
 284  1418.918
 285  1420.83
 286  1486.213
 287  1583.815
 288  1597.446
 289  1469.126
 290  1548.33
 291  1615.765
 292  1485.616
 293  1473.347
 294  1532.855
 295  1565.321
 296  1426.279
 297  1359.909
 298  1467.912
 299  1437.663
 300  1507.196
 301  1463.239
 302  1509.9
 303  1636.015
 304  1659.619
 305  1565.849
 306  1549.185
 307  1625.218
 308  1646.755
 309  1569.301
 310  1577.328
 311  1566.794
 312  1524.926
 313  1599.527
 314  1462.474
 315  1497.306
 316  1544.941
 317  1442.709
 318  1481.271
 319  1500.977
 320  1535.076
 321  1616.699
 322  1550.854
 323  1513.354
 324  1405.824
 325  1561.116
 326  1712.779
 327  1577.9
 328  1590.622
 329  1606.005
 330  1565.672
 331  1644.809
 332  1464.069
 333  1451.454
 334  1494.036
 335  1550.689
 336  1467.17
 337  1409.524
 338  1449.702
 339  1568.91
 340  1532.766
 341  1570.289
 342  1569.221
 343  1482.936
 344  1523.979
 345  1597.063
 346  1571.077
 347  1466.711
 348  1493.152
 349  1525.033
 350  1477.43
 351  1502.94
 352  1501.621
 353  1505.778
 354  1545.734
 355  1568.158
 356  1521.122
 357  1456.311
 358  1441.678
 359  1470.088
 360  1511.388
 361  1529.307
 362  1588.4
 363  1472.772
 364  1442.442
 365  1605.976
 366  1621.923
 367  1566.085
 368  1552.905
 369  1575.242
 370  1563.307
 371  1556.533
 372  1529.7
 373  1529.839
 374  1507.733
 375  1444.65
 376  1472.688
 377  1468.911
 378  1482.191
 379  1428.039
 380  1540.137
 381  1521.467
 382  1533.296
 383  1449.321
 384  1407.425
 385  1449.298
 386  1533.523
 387  1609.691
 388  1499.634
 389  1518.601
 390  1581.679
 391  1499.915
 392  1459.791
 393  1440.408
 394  1500.407
 395  1456.119
 396  1531.376
 397  1472.757
 398  1409.879
 399  1504.605
 400  1511.923
 401  1531.738
 402  1591.377
 403  1656.436
 404  1496.393
 405  1493.982
 406  1520.53
 407  1552.851
 408  1392.209
 409  1436.189
 410  1495.026
 411  1534.455
 412  1497.041
 413  1505.352
 414  1465.312
 415  1454.761
 416  1514.58
 417  1530.942
 418  1402.026
 419  1355.376
 420  1472.736
 421  1448.684
 422  1458.83
 423  1441.288
 424  1485.516
 425  1539.454
 426  1509.773
 427  1486.542
 428  1405.315
 429  1406.75
 430  1503.756
 431  1590.728
 432  1560.334
 433  1583.927
 434  1653.785
 435  1530.433
 436  1385.481
 437  1321.047
 438  1484.12
 439  1533.989
 440  1501.855
 441  1455.209
 442  1575.043
 443  1451.084
 444  1331.468
 445  1370.866
 446  1354.312
 447  1463.68
 448  1574.703
 449  1540.676
 450  1393.909
 451  1402.607
 452  1425.713
 453  1446.724
 454  1514.321
 455  1518.24
 456  1512.982
 457  1440.646
 458  1435.242
 459  1556.049
 460  1506.922
 461  1488.412
 462  1496.403
 463  1570.084
 464  1509.068
 465  1527.533
 466  1635.611
 467  1669.981
 468  1648.81
 469  1584.496
 470  1614.769
 471  1643.018
 472  1525.386
 473  1527.774
 474  1617.657
 475  1793.78
 476  1843.719
 477  1854.197
 478  1834.657
 479  1796.155
 480  1644.904
 481  1467.04
 482  1492.304
 483  1583.83
 484  1609.064
 485  1551.229
 486  1513.991
 487  1442.466
 488  1375.951
 489  1477.958
 490  1507.477
 491  1482.674
 492  1512.546
 493  1479.944
 494  1491.123
 495  1526.54
 496  1622.57
 497  1571.87
 498  1536.183
 499  1630.619
 500  1634.512
 501  1616.768
 502  1636.18
 503  1607.279
 504  1469.56
 505  1482.011
 506  1596.331
 507  1570.885
 508  1529.868
 509  1597.48
 510  1506.46
 511  1483.148
