# Input file       =  1195861735.106926_cleaned.dat
# Candidate        =  PSR_0332+5434
# Telescope        =  AR
# Epoch_topo       =  58084.992524385714
# Epoch_bary       =  N/A
# T_sample         =  0.002
# Data Folded      =  7340032
# Data Avg         =  0.0806865234700583
# Data StdDev      =  1.00021874835651 
# Profile Bins     =  512
# Profile Avg      =  1156.63261219309 
# Profile StdDev   =  119.759227781694 
# Reduced chi-sqr  =  0.996
# Prob(Noise)      <  0.516   (~0.0 sigma)
# P_topo (ms)      =  714.522916572977  +/- 0.000127
# P'_topo (s/s)    =  -0                +/- 6.7e-11
# P''_topo (s/s^2) =  0                 +/- 2.96e-14
# P_bary (ms)      =  N/A
# P'_bary (s/s)    =  N/A
# P''_bary (s/s^2) =  N/A
# P_orb (s)        =  N/A
# asin(i)/c (s)    =  N/A
# eccentricity     =  N/A
# w (rad)          =  N/A
# T_peri           =  N/A
######################################################
   0  1567.619
   1  1599.856
   2  1434.594
   3  1310.108
   4  1278.925
   5  1231.824
   6  1156.97
   7  1184.242
   8  1260.39
   9  1320.441
  10  1178.507
  11  1288.09
  12  1276.203
  13  1171.314
  14  1192.161
  15  1175.692
  16  1119.85
  17  1109.1
  18  1175.492
  19  1122.838
  20  1108.338
  21  1099.962
  22  1141.855
  23  1158.093
  24  1106.703
  25  1128.331
  26  1032.877
  27  1109.759
  28  1153.67
  29  1192.269
  30  1151.912
  31  1075.527
  32  1175.172
  33  1149.244
  34  1097.317
  35  1055.651
  36  1239.341
  37  1295.91
  38  1176.619
  39  1072.644
  40  1114.589
  41  1253.408
  42  1278.43
  43  1250.185
  44  1182.25
  45  1211.377
  46  1209.669
  47  1308.906
  48  1192.185
  49  1172.137
  50  1126.64
  51  1083.845
  52  1086.421
  53  1056.756
  54  1164.805
  55  1187.323
  56  1154.283
  57  1073.672
  58  1146.675
  59  1168.859
  60  1165.759
  61  1144.013
  62  1205.053
  63  1125.548
  64  1242.691
  65  1305.51
  66  1221.96
  67  1098.665
  68  1017.323
  69  1013.149
  70  1084.383
  71  1113.544
  72  1217.872
  73  1163.771
  74  1293.312
  75  1186.718
  76  1098.941
  77  1011.655
  78  1103.15
  79  1285.506
  80  1353.013
  81  1310.332
  82  1106.836
  83  1170.695
  84  1297.489
  85  1199.759
  86  1144.55
  87  1227.523
  88  1176.481
  89  1062.368
  90  1126.623
  91  1096.085
  92  1053.519
  93  1127.388
  94  1138.119
  95  1162.817
  96  1139.998
  97  1150.891
  98  1186.124
  99  1218.062
 100  1237.099
 101  1155.647
 102  1205.765
 103  1163.78
 104  1114.959
 105  1151.221
 106  1192.663
 107  1199.625
 108  1185.088
 109  1166.402
 110  1059.591
 111  1142.076
 112  1135.68
 113  1281.623
 114  1254.078
 115  1335.143
 116  1236.122
 117  1244.806
 118  1270.588
 119  1182.734
 120  1085.507
 121  1129.805
 122  1190.959
 123  1139.861
 124  1124.1
 125  1274.108
 126  1167.444
 127  1093.434
 128  1177.446
 129  1200.87
 130  1044.459
 131  1116.971
 132  1161.212
 133  1190.11
 134  1227.379
 135  1247.511
 136  1286.845
 137  1278.389
 138  1266.033
 139  1184.751
 140  1157.149
 141  1130.842
 142  1109.853
 143  1217.314
 144  1196.723
 145  1189.645
 146  1279.921
 147  1237.115
 148  1038.749
 149  964.91
 150  1161.006
 151  1310.527
 152  1218.042
 153  1145.385
 154  1143.928
 155  1083.799
 156  1258.982
 157  1282.651
 158  1220.83
 159  1231.303
 160  1377.952
 161  1285.936
 162  1084.76
 163  1100.881
 164  1191.3
 165  1229.249
 166  1275.907
 167  1169.504
 168  1174.523
 169  1135.958
 170  1197.538
 171  1170.206
 172  1247.475
 173  1287.002
 174  1291.079
 175  1222.065
 176  1192.975
 177  1264.621
 178  1198.348
 179  1274.384
 180  1120.06
 181  1140.842
 182  1149.384
 183  1094.531
 184  1291.631
 185  1191.649
 186  1223.385
 187  1084.867
 188  1199.037
 189  1173.438
 190  1124.708
 191  1110.626
 192  1067.013
 193  1057.164
 194  1059.747
 195  1083.625
 196  1117.617
 197  1193.765
 198  1213.447
 199  1224.946
 200  1239.278
 201  1204.481
 202  1212.651
 203  1181.788
 204  1130.077
 205  1106.206
 206  1268.399
 207  1181.823
 208  1228.086
 209  1185.626
 210  1112.055
 211  1228.582
 212  1182.85
 213  1209.895
 214  1183.51
 215  1155.169
 216  1206.084
 217  1165.678
 218  1222.1
 219  1159.762
 220  1102.717
 221  1094.916
 222  1160.93
 223  1134.15
 224  1178.985
 225  1020.56
 226  1076.328
 227  1143.422
 228  1135.885
 229  1096.114
 230  1127.874
 231  1085.789
 232  1069.254
 233  1110.554
 234  1134.039
 235  1123.993
 236  1158.482
 237  1110.383
 238  1290.433
 239  1230.466
 240  1061.468
 241  950.4639
 242  1085.715
 243  1151.147
 244  1074.824
 245  1083.958
 246  1143.3
 247  1187.08
 248  1186.657
 249  1179.914
 250  1215.049
 251  1237.758
 252  1248.74
 253  1162.895
 254  1177.637
 255  1236.834
 256  1243.062
 257  1151.443
 258  1073.717
 259  1096.421
 260  1048.956
 261  1190.889
 262  1158.521
 263  1079.658
 264  1118.926
 265  1273.401
 266  1163.824
 267  1162.04
 268  1254.287
 269  1204.036
 270  1186.13
 271  1141.295
 272  1095.988
 273  1183.808
 274  1234.288
 275  1246.55
 276  1262.904
 277  1121.681
 278  1019.897
 279  1093.559
 280  1040.024
 281  1043.764
 282  1161.265
 283  1266.317
 284  1135.346
 285  1322.735
 286  1224.18
 287  1134.501
 288  1074.156
 289  1188.091
 290  1248.432
 291  1251.109
 292  1262.637
 293  1240.043
 294  1208.741
 295  1182.069
 296  1134.448
 297  1140.78
 298  1160.515
 299  1207.849
 300  1271.229
 301  1336.37
 302  1227.898
 303  1152.74
 304  1218.969
 305  1166.087
 306  1253.204
 307  1262.411
 308  1249.399
 309  1132.796
 310  1200.883
 311  1208.847
 312  1169.832
 313  1107.755
 314  1144.215
 315  1268.769
 316  1051.77
 317  933.8698
 318  1083.189
 319  1150.496
 320  1190.028
 321  1053.614
 322  1074.084
 323  1229.186
 324  1249.961
 325  1145.603
 326  1106.724
 327  1165.422
 328  1150.607
 329  1162.537
 330  1182.467
 331  1144.92
 332  1090.245
 333  1139.69
 334  1134.124
 335  1131.228
 336  1161.877
 337  1127.748
 338  1007.145
 339  1133.83
 340  1148.982
 341  1044.383
 342  1023.059
 343  1172.566
 344  1207.627
 345  1186.442
 346  1139.145
 347  1100.67
 348  1069.455
 349  1020.948
 350  1152.35
 351  1271.006
 352  1217.609
 353  1207.064
 354  1191.172
 355  1072.61
 356  1099.063
 357  1153.45
 358  1210.013
 359  1145.194
 360  1051.825
 361  1016.937
 362  1117.516
 363  1164.533
 364  1063.268
 365  1057.885
 366  1183.481
 367  1162.308
 368  1082.875
 369  1084.43
 370  1081.678
 371  1137.087
 372  1087.784
 373  1077.336
 374  1112.163
 375  1017.876
 376  1107.505
 377  1084.546
 378  1121.087
 379  1042.033
 380  1065.505
 381  1102.537
 382  1193.678
 383  1193.934
 384  1082.128
 385  1110.111
 386  1191.541
 387  1210.182
 388  1141.942
 389  1089.099
 390  1078.282
 391  1094.351
 392  1067.272
 393  987.6957
 394  1002.333
 395  1042.509
 396  974.0961
 397  977.4911
 398  1004.201
 399  947.4875
 400  1013.88
 401  1087.898
 402  1154.912
 403  1089.79
 404  1080.761
 405  1006.428
 406  1023.049
 407  1076.262
 408  1198.148
 409  1129.722
 410  1045.393
 411  1051.825
 412  1079.909
 413  1133.831
 414  1017.138
 415  1044.062
 416  1180.595
 417  1003.847
 418  1031.577
 419  1113.811
 420  1197.503
 421  1181.561
 422  1159.386
 423  1194.59
 424  1181.72
 425  1079.085
 426  1144.149
 427  1025.116
 428  1088.18
 429  1039.658
 430  1032.282
 431  1075.292
 432  1124.192
 433  1090.072
 434  1076.314
 435  996.1029
 436  952.6308
 437  1038.627
 438  1110.881
 439  1231.252
 440  1245.824
 441  1193.086
 442  1168.467
 443  1164.1
 444  1183.765
 445  1145.373
 446  1204.96
 447  1177.236
 448  1145.692
 449  1069.135
 450  1081.426
 451  1118.374
 452  1099.76
 453  1077.613
 454  1132.217
 455  1039.791
 456  1032.992
 457  1124.854
 458  1199.92
 459  1124.566
 460  1136.891
 461  1171.168
 462  1167.412
 463  1058.719
 464  1095.841
 465  1039.118
 466  1012.589
 467  1183.579
 468  1210.131
 469  1034.367
 470  963.0593
 471  1116.169
 472  1122.97
 473  1123.685
 474  1040.172
 475  1014.206
 476  1186.455
 477  1114.529
 478  1161.291
 479  1216.532
 480  1212.309
 481  1174.526
 482  1252.973
 483  1236.417
 484  1098.378
 485  1150.448
 486  1146.062
 487  1178.319
 488  1076.4
 489  1190.505
 490  1298.41
 491  1232.726
 492  1162.188
 493  1164.359
 494  1245.935
 495  1204.168
 496  1191.571
 497  1176.181
 498  1156.317
 499  1104.92
 500  1278.351
 501  1238.521
 502  1088.119
 503  1086.749
 504  1118.243
 505  1160.285
 506  1133.784
 507  1141.424
 508  1352.113
 509  1391.363
 510  1509.496
 511  1565.948
