# Input file       =  1195659868.110136_cleaned.dat
# Candidate        =  PSR_0332+5434
# Telescope        =  AR
# Epoch_topo       =  58082.656100811757
# Epoch_bary       =  N/A
# T_sample         =  0.002
# Data Folded      =  7143424
# Data Avg         =  0.0511174887175249
# Data StdDev      =  1.00035802261466 
# Profile Bins     =  512
# Profile Avg      =  713.181316330461 
# Profile StdDev   =  118.160873606323 
# Reduced chi-sqr  =  0.809
# Prob(Noise)      <  0.999   (~0.0 sigma)
# P_topo (ms)      =  714.520132758135  +/- 2.43e-05
# P'_topo (s/s)    =  -0                +/- 1.32e-11
# P''_topo (s/s^2) =  0                 +/- 5.97e-15
# P_bary (ms)      =  N/A
# P'_bary (s/s)    =  N/A
# P''_bary (s/s^2) =  N/A
# P_orb (s)        =  N/A
# asin(i)/c (s)    =  N/A
# eccentricity     =  N/A
# w (rad)          =  N/A
# T_peri           =  N/A
######################################################
   0  1032.646
   1  857.8809
   2  837.7164
   3  839.7112
   4  816.6186
   5  734.4984
   6  791.3455
   7  742.2943
   8  753.6107
   9  794.925
  10  864.4586
  11  771.5975
  12  683.7222
  13  749.9411
  14  727.4566
  15  630.2977
  16  675.4403
  17  780.3978
  18  828.0787
  19  770.0636
  20  707.6462
  21  696.5941
  22  663.3333
  23  681.0875
  24  723.9221
  25  722.5353
  26  657.1663
  27  631.4998
  28  711.0593
  29  663.7289
  30  634.8298
  31  667.0517
  32  702.0532
  33  634.0436
  34  641.4437
  35  776.1169
  36  721.1063
  37  720.42
  38  717.8738
  39  783.8397
  40  689.9683
  41  691.6316
  42  697.7454
  43  751.8332
  44  679.4086
  45  563.7837
  46  707.5508
  47  767.2109
  48  742.8502
  49  787.9865
  50  779.6676
  51  836.7559
  52  756.9103
  53  766.7669
  54  693.6608
  55  546.1985
  56  599.1428
  57  705.601
  58  670.8739
  59  656.8787
  60  793.5871
  61  741.9003
  62  677.7143
  63  746.5632
  64  773.8526
  65  728.9593
  66  667.1254
  67  628.8455
  68  653.8751
  69  684.9942
  70  680.2719
  71  764.8928
  72  811.6188
  73  696.0505
  74  677.2255
  75  776.3585
  76  742.394
  77  693.5227
  78  801.8089
  79  819.0003
  80  773.5997
  81  693.6567
  82  712.7764
  83  618.4972
  84  640.0272
  85  721.8692
  86  731.5151
  87  593.6215
  88  677.5538
  89  770.1575
  90  707.6915
  91  658.2241
  92  775.4382
  93  858.7376
  94  875.7361
  95  679.5798
  96  730.3074
  97  718.3975
  98  558.3521
  99  652.3159
 100  686.618
 101  647.7245
 102  648.6523
 103  722.4577
 104  722.4792
 105  599.2576
 106  624.5466
 107  765.4083
 108  799.2371
 109  797.2699
 110  894.7066
 111  814.3998
 112  696.9061
 113  617.5634
 114  700.2548
 115  823.2869
 116  788.4418
 117  836.0374
 118  845.142
 119  679.5959
 120  606.5972
 121  746.467
 122  766.6224
 123  760.3154
 124  707.2398
 125  800.9532
 126  763.5044
 127  646.9818
 128  665.9384
 129  648.8101
 130  572.6989
 131  617.4965
 132  786.9428
 133  746.0983
 134  763.9034
 135  734.91
 136  714.2475
 137  651.2021
 138  682.2878
 139  744.6601
 140  681.2731
 141  690.003
 142  681.1662
 143  755.6096
 144  727.1667
 145  630.608
 146  694.408
 147  694.3586
 148  599.0588
 149  615.3908
 150  648.0397
 151  605.6204
 152  623.2449
 153  669.8687
 154  803.0787
 155  782.3434
 156  769.4818
 157  806.8047
 158  763.8607
 159  701.0926
 160  691.8607
 161  756.1649
 162  771.9309
 163  743.2868
 164  864.0419
 165  802.3677
 166  698.2645
 167  819.7471
 168  896.8016
 169  766.7994
 170  602.0201
 171  670.3752
 172  672.179
 173  630.1003
 174  670.6244
 175  752.485
 176  595.0753
 177  603.0277
 178  607.496
 179  676.939
 180  841.3144
 181  777.7529
 182  794.9972
 183  695.821
 184  584.2021
 185  600.7182
 186  729.3243
 187  584.2131
 188  542.7533
 189  806.8214
 190  861.5613
 191  692.7778
 192  658.374
 193  648.0776
 194  630.4671
 195  728.5072
 196  814.8768
 197  746.2255
 198  657.5836
 199  625.3538
 200  666.9985
 201  571.8151
 202  517.2631
 203  566.944
 204  633.4905
 205  614.254
 206  520.7436
 207  636.3618
 208  821.5715
 209  851.9211
 210  754.049
 211  726.9073
 212  671.6708
 213  692.7914
 214  742.5168
 215  754.1425
 216  676.2618
 217  783.5076
 218  787.4743
 219  751.9634
 220  681.5645
 221  692.8032
 222  709.9536
 223  651.5688
 224  696.1553
 225  726.1318
 226  666.9354
 227  556.1102
 228  599.3807
 229  643.8267
 230  646.5153
 231  630.8803
 232  617.3845
 233  603.1435
 234  518.6699
 235  627.1006
 236  714.2313
 237  733.3766
 238  763.5426
 239  853.0759
 240  836.6287
 241  695.312
 242  633.7288
 243  674.8297
 244  651.5272
 245  647.4572
 246  756.9639
 247  728.7247
 248  682.7131
 249  694.85
 250  756.5101
 251  732.027
 252  619.4048
 253  726.355
 254  815.5098
 255  740.0492
 256  616.2257
 257  598.6634
 258  614.5317
 259  587.0905
 260  682.9011
 261  747.6209
 262  690.1899
 263  622.5312
 264  702.2012
 265  665.2453
 266  565.0792
 267  671.9261
 268  796.0681
 269  708.9135
 270  672.5175
 271  693.2187
 272  678.7359
 273  718.0875
 274  747.5215
 275  797.6855
 276  710.3737
 277  669.069
 278  637.3497
 279  747.6762
 280  740.9717
 281  841.8321
 282  981.9398
 283  844.9854
 284  647.6795
 285  706.4092
 286  833.7365
 287  766.7787
 288  687.8259
 289  669.5646
 290  712.3618
 291  651.7643
 292  675.2
 293  722.1757
 294  761.1968
 295  762.3129
 296  842.0745
 297  851.8832
 298  697.7661
 299  733.6041
 300  847.887
 301  745.7069
 302  628.3178
 303  643.3403
 304  734.9525
 305  659.4894
 306  656.5542
 307  736.7879
 308  755.1398
 309  713.8532
 310  728.4407
 311  685.4918
 312  637.8464
 313  582.4666
 314  669.6486
 315  772.3026
 316  719.2414
 317  682.019
 318  810.246
 319  803.0445
 320  660.4232
 321  705.4872
 322  690.8107
 323  680.9349
 324  598.9578
 325  684.3453
 326  636.6031
 327  571.4145
 328  623.0425
 329  661.4226
 330  630.7992
 331  646.3538
 332  742.1339
 333  745.0927
 334  671.7119
 335  683.9962
 336  766.11
 337  730.2158
 338  753.973
 339  756.3979
 340  758.312
 341  644.78
 342  592.5032
 343  677.6371
 344  630.3454
 345  607.0872
 346  595.3557
 347  666.4128
 348  723.8195
 349  652.3515
 350  686.7485
 351  732.6537
 352  713.6393
 353  646.5967
 354  806.5829
 355  801.4464
 356  716.31
 357  712.327
 358  719.0944
 359  644.3895
 360  672.0579
 361  793.9354
 362  735.7988
 363  579.1136
 364  671.0544
 365  826.7327
 366  735.9649
 367  668.7045
 368  730.8563
 369  751.3441
 370  625.2692
 371  659.4987
 372  702.4438
 373  747.776
 374  755.059
 375  687.3181
 376  655.4415
 377  601.8966
 378  700.4331
 379  714.5148
 380  763.022
 381  759.3504
 382  747.0439
 383  743.479
 384  632.7685
 385  646.6754
 386  727.0457
 387  767.7285
 388  715.6358
 389  825.2003
 390  884.2056
 391  770.203
 392  765.6633
 393  748.4382
 394  811.6463
 395  787.1677
 396  810.3727
 397  921.9441
 398  871.0781
 399  782.4587
 400  801.791
 401  837.6034
 402  639.3934
 403  610.269
 404  628.5937
 405  600.1313
 406  615.933
 407  645.4311
 408  714.3295
 409  651.9744
 410  688.3399
 411  738.2248
 412  743.8979
 413  641.7325
 414  710.2989
 415  733.0222
 416  706.2451
 417  714.4987
 418  739.1648
 419  713.6598
 420  663.8616
 421  634.7427
 422  764.607
 423  667.2523
 424  675.3632
 425  741.1361
 426  769.9177
 427  685.4333
 428  687.9258
 429  834.1652
 430  705.7283
 431  721.1458
 432  827.4349
 433  846.6504
 434  702.5215
 435  690.4626
 436  800.1921
 437  812.9159
 438  654.0341
 439  662.7016
 440  697.9858
 441  631.6123
 442  564.2721
 443  682.1798
 444  732.5995
 445  657.9503
 446  739.5346
 447  778.2942
 448  762.6007
 449  755.6233
 450  846.8547
 451  850.5953
 452  729.8588
 453  709.4171
 454  751.5081
 455  705.2316
 456  556.0591
 457  704.73
 458  746.2076
 459  727.2885
 460  707.293
 461  794.9516
 462  775.0656
 463  774.0386
 464  778.7703
 465  868.8909
 466  729.6365
 467  669.3757
 468  714.6715
 469  694.0132
 470  621.5857
 471  547.8029
 472  699.3782
 473  719.8895
 474  681.3923
 475  723.4725
 476  751.5034
 477  727.6345
 478  688.6906
 479  747.2324
 480  711.5085
 481  679.635
 482  702.3151
 483  780.9349
 484  681.1641
 485  645.5997
 486  741.7903
 487  769.3002
 488  743.6089
 489  663.3357
 490  689.7216
 491  639.3734
 492  633.5469
 493  600.9372
 494  653.7797
 495  645.7781
 496  725.2818
 497  873.027
 498  806.1458
 499  682.111
 500  663.4535
 501  736.5141
 502  654.1792
 503  667.0655
 504  753.4804
 505  802.8821
 506  744.3649
 507  783.5852
 508  840.6951
 509  858.5707
 510  952.1511
 511  1001.021
