# Input file       =  1195502192.101845_cleaned.dat
# Candidate        =  PSR_0332+5434
# Telescope        =  AR
# Epoch_topo       =  58080.831147012097
# Epoch_bary       =  N/A
# T_sample         =  0.002
# Data Folded      =  7340032
# Data Avg         =  0.29390138376974 
# Data StdDev      =  4.9719115818058  
# Profile Bins     =  1024
# Profile Avg      =  2106.06076793097 
# Profile StdDev   =  420.942130753918 
# Reduced chi-sqr  =  0.534
# Prob(Noise)      <  1   (~0.0 sigma)
# P_topo (ms)      =  714.51826556142   +/- 0.000741
# P'_topo (s/s)    =  -0                +/- 3.91e-10
# P''_topo (s/s^2) =  0                 +/- 1.73e-13
# P_bary (ms)      =  N/A
# P'_bary (s/s)    =  N/A
# P''_bary (s/s^2) =  N/A
# P_orb (s)        =  N/A
# asin(i)/c (s)    =  N/A
# eccentricity     =  N/A
# w (rad)          =  N/A
# T_peri           =  N/A
######################################################
   0  2227.302
   1  2266.273
   2  2306.638
   3  2259.208
   4  2215.926
   5  2109.996
   6  1983.222
   7  2097.886
   8  2313.104
   9  2479.17
  10  2370.87
  11  2209.428
  12  2032.094
  13  2031.759
  14  2120.569
  15  2163.399
  16  2265.943
  17  2380.538
  18  2401.011
  19  2279.655
  20  2100.601
  21  2145.627
  22  2167.731
  23  2167.228
  24  2181.956
  25  2204.452
  26  2173.887
  27  2093.042
  28  2018.636
  29  2022.838
  30  2091.085
  31  2135.175
  32  2104.217
  33  2072.705
  34  2011.834
  35  2088.904
  36  2239.589
  37  2292.135
  38  2106.229
  39  1941.882
  40  2043.854
  41  2186.324
  42  2188.74
  43  2244.968
  44  2265.563
  45  2260.549
  46  2196.232
  47  2129.847
  48  2204.098
  49  2111.11
  50  2080.672
  51  2244.349
  52  2277.956
  53  2210.656
  54  2121.08
  55  2103.569
  56  2153.175
  57  2153.141
  58  2189.543
  59  2122.867
  60  2081.833
  61  2162.925
  62  2215.38
  63  2207.018
  64  2245.005
  65  2112.21
  66  2107.586
  67  2135.392
  68  2090.292
  69  2150.565
  70  1995.873
  71  2066.384
  72  2099.169
  73  2092.399
  74  2057.191
  75  2072.89
  76  2208.903
  77  2284.949
  78  2365.622
  79  2411.611
  80  2406.049
  81  2330.94
  82  2193.876
  83  2317.238
  84  2285.257
  85  2257.092
  86  2166.513
  87  2173.794
  88  2137.114
  89  2137.602
  90  2206.848
  91  2446.399
  92  2590.715
  93  2658.513
  94  2536.573
  95  2360.292
  96  2278.564
  97  2249.193
  98  2213.241
  99  2309.601
 100  2279.488
 101  2278.995
 102  2125.187
 103  2216.817
 104  2349.387
 105  2258.701
 106  2099.797
 107  2066.681
 108  2145.529
 109  2137.187
 110  2214.39
 111  2252.247
 112  2326.407
 113  2318.315
 114  2275.094
 115  2110.17
 116  2009.514
 117  2079.677
 118  2171.321
 119  2227.461
 120  2277.301
 121  2278.661
 122  2248.539
 123  2063.057
 124  1985.298
 125  1960.339
 126  2025.063
 127  2162.603
 128  2194.044
 129  2235.202
 130  2143.909
 131  2255.466
 132  2168.056
 133  2064.889
 134  1949.66
 135  1919.484
 136  1881.326
 137  1898.666
 138  1900.429
 139  2025.214
 140  2145.101
 141  2130.618
 142  2188.632
 143  2084.859
 144  1915.274
 145  1873.226
 146  1956.333
 147  2094.696
 148  1999.523
 149  1864.996
 150  1878.083
 151  1928.491
 152  1896.233
 153  1904.583
 154  1839.496
 155  1921.47
 156  1961.679
 157  2022.716
 158  2082.549
 159  2092.612
 160  1963.799
 161  2058.415
 162  2126.689
 163  2104.189
 164  1903.572
 165  1856.729
 166  1861.596
 167  1836.887
 168  1823.319
 169  2040.152
 170  2126.928
 171  2109.542
 172  2148.527
 173  2104.8
 174  2005.124
 175  1849.248
 176  1915.321
 177  1996.495
 178  2068.605
 179  2169.978
 180  2217.97
 181  2272.155
 182  2289.936
 183  2297.144
 184  2284.15
 185  2313.516
 186  2338.848
 187  2389.98
 188  2301.559
 189  2305.218
 190  2140.658
 191  2187.984
 192  2150.295
 193  2062.476
 194  2030.711
 195  2030.922
 196  2075.856
 197  2293.006
 198  2241.592
 199  2260.26
 200  2137.748
 201  2133.697
 202  2192.043
 203  1998.357
 204  2046.888
 205  2072.491
 206  2133.743
 207  2193.639
 208  2202.841
 209  2177.81
 210  2123.675
 211  2136.003
 212  2163.867
 213  2139.491
 214  2028.171
 215  2162.141
 216  2168.793
 217  2215.669
 218  2211.566
 219  2127.823
 220  2241.792
 221  2163.604
 222  2252.792
 223  2079.303
 224  1993.462
 225  2020.115
 226  2185.193
 227  2259.077
 228  2196.906
 229  2124.292
 230  2123.183
 231  2208.761
 232  2121.682
 233  2039.108
 234  2077.186
 235  2223.441
 236  2328.624
 237  2258.75
 238  2245.838
 239  2219.969
 240  2210.372
 241  2194.198
 242  2280.901
 243  2185.182
 244  2209.737
 245  2159.507
 246  2245.109
 247  2201.633
 248  2113.323
 249  2078.017
 250  2166.279
 251  2244.422
 252  2251.852
 253  2167.127
 254  2180.469
 255  2301.179
 256  2296.727
 257  2368.479
 258  2293.778
 259  2171.402
 260  2092.882
 261  2116.927
 262  2159.519
 263  2070.958
 264  2139.605
 265  2159.141
 266  2017.056
 267  1995.967
 268  2119.909
 269  2226.256
 270  2276.292
 271  2243.013
 272  2364.422
 273  2322.534
 274  2255.344
 275  2270.031
 276  2132.554
 277  2061.692
 278  2102.594
 279  2191.008
 280  2244.939
 281  2185.587
 282  2199.976
 283  2400.161
 284  2353.748
 285  2436.507
 286  2308.695
 287  2291.315
 288  2277.622
 289  2070.67
 290  2000.507
 291  1969.068
 292  2123.925
 293  2258.738
 294  2319.447
 295  2176.564
 296  2051.707
 297  1941.89
 298  2065.807
 299  2143.593
 300  2208.272
 301  2098.842
 302  2017.807
 303  1998.299
 304  2057.384
 305  2057.814
 306  2095.331
 307  2270.771
 308  2260.283
 309  2285.178
 310  2109.958
 311  2088.046
 312  2143.345
 313  2147.048
 314  2247.088
 315  2101.801
 316  2066.391
 317  1943.944
 318  1946.965
 319  1925.854
 320  1994.334
 321  2020.197
 322  2174.503
 323  2063.778
 324  2025.29
 325  2174.404
 326  2173.714
 327  2169.508
 328  2088.264
 329  2116.961
 330  2104.406
 331  2107.793
 332  2111.813
 333  2128.578
 334  2075.413
 335  2132.265
 336  2124.219
 337  2156.186
 338  2032.797
 339  1945.191
 340  1895.819
 341  1911.235
 342  1937.207
 343  2076.306
 344  2021.768
 345  2064.685
 346  1997.645
 347  2003.561
 348  1965.625
 349  2020.664
 350  2112.859
 351  2190.094
 352  2154.073
 353  2289.651
 354  2186.142
 355  2138.274
 356  2073.013
 357  2177.727
 358  2105.946
 359  2060.595
 360  2017.385
 361  2153.411
 362  2113.46
 363  2165.973
 364  2256.036
 365  2348.39
 366  2295.505
 367  2158.51
 368  2284.704
 369  2345.286
 370  2421.754
 371  2404.676
 372  2340.39
 373  2172.746
 374  2093.173
 375  2151.844
 376  2244.846
 377  2326.456
 378  2240.614
 379  2210.26
 380  2220.302
 381  2275.676
 382  2231.984
 383  2184.783
 384  2171.886
 385  2197.524
 386  2248.368
 387  2276.964
 388  2250.493
 389  2241.873
 390  2397.187
 391  2349.341
 392  2257.186
 393  2087.273
 394  2049.073
 395  1938.427
 396  1821.351
 397  1805.54
 398  1759.387
 399  1723.611
 400  1792.573
 401  1833.365
 402  1735.5
 403  1617.158
 404  1740.981
 405  1797.744
 406  1875.785
 407  1879.932
 408  1921.68
 409  1933.22
 410  1760.987
 411  1735.355
 412  1595.798
 413  1807.951
 414  1894.744
 415  1993.473
 416  1987.917
 417  2013.869
 418  1961.057
 419  1967.232
 420  1965.38
 421  1976.047
 422  2059.709
 423  2042.949
 424  1881.845
 425  1769.499
 426  1857.346
 427  2017.988
 428  1945.658
 429  1916.856
 430  2004.216
 431  2138.449
 432  2098.396
 433  2113.115
 434  2088.327
 435  2071.209
 436  1935.503
 437  2008.651
 438  1956.83
 439  2003.798
 440  1956.169
 441  1977.632
 442  1979.176
 443  1886.725
 444  1931.433
 445  1922.971
 446  1974.333
 447  2101.242
 448  2134.395
 449  2189.483
 450  2111.202
 451  2260.093
 452  2221.029
 453  1998.964
 454  1842.237
 455  1947.025
 456  1958.706
 457  2030.28
 458  2114.396
 459  2026.286
 460  1948.297
 461  1843.569
 462  1945.065
 463  1941.253
 464  1925.432
 465  1901.821
 466  1855.186
 467  1802.29
 468  1883.078
 469  1931.818
 470  1989.85
 471  1949.582
 472  2114.232
 473  2232.812
 474  2171.169
 475  2115.444
 476  2250.893
 477  2206.477
 478  2252.719
 479  2215.574
 480  2337.689
 481  2324.914
 482  2279.361
 483  2370.746
 484  2383.554
 485  2360.934
 486  2276.887
 487  2265.707
 488  2288.014
 489  2300.196
 490  2310.703
 491  2345.512
 492  2378.784
 493  2405.681
 494  2552.841
 495  2550.359
 496  2433.306
 497  2359.837
 498  2212.564
 499  2264.488
 500  2105.314
 501  1990.115
 502  2004.495
 503  2087.474
 504  2112.484
 505  2188.117
 506  2071.992
 507  2198.606
 508  2129.562
 509  2303.579
 510  2299.788
 511  2217.765
 512  2127.455
 513  2201.852
 514  2410.544
 515  2328.842
 516  2312.686
 517  2160.459
 518  2210.551
 519  2135.201
 520  2217.966
 521  2270.576
 522  2339.559
 523  2381.047
 524  2345.322
 525  2363.848
 526  2230.825
 527  2275.424
 528  2247.415
 529  2309.63
 530  2223.292
 531  2026.358
 532  1910.707
 533  1850.219
 534  1886.871
 535  1936.901
 536  2026.193
 537  2039.869
 538  2027.369
 539  1985.681
 540  2005.015
 541  1917.291
 542  1913.872
 543  2030.49
 544  2129.507
 545  2045.469
 546  1976.709
 547  2000.81
 548  2211.958
 549  2350.531
 550  2440.416
 551  2405.834
 552  2423.531
 553  2370.779
 554  2365.195
 555  2333.013
 556  2343.087
 557  2236.996
 558  2171.597
 559  2151.896
 560  2083.324
 561  1926.743
 562  1964.475
 563  2043.86
 564  2241.735
 565  2263.03
 566  2225.649
 567  2153.715
 568  2037.539
 569  2021.537
 570  1841.724
 571  1815.254
 572  1965.316
 573  2104.47
 574  2101.281
 575  2030.712
 576  1873.192
 577  1945.76
 578  1881.712
 579  2029.129
 580  2047.243
 581  2190.653
 582  1991.32
 583  1947.822
 584  1889.856
 585  1951.864
 586  1897.391
 587  1904.132
 588  2021.109
 589  2078.757
 590  2027.98
 591  2038.968
 592  2001.777
 593  2070.233
 594  2092.229
 595  2142.79
 596  2005.876
 597  2009.103
 598  2043.053
 599  2027.744
 600  1994.255
 601  2041.715
 602  2044.422
 603  2159.316
 604  2118.163
 605  2077.702
 606  2039.759
 607  1930.369
 608  1894.261
 609  1796.988
 610  1781.297
 611  1857.102
 612  2006.972
 613  2047.173
 614  2046.866
 615  1925.232
 616  1977.056
 617  1975.538
 618  2020.97
 619  2183.449
 620  2327.907
 621  2421.644
 622  2309.58
 623  2299.358
 624  2446.642
 625  2595.658
 626  2781.948
 627  2895.595
 628  2937.678
 629  2882.067
 630  2700.74
 631  2473.182
 632  2378.522
 633  2437.055
 634  2336.551
 635  2263.014
 636  2090.451
 637  2041.901
 638  2023.035
 639  2042.876
 640  2125.249
 641  2125.178
 642  2229.105
 643  2165.707
 644  2181.674
 645  1989.508
 646  1914.972
 647  1865.544
 648  1936.64
 649  1970.808
 650  2024.312
 651  2129.528
 652  2088.476
 653  2130.622
 654  2017.87
 655  2159.527
 656  2158.947
 657  2165.676
 658  2170.552
 659  2195.988
 660  2216.43
 661  2154.289
 662  1986.764
 663  2106.465
 664  2090.958
 665  2091.95
 666  2044.142
 667  1929.234
 668  1993.505
 669  1965.942
 670  2019.782
 671  1956.966
 672  2023.955
 673  2080.911
 674  2119.372
 675  2126.42
 676  2219.419
 677  2287.167
 678  2159.235
 679  2106.166
 680  2118.201
 681  2094.629
 682  2087.073
 683  2108.529
 684  2151.856
 685  2161.725
 686  2142.884
 687  2246.405
 688  2225.484
 689  2158.098
 690  1936.449
 691  1903.428
 692  1851.135
 693  1968.722
 694  1953.366
 695  1926.874
 696  1841.528
 697  1896.501
 698  2005.798
 699  1993.238
 700  1976.184
 701  2090.667
 702  2150.543
 703  2097.255
 704  1956.555
 705  1964.223
 706  1909.938
 707  1944.151
 708  2152.616
 709  2286.168
 710  2335.131
 711  2095.253
 712  2067.705
 713  2030.385
 714  2071.128
 715  1994.779
 716  2077.665
 717  2157.317
 718  2238.348
 719  2225.932
 720  2218.657
 721  2122.567
 722  2089.01
 723  2103.352
 724  2104.252
 725  1991.819
 726  2101.841
 727  2087.894
 728  2121.372
 729  2004.725
 730  2054.617
 731  2078.47
 732  1862.051
 733  1958.209
 734  2102.017
 735  2163.507
 736  2175.962
 737  2078.793
 738  2191.966
 739  2171.294
 740  2117.06
 741  2229.313
 742  2186.459
 743  2098.371
 744  2138.381
 745  2205.216
 746  2242.231
 747  2090.199
 748  2074.583
 749  2048.94
 750  2041.991
 751  2040.391
 752  2110.728
 753  2020.079
 754  1960.349
 755  1918.315
 756  1758.698
 757  1701.169
 758  1657.728
 759  1848.705
 760  1795.09
 761  1900.747
 762  1907.149
 763  2054.438
 764  1921.557
 765  1880.177
 766  1924.134
 767  1973.23
 768  1930.041
 769  1923.431
 770  1834.598
 771  1775.257
 772  1777.417
 773  1784.436
 774  1724.856
 775  1776.984
 776  1817.178
 777  1891.148
 778  1818.325
 779  1810.218
 780  1795.883
 781  1889.235
 782  1862.942
 783  1847.641
 784  1795.065
 785  1961.995
 786  1986.266
 787  2001.211
 788  1852.675
 789  1793.2
 790  1830.159
 791  1880.824
 792  1892.013
 793  1869.579
 794  2003.432
 795  2053.786
 796  2027.786
 797  1948.5
 798  1875.271
 799  2022.628
 800  2023.411
 801  1981.007
 802  1870.265
 803  1804.738
 804  1869.044
 805  1828.804
 806  1887.667
 807  1890.135
 808  1779.206
 809  1835.844
 810  1769.118
 811  1709.855
 812  1647.049
 813  1520.376
 814  1619.844
 815  1700.859
 816  1977.453
 817  2047.118
 818  1959.091
 819  1783.573
 820  1711.17
 821  1784.823
 822  1918.117
 823  1943.972
 824  1899.784
 825  1914.458
 826  2041.495
 827  1999.723
 828  2000.322
 829  1886.819
 830  2001.301
 831  1965.886
 832  1795.185
 833  1630.877
 834  1576.958
 835  1766.904
 836  1909.39
 837  2164.702
 838  2112.854
 839  1930.918
 840  1745.917
 841  1866.973
 842  2039.145
 843  2154.957
 844  2271.292
 845  2198.637
 846  2242.386
 847  2171.175
 848  2225.093
 849  2227.473
 850  2236.952
 851  2269.306
 852  2248.974
 853  2178.414
 854  2177.314
 855  2153.201
 856  2075.667
 857  2132.346
 858  2278.479
 859  2416.896
 860  2282.938
 861  2178.367
 862  2151.778
 863  2116.234
 864  2039.684
 865  1915.676
 866  1869.046
 867  1927.222
 868  1929.012
 869  2056.007
 870  1956.353
 871  2069.961
 872  2115.475
 873  2156.219
 874  2192.928
 875  2112.188
 876  2134.04
 877  2043.071
 878  2128.122
 879  2088.363
 880  2019.854
 881  2039.086
 882  2148.987
 883  2201.743
 884  2131.016
 885  2145.206
 886  2158.02
 887  2121.004
 888  2144.9
 889  2197.241
 890  2296.319
 891  2232.135
 892  2072.502
 893  2014.702
 894  2124.968
 895  2376.73
 896  2419.209
 897  2424.188
 898  2265.186
 899  2242.336
 900  2333.044
 901  2369.865
 902  2346.522
 903  2228.863
 904  2172.282
 905  2190.99
 906  2217.07
 907  2201.841
 908  2206.132
 909  2194.129
 910  2121.764
 911  1949.084
 912  1927.163
 913  1985.229
 914  2046.392
 915  1989.682
 916  2203.887
 917  2259.31
 918  2246.735
 919  2149.952
 920  2034.546
 921  2007.547
 922  2058.752
 923  2087.4
 924  2202.131
 925  2084.182
 926  2133.13
 927  2105.33
 928  2129.13
 929  2057.23
 930  2111.163
 931  2142.762
 932  2166.44
 933  2100.505
 934  2047.853
 935  1946.959
 936  1999.279
 937  2160.219
 938  2261.722
 939  2224.578
 940  2161.807
 941  2032.697
 942  2006.752
 943  1983.821
 944  2114.175
 945  2115.092
 946  2081.202
 947  2030.984
 948  2033.661
 949  2160.565
 950  2238.818
 951  2409.354
 952  2440.271
 953  2328.367
 954  2127.969
 955  2177.185
 956  2208.024
 957  2308.2
 958  2210.812
 959  2160.557
 960  2263.591
 961  2248.22
 962  2253.878
 963  2108.739
 964  2102.828
 965  2096.958
 966  2173.461
 967  2065.962
 968  1918.487
 969  1926.439
 970  2154.353
 971  2356.341
 972  2318.346
 973  2197.161
 974  2256.109
 975  2308.214
 976  2374.204
 977  2327.565
 978  2367.547
 979  2266.281
 980  2109.133
 981  1977.793
 982  1921.852
 983  1902.672
 984  1903.196
 985  1964.865
 986  2113.987
 987  2158.461
 988  2156.384
 989  2168.033
 990  2055.6
 991  1942.672
 992  1976.299
 993  2043.102
 994  2198.573
 995  2211.047
 996  2107.622
 997  2007.213
 998  1950.976
 999  2111.615
1000  2184.58
1001  2147.399
1002  2176.614
1003  2244.162
1004  2230.663
1005  2106.816
1006  1889.074
1007  1919.953
1008  1962.289
1009  1985.835
1010  2055.228
1011  1996.875
1012  2023.472
1013  1990.24
1014  1919.62
1015  1989.32
1016  2198.673
1017  2370.504
1018  2424.777
1019  2382.043
1020  2358.174
1021  2435.36
1022  2343.361
1023  2284.941
