# Input file       =  1195344761.110509_cleaned.dat
# Candidate        =  PSR_0332+5434
# Telescope        =  AR
# Epoch_topo       =  58079.009029056819
# Epoch_bary       =  N/A
# T_sample         =  0.002
# Data Folded      =  7340032
# Data Avg         =  0.786865091468958
# Data StdDev      =  10.4482298115783 
# Profile Bins     =  1024
# Profile Avg      =  5640.38081310731 
# Profile StdDev   =  884.589367113196 
# Reduced chi-sqr  =  0.580
# Prob(Noise)      <  1   (~0.0 sigma)
# P_topo (ms)      =  714.516718407991  +/- 3.53e-05
# P'_topo (s/s)    =  -0                +/- 1.86e-11
# P''_topo (s/s^2) =  0                 +/- 8.22e-15
# P_bary (ms)      =  N/A
# P'_bary (s/s)    =  N/A
# P''_bary (s/s^2) =  N/A
# P_orb (s)        =  N/A
# asin(i)/c (s)    =  N/A
# eccentricity     =  N/A
# w (rad)          =  N/A
# T_peri           =  N/A
######################################################
   0  5121.397
   1  5359.271
   2  5989.343
   3  5997.05
   4  6269.312
   5  6258.042
   6  6543.515
   7  6150.033
   8  6089.168
   9  5957.747
  10  6104.784
  11  6062.525
  12  6114.828
  13  6098.184
  14  6247.599
  15  6032.107
  16  5876.812
  17  5710.521
  18  5480.817
  19  5676.315
  20  5789.341
  21  5697.52
  22  5430.8
  23  5426.293
  24  5585.982
  25  5792.48
  26  5638.548
  27  5692.338
  28  5574.773
  29  5811.135
  30  6124.72
  31  6032.619
  32  5824.69
  33  5953.092
  34  5840.727
  35  6011.505
  36  5654.201
  37  5929.85
  38  5854.855
  39  5837.858
  40  5556.488
  41  6213.097
  42  6155.495
  43  6369.654
  44  5912.689
  45  5868.818
  46  5728.532
  47  5573.006
  48  5542.424
  49  5736.834
  50  5566.449
  51  5659.081
  52  5538.173
  53  5806.489
  54  5841.298
  55  6094.318
  56  6032.017
  57  5916.619
  58  5750.663
  59  6048.585
  60  5892.541
  61  5675.086
  62  5915.241
  63  5813.698
  64  5618.762
  65  5216.708
  66  5494.985
  67  5679.986
  68  5750.485
  69  5843.105
  70  6100.624
  71  6127.841
  72  6012.759
  73  6113.784
  74  6031.348
  75  6065.026
  76  6014.213
  77  6284.23
  78  6139.819
  79  5692.861
  80  5496.694
  81  5588.985
  82  5760.883
  83  5401.773
  84  5719.685
  85  5415.938
  86  5448.708
  87  5321.949
  88  5678.058
  89  5505.485
  90  5596.162
  91  5751.402
  92  6162.192
  93  5610.016
  94  5247.598
  95  4934.223
  96  4928.406
  97  5235.027
  98  5714.842
  99  5714.183
 100  5362.08
 101  5001.795
 102  5249.397
 103  5447.845
 104  5355.272
 105  5381.632
 106  5625.924
 107  5793.074
 108  5923.043
 109  5872.282
 110  5880.256
 111  6098.319
 112  5623.513
 113  5435.89
 114  5195.703
 115  5559.597
 116  5855.865
 117  5847.797
 118  5820.061
 119  5856.628
 120  5849.179
 121  5750.726
 122  5560.958
 123  5683.898
 124  5700.828
 125  5466.974
 126  5405.406
 127  5890.944
 128  5664.196
 129  5582.017
 130  5332.269
 131  5429.214
 132  5244.204
 133  5084.893
 134  5196.213
 135  5451.716
 136  5583.885
 137  5889.055
 138  6048.709
 139  6032.42
 140  6060.714
 141  5997.717
 142  5762.133
 143  5434.322
 144  5455.482
 145  6034.534
 146  5992.739
 147  5757.093
 148  5879.672
 149  6003.772
 150  5789.649
 151  5568.377
 152  5417.476
 153  5536.884
 154  5445.276
 155  5678.669
 156  5777.468
 157  5476.163
 158  5451.03
 159  5516.162
 160  5592.67
 161  5327.299
 162  5373.965
 163  5305.457
 164  5426.284
 165  5515.737
 166  5652.569
 167  5329.118
 168  5312.131
 169  5365.637
 170  5836.669
 171  5638.206
 172  5821.107
 173  5861.393
 174  5982.919
 175  5625
 176  5927.996
 177  6072.054
 178  6022.566
 179  5109.191
 180  4839.564
 181  4393.414
 182  4363.212
 183  4329.877
 184  4823.105
 185  4842.638
 186  4856.631
 187  4914.203
 188  5388.919
 189  5763.649
 190  5464.297
 191  5455.232
 192  5425.678
 193  5156.922
 194  5171.576
 195  5190.807
 196  5235.254
 197  5213.011
 198  5200.427
 199  5505.416
 200  5408.308
 201  5495.744
 202  5981.779
 203  6109.643
 204  5814.533
 205  5907.085
 206  5844.59
 207  6057.873
 208  5672.679
 209  5926.279
 210  5777.253
 211  5542.153
 212  5572.163
 213  6053.408
 214  5786.292
 215  5607.026
 216  5736
 217  6140.273
 218  5901.121
 219  5631.143
 220  5550.447
 221  5688.391
 222  5384.328
 223  5527.519
 224  5258.858
 225  4996.561
 226  4874.339
 227  5227.61
 228  5470.628
 229  5405.28
 230  5502.882
 231  5940.085
 232  5838.073
 233  5576.353
 234  5172.703
 235  5226.121
 236  5104.074
 237  5457.006
 238  5606.938
 239  5550.153
 240  5264.988
 241  5271.226
 242  5422.558
 243  5315.954
 244  5369.057
 245  5484.625
 246  5496.495
 247  5391.391
 248  5599.755
 249  5549.513
 250  5599.376
 251  5425.97
 252  5790.265
 253  5770.271
 254  5870.372
 255  5827.284
 256  6283.875
 257  6228.223
 258  5945.97
 259  5877.147
 260  6296.7
 261  6388.302
 262  6508.284
 263  6289.963
 264  6268.629
 265  5675.533
 266  5546.087
 267  5501.615
 268  5558.18
 269  5578.592
 270  5971.683
 271  5809.951
 272  5513.461
 273  5345.992
 274  5562.901
 275  5735.464
 276  5517.256
 277  5676.996
 278  5612.869
 279  5154.249
 280  5225.861
 281  5339.957
 282  5563.755
 283  5488.562
 284  5562.495
 285  5832.338
 286  5629.055
 287  5630.43
 288  5794.962
 289  6061.453
 290  5748.634
 291  5787.739
 292  5404.736
 293  5485.678
 294  5316.894
 295  5526.072
 296  5489.551
 297  5632.132
 298  5624.997
 299  6109.148
 300  5865.171
 301  5857.759
 302  5644.442
 303  5813.548
 304  5847.378
 305  5882.294
 306  5862.883
 307  6002.45
 308  5562.91
 309  5972.077
 310  5923.283
 311  5626.992
 312  5188.094
 313  5102.379
 314  5271.383
 315  5271.457
 316  5572.743
 317  5596.918
 318  5554.103
 319  5651.01
 320  5986.484
 321  5821.966
 322  5580.137
 323  5482.804
 324  5559.515
 325  5170.831
 326  4962.814
 327  5034.769
 328  5289.259
 329  5306.682
 330  5255.572
 331  5257.601
 332  5277.842
 333  5104.18
 334  5116.956
 335  5139.837
 336  5265.332
 337  5441.411
 338  5618.375
 339  5548.564
 340  5289.187
 341  5105.478
 342  5357.953
 343  5208.439
 344  5352.71
 345  5246.299
 346  5244.688
 347  4982.188
 348  5288.778
 349  5595.861
 350  5771.634
 351  5117.344
 352  5287.411
 353  5380.487
 354  5489.871
 355  5484.38
 356  5546.167
 357  5513.725
 358  5313.663
 359  5186.629
 360  5199.32
 361  5245.471
 362  5272.797
 363  5498.998
 364  5508.071
 365  5542.053
 366  5855.957
 367  5874.011
 368  5713.619
 369  5425.48
 370  5179.83
 371  5023.888
 372  4723.328
 373  4862.761
 374  5132.985
 375  5093.564
 376  5037.881
 377  5138.902
 378  5135.558
 379  5325.996
 380  5246.039
 381  5478.686
 382  5287.784
 383  5340.249
 384  5307.526
 385  5580.475
 386  5144.402
 387  5305.883
 388  5255.957
 389  5161.26
 390  4674.843
 391  4734.372
 392  4864.151
 393  5214.496
 394  5191.021
 395  5677.283
 396  5788.609
 397  5807.662
 398  6038.897
 399  6265.725
 400  6350.2
 401  6036.738
 402  5874.933
 403  6014.125
 404  5689.159
 405  5642.996
 406  5694.825
 407  5437.716
 408  5424.086
 409  5687.244
 410  6140.492
 411  5917.509
 412  5805.486
 413  5941.649
 414  5871.455
 415  5534.301
 416  5636.735
 417  5705.532
 418  5544.831
 419  5220.447
 420  5562.062
 421  5360.868
 422  5167.347
 423  5064.286
 424  5459.959
 425  5237.664
 426  5059.086
 427  4940.209
 428  5338.827
 429  5341.331
 430  5366.365
 431  5565.086
 432  5557.866
 433  5455.101
 434  5526.683
 435  5627.672
 436  5607.023
 437  5385.048
 438  5647.216
 439  5800.423
 440  5468.059
 441  5654.052
 442  5921.499
 443  6035.157
 444  5914.543
 445  6050.517
 446  6125.599
 447  6018.376
 448  5927.232
 449  5894.399
 450  6033.806
 451  5801.417
 452  5796.656
 453  5811.52
 454  5955.666
 455  6258.545
 456  6152.166
 457  6316.408
 458  5856.028
 459  5608.073
 460  5608.729
 461  5425.801
 462  5213.405
 463  5584.411
 464  5615.545
 465  5871.676
 466  5840.508
 467  6098.536
 468  5931.861
 469  5667.996
 470  5794.677
 471  6130.196
 472  5523.85
 473  5311.917
 474  5364.29
 475  5433.219
 476  5068.989
 477  4943.453
 478  5179.999
 479  5447.603
 480  5683.648
 481  6070.499
 482  6164.768
 483  6028.05
 484  6189.423
 485  6233.795
 486  6089.902
 487  5541.038
 488  5465.461
 489  5432.868
 490  5128.704
 491  4784.756
 492  4856.208
 493  5128.914
 494  5030.403
 495  5150.54
 496  5287.622
 497  5248.517
 498  5355.33
 499  5584.471
 500  5891.775
 501  5627.349
 502  5573.642
 503  5747.106
 504  5660.403
 505  5272.348
 506  5319.981
 507  5594.771
 508  5669.114
 509  5518.081
 510  6088.292
 511  6141.251
 512  6038.327
 513  5789.343
 514  6119.058
 515  5788.7
 516  5695.787
 517  5741.94
 518  6115.659
 519  5874.931
 520  5826.339
 521  5776.839
 522  5818.446
 523  5766.467
 524  6103.316
 525  5846.897
 526  5691.858
 527  5430.134
 528  5908.091
 529  5905.327
 530  5646.749
 531  5600.354
 532  5539.145
 533  5483.693
 534  5262.405
 535  5847.629
 536  6332.646
 537  6255.892
 538  6168.854
 539  6152.333
 540  5951.78
 541  5875.666
 542  5552.539
 543  5582.944
 544  5116.605
 545  5497.777
 546  5861.591
 547  5730.378
 548  5644.342
 549  6104.685
 550  6710.288
 551  6501.253
 552  5964.392
 553  5892.689
 554  5896.843
 555  6094.428
 556  5989.284
 557  6159.573
 558  5650.981
 559  5661.018
 560  5825.994
 561  5705.041
 562  5484.38
 563  5414.396
 564  5514.8
 565  5316.224
 566  5071.824
 567  5494.958
 568  5680.138
 569  5676.415
 570  5573.983
 571  5561.014
 572  5442.227
 573  5494.359
 574  5879.257
 575  6292.546
 576  6115.522
 577  5883.168
 578  5782.449
 579  5669.588
 580  5513.618
 581  5696.003
 582  5949.941
 583  5836.564
 584  5764.266
 585  5967.505
 586  6131.432
 587  5732.38
 588  5844.474
 589  5711.719
 590  5600.579
 591  4965.498
 592  5117.726
 593  5274.787
 594  5361.925
 595  5320.789
 596  5683.17
 597  5779.195
 598  5844.562
 599  5402.3
 600  5281.797
 601  4860.803
 602  5243.619
 603  5605.074
 604  5716.157
 605  5392.139
 606  5718.695
 607  5804.043
 608  5979.693
 609  5828.365
 610  6127.508
 611  6170.606
 612  5671.547
 613  5509.477
 614  5565.66
 615  5537.152
 616  5599.415
 617  5851.793
 618  6301.498
 619  6337.919
 620  5999.023
 621  6225.441
 622  6475.069
 623  6310.808
 624  6474.512
 625  6625
 626  6543.223
 627  6536.525
 628  6562.441
 629  7050.532
 630  6724.792
 631  6544.67
 632  6514.875
 633  6620.987
 634  6721.72
 635  6959.9
 636  6820.973
 637  6486.046
 638  6095.919
 639  6019.185
 640  5916.169
 641  5844.346
 642  5910.364
 643  6195.03
 644  5750.879
 645  5897.094
 646  5876.647
 647  5885.021
 648  5729.208
 649  5729.183
 650  5777.585
 651  5984.479
 652  5787.405
 653  5721.662
 654  5539.174
 655  5827.73
 656  6184.398
 657  5906.208
 658  5727.488
 659  5425.69
 660  5697.886
 661  5885.706
 662  5747.033
 663  5420.926
 664  5498.946
 665  5747.072
 666  5541.779
 667  5350.642
 668  5341.049
 669  5243.252
 670  5226.9
 671  5170.639
 672  5377.838
 673  5364.918
 674  5697.712
 675  5801.973
 676  5856.811
 677  5648.139
 678  5756.94
 679  5492.735
 680  5513.537
 681  5646.538
 682  5534.669
 683  5708.166
 684  5756.475
 685  5925.593
 686  6004.773
 687  5811.385
 688  5801.257
 689  5876.128
 690  6085.101
 691  6032.792
 692  6229.119
 693  6461.125
 694  6469.565
 695  5964.295
 696  5775.476
 697  5784.319
 698  5426.99
 699  5488.059
 700  5533.956
 701  5250.538
 702  5086.906
 703  5445.15
 704  5612.908
 705  5289.808
 706  5068.483
 707  5196.204
 708  5161.069
 709  4927.901
 710  5145.362
 711  5320.631
 712  5447.354
 713  5566.336
 714  5591.899
 715  5422.339
 716  5078.207
 717  5240.81
 718  5756.114
 719  5858.568
 720  5363.811
 721  5368.841
 722  5136.408
 723  5315.926
 724  5220.795
 725  5389.254
 726  5651.976
 727  5736.398
 728  5663.232
 729  5521.968
 730  5152.36
 731  5199.122
 732  5009.439
 733  4939.129
 734  4897.327
 735  5262.604
 736  5271.591
 737  5006.365
 738  5030.32
 739  5579.279
 740  5924.419
 741  5750.561
 742  5779.694
 743  5524.678
 744  5123.922
 745  5026.459
 746  5192.274
 747  5409.676
 748  5429.38
 749  5778.091
 750  5976.527
 751  5704.689
 752  5477.407
 753  5492.48
 754  5411.094
 755  5115.514
 756  5258.277
 757  5300.072
 758  5113.08
 759  4920.221
 760  5137.356
 761  5191.887
 762  5128.53
 763  5084.886
 764  5218.816
 765  5208.511
 766  5106.883
 767  5010.138
 768  4892.003
 769  4900.554
 770  5119.897
 771  5157.797
 772  5361.665
 773  5085.825
 774  5290.35
 775  5258.28
 776  5271.623
 777  5228.75
 778  5725.904
 779  5906.738
 780  5671.663
 781  5521.494
 782  5990.86
 783  6019.46
 784  5701.16
 785  5719.878
 786  5870.162
 787  5858.137
 788  5903.47
 789  6418.241
 790  6046.188
 791  5537.481
 792  5298.437
 793  5653.684
 794  5920.435
 795  5812.189
 796  5867.151
 797  5926.859
 798  5979.495
 799  6235.548
 800  6160.424
 801  6070.224
 802  5735.481
 803  5801.371
 804  5775.862
 805  5610.451
 806  5530.803
 807  5962.13
 808  5601.962
 809  5739.822
 810  5452.405
 811  5683.815
 812  5519.117
 813  5518.779
 814  5583.993
 815  5653.584
 816  5330.075
 817  5457.691
 818  5285.138
 819  5448.838
 820  5321.277
 821  5586.716
 822  5388.492
 823  5339.667
 824  5329.589
 825  5774.61
 826  5828.793
 827  5617.057
 828  5763.195
 829  5348.237
 830  5246.508
 831  5255.9
 832  5612.78
 833  5898.659
 834  5732.219
 835  5973.898
 836  6086.719
 837  5726.579
 838  5411.906
 839  5463.683
 840  5843.366
 841  5904.877
 842  5914.283
 843  5967.271
 844  5988.208
 845  5851.243
 846  6078.725
 847  6163.016
 848  6330.384
 849  6082.407
 850  6290.708
 851  5808.154
 852  5500.056
 853  5399.215
 854  5488.074
 855  5443.468
 856  5541.719
 857  5714.039
 858  5850.751
 859  5803.414
 860  6071.924
 861  6084.57
 862  5740.383
 863  5271.751
 864  5227.041
 865  5284.005
 866  5353.955
 867  5546.302
 868  5915.479
 869  6012.338
 870  5389.204
 871  5509.873
 872  5735.269
 873  5554.26
 874  5057.214
 875  5062.096
 876  5417.245
 877  5671.953
 878  5442.499
 879  5647.609
 880  5414.692
 881  5464.248
 882  5674.907
 883  5947.452
 884  5634.434
 885  5676.562
 886  5593.382
 887  5754.012
 888  5405.116
 889  5364.903
 890  5378.039
 891  5504.038
 892  5769.271
 893  6134.134
 894  5891.711
 895  5827.464
 896  5762.344
 897  5896.065
 898  5672.157
 899  5504.075
 900  5461.401
 901  5487.391
 902  5074.601
 903  5551.774
 904  6157.721
 905  6415.69
 906  6139.676
 907  6079.503
 908  5992.033
 909  5597.894
 910  5391.697
 911  5885.18
 912  6145.505
 913  6031.766
 914  6036.679
 915  5925.722
 916  5578.209
 917  5551.175
 918  5932.251
 919  6358.78
 920  6159.653
 921  6233.916
 922  6624.674
 923  6653.933
 924  6590.488
 925  6288.748
 926  6127.738
 927  5937.469
 928  5911.411
 929  6071.914
 930  6026.837
 931  5976.381
 932  6099.54
 933  6219.051
 934  6130.737
 935  6107.421
 936  6130.554
 937  5911.817
 938  5673.979
 939  5814.202
 940  5975.17
 941  5747.598
 942  5754.593
 943  5800.881
 944  5885.916
 945  5634.798
 946  6014.911
 947  6136.906
 948  6163.102
 949  6052.462
 950  6381.434
 951  6067.933
 952  5729.956
 953  5153.567
 954  5365.789
 955  5428.225
 956  5223.579
 957  5613.47
 958  5642.824
 959  5654.82
 960  5518.046
 961  5527.642
 962  5301.747
 963  4768.749
 964  4897.045
 965  5219.595
 966  5215.375
 967  5050.733
 968  5168.511
 969  5407.135
 970  5382.653
 971  5469.853
 972  5146.153
 973  5071.129
 974  4782.555
 975  5130.963
 976  5655.375
 977  5880.675
 978  5781.353
 979  6015.187
 980  5715.038
 981  5686.161
 982  5488.729
 983  5558.579
 984  5489.542
 985  5430.572
 986  5665.239
 987  5737.699
 988  5159.555
 989  5172.781
 990  5056.923
 991  5430.53
 992  5197.599
 993  5196.558
 994  5231.576
 995  5430.349
 996  5535.979
 997  5933.926
 998  5947.786
 999  6004.978
1000  5995.343
1001  5988.328
1002  5504.714
1003  5210.667
1004  5215.362
1005  5591.427
1006  5598.26
1007  5749.902
1008  5798.541
1009  5877.674
1010  6134.345
1011  6131.052
1012  5994.567
1013  5465.198
1014  5280.459
1015  5229.083
1016  5549.197
1017  5238.011
1018  5284.241
1019  5236.541
1020  5282.168
1021  5151.672
1022  5221.78
1023  5081.265
