# Input file       =  1195156967.112164_cleaned.dat
# Candidate        =  PSR_0332+5434
# Telescope        =  AR
# Epoch_topo       =  58076.835487409306
# Epoch_bary       =  N/A
# T_sample         =  0.002
# Data Folded      =  7340032
# Data Avg         =  0.807955678106477
# Data StdDev      =  19.8665726326821 
# Profile Bins     =  1024
# Profile Avg      =  5791.25328047383 
# Profile StdDev   =  1681.98433885691 
# Reduced chi-sqr  =  0.409
# Prob(Noise)      <  1   (~0.0 sigma)
# P_topo (ms)      =  714.514129287381  +/- 0.00124
# P'_topo (s/s)    =  -0                +/- 6.56e-10
# P''_topo (s/s^2) =  0                 +/- 2.9e-13
# P_bary (ms)      =  N/A
# P'_bary (s/s)    =  N/A
# P''_bary (s/s^2) =  N/A
# P_orb (s)        =  N/A
# asin(i)/c (s)    =  N/A
# eccentricity     =  N/A
# w (rad)          =  N/A
# T_peri           =  N/A
######################################################
   0  5701.109
   1  5390.833
   2  5182.338
   3  5475.494
   4  5442.704
   5  6097.833
   6  5574.878
   7  5000.552
   8  5393.869
   9  6097.098
  10  6873.338
  11  6523.227
  12  5306.723
  13  5415.051
  14  5742.312
  15  5760.089
  16  5781.861
  17  5810.672
  18  6045.218
  19  6029.169
  20  5987.083
  21  5877.144
  22  5472.855
  23  5531.897
  24  6170.533
  25  6345.014
  26  6164.21
  27  6017.966
  28  5578.045
  29  5530.974
  30  5517.299
  31  5584.689
  32  5585.044
  33  5446.439
  34  5333.029
  35  5437.029
  36  4914.262
  37  4692.458
  38  4958.338
  39  5414.896
  40  5392.327
  41  5183.424
  42  5082.854
  43  5165.774
  44  5176.881
  45  5893.424
  46  6805.079
  47  6221.462
  48  6197.692
  49  6605.734
  50  6557.288
  51  6133.375
  52  5490.062
  53  5851.638
  54  6689.714
  55  6832.53
  56  7250.558
  57  6857.381
  58  6222.591
  59  6493.568
  60  6313.405
  61  6241.87
  62  6155.769
  63  5757.588
  64  5410.17
  65  4615.84
  66  4508.465
  67  4613.949
  68  4656.43
  69  4802.688
  70  5737.939
  71  5721.181
  72  6303.825
  73  6396.794
  74  6199.648
  75  5905.561
  76  6071.667
  77  6517.2
  78  6948.556
  79  6157.575
  80  5971.925
  81  5869.227
  82  5399.401
  83  5347.453
  84  5481.763
  85  5646.428
  86  5707.605
  87  5580.258
  88  5906.417
  89  6302.383
  90  6059.312
  91  6655.931
  92  6480.925
  93  5997.155
  94  5184.385
  95  4799.306
  96  5284.513
  97  6244.215
  98  6541.479
  99  6607.663
 100  5920.267
 101  5823.977
 102  6614.584
 103  7028.066
 104  6899.954
 105  6649.801
 106  6455.904
 107  6264.939
 108  5527.494
 109  5644.962
 110  6058.944
 111  6101.536
 112  5285.971
 113  5318.774
 114  5194.971
 115  5098.316
 116  5368.248
 117  5945.682
 118  5973.508
 119  5500.784
 120  5314.319
 121  5519.018
 122  5404.667
 123  5639.024
 124  6079.346
 125  5466.133
 126  5114.507
 127  4858.833
 128  5292.633
 129  5748.316
 130  5497.099
 131  5038.227
 132  4732.982
 133  4854.358
 134  5266.843
 135  5468.845
 136  5189.687
 137  5062.035
 138  4960.911
 139  5074.445
 140  5550.465
 141  5500.16
 142  5440.23
 143  4996.44
 144  4550.341
 145  4819.306
 146  4802.758
 147  4627.386
 148  4937.035
 149  4876.593
 150  5096.16
 151  4741.027
 152  4564.747
 153  4888.308
 154  5075.352
 155  5599.995
 156  6075.087
 157  5405.653
 158  5235.497
 159  5622.34
 160  5525.497
 161  5208.761
 162  5279.708
 163  5796.901
 164  6356.173
 165  5580.729
 166  5691.549
 167  6331.677
 168  6104.908
 169  6114.121
 170  6478.349
 171  6814.044
 172  6462.546
 173  5519.043
 174  5822.481
 175  6103.27
 176  5832.982
 177  5891.889
 178  5876.148
 179  5721.507
 180  5183.845
 181  5234.554
 182  5823.029
 183  6745.488
 184  6557.259
 185  6474.143
 186  5420.984
 187  4820.517
 188  4901.667
 189  5362.714
 190  5101.701
 191  5064.379
 192  5237.23
 193  5866.892
 194  6195.948
 195  6268.824
 196  6046.353
 197  5927.775
 198  5860.336
 199  6445.497
 200  5891.012
 201  5156.544
 202  4868.423
 203  4909.07
 204  5108.47
 205  4953.337
 206  4618.525
 207  5354.242
 208  5580.033
 209  5992.272
 210  5683.17
 211  5576.829
 212  5334.871
 213  5857.436
 214  5530.413
 215  5580.105
 216  4839.452
 217  5010.367
 218  4719.761
 219  4534.216
 220  4827.312
 221  5247.492
 222  5324.607
 223  5766.729
 224  5461.107
 225  5276.222
 226  5235.086
 227  5309.92
 228  5186.083
 229  5004.414
 230  4574.08
 231  4963.569
 232  5058.063
 233  5175.822
 234  5584.706
 235  5337.096
 236  5807.245
 237  5496.279
 238  5843.452
 239  5887.5
 240  4871.903
 241  4317.759
 242  4739.164
 243  5496.36
 244  5243.92
 245  4893.148
 246  4994.236
 247  5735.026
 248  6138.946
 249  5834.706
 250  5799.484
 251  5234.313
 252  5390.22
 253  5696.524
 254  5487.066
 255  5385.082
 256  5575.569
 257  6049.285
 258  6309.752
 259  5737.25
 260  5960.263
 261  6483.613
 262  6212.263
 263  6388.877
 264  6267.812
 265  5716.745
 266  5397.549
 267  5579.345
 268  6094.377
 269  6166.093
 270  5803.615
 271  5564.351
 272  5177.543
 273  4518.454
 274  5509.319
 275  6144.976
 276  6286.396
 277  6037.761
 278  6101.869
 279  6314.172
 280  5962.76
 281  5447.323
 282  5862.607
 283  5858.86
 284  5761.168
 285  5897.098
 286  5768.176
 287  5638.145
 288  5321.634
 289  5482.698
 290  5435.001
 291  5917.497
 292  5342.456
 293  5085.032
 294  3755.752
 295  4051.784
 296  5047.865
 297  5237.423
 298  5443.031
 299  5680.128
 300  5976.262
 301  5491.315
 302  5204.778
 303  5472.253
 304  5688.417
 305  5567.688
 306  6008.466
 307  6068.74
 308  5514.623
 309  5799.086
 310  6311.924
 311  6841.453
 312  6719.188
 313  6210.303
 314  6145.195
 315  6077.563
 316  5478.585
 317  5982.13
 318  6303.454
 319  6179.688
 320  6193.264
 321  6077
 322  6626.2
 323  6307.859
 324  6112.943
 325  6217.081
 326  6034.412
 327  6335.414
 328  6814.211
 329  6283.961
 330  6046.196
 331  6322.769
 332  6829.374
 333  7245.701
 334  7159.176
 335  6472.375
 336  6356.506
 337  6100.127
 338  6568.065
 339  6832.396
 340  6360.614
 341  6231.445
 342  6937.145
 343  6925.399
 344  6440.242
 345  5909.9
 346  6534.65
 347  6827.592
 348  5829.812
 349  5506.539
 350  5386.607
 351  5315.58
 352  5656.433
 353  5802.277
 354  5841.69
 355  5451.092
 356  5406.49
 357  5467.649
 358  5488.792
 359  5267.823
 360  5845.206
 361  6311.89
 362  6211.671
 363  6194.707
 364  5537.262
 365  5477.895
 366  5844.636
 367  6123.094
 368  6150.288
 369  5448.172
 370  5311.462
 371  6107.646
 372  6196.085
 373  6415.893
 374  6612.455
 375  6805.004
 376  6736.933
 377  5926.766
 378  5913.169
 379  5972.415
 380  5777.216
 381  5632.662
 382  5788.384
 383  5484.542
 384  5422.114
 385  5657.101
 386  5918.152
 387  6214.745
 388  6058.091
 389  6643.76
 390  6787.355
 391  6436.979
 392  6660.018
 393  6432.31
 394  5945.944
 395  5748.793
 396  5578.203
 397  5025.107
 398  4871.948
 399  4915.145
 400  5737.397
 401  6050.799
 402  6141.521
 403  6563.459
 404  6510.892
 405  6203.191
 406  6585.671
 407  6470.282
 408  6592.309
 409  6063.415
 410  6162.642
 411  6223.991
 412  6186.9
 413  6091.884
 414  6183.993
 415  5659.205
 416  5542.842
 417  5983.179
 418  5735.427
 419  5340.462
 420  5127.802
 421  5177.183
 422  5463.475
 423  5103.921
 424  5680.958
 425  6458.804
 426  6496.992
 427  6897.229
 428  6409.788
 429  6268.681
 430  6528.521
 431  6835.546
 432  7181.663
 433  6696.29
 434  6710.731
 435  6771.275
 436  6478.866
 437  5546.75
 438  4928.437
 439  4659.419
 440  4854.601
 441  5406.879
 442  5784.289
 443  6371.277
 444  6318.51
 445  6730.447
 446  6933.898
 447  6534.62
 448  5872.217
 449  6407.885
 450  6145.548
 451  5765.056
 452  5247.754
 453  5623.527
 454  5823.814
 455  5229.212
 456  5553.745
 457  6215.896
 458  5742.075
 459  6408.141
 460  6630.666
 461  7100.874
 462  6611.22
 463  6614.073
 464  6198.384
 465  5853.78
 466  5189.852
 467  4960.498
 468  5035.022
 469  4694.758
 470  5262.295
 471  6163.882
 472  5986.777
 473  6215.622
 474  5929.457
 475  6536.64
 476  6260.553
 477  5801.859
 478  6116.357
 479  5954.61
 480  5344.657
 481  5403.999
 482  5768
 483  6308.822
 484  6830.751
 485  7137.818
 486  7144.337
 487  6724.897
 488  6622.168
 489  6702.27
 490  6639.95
 491  5840.694
 492  6730.596
 493  6532.169
 494  6228.535
 495  5403.107
 496  5496.383
 497  6359.997
 498  6242.987
 499  6246.583
 500  5908.901
 501  5715.423
 502  5719.414
 503  6186.405
 504  5468.254
 505  5386.758
 506  5410.271
 507  6113.356
 508  6610.305
 509  6084.446
 510  5633.16
 511  5795.231
 512  5834.92
 513  6152.94
 514  5935.417
 515  5704.486
 516  6033.524
 517  6335.704
 518  6388.537
 519  5948.634
 520  5647.967
 521  6623.21
 522  6602.325
 523  5728.887
 524  5366.253
 525  5392.04
 526  5893.611
 527  6456.701
 528  6802.045
 529  6382.661
 530  5267.552
 531  5017.323
 532  5517.144
 533  5522.596
 534  4945.991
 535  5643.487
 536  6173.982
 537  6587.068
 538  6174.924
 539  6366.902
 540  6400.62
 541  6201.127
 542  5625.145
 543  6029.463
 544  5607.569
 545  5791.452
 546  6277.261
 547  6152.819
 548  6617.35
 549  6417.07
 550  6832.778
 551  6445.76
 552  5584.129
 553  5479.831
 554  5257.446
 555  5541.094
 556  5723.583
 557  6405.68
 558  6423.496
 559  6078.597
 560  5968.821
 561  6032.102
 562  5927.142
 563  5084.007
 564  5244.139
 565  5385.584
 566  5214.728
 567  5497.787
 568  5939.472
 569  5922.524
 570  5843.683
 571  5715.294
 572  5892.27
 573  5779.578
 574  5368.388
 575  5969.383
 576  6410.073
 577  6367.112
 578  6532.49
 579  5860.671
 580  5656.437
 581  5462.672
 582  5771.222
 583  6481.947
 584  6712.979
 585  6841.503
 586  7213.803
 587  6600.242
 588  6419.071
 589  6582.533
 590  6416.86
 591  6510.641
 592  5995.49
 593  5789.936
 594  5384.399
 595  5202.158
 596  5741.907
 597  6219.881
 598  6015.023
 599  6314.685
 600  6115.542
 601  5750.887
 602  5682.632
 603  5798.274
 604  6217.6
 605  6238.361
 606  6109.726
 607  6377.68
 608  6381.381
 609  5827.479
 610  6045.483
 611  6288.041
 612  6332.845
 613  6316.108
 614  5981.757
 615  6066.81
 616  5892.626
 617  6332.666
 618  6884.972
 619  6516.151
 620  6271.343
 621  6897.75
 622  7104.974
 623  6439.174
 624  5804.059
 625  5607.676
 626  6375.871
 627  6299.321
 628  7164.507
 629  7579.167
 630  7516.074
 631  7047.263
 632  7380.854
 633  7828.849
 634  7636.035
 635  7071.362
 636  6379.483
 637  5913.901
 638  4800.264
 639  4355.499
 640  5091.181
 641  5914.139
 642  6550.87
 643  6975.593
 644  7196.52
 645  6876.233
 646  6460.078
 647  6460.051
 648  6661.79
 649  5955.165
 650  5904.292
 651  5555.654
 652  4978.26
 653  5225.292
 654  5442.21
 655  5567.123
 656  5528.924
 657  5824.148
 658  6225.43
 659  5927.439
 660  5791.662
 661  6551.678
 662  6799.471
 663  6108.728
 664  6006.444
 665  5520.315
 666  5798.839
 667  5232.902
 668  5008.542
 669  5050.752
 670  5113.591
 671  5716.457
 672  6462.298
 673  6373.067
 674  5768.401
 675  5285.497
 676  4684.953
 677  5029.5
 678  5526.4
 679  5892.943
 680  5692.125
 681  4955.438
 682  5061.047
 683  5724.085
 684  5598.733
 685  5508.765
 686  5233.246
 687  5366.768
 688  5439.841
 689  5460.184
 690  5626.665
 691  6060.574
 692  5900.119
 693  6428.813
 694  6061.399
 695  5417.454
 696  4965.978
 697  4842.842
 698  4611.144
 699  4854.451
 700  5260.506
 701  5262.517
 702  4380.025
 703  4039.183
 704  5097.337
 705  5672.546
 706  5720.33
 707  6161.745
 708  6146.916
 709  5885.992
 710  5396.911
 711  5299.39
 712  5710.266
 713  6066.688
 714  6342.01
 715  6463.492
 716  5481.976
 717  4964.194
 718  5044.44
 719  5249.545
 720  5154.373
 721  5151.892
 722  4796.317
 723  4734.262
 724  4147.299
 725  4806.847
 726  5283.309
 727  5056.472
 728  5114.079
 729  5183.554
 730  5051.036
 731  5282.018
 732  5299.58
 733  5871.939
 734  5194.061
 735  4558.067
 736  5254.489
 737  5795.438
 738  5697.923
 739  5818.359
 740  5928.708
 741  5500.833
 742  5135.661
 743  5183.709
 744  5381.317
 745  4890.227
 746  4851.467
 747  5339.182
 748  5766.17
 749  5554.243
 750  5774.845
 751  5344.66
 752  5459.619
 753  5159.112
 754  4778.413
 755  4824.308
 756  4750.406
 757  4846.015
 758  5802.797
 759  5855.879
 760  6133.205
 761  6263.558
 762  6190.833
 763  5770.889
 764  6205.667
 765  6314.72
 766  6595.39
 767  5152.958
 768  5158.547
 769  5624.449
 770  5899.414
 771  6371.3
 772  6458.649
 773  6177.679
 774  6037.944
 775  5776.753
 776  6048.067
 777  5408.734
 778  5226.177
 779  5717.036
 780  5798.958
 781  5266.147
 782  5533.087
 783  5640.618
 784  5200.931
 785  5240.99
 786  5721.845
 787  6324.335
 788  5803.562
 789  5330.504
 790  5738.743
 791  6145.385
 792  6094.872
 793  6241.51
 794  5840.396
 795  5489.452
 796  5392.951
 797  5876.795
 798  6159.448
 799  6206.032
 800  6307.205
 801  6838.521
 802  6007.517
 803  5674.221
 804  5781.367
 805  6070.094
 806  6636.663
 807  6595.286
 808  6503.983
 809  6797.226
 810  6571.359
 811  6618.956
 812  6441.708
 813  6111.287
 814  5743.58
 815  5957.86
 816  5821.981
 817  5397.509
 818  5339.624
 819  5648.412
 820  6552.461
 821  5815.612
 822  6022.281
 823  5567.662
 824  5397.132
 825  5518.719
 826  5563.765
 827  5476.177
 828  5294.677
 829  4870.909
 830  5344.997
 831  5116.54
 832  4784.669
 833  4879.802
 834  5347.395
 835  5282.918
 836  5469.304
 837  5223.583
 838  5816.9
 839  5773.659
 840  5431.398
 841  5124.87
 842  5046.084
 843  5193.177
 844  5696.669
 845  5073.883
 846  5502.109
 847  6110.862
 848  6317.216
 849  5939.077
 850  5518.752
 851  5650.37
 852  6186.268
 853  5827.627
 854  5878.906
 855  5663.413
 856  5176.133
 857  5401.471
 858  5158.733
 859  5323.687
 860  4956.057
 861  5249.228
 862  5145.82
 863  5089.627
 864  4929.393
 865  5414.144
 866  5700.686
 867  5596.981
 868  5706.211
 869  6213.677
 870  6241.746
 871  6604.059
 872  6530.312
 873  6437.499
 874  6101.462
 875  5671.4
 876  5840.558
 877  5576.995
 878  5376.291
 879  5811.88
 880  5880.689
 881  5596.654
 882  5833.53
 883  6150.003
 884  6339.254
 885  5709.854
 886  5821.409
 887  6368.773
 888  6291.362
 889  5861.971
 890  5901.617
 891  5545.587
 892  5316.46
 893  5847.18
 894  5837.261
 895  5439.645
 896  4432.372
 897  5081.601
 898  5738.35
 899  5454.652
 900  5561.46
 901  6442.947
 902  6419.938
 903  6264.349
 904  5866.186
 905  5781.116
 906  5544.947
 907  5425.578
 908  6195.578
 909  6405.116
 910  5671.919
 911  6151.487
 912  6753.993
 913  6636.335
 914  6226.132
 915  6488.649
 916  7318.486
 917  7286.334
 918  7464.975
 919  7849.522
 920  7160.036
 921  6478.806
 922  6500.7
 923  5941.994
 924  5893.324
 925  5437.606
 926  5921.852
 927  5791.065
 928  5889.171
 929  6319.132
 930  6707.56
 931  5822.989
 932  5367.851
 933  5484.16
 934  5738.143
 935  5346.919
 936  5495.801
 937  5826.441
 938  6126.037
 939  5318.392
 940  5297.497
 941  5555.629
 942  5236.081
 943  5233.209
 944  5446.277
 945  6032.534
 946  6053.704
 947  5951.203
 948  6345.916
 949  6468.715
 950  6059.314
 951  5509.797
 952  5300.474
 953  5146.503
 954  5447.153
 955  5719.168
 956  5296.567
 957  5726.386
 958  5855.441
 959  6305.008
 960  6252.426
 961  6000.312
 962  6258.382
 963  5893.686
 964  5533.507
 965  5998.657
 966  5817.564
 967  5764.681
 968  5376.166
 969  5154.008
 970  5438.309
 971  5215.96
 972  5719.525
 973  6129.429
 974  6209.161
 975  5468.074
 976  5586.37
 977  5741.723
 978  5804.012
 979  5814.423
 980  5693.66
 981  5686.499
 982  5048.399
 983  5323.624
 984  5817.115
 985  5471.867
 986  5222.587
 987  5472.473
 988  5139.931
 989  5047.302
 990  4199.293
 991  4628.871
 992  4710.155
 993  4787.325
 994  5172.911
 995  5230.616
 996  4917.255
 997  4859.39
 998  4951.057
 999  4727.829
1000  4959.193
1001  5274.672
1002  5500.514
1003  5218.274
1004  5359.39
1005  5836.398
1006  6068.049
1007  6035.23
1008  6271.798
1009  5780.86
1010  5699.841
1011  5757.798
1012  5549.378
1013  5560.454
1014  5760.805
1015  5535.883
1016  5845.069
1017  5222.602
1018  5687.303
1019  6243.036
1020  6039.678
1021  5643.281
1022  5474.775
1023  5537.339
