# Input file       =  1195315227.114825_cleaned.dat
# Candidate        =  PSR_0332+5434
# Telescope        =  AR
# Epoch_topo       =  58078.667200403070
# Epoch_bary       =  N/A
# T_sample         =  0.002
# Data Folded      =  7143424
# Data Avg         =  0.104093533936849
# Data StdDev      =  1.00040949891502 
# Profile Bins     =  512
# Profile Avg      =  1452.31714722837 
# Profile StdDev   =  118.166953914057 
# Reduced chi-sqr  =  0.644
# Prob(Noise)      <  1   (~0.0 sigma)
# P_topo (ms)      =  714.51600285784   +/- 3.8e-05
# P'_topo (s/s)    =  -0                +/- 2.06e-11
# P''_topo (s/s^2) =  0                 +/- 9.34e-15
# P_bary (ms)      =  N/A
# P'_bary (s/s)    =  N/A
# P''_bary (s/s^2) =  N/A
# P_orb (s)        =  N/A
# asin(i)/c (s)    =  N/A
# eccentricity     =  N/A
# w (rad)          =  N/A
# T_peri           =  N/A
######################################################
   0  1472.535
   1  1441.704
   2  1533.346
   3  1537.338
   4  1489.561
   5  1438.054
   6  1411.906
   7  1376.067
   8  1352.543
   9  1448.446
  10  1529.464
  11  1470.695
  12  1363.378
  13  1354.06
  14  1422.611
  15  1458.777
  16  1473.927
  17  1567.445
  18  1543.077
  19  1466.652
  20  1448.35
  21  1441.272
  22  1402.767
  23  1443.243
  24  1505.76
  25  1386.936
  26  1329.297
  27  1492.639
  28  1551.299
  29  1520.469
  30  1512.47
  31  1497.958
  32  1475.887
  33  1337.664
  34  1435.805
  35  1454.176
  36  1373.716
  37  1436.206
  38  1475.806
  39  1501.428
  40  1397.718
  41  1316.988
  42  1371.716
  43  1509.718
  44  1476.826
  45  1522.549
  46  1542.263
  47  1489.759
  48  1515.505
  49  1566.143
  50  1561.875
  51  1560.306
  52  1529.501
  53  1448.794
  54  1400.666
  55  1380.704
  56  1509.772
  57  1485.676
  58  1491.294
  59  1440.162
  60  1444.853
  61  1421.331
  62  1509.777
  63  1522.933
  64  1395.411
  65  1386.895
  66  1444.547
  67  1532.702
  68  1383.811
  69  1348.932
  70  1461.963
  71  1467.627
  72  1440.932
  73  1418.632
  74  1445.558
  75  1459.934
  76  1467.99
  77  1552.05
  78  1466.987
  79  1408.26
  80  1369.331
  81  1460.956
  82  1496.371
  83  1411.998
  84  1457.391
  85  1515.45
  86  1482.743
  87  1482.35
  88  1460.977
  89  1374.292
  90  1320.32
  91  1436.09
  92  1525.467
  93  1501.658
  94  1432.373
  95  1391.079
  96  1348.172
  97  1331.839
  98  1414.343
  99  1544.141
 100  1433.984
 101  1433.048
 102  1436.961
 103  1490.701
 104  1491.756
 105  1470.807
 106  1541.354
 107  1484.368
 108  1364.173
 109  1332.502
 110  1468.615
 111  1470.428
 112  1428.988
 113  1425.544
 114  1463.785
 115  1463.008
 116  1474.557
 117  1513.659
 118  1542.265
 119  1495.276
 120  1528.428
 121  1468.559
 122  1441.621
 123  1535.026
 124  1534.21
 125  1548.233
 126  1406.864
 127  1426.55
 128  1432.853
 129  1412.971
 130  1458.868
 131  1467.951
 132  1514.213
 133  1475.745
 134  1505.397
 135  1472.875
 136  1415.917
 137  1403.062
 138  1409.387
 139  1513.312
 140  1465.045
 141  1469.567
 142  1524.233
 143  1419.539
 144  1438.569
 145  1463.641
 146  1548.26
 147  1477.492
 148  1501.46
 149  1583.961
 150  1486.789
 151  1466.543
 152  1557.016
 153  1528.943
 154  1447.807
 155  1426.155
 156  1499.305
 157  1528.048
 158  1458.506
 159  1390.987
 160  1424.448
 161  1429.826
 162  1338.751
 163  1414.92
 164  1476.625
 165  1458.817
 166  1494.562
 167  1497.243
 168  1501.649
 169  1398.76
 170  1442.81
 171  1524.174
 172  1476.414
 173  1471.845
 174  1440.276
 175  1558.823
 176  1505.113
 177  1547.194
 178  1596.471
 179  1540.117
 180  1486.05
 181  1524.073
 182  1554.814
 183  1408.421
 184  1337.214
 185  1447.683
 186  1437.729
 187  1543.469
 188  1492.927
 189  1441.871
 190  1334.548
 191  1403.676
 192  1466.324
 193  1449.442
 194  1393.707
 195  1355.322
 196  1424.118
 197  1468.869
 198  1442.871
 199  1387.358
 200  1330.132
 201  1319.875
 202  1346.301
 203  1436.979
 204  1486.173
 205  1381.484
 206  1417.741
 207  1428.722
 208  1398.556
 209  1426.722
 210  1481.652
 211  1534.913
 212  1452.12
 213  1496.71
 214  1392.82
 215  1340.256
 216  1418.965
 217  1407.848
 218  1454.149
 219  1410.846
 220  1407.565
 221  1479.644
 222  1400.907
 223  1381.916
 224  1365.706
 225  1413.927
 226  1420.385
 227  1358.39
 228  1471.122
 229  1444.807
 230  1436.735
 231  1363.712
 232  1376.74
 233  1381.388
 234  1472.101
 235  1498.155
 236  1448.28
 237  1398.073
 238  1369.806
 239  1471.718
 240  1473.487
 241  1492.827
 242  1519.191
 243  1442.864
 244  1349.171
 245  1388.849
 246  1404.213
 247  1388.659
 248  1407.01
 249  1494.431
 250  1493.565
 251  1468.377
 252  1481.978
 253  1464.875
 254  1427.308
 255  1317.994
 256  1338.967
 257  1428.879
 258  1407.28
 259  1470.335
 260  1395.398
 261  1376.994
 262  1355.513
 263  1363.19
 264  1510.631
 265  1414.737
 266  1382.388
 267  1388.941
 268  1419.724
 269  1317.165
 270  1287.098
 271  1405.675
 272  1359.989
 273  1403.734
 274  1371.926
 275  1401.002
 276  1429.369
 277  1406.158
 278  1454.138
 279  1418.846
 280  1371.249
 281  1427.753
 282  1548.812
 283  1532.044
 284  1422.782
 285  1364.734
 286  1424.444
 287  1409.886
 288  1397.58
 289  1395.192
 290  1423.421
 291  1359.614
 292  1369.244
 293  1411.982
 294  1421.26
 295  1425.607
 296  1551.888
 297  1540.073
 298  1404.784
 299  1433.061
 300  1486
 301  1438.085
 302  1493.895
 303  1498.14
 304  1414.805
 305  1347.233
 306  1420.576
 307  1482.063
 308  1374.103
 309  1337.994
 310  1345.496
 311  1349.79
 312  1358.315
 313  1348.367
 314  1446.383
 315  1404.146
 316  1397.181
 317  1457.297
 318  1397.807
 319  1323.079
 320  1313.816
 321  1530.712
 322  1456.994
 323  1399.451
 324  1397.713
 325  1462.755
 326  1499.455
 327  1493.564
 328  1488.028
 329  1529.467
 330  1468.76
 331  1492.324
 332  1447.018
 333  1384.556
 334  1413.182
 335  1468.249
 336  1489.137
 337  1426.564
 338  1496.047
 339  1511.523
 340  1445.881
 341  1383.013
 342  1452.172
 343  1471.787
 344  1482.404
 345  1415.232
 346  1383.406
 347  1409.015
 348  1452.389
 349  1476.006
 350  1459.855
 351  1474.18
 352  1399.599
 353  1329.59
 354  1347.988
 355  1452.759
 356  1463.893
 357  1521.121
 358  1392.015
 359  1465.165
 360  1410.81
 361  1401.166
 362  1377.249
 363  1359.34
 364  1482.195
 365  1393.697
 366  1427.347
 367  1432.711
 368  1425.458
 369  1516.526
 370  1397.867
 371  1428.772
 372  1459.935
 373  1412.597
 374  1500.906
 375  1417.128
 376  1423.176
 377  1418.324
 378  1521.207
 379  1488.089
 380  1350.758
 381  1416.945
 382  1420.811
 383  1492.495
 384  1434.091
 385  1540.548
 386  1506.563
 387  1417.423
 388  1393.161
 389  1408.327
 390  1434.192
 391  1424.598
 392  1441.315
 393  1567.992
 394  1388.151
 395  1317.228
 396  1375.247
 397  1406.807
 398  1382.525
 399  1444.975
 400  1530.842
 401  1433.08
 402  1427.13
 403  1472.109
 404  1422.189
 405  1404.994
 406  1445.935
 407  1555.673
 408  1520.527
 409  1463.451
 410  1511.362
 411  1544.99
 412  1430.53
 413  1424.883
 414  1531.78
 415  1514.172
 416  1449.9
 417  1549.737
 418  1632.02
 419  1642.86
 420  1642.495
 421  1656.188
 422  1617.219
 423  1508.076
 424  1520.954
 425  1538.161
 426  1565.94
 427  1531.369
 428  1608.919
 429  1570.803
 430  1462.285
 431  1498.656
 432  1615.375
 433  1610.118
 434  1675.804
 435  1777.035
 436  1758.181
 437  1533.465
 438  1393.179
 439  1429.172
 440  1436.415
 441  1497.111
 442  1465.519
 443  1564.503
 444  1515.948
 445  1435.358
 446  1391.75
 447  1402.089
 448  1474.514
 449  1588.362
 450  1610.688
 451  1457.891
 452  1335.889
 453  1392.629
 454  1489.5
 455  1560.401
 456  1526.584
 457  1540.521
 458  1461.266
 459  1405.936
 460  1512.733
 461  1476.814
 462  1459.65
 463  1396.09
 464  1424.354
 465  1563.528
 466  1510.03
 467  1479.152
 468  1457.01
 469  1497.009
 470  1454.417
 471  1473.615
 472  1496.316
 473  1480.637
 474  1499.515
 475  1490.079
 476  1441.344
 477  1375.793
 478  1467.953
 479  1442.515
 480  1405.336
 481  1360.119
 482  1467.392
 483  1591.65
 484  1585.042
 485  1451.965
 486  1491.443
 487  1464.26
 488  1475.226
 489  1519.785
 490  1515.733
 491  1434.517
 492  1342.986
 493  1361.482
 494  1303.988
 495  1328.453
 496  1345.333
 497  1326.078
 498  1404.505
 499  1499.937
 500  1545.269
 501  1484.577
 502  1436.16
 503  1545.255
 504  1389.117
 505  1412.608
 506  1410.828
 507  1495.635
 508  1451.373
 509  1359.15
 510  1403.63
 511  1445.885
