# Input file       =  1195746036.118177_cleaned.dat
# Candidate        =  PSR_0332+5434
# Telescope        =  AR
# Epoch_topo       =  58083.653415719644
# Epoch_bary       =  N/A
# T_sample         =  0.002
# Data Folded      =  7208960
# Data Avg         =  0.0780569567406341
# Data StdDev      =  1.0002864513209  
# Profile Bins     =  512
# Profile Avg      =  1098.97822398909 
# Profile StdDev   =  118.693165871173 
# Reduced chi-sqr  =  0.912
# Prob(Noise)      <  0.922   (~0.0 sigma)
# P_topo (ms)      =  714.521166542807  +/- 0.000203
# P'_topo (s/s)    =  -0                +/- 1.09e-10
# P''_topo (s/s^2) =  0                 +/- 4.91e-14
# P_bary (ms)      =  N/A
# P'_bary (s/s)    =  N/A
# P''_bary (s/s^2) =  N/A
# P_orb (s)        =  N/A
# asin(i)/c (s)    =  N/A
# eccentricity     =  N/A
# w (rad)          =  N/A
# T_peri           =  N/A
######################################################
   0  1423.969
   1  1331.231
   2  1355.437
   3  1282.311
   4  1207.186
   5  1152.197
   6  1169.739
   7  1199.194
   8  1167.442
   9  1093.893
  10  1153.624
  11  1141.343
  12  1084.803
  13  1118.822
  14  1177.58
  15  1079.745
  16  1071.423
  17  1121.164
  18  1017.902
  19  1004.878
  20  1014.207
  21  1099.326
  22  1214.183
  23  1031.63
  24  1141.829
  25  1058.395
  26  1086.506
  27  1122.797
  28  1087.335
  29  996.5585
  30  968.2945
  31  1045.005
  32  998.8409
  33  1027.9
  34  1123.473
  35  1039.568
  36  967.8474
  37  990.769
  38  1023.079
  39  982.2936
  40  1118.877
  41  1163.801
  42  1053.203
  43  953.7908
  44  809.0822
  45  938.4648
  46  924.4437
  47  963.9726
  48  1067.82
  49  1083.038
  50  1083.921
  51  1071.782
  52  1164.502
  53  1194.209
  54  1117.687
  55  1134.209
  56  1140.418
  57  1053.813
  58  1039.124
  59  1144.208
  60  1164.75
  61  1109.706
  62  1131.562
  63  1156.309
  64  958.0615
  65  1024.065
  66  1075.196
  67  1045.341
  68  1005.271
  69  1045.655
  70  1024.898
  71  1058.24
  72  1139.027
  73  1199.352
  74  1104.595
  75  988.2342
  76  960.8865
  77  1066.407
  78  1027.753
  79  1011.368
  80  918.7565
  81  999.8102
  82  933.6962
  83  1026.857
  84  1056.548
  85  1042.431
  86  1008.227
  87  983.5276
  88  976.0675
  89  947.033
  90  918.4235
  91  1089.382
  92  1180.129
  93  1130.762
  94  1030.389
  95  1061.133
  96  1185.699
  97  1180.966
  98  1131.411
  99  1026.746
 100  1065.444
 101  1171.992
 102  1173.324
 103  1106.867
 104  1061.063
 105  1081.632
 106  1188.189
 107  1106.599
 108  1170.874
 109  1156.258
 110  1144.035
 111  1044.203
 112  1162.512
 113  1120.431
 114  1091.543
 115  1118.458
 116  1220.152
 117  1238.537
 118  1210.17
 119  1106.414
 120  1120.724
 121  1102.85
 122  1151.086
 123  1147.512
 124  1161.433
 125  1225.237
 126  1210.168
 127  1152.011
 128  1032.742
 129  1044.58
 130  1030.78
 131  1045.346
 132  1125.781
 133  1032.546
 134  1091.87
 135  1096.778
 136  1155.406
 137  1220.903
 138  1176.925
 139  1203.993
 140  1277.876
 141  1185.793
 142  1148.85
 143  1121.087
 144  1145.246
 145  1093.518
 146  1147.52
 147  1136.781
 148  1134.822
 149  1207.729
 150  1193.052
 151  1249.667
 152  1169.274
 153  1174.891
 154  1139.645
 155  1197.903
 156  1213.672
 157  1141.016
 158  1168.259
 159  1127.427
 160  1122.989
 161  1168.431
 162  1149.646
 163  1186.418
 164  1138.097
 165  1186.095
 166  1166.75
 167  1078.413
 168  1057.919
 169  1138.708
 170  1141.087
 171  1134.554
 172  1222.612
 173  1141.332
 174  1043.258
 175  1043.981
 176  1063.477
 177  986.558
 178  1045.682
 179  1045.72
 180  1118.111
 181  1158.322
 182  1130.509
 183  1103.976
 184  1133.486
 185  1127.673
 186  1108.827
 187  1027.811
 188  1088.704
 189  1037.695
 190  979.2706
 191  1006.503
 192  1049.554
 193  943.9584
 194  1042.956
 195  1134.765
 196  1091.69
 197  1094.633
 198  1160.108
 199  1120.186
 200  1079.544
 201  1070.466
 202  991.6608
 203  977.7344
 204  950.4079
 205  1082.543
 206  1139.957
 207  1116.953
 208  1065.572
 209  1028.926
 210  968.5037
 211  1003.464
 212  1037.973
 213  1185.106
 214  1151.818
 215  1110.869
 216  1062.423
 217  1099.581
 218  1135.471
 219  970.0187
 220  1040.573
 221  1212.33
 222  1185.596
 223  1171.839
 224  1161.284
 225  1056.166
 226  1093.89
 227  1041.836
 228  1139.017
 229  1101.535
 230  1025.732
 231  1050.417
 232  1076.211
 233  1182.37
 234  1198.426
 235  1218.299
 236  1172.871
 237  1190.032
 238  1136.827
 239  1079.341
 240  1160.554
 241  1168.911
 242  1050.569
 243  1102.237
 244  1125.96
 245  1089.934
 246  1023.016
 247  1024.861
 248  1071.318
 249  1187.268
 250  1132.443
 251  1038.004
 252  1083.142
 253  1134.356
 254  1148.188
 255  1100.091
 256  1111.128
 257  1124.497
 258  1025.649
 259  1098.198
 260  1114.52
 261  1149.27
 262  1156.392
 263  1112.885
 264  1037.569
 265  992.6146
 266  1007.737
 267  1122.076
 268  1178.854
 269  1201.872
 270  1204.844
 271  1114.772
 272  1162.668
 273  1121.736
 274  1060.656
 275  1150.672
 276  1110.437
 277  1042.913
 278  988.0295
 279  960.0541
 280  1070.737
 281  1039.464
 282  986.5256
 283  1006.234
 284  962.3135
 285  978.3453
 286  959.9711
 287  1103.544
 288  1108.747
 289  1051.572
 290  945.6669
 291  903.5453
 292  1086.266
 293  1004.815
 294  1032.23
 295  1176.569
 296  1133.179
 297  1012.343
 298  991.2889
 299  1061.769
 300  967.35
 301  919.4146
 302  1019.167
 303  1191.943
 304  1122.269
 305  1111.091
 306  1182.783
 307  1199.84
 308  1159.632
 309  1101.736
 310  1086.498
 311  1092.627
 312  1055.36
 313  1028.081
 314  998.2021
 315  1100.95
 316  1044.6
 317  1004.71
 318  995.7852
 319  1064.997
 320  1123.803
 321  1305.507
 322  1310.933
 323  1309.979
 324  1323.297
 325  1255.594
 326  1231.66
 327  1156.612
 328  1106.479
 329  1218.431
 330  1304.134
 331  1254.415
 332  1124.203
 333  1102.318
 334  1112.832
 335  1124.683
 336  1094.487
 337  1117.313
 338  1118.193
 339  1087.883
 340  1126.579
 341  1131.002
 342  1140.982
 343  1064.986
 344  966.4857
 345  1090.246
 346  1137.24
 347  1147.109
 348  1107.55
 349  1047.899
 350  1093.57
 351  1105.837
 352  1087.267
 353  1171.548
 354  1223.687
 355  1150.085
 356  1139.265
 357  1076.366
 358  1039.191
 359  993.8346
 360  973.0706
 361  1114.407
 362  1107.996
 363  1185.28
 364  1156.33
 365  1025.464
 366  1018.792
 367  1056.035
 368  1096.55
 369  1167
 370  1214.628
 371  1117.546
 372  1071.227
 373  1055.247
 374  1044.042
 375  1025.857
 376  997.168
 377  1069.836
 378  1079.735
 379  1079.006
 380  1061.754
 381  1198.783
 382  1152.961
 383  991.6935
 384  1051.584
 385  1150.901
 386  1166.832
 387  1163.478
 388  1160.561
 389  1250.934
 390  1213.828
 391  1160.063
 392  1128.594
 393  1082.514
 394  1107.08
 395  1189.322
 396  1246.884
 397  1217.87
 398  1210.511
 399  1106.614
 400  1086.121
 401  972.1178
 402  1118.479
 403  1132.14
 404  1068.672
 405  1099.714
 406  1054.544
 407  1083.381
 408  1138.165
 409  1128.202
 410  1076.938
 411  1120.07
 412  1137.505
 413  1160.678
 414  1218.046
 415  1189.307
 416  1173.459
 417  1172.368
 418  1025.452
 419  1046.879
 420  1114.159
 421  1142.034
 422  1050.223
 423  1033.238
 424  1062.46
 425  1183.624
 426  1162.097
 427  1221.398
 428  1124.289
 429  1144.891
 430  1031.782
 431  970.827
 432  1101.739
 433  1016.037
 434  1100.158
 435  1128.803
 436  1114.242
 437  1088.701
 438  1129.243
 439  1074.862
 440  1026.026
 441  1024.369
 442  1017.51
 443  1100.607
 444  1118.501
 445  1115.667
 446  1174.372
 447  1094.691
 448  1086.088
 449  1057.577
 450  1064.428
 451  978.0955
 452  1053.229
 453  1135.682
 454  1036.049
 455  1173.238
 456  1088.116
 457  1041.895
 458  1050.257
 459  1216.943
 460  1285.053
 461  1073.222
 462  1052.765
 463  1066.733
 464  1007.424
 465  976.5654
 466  1112.116
 467  1216.504
 468  1124.914
 469  1157.203
 470  1045.277
 471  1029.778
 472  1011.499
 473  1009.133
 474  1097.683
 475  1061.775
 476  1128.358
 477  1071.349
 478  1007.217
 479  998.2
 480  925.7738
 481  1045.098
 482  959.9885
 483  1023.936
 484  1035.882
 485  1072.213
 486  1159.451
 487  1087.575
 488  1070.547
 489  1049.197
 490  998.7271
 491  1038.908
 492  1065.667
 493  1108.855
 494  1075.117
 495  1067.743
 496  1050.224
 497  963.1555
 498  931.3309
 499  1020.338
 500  1021.2
 501  1019.929
 502  997.4899
 503  1122.532
 504  1099.011
 505  1059.449
 506  1120.814
 507  1191.733
 508  1187.862
 509  1338.835
 510  1408.1
 511  1388.308
