# Input file       =  1195588322.105109_cleaned.dat
# Candidate        =  PSR_0332+5434
# Telescope        =  AR
# Epoch_topo       =  58081.828022049871
# Epoch_bary       =  N/A
# T_sample         =  0.002
# Data Folded      =  7340032
# Data Avg         =  0.0681863657961874
# Data StdDev      =  1.00022764718781 
# Profile Bins     =  512
# Profile Avg      =  977.498934963934 
# Profile StdDev   =  119.760293265786 
# Reduced chi-sqr  =  0.721
# Prob(Noise)      <  1   (~0.0 sigma)
# P_topo (ms)      =  714.519298429094  +/- 0.000154
# P'_topo (s/s)    =  -0                +/- 8.14e-11
# P''_topo (s/s^2) =  0                 +/- 3.59e-14
# P_bary (ms)      =  N/A
# P'_bary (s/s)    =  N/A
# P''_bary (s/s^2) =  N/A
# P_orb (s)        =  N/A
# asin(i)/c (s)    =  N/A
# eccentricity     =  N/A
# w (rad)          =  N/A
# T_peri           =  N/A
######################################################
   0  1041.601
   1  1017.509
   2  1044.214
   3  1139.061
   4  1099.824
   5  1041.914
   6  978.7144
   7  1017.341
   8  1019.327
   9  1019.3
  10  972.3931
  11  996.207
  12  913.7212
  13  974.3861
  14  1031.425
  15  1036.137
  16  980.7117
  17  949.8865
  18  1026.208
  19  1033.512
  20  887.66
  21  1033.125
  22  1116.836
  23  1011.312
  24  926.9128
  25  818.182
  26  931.6541
  27  969.3727
  28  1046.314
  29  946.1069
  30  963.3371
  31  989.2111
  32  1017.035
  33  991.2389
  34  937.5505
  35  951.9415
  36  975.163
  37  949.7734
  38  848.1417
  39  974.2054
  40  871.5736
  41  885.3633
  42  957.1882
  43  999.5942
  44  967.884
  45  989.1686
  46  1073.712
  47  1012.809
  48  1008.882
  49  992.1067
  50  1050.223
  51  964.4224
  52  887.7402
  53  878.7451
  54  913.9608
  55  1066.152
  56  1098.416
  57  1044.794
  58  1123.339
  59  1042.661
  60  1135.966
  61  1200.586
  62  1285.272
  63  1282.814
  64  1429.335
  65  1445.897
  66  1244.124
  67  1067.377
  68  998.8954
  69  1040.787
  70  988.3845
  71  946.8918
  72  906.7261
  73  859.2091
  74  909.6965
  75  925.1741
  76  983.2291
  77  915.5884
  78  1057.685
  79  1064.744
  80  986.7635
  81  936.7411
  82  970.2318
  83  883.7482
  84  990.7899
  85  1029.975
  86  973.6969
  87  1049.219
  88  994.4385
  89  972.5748
  90  1055.692
  91  957.6962
  92  956.5309
  93  1129.034
  94  1137.686
  95  963.4771
  96  877.8896
  97  953.7128
  98  974.5137
  99  953.97
 100  953.5383
 101  975.8528
 102  921.699
 103  987.1271
 104  1014.18
 105  1030.604
 106  1015.594
 107  1121.686
 108  1041.937
 109  921.5151
 110  1019.315
 111  982.6399
 112  1008.078
 113  963.7274
 114  1036.267
 115  938.7275
 116  880.4268
 117  966.6973
 118  925.4132
 119  985.1346
 120  960.3979
 121  1111.219
 122  1080.851
 123  1050.193
 124  910.6961
 125  874.5699
 126  967.0869
 127  968.2065
 128  885.3237
 129  902.2986
 130  953.4153
 131  910.4387
 132  964.8715
 133  1070.977
 134  1085.814
 135  1027.236
 136  955.7084
 137  968.5102
 138  954.7507
 139  877.9949
 140  808.3054
 141  901.6564
 142  988.0959
 143  1022.149
 144  1019.719
 145  944.0492
 146  950.5979
 147  978.478
 148  1043.598
 149  921.9161
 150  929.9416
 151  915.5165
 152  918.5824
 153  922.5752
 154  925.1416
 155  985.2778
 156  891.8799
 157  968.6137
 158  892.42
 159  888.1889
 160  941.6323
 161  963.3726
 162  983.0432
 163  827.6476
 164  960.9999
 165  963.3508
 166  927.0155
 167  972.1495
 168  941.5999
 169  940.6752
 170  913.5262
 171  1003.639
 172  937.2458
 173  992.3583
 174  976.9119
 175  966.6274
 176  968.9916
 177  906.9695
 178  923.0215
 179  944.9026
 180  974.9086
 181  965.3176
 182  963.5253
 183  893.582
 184  918.7535
 185  950.9699
 186  937.5209
 187  1022.739
 188  989.0057
 189  1040.21
 190  1047.217
 191  1028.715
 192  1019.23
 193  1021.175
 194  971.8238
 195  935.2943
 196  966.1605
 197  920.3948
 198  845.2878
 199  844.5137
 200  905.9984
 201  920.3957
 202  906.4352
 203  962.027
 204  900.913
 205  953.1683
 206  890.3915
 207  977.2068
 208  932.2817
 209  882.3945
 210  861.2086
 211  909.3638
 212  999.817
 213  939.7767
 214  959.6252
 215  894.4723
 216  865.1498
 217  874.5366
 218  972.8491
 219  956.9066
 220  985.9345
 221  921.631
 222  925.9872
 223  996.0792
 224  1026.1
 225  988.9262
 226  944.9704
 227  998.234
 228  1086.257
 229  1084.208
 230  1044.923
 231  1003.3
 232  982.0756
 233  969.72
 234  1010.889
 235  1022.696
 236  1088.036
 237  1040.395
 238  963.3655
 239  1031.952
 240  912.1502
 241  859.3221
 242  916.0367
 243  1061.757
 244  1085.975
 245  1086.946
 246  987.1974
 247  1034.895
 248  1031.823
 249  1017.067
 250  1101.582
 251  1049.762
 252  1051.822
 253  1004.566
 254  958.3659
 255  943.7053
 256  884.9018
 257  997.0301
 258  1044.213
 259  1046.864
 260  1009.845
 261  1002.785
 262  942.5255
 263  929.2134
 264  975.5638
 265  1101.415
 266  1091.304
 267  1014.761
 268  1082.459
 269  1058.713
 270  1025.794
 271  941.4414
 272  966.1701
 273  1030.9
 274  1040.789
 275  1098.88
 276  1034.658
 277  1089.093
 278  999.0649
 279  1013.587
 280  944.5151
 281  964.2885
 282  936.4047
 283  898.061
 284  949.7566
 285  955.0493
 286  979.416
 287  1015.094
 288  879.9436
 289  961.1497
 290  1049.71
 291  1088.824
 292  943.6143
 293  917.482
 294  970.4731
 295  1004.464
 296  1080.245
 297  1011.664
 298  943.5924
 299  917.086
 300  981.8895
 301  1037.949
 302  1021.286
 303  971.3247
 304  856.9271
 305  894.1279
 306  942.7642
 307  975.5492
 308  1006.553
 309  1043.103
 310  992.5065
 311  1000.183
 312  1013.428
 313  937.8113
 314  981.87
 315  1077.394
 316  1074.87
 317  1030.136
 318  1106.054
 319  1005.719
 320  971.1055
 321  844.0504
 322  960.4569
 323  939.8696
 324  1004.754
 325  1113.221
 326  1036.424
 327  1016.162
 328  1029.161
 329  1063.59
 330  1026.125
 331  979.787
 332  975.1072
 333  939.1943
 334  1006.568
 335  888.1453
 336  894.8011
 337  992.3712
 338  930.385
 339  940.7726
 340  869.6397
 341  937.4578
 342  892.3572
 343  1014.502
 344  979.4388
 345  937.204
 346  951.9503
 347  958.1533
 348  968.16
 349  927.4603
 350  899.8051
 351  1009.2
 352  1073.201
 353  1033.745
 354  964.2358
 355  895.3431
 356  883.8607
 357  944.3333
 358  959.853
 359  967.303
 360  957.8799
 361  949.5645
 362  1001.251
 363  927.6904
 364  902.7454
 365  990.7792
 366  1016.734
 367  1015.937
 368  1000.463
 369  909.2596
 370  881.5834
 371  956.0626
 372  1055.797
 373  1114.488
 374  905.5259
 375  958.2224
 376  938.4841
 377  944.332
 378  905.2311
 379  1011.346
 380  1018.275
 381  1039.34
 382  992.4785
 383  1024.221
 384  1033.156
 385  993.9905
 386  969.9544
 387  1032.763
 388  1092.074
 389  1021.339
 390  958.7006
 391  975.1462
 392  1012.561
 393  966.9846
 394  1022.432
 395  1031.153
 396  935.1258
 397  935.6589
 398  973.2965
 399  968.1143
 400  1040.542
 401  1092.894
 402  1084.085
 403  934.308
 404  1010.544
 405  945.4377
 406  867.6172
 407  900.5601
 408  1059.764
 409  1020.86
 410  1061.051
 411  999.2293
 412  929.1588
 413  933.8132
 414  926.5513
 415  953.3891
 416  973.4844
 417  967.6846
 418  1075.047
 419  1078.655
 420  1036.686
 421  951.0373
 422  981.1996
 423  995.8333
 424  975.4943
 425  902.4946
 426  892.5626
 427  886.7571
 428  926.8576
 429  942.562
 430  933.442
 431  826.9332
 432  855.2462
 433  888.5815
 434  992.2466
 435  1008.41
 436  1017.191
 437  1042.321
 438  988.6697
 439  962.1174
 440  945.3282
 441  901.4775
 442  940.0722
 443  948.7186
 444  981.4168
 445  971.0647
 446  910.6389
 447  1003.009
 448  887.9516
 449  850.7183
 450  876.8773
 451  929.7288
 452  953.8692
 453  1001.931
 454  985.4765
 455  908.8177
 456  909.7451
 457  957.6249
 458  986.4189
 459  957.702
 460  906.287
 461  960.069
 462  895.369
 463  900.0482
 464  925.1696
 465  1025.034
 466  993.7548
 467  932.1985
 468  969.3045
 469  981.9224
 470  1002.741
 471  902.6868
 472  935.1511
 473  1008.083
 474  1017.192
 475  1035.908
 476  1044.91
 477  1064.723
 478  980.8192
 479  1035.145
 480  1009.98
 481  973.764
 482  994.7941
 483  965.8177
 484  959.0652
 485  953.7759
 486  1026.648
 487  954.5377
 488  920.1876
 489  876.765
 490  1014.331
 491  935.5266
 492  880.5064
 493  860.9155
 494  903.5738
 495  995.0222
 496  982.703
 497  934.4062
 498  850.8689
 499  824.0776
 500  822.0428
 501  917.9555
 502  807.3811
 503  804.7493
 504  857.7338
 505  875.268
 506  942.2433
 507  964.6902
 508  902.03
 509  958.7839
 510  1012.395
 511  1099.867
