# Input file       =  1195086376.112684_cleaned.dat
# Candidate        =  PSR_0332+5434
# Telescope        =  AR
# Epoch_topo       =  58076.018461952364
# Epoch_bary       =  N/A
# T_sample         =  0.002
# Data Folded      =  7340032
# Data Avg         =  6.67489546982585 
# Data StdDev      =  48.4191425932378 
# Profile Bins     =  512
# Profile Avg      =  95691.0273967368 
# Profile StdDev   =  5797.37096144797 
# Reduced chi-sqr  =  0.397
# Prob(Noise)      <  1   (~0.0 sigma)
# P_topo (ms)      =  714.5136390911    +/- 7.74e-05
# P'_topo (s/s)    =  -0                +/- 4.08e-11
# P''_topo (s/s^2) =  0                 +/- 1.8e-14
# P_bary (ms)      =  N/A
# P'_bary (s/s)    =  N/A
# P''_bary (s/s^2) =  N/A
# P_orb (s)        =  N/A
# asin(i)/c (s)    =  N/A
# eccentricity     =  N/A
# w (rad)          =  N/A
# T_peri           =  N/A
######################################################
   0  96972.98
   1  98563.12
   2  93462.12
   3  92816.45
   4  94996.7
   5  97365.16
   6  96016.55
   7  96174.89
   8  93986.98
   9  95607.2
  10  94371.61
  11  93572.95
  12  90864.2
  13  94962.49
  14  97609.98
  15  96545.27
  16  93307.87
  17  95922
  18  96857.16
  19  95495.84
  20  93087.12
  21  93678.55
  22  92803.81
  23  88001.56
  24  92540.43
  25  92951.97
  26  91441.66
  27  89867.13
  28  91979.2
  29  93790.85
  30  94010.77
  31  92348.84
  32  91766.78
  33  92285.06
  34  91653.2
  35  93186.41
  36  93854.66
  37  93792.44
  38  94378.7
  39  92521.73
  40  93113.12
  41  93162.02
  42  94018.32
  43  98909.48
  44  98876.68
  45  90245.64
  46  92685.96
  47  96798.2
  48  98134.43
  49  95881.48
  50  92543.7
  51  91589.85
  52  94496.99
  53  97833.94
  54  95519.89
  55  92607.59
  56  94324.86
  57  93480.02
  58  94351.13
  59  93978.34
  60  92860.07
  61  93377.66
  62  95718.65
  63  97867.2
  64  98738.63
  65  98893.84
  66  95651.52
  67  95115.02
  68  93723.98
  69  95264.33
  70  93418.21
  71  94872.81
  72  95614.96
  73  97051.64
  74  93873.18
  75  94045.79
  76  98130.9
  77  94922.61
  78  94729.55
  79  93526.16
  80  94153.28
  81  95021.58
  82  93215.16
  83  93840.12
  84  93531.14
  85  93095.86
  86  97346.4
  87  97226.81
  88  94177.4
  89  93719.05
  90  96842.84
  91  96174.3
  92  95368.39
  93  94572.21
  94  92478.5
  95  93830.45
  96  93582.09
  97  94691.98
  98  93727.47
  99  92069.46
 100  93378.53
 101  98072.93
 102  96538.52
 103  97080.95
 104  97814.98
 105  96359.56
 106  95294.45
 107  94444.5
 108  95513.28
 109  94558.51
 110  97436.41
 111  96909.24
 112  98347.46
 113  97093.77
 114  98250.03
 115  100436.8
 116  98246.91
 117  97943.35
 118  96655
 119  97179.16
 120  98277.65
 121  96730.1
 122  94353.05
 123  96207.95
 124  94515.85
 125  99147.38
 126  98054.6
 127  95706.74
 128  98615.3
 129  99993.05
 130  95243.99
 131  94791.74
 132  95891.76
 133  99502.28
 134  96897.73
 135  93400.26
 136  96894
 137  96209.39
 138  94289.81
 139  95229.72
 140  98730.21
 141  96785.98
 142  90382.36
 143  93858.95
 144  98091.52
 145  96490.65
 146  97075.34
 147  99920.55
 148  97216.05
 149  95807.37
 150  97897.34
 151  97731.82
 152  94217.64
 153  96498.95
 154  94636.18
 155  94002.9
 156  95100.73
 157  99427.77
 158  100636.4
 159  100468.6
 160  100751.4
 161  97936.24
 162  98995.07
 163  95009.19
 164  94353.75
 165  96326.66
 166  94898.34
 167  94570.24
 168  96879.91
 169  97251.92
 170  91850.49
 171  93040.42
 172  93834.65
 173  98197.3
 174  97514.87
 175  98005.95
 176  97698.86
 177  96980.89
 178  96020.66
 179  94822.2
 180  96298.52
 181  97865.2
 182  99439.38
 183  95031.8
 184  90506.86
 185  89310.67
 186  95461.33
 187  99511.03
 188  96854.12
 189  97282.4
 190  97293.81
 191  97914.12
 192  97669.43
 193  93374.59
 194  93601.52
 195  95375.77
 196  100762.5
 197  97414.5
 198  97185.77
 199  95081
 200  96483.45
 201  96579.8
 202  94187.31
 203  92425.99
 204  91819.05
 205  97513.03
 206  96547.76
 207  96537.48
 208  96331.69
 209  97781.77
 210  93024.72
 211  94618.48
 212  95841.48
 213  96912.83
 214  93236.42
 215  91484.67
 216  96302.59
 217  99233.05
 218  92776.07
 219  93365.75
 220  98544.28
 221  97516.98
 222  97290.74
 223  93821.38
 224  96604.52
 225  92914.39
 226  95491.58
 227  92298.44
 228  89046.23
 229  94149.16
 230  94259.6
 231  95361.04
 232  94976.67
 233  94762.09
 234  93743.55
 235  95083.41
 236  93812.26
 237  94649.74
 238  95908.48
 239  100767.6
 240  99117.8
 241  95326.12
 242  91937.03
 243  88718.66
 244  92492.98
 245  95232.6
 246  93015.57
 247  93915.41
 248  99627.48
 249  97387.45
 250  95809.75
 251  98542.64
 252  98560.71
 253  96178.99
 254  93628.81
 255  91376.2
 256  92990.86
 257  92981.3
 258  95806.81
 259  95605.07
 260  93551.38
 261  92500.16
 262  93473.44
 263  97426.42
 264  96385.59
 265  96987.77
 266  98706.79
 267  98626.96
 268  98312.96
 269  98702.29
 270  95148.55
 271  92221.48
 272  94561.86
 273  97794.68
 274  94380.95
 275  93034.09
 276  97333.06
 277  94774.9
 278  93039.86
 279  90937.74
 280  92575.26
 281  91227.33
 282  96941.92
 283  98484.47
 284  95654.37
 285  92609.93
 286  95209.91
 287  99539.61
 288  96898.63
 289  93828.79
 290  93579.52
 291  96382.56
 292  97714.72
 293  95517.16
 294  94420.21
 295  94771.63
 296  94428.59
 297  96784.48
 298  97583.31
 299  97480.58
 300  95098.98
 301  96215.3
 302  96410.55
 303  95184.42
 304  99397.09
 305  100340
 306  100031.6
 307  98533.25
 308  104262.2
 309  101802.1
 310  100435.9
 311  99509.27
 312  100225.8
 313  96838.2
 314  96313.93
 315  96052.8
 316  101353.4
 317  98264.73
 318  97231.15
 319  97111.69
 320  98283.13
 321  96005.31
 322  96736.44
 323  96292.43
 324  94093.99
 325  98500.8
 326  99848.23
 327  101597.4
 328  98844.87
 329  97250.05
 330  99336.26
 331  99395.55
 332  97280.32
 333  98848.65
 334  100938.7
 335  97488.42
 336  95825.14
 337  102860.7
 338  103268.7
 339  104268.3
 340  102455
 341  98685.22
 342  97522.7
 343  90929.09
 344  93980.3
 345  97698.85
 346  95382.15
 347  97978.2
 348  100610.3
 349  97653.23
 350  97654.67
 351  95191.06
 352  97929.28
 353  98275.9
 354  93707.94
 355  98461.03
 356  93665.24
 357  92742.19
 358  94983.81
 359  95626.9
 360  96151.8
 361  90594.45
 362  94804.66
 363  99978.66
 364  98798.36
 365  96827.83
 366  94392.4
 367  93103.69
 368  94366.71
 369  95703.15
 370  95296.55
 371  92461.85
 372  94148.69
 373  95331.91
 374  96158.02
 375  93823.17
 376  92516.44
 377  98032.44
 378  98893.01
 379  96655.58
 380  92761.61
 381  92146.8
 382  92971.57
 383  94181.34
 384  96885.51
 385  98957.51
 386  97517
 387  99701.61
 388  97454.34
 389  98095.89
 390  98478.76
 391  98102.17
 392  94881.2
 393  93365.55
 394  92513.48
 395  91022.99
 396  92370.23
 397  93823.41
 398  97213.45
 399  95933.16
 400  94140.88
 401  94313.33
 402  92958.8
 403  92079.27
 404  90278.53
 405  92885.53
 406  95666.48
 407  96080.87
 408  97914.57
 409  97297.54
 410  93035.26
 411  92961.68
 412  92331.04
 413  93482.2
 414  94176.57
 415  94621.15
 416  96628.56
 417  96052.88
 418  92542.73
 419  90952.84
 420  95979.76
 421  94787.89
 422  93090.94
 423  98955.66
 424  97157.27
 425  95213.57
 426  97528.63
 427  97107.41
 428  95299.8
 429  93717.96
 430  93891.12
 431  91503.79
 432  91146.45
 433  93929.47
 434  96932.7
 435  97665.2
 436  97708.95
 437  92833.65
 438  89116.05
 439  91739.98
 440  95368.6
 441  98265.62
 442  95507.75
 443  94882.03
 444  98729.62
 445  98826.59
 446  95321.73
 447  94372.63
 448  97089.55
 449  97374.17
 450  102010.1
 451  102509
 452  102905.2
 453  98351.58
 454  99332.27
 455  101978.3
 456  96993.85
 457  94725.13
 458  95477.74
 459  100209.3
 460  98449.88
 461  98238.24
 462  95451.05
 463  96937.5
 464  99445.81
 465  97835.09
 466  97475.21
 467  96409.73
 468  95748.22
 469  91644.81
 470  91798.84
 471  94923.65
 472  92784.06
 473  92359.77
 474  95210.7
 475  96260.13
 476  96381.1
 477  95697.37
 478  91742.97
 479  92336.1
 480  97321.95
 481  93517.98
 482  92098.55
 483  94953.93
 484  98904.48
 485  95824.55
 486  95163.66
 487  97068.95
 488  95838.73
 489  93356.17
 490  92153.77
 491  93105.8
 492  94763.25
 493  95236.86
 494  93651.45
 495  89485.76
 496  90348.76
 497  94073.51
 498  93832.96
 499  93873.77
 500  94867.3
 501  97221.99
 502  96623.45
 503  95247.47
 504  95872.34
 505  99884.05
 506  98089.28
 507  94473.2
 508  95375.55
 509  97082.59
 510  93904.42
 511  95921.48
