# Input file       =  1195933010.124426_cleaned.dat
# Candidate        =  PSR_0332+5434
# Telescope        =  AR
# Epoch_topo       =  58085.817466717890
# Epoch_bary       =  N/A
# T_sample         =  0.002
# Data Folded      =  7340032
# Data Avg         =  0.0628604553297839
# Data StdDev      =  1.00007101163321 
# Profile Bins     =  512
# Profile Avg      =  901.15473417255  
# Profile StdDev   =  119.741538815228 
# Reduced chi-sqr  =  0.942
# Prob(Noise)      <  0.824   (~0.0 sigma)
# P_topo (ms)      =  714.52343181251   +/- 8.72e-05
# P'_topo (s/s)    =  -0                +/- 4.6e-11
# P''_topo (s/s^2) =  0                 +/- 2.03e-14
# P_bary (ms)      =  N/A
# P'_bary (s/s)    =  N/A
# P''_bary (s/s^2) =  N/A
# P_orb (s)        =  N/A
# asin(i)/c (s)    =  N/A
# eccentricity     =  N/A
# w (rad)          =  N/A
# T_peri           =  N/A
######################################################
   0  1240.559
   1  1301.372
   2  1184.493
   3  924.8444
   4  913.3983
   5  823.2939
   6  901.944
   7  1034.567
   8  975.0497
   9  956.3702
  10  1036.367
  11  1040.881
  12  885.9828
  13  879.0877
  14  925.4483
  15  893.6183
  16  918.8405
  17  967.822
  18  909.9521
  19  929.0818
  20  869.449
  21  980.6083
  22  969.5831
  23  965.5865
  24  925.1534
  25  968.3686
  26  916.2548
  27  857.0963
  28  991.6935
  29  1005.015
  30  1068.358
  31  908.7482
  32  807.1406
  33  875.788
  34  847.8725
  35  873.4133
  36  864.7866
  37  929.7643
  38  961.749
  39  940.3366
  40  969.3929
  41  866.5108
  42  847.7075
  43  880.7291
  44  927.0063
  45  876.1577
  46  942.3555
  47  956.1859
  48  879.2997
  49  845.9017
  50  801.8108
  51  847.509
  52  833.5532
  53  966.0971
  54  878.0145
  55  771.5125
  56  818.849
  57  827.4637
  58  816.3674
  59  872.3146
  60  829.0004
  61  890.4982
  62  913.1185
  63  1019.162
  64  1038.844
  65  960.7198
  66  934.2605
  67  934.4186
  68  931.808
  69  996.7426
  70  901.3949
  71  861.4464
  72  850.3298
  73  914.7855
  74  902.4012
  75  948.7103
  76  1005.579
  77  876.716
  78  803.338
  79  816.3802
  80  949.0409
  81  1019.618
  82  1024.679
  83  959.1085
  84  781.5505
  85  807.6874
  86  836.9124
  87  823.1471
  88  908.4349
  89  835.5699
  90  807.1334
  91  791.6696
  92  766.0829
  93  874.2075
  94  855.8862
  95  864.3782
  96  903.5806
  97  989.4721
  98  1000.486
  99  983.4558
 100  932.4303
 101  912.776
 102  887.2535
 103  970.612
 104  971.6
 105  936.9342
 106  844.8136
 107  870.6123
 108  941.2208
 109  922.5377
 110  876.4078
 111  853.994
 112  849.6541
 113  794.1721
 114  795.687
 115  801.6044
 116  932.4729
 117  913.1605
 118  803.1875
 119  879.1838
 120  936.8479
 121  947.7032
 122  941.4598
 123  878.2855
 124  918.3237
 125  863.7239
 126  896.7377
 127  801.0392
 128  782.8049
 129  844.5571
 130  929.8286
 131  956.1349
 132  904.4516
 133  921.9532
 134  856.163
 135  969.8318
 136  944.2045
 137  890.7097
 138  901.1011
 139  893.2815
 140  890.6511
 141  847.1844
 142  899.9879
 143  906.2046
 144  888.3718
 145  855.9847
 146  888.9825
 147  846.2214
 148  799.5181
 149  770.6468
 150  896.4296
 151  938.2042
 152  891.2041
 153  896.8065
 154  949.886
 155  811.6485
 156  668.6933
 157  745.1941
 158  803.4694
 159  798.5632
 160  824.9233
 161  827.3492
 162  789.5371
 163  773.0991
 164  757.483
 165  688.1754
 166  743.1793
 167  851.9768
 168  941.3508
 169  913.5031
 170  797.5466
 171  750.5958
 172  844.6282
 173  888.7081
 174  911.7454
 175  835.845
 176  860.3027
 177  830.4761
 178  899.3539
 179  847.4596
 180  907.1123
 181  951.3285
 182  911.9388
 183  774.5332
 184  647.9467
 185  734.8824
 186  880.892
 187  885.9402
 188  822.9802
 189  893.2662
 190  922.5869
 191  902.8315
 192  893.9821
 193  863.7048
 194  865.4004
 195  900.9604
 196  884.3098
 197  889.7607
 198  846.3391
 199  758.3172
 200  736.5391
 201  814.5632
 202  797.7626
 203  817.5388
 204  820.0073
 205  800.3096
 206  813.6359
 207  845.5023
 208  811.2552
 209  726.7797
 210  769.9404
 211  867.8248
 212  902.3931
 213  740.5242
 214  787.509
 215  991.5469
 216  962.065
 217  936.2041
 218  929.8186
 219  900.5231
 220  979.7057
 221  934.1797
 222  846.7638
 223  754.5123
 224  838.5689
 225  978.2137
 226  912.8763
 227  794.572
 228  791.412
 229  759.3004
 230  802.4394
 231  845.8529
 232  853.1495
 233  808.7657
 234  766.0485
 235  764.5592
 236  813.7504
 237  876.9893
 238  919.7102
 239  941.5977
 240  980.9092
 241  873.4702
 242  767.2472
 243  745.9902
 244  851.6688
 245  876.8199
 246  901.126
 247  919.0643
 248  882.8073
 249  845.5718
 250  962.137
 251  1011.904
 252  946.3976
 253  892.3344
 254  964.5697
 255  953.1434
 256  822.9366
 257  822.0686
 258  879.2772
 259  881.1484
 260  918.9583
 261  838.0138
 262  804.2249
 263  854.4645
 264  881.6679
 265  901.1069
 266  901.6262
 267  981.1403
 268  978.1028
 269  951.9214
 270  940.662
 271  859.826
 272  904.1765
 273  929.3582
 274  894.0713
 275  901.0339
 276  890.3262
 277  940.2181
 278  948.6364
 279  912.4546
 280  901.0429
 281  847.075
 282  817.3455
 283  876.2325
 284  910.1532
 285  814.5205
 286  924.9603
 287  867.5736
 288  907.0195
 289  961.5391
 290  987.7372
 291  966.9129
 292  802.8444
 293  827.1537
 294  822.9313
 295  773.9868
 296  889.1824
 297  872.9593
 298  842.406
 299  796.6996
 300  778.7837
 301  773.7669
 302  775.7982
 303  854.0341
 304  839.272
 305  942.4294
 306  902.9169
 307  940.5623
 308  923.1475
 309  865.4041
 310  997.5644
 311  960.0603
 312  1006.093
 313  973.0385
 314  811.4383
 315  829.4611
 316  939.5438
 317  1032.071
 318  1069.927
 319  899.9386
 320  908.1541
 321  872.8306
 322  845.8856
 323  872.2312
 324  850.0385
 325  912.1179
 326  1025.992
 327  972.515
 328  901.7078
 329  905.6245
 330  921.9095
 331  902.7158
 332  883.2174
 333  888.6384
 334  966.6797
 335  947.3123
 336  849.8566
 337  849.7512
 338  790.836
 339  841.5422
 340  1004.619
 341  979.2045
 342  994.6213
 343  1001.913
 344  854.157
 345  881.4921
 346  951.4767
 347  983.0321
 348  937.1182
 349  959.9458
 350  887.6403
 351  827.6666
 352  779.7264
 353  677.5872
 354  771.2627
 355  764.864
 356  851.1213
 357  739.2147
 358  724.9697
 359  799.6536
 360  820.1967
 361  808.6161
 362  847.2864
 363  916.1139
 364  950.7455
 365  881.7559
 366  820.3135
 367  871.645
 368  805.4268
 369  829.4839
 370  881.1594
 371  869.6791
 372  868.1288
 373  972.3441
 374  981.5853
 375  933.5319
 376  862.8032
 377  844.5569
 378  930.7925
 379  871.613
 380  814.1852
 381  772.5456
 382  845.4843
 383  962.9496
 384  1025.932
 385  858.6184
 386  804.2713
 387  874.2987
 388  854.8847
 389  975.0649
 390  1140.434
 391  1080.1
 392  930.8408
 393  839.1545
 394  888.6783
 395  863.3765
 396  808.0128
 397  922.962
 398  953.7582
 399  971.1285
 400  1074.309
 401  1043.119
 402  959.7234
 403  924.6733
 404  1048.4
 405  1042.126
 406  1006.055
 407  986.7393
 408  1039.463
 409  818.5656
 410  641.7242
 411  876.169
 412  1020.559
 413  1037.312
 414  926.9448
 415  954.563
 416  920.4147
 417  923.8929
 418  975.2184
 419  992.1116
 420  985.5808
 421  1018.961
 422  1026.351
 423  1022.767
 424  919.0173
 425  921.6184
 426  1036.972
 427  1061.042
 428  942.3456
 429  852.5434
 430  864.7277
 431  838.7892
 432  811.8987
 433  805.4891
 434  888.5229
 435  946.9036
 436  912.6672
 437  962.1646
 438  935.615
 439  893.0664
 440  952.2751
 441  1010.86
 442  899.5643
 443  910.4762
 444  1069.041
 445  1121.532
 446  924.0473
 447  970.9913
 448  956.9268
 449  918.2341
 450  996.294
 451  985.8028
 452  912.0755
 453  902.9888
 454  952.9296
 455  954.4379
 456  1010.848
 457  999.8496
 458  936.092
 459  1010.409
 460  964.6089
 461  921.3884
 462  905.4124
 463  931.8007
 464  904.0277
 465  889.4345
 466  968.8916
 467  955.9587
 468  975.7244
 469  857.5562
 470  965.6998
 471  870.6657
 472  893.9598
 473  950.1903
 474  1072.241
 475  1065.931
 476  970.4471
 477  1064.062
 478  1076.927
 479  1022.092
 480  968.1002
 481  924.713
 482  947.3456
 483  1006.015
 484  1019.569
 485  945.6194
 486  907.9838
 487  928.8316
 488  897.0128
 489  973.0464
 490  949.7638
 491  1050.354
 492  1014.056
 493  961.9962
 494  1036.957
 495  1092.885
 496  904.0589
 497  908.8041
 498  853.8089
 499  851.5189
 500  879.4609
 501  871.1875
 502  826.7931
 503  849.9048
 504  927.1615
 505  890.11
 506  969.5633
 507  1010.174
 508  960.5051
 509  1021.208
 510  1067.627
 511  1178.859
