# Input file       =  1195947911.114979_cleaned.dat
# Candidate        =  PSR_0332+5434
# Telescope        =  AR
# Epoch_topo       =  58085.989931886332
# Epoch_bary       =  N/A
# T_sample         =  0.002
# Data Folded      =  7340032
# Data Avg         =  0.192872377568814
# Data StdDev      =  6.89188237775365 
# Profile Bins     =  256
# Profile Avg      =  5530.04716947886 
# Profile StdDev   =  1166.98923754526 
# Reduced chi-sqr  =  0.729
# Prob(Noise)      <  1   (~0.0 sigma)
# P_topo (ms)      =  714.523950473189  +/- 0.000501
# P'_topo (s/s)    =  -0                +/- 2.64e-10
# P''_topo (s/s^2) =  0                 +/- 1.17e-13
# P_bary (ms)      =  N/A
# P'_bary (s/s)    =  N/A
# P''_bary (s/s^2) =  N/A
# P_orb (s)        =  N/A
# asin(i)/c (s)    =  N/A
# eccentricity     =  N/A
# w (rad)          =  N/A
# T_peri           =  N/A
######################################################
   0  5526.483
   1  7393.214
   2  7959.088
   3  6071.887
   4  6462.737
   5  5894.909
   6  5092.963
   7  5240.824
   8  5551.794
   9  6515.436
  10  6513.972
  11  6219.716
  12  6017.232
  13  6066.223
  14  6564.582
  15  6978.117
  16  6552.3
  17  6359.805
  18  5986.002
  19  6399.931
  20  7499.896
  21  6569.452
  22  5970.102
  23  5498.521
  24  5397.802
  25  6446.718
  26  4670.279
  27  5963.747
  28  6004.479
  29  5778.614
  30  5516.494
  31  5198.796
  32  5699.111
  33  5313.711
  34  6157.882
  35  5153.788
  36  5298.932
  37  6742.474
  38  6281.808
  39  6699.032
  40  6401.049
  41  5503.867
  42  6843.355
  43  5250.363
  44  5948.615
  45  6395.328
  46  6773.476
  47  5490.146
  48  6610.503
  49  5155.814
  50  5611.402
  51  6362.542
  52  5731.806
  53  5079.729
  54  5812.205
  55  5368.455
  56  6417.202
  57  7011.436
  58  7556.392
  59  5894.632
  60  5410.553
  61  5374.196
  62  4692.135
  63  5296.686
  64  5588.991
  65  5840.299
  66  7331.254
  67  7758.163
  68  6373.53
  69  5350.438
  70  5323.812
  71  4157.245
  72  3987.508
  73  5790.797
  74  5746.617
  75  5930.93
  76  4905.957
  77  6348.389
  78  5956.791
  79  6224.496
  80  6045.649
  81  5402.752
  82  5582.351
  83  3803.672
  84  4150.672
  85  4073.925
  86  5132.388
  87  5552.568
  88  4833.5
  89  4057.993
  90  5104.88
  91  5208.855
  92  5582.581
  93  5329.951
  94  6436.849
  95  6302.559
  96  5696.178
  97  5549.445
  98  6066.927
  99  6177.549
 100  6294.629
 101  5821.704
 102  6712.171
 103  6630.738
 104  7165.149
 105  7063.529
 106  6617.685
 107  6850.498
 108  6780.242
 109  5892.513
 110  5482.197
 111  5011.423
 112  6650.889
 113  7282.01
 114  6233.198
 115  5527.519
 116  6011.388
 117  4876.966
 118  4261.895
 119  4994.861
 120  5867.185
 121  5917.292
 122  6475.096
 123  6440.82
 124  6203.076
 125  6301.73
 126  5372.801
 127  5294.034
 128  5054.619
 129  5514.419
 130  5402.473
 131  4594.802
 132  5488.225
 133  4407.967
 134  4720.171
 135  4303.104
 136  5290.378
 137  5772.697
 138  5594.886
 139  5463.316
 140  5152.268
 141  5630.931
 142  4465.917
 143  5100.894
 144  4390.73
 145  4703.96
 146  5200.375
 147  4596.107
 148  3810.287
 149  4027.578
 150  5103.245
 151  5545.349
 152  5147.974
 153  4930.715
 154  5625.562
 155  4654.058
 156  5623.501
 157  6507.243
 158  5699.416
 159  4413.76
 160  3655.233
 161  4784.975
 162  5123.67
 163  6123.44
 164  5862.894
 165  5794.168
 166  5639.033
 167  4694.377
 168  4729.173
 169  4843.208
 170  5528.91
 171  4263.357
 172  4797.587
 173  5738.801
 174  5322.471
 175  5061.627
 176  5081.032
 177  5198.604
 178  5610.295
 179  5710.837
 180  6260.229
 181  5865.533
 182  6260.228
 183  5020.021
 184  4580.024
 185  4627.655
 186  5249.498
 187  5341.502
 188  6009.583
 189  4449.681
 190  4337.996
 191  5617.5
 192  5486.777
 193  5660.734
 194  5341.75
 195  5301.309
 196  6486.059
 197  5342.572
 198  5214.922
 199  4821.231
 200  5205.179
 201  5604.646
 202  5101.805
 203  5046.198
 204  4962.73
 205  5040.022
 206  5017.864
 207  4987.66
 208  5892.049
 209  5799.891
 210  6586.653
 211  5879.3
 212  6378.202
 213  6704.804
 214  5940.423
 215  5487.658
 216  6315.78
 217  5534.733
 218  5102.714
 219  4956.228
 220  5014.888
 221  3812.471
 222  3981.025
 223  4390.208
 224  4461.076
 225  3795.962
 226  4846.687
 227  4149.491
 228  5497.896
 229  4643.928
 230  4410.569
 231  3323.191
 232  3543.679
 233  3024.548
 234  3087.232
 235  4319.23
 236  6438.805
 237  6112.257
 238  5395.536
 239  5428.504
 240  5792.555
 241  3843.422
 242  5743.836
 243  6047.01
 244  5184.632
 245  4564.891
 246  5013.864
 247  5480.526
 248  4390.138
 249  5202.463
 250  5986.175
 251  5680.971
 252  5340.78
 253  7084.829
 254  7278.232
 255  5100.16
