# Input file       =  1195918367.104826_cleaned.dat
# Candidate        =  PSR_0332+5434
# Telescope        =  AR
# Epoch_topo       =  58085.647987324373
# Epoch_bary       =  N/A
# T_sample         =  0.002
# Data Folded      =  7208960
# Data Avg         =  0.317652445012408
# Data StdDev      =  9.63099028065193 
# Profile Bins     =  256
# Profile Avg      =  8943.77120084528 
# Profile StdDev   =  1616.17085167816 
# Reduced chi-sqr  =  0.579
# Prob(Noise)      <  1   (~0.0 sigma)
# P_topo (ms)      =  714.523234086988  +/- 6.4e-05
# P'_topo (s/s)    =  -0                +/- 3.44e-11
# P''_topo (s/s^2) =  0                 +/- 1.55e-14
# P_bary (ms)      =  N/A
# P'_bary (s/s)    =  N/A
# P''_bary (s/s^2) =  N/A
# P_orb (s)        =  N/A
# asin(i)/c (s)    =  N/A
# eccentricity     =  N/A
# w (rad)          =  N/A
# T_peri           =  N/A
######################################################
   0  8722.809
   1  7476.576
   2  8577.662
   3  8612.154
   4  8231.257
   5  9338.391
   6  9051.389
   7  10333.98
   8  8845.001
   9  9059.956
  10  8446.603
  11  7522.304
  12  7219.491
  13  7379.371
  14  8019.912
  15  7823.68
  16  9513.837
  17  7366.946
  18  7792.598
  19  8421.602
  20  8917.066
  21  8213.968
  22  9614.933
  23  9480.229
  24  7105.694
  25  7949.406
  26  7782.251
  27  8528.28
  28  6716.189
  29  8818.598
  30  8435.693
  31  7655.885
  32  8263.799
  33  8896.926
  34  8667.737
  35  7789.793
  36  8531.497
  37  9308.206
  38  9067.543
  39  8082.879
  40  8261.626
  41  8966.526
  42  8405.455
  43  8988.416
  44  7566.494
  45  8537.573
  46  8729.808
  47  7842.81
  48  8597.731
  49  8265.252
  50  8034.63
  51  7924.395
  52  9644.963
  53  9872.497
  54  9876.931
  55  7554.777
  56  8945.477
  57  10445.14
  58  8335.691
  59  9560.982
  60  8617.258
  61  9382.683
  62  8664.008
  63  9317.026
  64  8618.421
  65  8835.091
  66  8317.586
  67  7685.572
  68  7788.792
  69  6428.252
  70  7541.972
  71  8888.71
  72  9462.163
  73  8309.126
  74  8331.434
  75  8038.537
  76  7824.278
  77  8336.77
  78  8899.847
  79  9606.817
  80  8408.433
  81  8074.901
  82  7948.687
  83  7372.844
  84  8619.378
  85  9387.109
  86  9245.716
  87  7645.888
  88  9650.726
  89  7818.419
  90  8361.462
  91  8941.863
  92  7521.715
  93  8235.073
  94  8733.344
  95  10071.18
  96  9278.94
  97  9674.903
  98  9618.079
  99  8672.478
 100  10080.16
 101  8217.598
 102  9989.18
 103  9984.924
 104  10223.84
 105  8903.039
 106  8709.521
 107  8182.137
 108  8444.323
 109  8902.184
 110  8081.168
 111  9390.107
 112  8118.799
 113  9650.962
 114  9155.797
 115  9338.846
 116  8958.779
 117  8987.3
 118  9184.712
 119  7706.971
 120  9354.506
 121  9158.57
 122  8658.498
 123  8626.462
 124  9891.303
 125  9482.864
 126  9246.63
 127  10175.26
 128  9208.904
 129  9901.136
 130  8881.552
 131  10087.48
 132  10716.61
 133  10412.11
 134  11059.86
 135  8889.544
 136  11580.09
 137  10346.99
 138  10434.65
 139  10025.11
 140  11900.93
 141  12193.77
 142  10800.52
 143  10320.97
 144  8536.15
 145  10991.35
 146  9726.601
 147  8000.191
 148  9326.576
 149  9734.013
 150  9887.17
 151  10351.95
 152  11221.25
 153  10948.41
 154  11707.09
 155  11970.3
 156  13989.54
 157  11247.36
 158  10056.07
 159  8974.812
 160  8925.132
 161  10295.23
 162  9319.901
 163  9828.847
 164  8527.102
 165  8184.693
 166  8028.149
 167  7840.387
 168  9000.902
 169  8864.635
 170  9865.767
 171  8222.491
 172  8988.179
 173  7945.331
 174  9814.933
 175  9941.973
 176  9447.037
 177  9490.695
 178  8104.745
 179  9680.506
 180  9607.7
 181  9674.805
 182  8726.574
 183  8542.885
 184  7900.337
 185  7836.255
 186  9069.664
 187  9060.312
 188  9440.943
 189  9121.573
 190  10787.67
 191  10023.81
 192  8192.077
 193  9146.255
 194  8677.715
 195  9616.258
 196  8964.932
 197  9444.373
 198  7837.564
 199  8672.008
 200  8157.842
 201  8676.661
 202  9070.867
 203  7566.305
 204  8511.501
 205  9334.259
 206  9025.812
 207  9808.222
 208  9845.157
 209  8386.321
 210  8613.666
 211  10800.98
 212  9413.001
 213  9725.232
 214  9588.253
 215  10162.81
 216  8112.307
 217  9017.89
 218  10178.73
 219  8849.284
 220  11013.97
 221  10662.07
 222  9623.44
 223  7914.207
 224  9473.117
 225  8585.954
 226  7385.83
 227  8349.51
 228  8828.931
 229  7578.211
 230  7887.26
 231  9597.736
 232  10043.21
 233  9122.55
 234  8554.743
 235  9190.074
 236  9416.385
 237  8835.709
 238  9214.219
 239  7289.607
 240  8433.352
 241  7278.733
 242  8579.118
 243  8282.824
 244  7672.359
 245  7435.748
 246  6634.977
 247  7649.825
 248  7651.659
 249  9098.775
 250  8740.825
 251  9359.781
 252  8454.619
 253  7520.882
 254  7213.375
 255  7178.146
