# Input file       =  1195000152.117789_cleaned.dat
# Candidate        =  PSR_0332+5434
# Telescope        =  AR
# Epoch_topo       =  58075.020499048485
# Epoch_bary       =  N/A
# T_sample         =  0.002
# Data Folded      =  7340032
# Data Avg         =  1.2656217480835  
# Data StdDev      =  16.4151516410852 
# Profile Bins     =  1024
# Profile Avg      =  9071.28420750227 
# Profile StdDev   =  1389.77308722321 
# Reduced chi-sqr  =  0.510
# Prob(Noise)      <  1   (~0.0 sigma)
# P_topo (ms)      =  714.512614704518  +/- 3.39e-05
# P'_topo (s/s)    =  -0                +/- 1.79e-11
# P''_topo (s/s^2) =  0                 +/- 7.89e-15
# P_bary (ms)      =  N/A
# P'_bary (s/s)    =  N/A
# P''_bary (s/s^2) =  N/A
# P_orb (s)        =  N/A
# asin(i)/c (s)    =  N/A
# eccentricity     =  N/A
# w (rad)          =  N/A
# T_peri           =  N/A
######################################################
   0  9198.354
   1  8577.492
   2  9261.749
   3  9567.196
   4  9388.648
   5  10053.45
   6  9764.946
   7  9943.994
   8  10044.9
   9  9484.749
  10  9686.642
  11  9423.476
  12  9040.042
  13  9619.793
  14  9308.822
  15  9542.457
  16  9405.078
  17  8942.755
  18  9513.484
  19  9724.432
  20  9505.808
  21  9294.038
  22  8382.504
  23  7925.59
  24  8529.967
  25  8568.624
  26  9019.035
  27  8343.171
  28  8326.178
  29  9227.086
  30  9550.999
  31  10000.51
  32  9750.141
  33  9991.691
  34  9992.832
  35  9685.013
  36  8915.13
  37  8640.602
  38  8789.371
  39  8998.836
  40  9217.31
  41  9111.344
  42  9246.681
  43  9044.356
  44  8943.464
  45  8874.938
  46  9694.262
  47  9504.647
  48  9835.767
  49  9559.249
  50  9213.641
  51  8924.721
  52  8867.398
  53  8992.343
  54  8837.028
  55  8577.774
  56  8831.095
  57  8857.413
  58  8353.843
  59  8765.948
  60  9108.443
  61  9014.391
  62  9478.318
  63  9168.852
  64  9414.861
  65  9504.985
  66  9205.897
  67  9558.377
  68  8951.438
  69  8738.187
  70  9287.227
  71  8823.096
  72  8641.816
  73  8883.155
  74  8955.181
  75  9800.431
  76  9360.76
  77  9183.473
  78  9845.377
  79  9029.692
  80  8708.487
  81  8336.915
  82  8543.018
  83  9229.496
  84  8808.281
  85  8312.98
  86  8232.186
  87  7433.45
  88  8200.492
  89  8581.866
  90  8689.173
  91  9233.656
  92  9127.25
  93  8928.511
  94  8733.63
  95  7894.537
  96  8239.504
  97  8289.554
  98  8407.387
  99  8944.393
 100  8031.152
 101  8160.887
 102  8466.744
 103  8725.23
 104  9244.638
 105  9059.187
 106  8721.936
 107  8950.793
 108  8432.981
 109  8671.887
 110  8523.661
 111  8704.538
 112  9251.836
 113  9925.616
 114  9338.166
 115  9360.985
 116  8639.127
 117  8709.519
 118  8511.503
 119  8328.016
 120  8690.924
 121  8361.952
 122  8227.343
 123  8281.739
 124  8179.292
 125  8225.411
 126  8403.419
 127  8808.186
 128  9243.029
 129  9193.569
 130  8985.221
 131  9014.672
 132  9418.123
 133  9988.843
 134  10233.95
 135  10223.71
 136  9408.37
 137  9330.757
 138  9139.695
 139  9169.353
 140  9817.998
 141  10066.28
 142  9806.837
 143  9439.365
 144  9025.276
 145  9412.541
 146  9197.741
 147  9259.225
 148  9898.271
 149  9759.839
 150  9614.45
 151  9431.308
 152  9049.305
 153  9567.32
 154  9952.406
 155  9748.342
 156  10206.58
 157  9364.374
 158  9429.117
 159  9235.487
 160  9208.847
 161  10271.19
 162  9968.97
 163  9452.859
 164  9265.986
 165  8133.624
 166  8416.005
 167  8655.207
 168  8642.246
 169  9190.342
 170  9478.76
 171  9324.473
 172  9614.549
 173  8726.071
 174  9464.539
 175  9727.826
 176  9689.35
 177  10369.89
 178  9145.884
 179  8536.47
 180  8703.956
 181  8772.568
 182  9138.492
 183  8647.608
 184  8241.805
 185  8818.133
 186  8399.96
 187  8452.738
 188  8575.101
 189  8797.965
 190  9516.951
 191  9194.75
 192  8400.321
 193  8156.421
 194  8559.767
 195  9171.81
 196  9999.275
 197  9589.581
 198  9723.326
 199  8692.301
 200  7992.589
 201  8495.417
 202  8598.999
 203  9038.226
 204  8681.352
 205  8409.902
 206  8613.921
 207  8874.133
 208  8558.922
 209  8385.653
 210  8304.321
 211  8903.835
 212  8961.411
 213  9082.535
 214  9036.102
 215  9306.158
 216  9158.147
 217  8691.866
 218  8285.388
 219  8163.282
 220  8604.928
 221  8592.764
 222  8255.898
 223  8217.265
 224  8282.191
 225  8365.446
 226  9371.649
 227  9490.891
 228  9294.259
 229  8530.229
 230  7810.054
 231  8212.672
 232  8318.76
 233  8155.122
 234  8863.981
 235  8659.349
 236  9039.239
 237  8899.281
 238  8626.403
 239  9302.475
 240  9363.243
 241  9420.513
 242  9398.788
 243  8417.431
 244  7810.869
 245  8029.989
 246  8215.956
 247  9535.698
 248  9292.367
 249  9486.506
 250  9613.845
 251  8878.984
 252  8593.811
 253  8566.199
 254  8138.32
 255  8992.916
 256  8827.798
 257  8786.473
 258  8632.329
 259  8063.99
 260  8511.341
 261  8561.328
 262  8310.474
 263  9086.947
 264  9100.092
 265  8770.055
 266  8394.403
 267  7996.867
 268  8711.051
 269  8743.079
 270  8101.147
 271  8698.408
 272  8067.05
 273  7967.635
 274  7893.934
 275  8061.952
 276  9041.891
 277  9059.544
 278  8971.481
 279  9053.229
 280  9139.189
 281  9136.673
 282  8821.984
 283  8242.109
 284  9001.695
 285  9286.375
 286  8780.032
 287  8454.738
 288  8613.366
 289  8597.729
 290  8725.196
 291  8661.851
 292  9173.737
 293  9034.974
 294  8725.96
 295  8398.747
 296  8489.566
 297  8988.727
 298  9527.55
 299  9698.646
 300  9259.059
 301  8863.64
 302  8262.54
 303  7746.661
 304  8318.15
 305  8657.122
 306  8758.535
 307  8604.064
 308  7991.612
 309  8379.454
 310  8693.704
 311  9090.339
 312  10016.8
 313  10030.32
 314  10008.02
 315  9466.277
 316  9183.135
 317  9787.598
 318  9521.937
 319  8963.635
 320  9239.437
 321  8774.48
 322  9100.936
 323  8863.659
 324  8628.865
 325  9397.236
 326  9882.796
 327  10302.6
 328  10245.44
 329  9563.948
 330  9202.99
 331  9306.952
 332  8851.74
 333  9421.733
 334  9177.5
 335  9305.679
 336  9335.495
 337  9204.683
 338  9722.554
 339  9854.038
 340  9332.123
 341  10210.17
 342  9911.139
 343  9632.42
 344  9451.828
 345  8773.962
 346  8975.49
 347  8895.938
 348  8858.399
 349  9782.501
 350  9477.315
 351  9171.773
 352  9067.812
 353  8700.868
 354  9340.214
 355  9428.763
 356  9529.247
 357  10166.41
 358  9857.257
 359  9538.256
 360  9269.607
 361  8820.533
 362  9118.501
 363  8997.42
 364  8678.194
 365  9219.739
 366  8916.044
 367  8452.66
 368  8090.609
 369  8043.477
 370  8876.462
 371  9112.254
 372  9024.652
 373  9264.481
 374  8790.006
 375  8964.628
 376  8994.848
 377  9207.074
 378  9066.482
 379  8920.442
 380  8706.85
 381  9025.812
 382  8947.762
 383  9403.478
 384  9339.046
 385  9185.119
 386  8381.611
 387  8175.005
 388  7812.353
 389  7807.452
 390  8562.638
 391  9168.019
 392  9477.438
 393  9133.42
 394  8866.593
 395  8608.226
 396  8626.681
 397  8773.159
 398  9591.382
 399  9614.27
 400  9094.704
 401  8309.168
 402  7173.034
 403  7541.999
 404  8185.535
 405  8700.298
 406  9123.373
 407  8673.771
 408  8488.265
 409  8445.794
 410  8024.313
 411  9070.394
 412  9677.967
 413  9556.355
 414  9970.036
 415  9173.533
 416  8925.088
 417  8391.089
 418  7688.814
 419  8537.458
 420  8623.819
 421  8716.162
 422  8817.505
 423  8838.558
 424  9601.839
 425  9480.289
 426  8575.936
 427  9319.483
 428  9226.332
 429  9375.753
 430  8958.847
 431  8436.905
 432  8929.06
 433  9447.58
 434  8818.537
 435  8819.603
 436  8411.216
 437  8964.746
 438  9266.542
 439  9019.783
 440  9353.386
 441  9847.487
 442  9428.035
 443  9766.825
 444  9231.934
 445  9013.29
 446  8871.888
 447  8781.492
 448  9818.923
 449  10033.42
 450  9044.995
 451  8769.48
 452  8421.906
 453  9207.431
 454  9620.979
 455  9708.943
 456  9958.722
 457  9619.947
 458  9234.94
 459  9327.352
 460  8596.177
 461  8137.464
 462  8516.251
 463  9630.263
 464  9935.245
 465  9382.011
 466  8850.312
 467  8903.312
 468  8860.565
 469  8980.789
 470  9421.915
 471  9606.849
 472  8908.12
 473  8400.352
 474  8270.29
 475  8472.089
 476  8631.335
 477  8433.128
 478  8530.468
 479  8644.601
 480  8603.771
 481  8831.449
 482  8827.34
 483  8997.447
 484  9626.449
 485  9836.158
 486  9430.71
 487  9207.268
 488  8791.554
 489  9427.507
 490  9518.343
 491  9317.131
 492  9496.825
 493  8663.06
 494  8680.26
 495  9037.132
 496  8977.005
 497  9628.76
 498  9519.668
 499  9381.194
 500  9411.693
 501  8703.375
 502  8780.677
 503  8732.45
 504  8435.955
 505  8792.422
 506  8565.591
 507  8367.921
 508  8579.293
 509  7542.648
 510  8181.271
 511  8877.421
 512  9199.483
 513  9802.692
 514  9250.992
 515  8654.516
 516  8561.624
 517  7820.785
 518  8657.419
 519  8583.293
 520  8408.396
 521  8847.906
 522  8444.044
 523  8542.534
 524  8904.478
 525  9134.95
 526  9602.537
 527  9372.073
 528  9012.618
 529  8927.81
 530  7921.88
 531  7320.434
 532  7642.346
 533  7840.302
 534  8796.97
 535  9090.355
 536  8591.894
 537  8459.851
 538  8160.484
 539  8653.454
 540  8812.316
 541  8813.678
 542  9098.635
 543  8819.228
 544  8253.679
 545  8313.035
 546  8122.753
 547  7975.617
 548  8116.7
 549  8134.765
 550  8694.11
 551  9019.419
 552  9454.243
 553  9088.192
 554  8870.794
 555  8864.909
 556  9313.744
 557  9175.543
 558  8538.418
 559  8662.186
 560  8743.107
 561  8692.802
 562  8211.265
 563  8201.655
 564  8197.658
 565  8565.328
 566  8888.539
 567  9943.665
 568  9907.371
 569  9518.51
 570  10037.74
 571  9776.784
 572  9650.793
 573  9525.231
 574  8918.231
 575  9241.032
 576  8814.345
 577  8972.108
 578  9034.502
 579  8915.69
 580  8870.484
 581  8953.95
 582  8758.551
 583  9726.463
 584  9454.664
 585  9474.609
 586  9466.202
 587  8661.974
 588  8331.073
 589  7717.355
 590  7188.44
 591  7817.316
 592  8445.197
 593  8731.733
 594  9000.091
 595  8343.145
 596  8564.585
 597  8473.17
 598  8429.306
 599  9557.862
 600  9754.626
 601  9628.76
 602  9544.425
 603  8907.844
 604  9314.904
 605  8966.119
 606  8821
 607  9214.501
 608  9142.895
 609  8971.541
 610  9056.557
 611  8961.925
 612  9502.66
 613  9398.765
 614  9202.475
 615  10095.42
 616  10074.61
 617  9759.594
 618  9700.031
 619  9148.523
 620  9390.411
 621  8918.637
 622  8606.8
 623  8526.583
 624  8460.729
 625  9057.31
 626  9376.535
 627  9445.171
 628  9637.128
 629  9534.72
 630  9691.082
 631  10402.47
 632  10423.64
 633  9990.015
 634  9169.123
 635  8979.35
 636  9250.597
 637  9284.536
 638  9164.198
 639  8945.399
 640  9140.702
 641  8943.552
 642  9251.225
 643  8909.517
 644  8761.757
 645  8685.677
 646  8671.79
 647  8759.936
 648  8815.745
 649  8647.416
 650  8558.426
 651  8453.668
 652  8441.118
 653  8874.832
 654  8720.635
 655  8494.553
 656  8908.65
 657  9423.806
 658  9261.36
 659  9225.303
 660  8739.362
 661  9424.005
 662  9547.158
 663  9668.034
 664  10093.65
 665  9643.353
 666  9776.768
 667  9711.376
 668  9359.879
 669  9502.877
 670  8977.931
 671  8736.722
 672  8888.641
 673  8261.003
 674  8527.366
 675  8958.336
 676  8711.373
 677  9518.231
 678  9339.871
 679  9313.151
 680  9073.399
 681  8548.383
 682  8843.925
 683  8953.854
 684  8800.925
 685  9541.984
 686  9824.128
 687  9783.11
 688  9760.477
 689  8957.438
 690  9518.839
 691  9507.502
 692  8989.266
 693  9423.865
 694  8780.609
 695  8964.09
 696  9221.164
 697  8933.254
 698  9162.404
 699  9270.011
 700  9337.393
 701  10038.27
 702  9056.433
 703  8691.394
 704  8790.823
 705  9160.271
 706  10002.5
 707  9593.134
 708  8946.956
 709  9247.462
 710  8988.597
 711  9424.064
 712  9137.692
 713  9225.715
 714  9570.082
 715  9600.15
 716  9441.779
 717  9394.985
 718  9224.02
 719  9275.706
 720  9615.674
 721  9677.611
 722  9506.664
 723  9024.479
 724  8475.974
 725  8143.357
 726  8492.968
 727  9245.111
 728  9191.95
 729  8984.404
 730  8911.771
 731  9309.309
 732  9239.367
 733  8906.656
 734  9000.6
 735  9257.932
 736  9897.645
 737  10039.01
 738  9342.065
 739  9227.51
 740  9286.077
 741  9332.088
 742  9771.595
 743  9366.231
 744  9260.66
 745  9204.524
 746  8718.579
 747  9193.694
 748  8813.812
 749  8749.906
 750  9126.101
 751  9083.131
 752  9371.793
 753  9191.197
 754  8770.318
 755  9409.767
 756  9403.005
 757  9278.595
 758  9362.382
 759  8796.832
 760  8929.896
 761  8900.646
 762  8698.427
 763  9315.521
 764  9063.979
 765  8622.835
 766  8643.96
 767  7708.491
 768  8766.161
 769  9190.651
 770  8955.899
 771  9472.558
 772  9525.196
 773  9759.505
 774  9204.416
 775  8397.959
 776  8366.071
 777  8369.717
 778  8114.177
 779  9321.358
 780  9015.821
 781  9040.471
 782  8893.795
 783  8299.697
 784  9023.139
 785  9132.41
 786  9225.882
 787  9402.614
 788  9008.419
 789  8804.482
 790  8909.312
 791  8695.827
 792  9615.233
 793  9262.152
 794  9223.001
 795  9605.814
 796  9796.64
 797  9714.107
 798  9064.563
 799  8901.234
 800  9679.9
 801  9949.876
 802  9934.854
 803  9894.001
 804  9478.039
 805  9682.358
 806  9602.093
 807  9337.778
 808  9415.049
 809  9565.743
 810  9379.021
 811  8807.987
 812  8961.949
 813  9343.844
 814  9268.41
 815  9588.444
 816  9083.994
 817  9049.051
 818  8231.5
 819  8220.309
 820  8860.447
 821  9317.443
 822  9902.097
 823  9743.644
 824  9305.488
 825  9190.712
 826  9273.616
 827  9524.366
 828  10185.12
 829  9678.719
 830  9485.838
 831  9298.362
 832  9314.266
 833  9663.778
 834  9423.769
 835  9375.57
 836  10054.44
 837  10040.22
 838  9787.562
 839  9313.828
 840  8844.3
 841  9692.936
 842  9837.064
 843  9905.348
 844  10627.81
 845  9665.106
 846  9403.976
 847  8913.815
 848  8544.89
 849  9263.424
 850  9407.811
 851  9605.596
 852  9967.603
 853  9024.01
 854  9340.448
 855  9306.516
 856  9491.928
 857  10160.32
 858  9750.903
 859  9481.989
 860  9541.915
 861  9319.83
 862  9858.609
 863  9670.078
 864  9432.119
 865  10592.97
 866  10242.31
 867  9602.857
 868  9275.01
 869  9271.965
 870  10518.39
 871  10370.2
 872  9817.209
 873  10132.46
 874  9666.168
 875  9852.188
 876  9429.256
 877  9135.737
 878  9397.708
 879  9255.787
 880  9171.944
 881  9209.07
 882  8735.172
 883  8693.426
 884  8691.338
 885  8949.6
 886  9105.035
 887  8811.435
 888  9048.541
 889  8990.102
 890  8892.578
 891  8761.668
 892  8870.999
 893  9004.055
 894  8895.039
 895  8593.375
 896  8296.563
 897  8294.837
 898  8962.657
 899  9461.109
 900  10018.74
 901  10084.69
 902  9542.882
 903  9066.665
 904  8944.717
 905  9051.151
 906  9799.138
 907  9659.45
 908  9745.082
 909  9523.465
 910  9523.229
 911  10088.06
 912  10284.94
 913  10200.49
 914  10599.04
 915  10666.61
 916  10740.02
 917  10482.32
 918  9927.435
 919  10212.28
 920  9751.586
 921  9175.26
 922  9552.309
 923  9102.381
 924  9084.23
 925  8813.666
 926  8563.127
 927  9647.269
 928  9910.956
 929  9910.258
 930  9920.679
 931  9004.852
 932  9211.327
 933  9281.509
 934  8746.708
 935  8955.031
 936  9182.911
 937  9546.512
 938  9770.964
 939  8685.362
 940  8975.627
 941  9161.538
 942  8854.508
 943  9097.703
 944  8409.336
 945  8508.408
 946  8311.606
 947  8319.149
 948  8763.496
 949  8756.658
 950  8666.742
 951  9310.481
 952  9145.23
 953  8642.815
 954  8362.197
 955  8504.248
 956  9506.588
 957  10077.46
 958  9236.52
 959  9212.215
 960  8608.249
 961  8664.612
 962  8779.519
 963  8686.692
 964  9100.751
 965  8754.907
 966  8471.96
 967  8891.557
 968  9351.472
 969  9647.518
 970  9595.276
 971  9374.187
 972  10192.89
 973  10161.28
 974  9385.891
 975  8815.592
 976  8654.958
 977  9013.964
 978  9218.315
 979  9309.471
 980  9347.114
 981  9247.395
 982  9293.605
 983  9009.414
 984  9033.81
 985  8856.326
 986  9273.451
 987  9159.699
 988  8942.722
 989  8823.815
 990  9106.961
 991  9468.17
 992  9683.063
 993  9736.706
 994  9363.605
 995  9256.26
 996  8761.021
 997  9034.868
 998  9229.513
 999  8878.663
1000  9085.965
1001  8578.511
1002  8607.484
1003  8354.406
1004  7909.121
1005  8588.778
1006  8998.576
1007  9025.387
1008  9554.216
1009  8710.963
1010  9105.027
1011  8630.733
1012  8561.232
1013  9045.653
1014  8784.805
1015  8783.152
1016  9366.896
1017  9409.101
1018  9617.344
1019  9572.863
1020  8940.047
1021  9708.64
1022  9364.353
1023  9365.608
