# Input file       =  1195846833.110793_cleaned.dat
# Candidate        =  PSR_0332+5434
# Telescope        =  AR
# Epoch_topo       =  58084.820047578622
# Epoch_bary       =  N/A
# T_sample         =  0.002
# Data Folded      =  7340032
# Data Avg         =  0.106154376804126
# Data StdDev      =  1.00048223492046 
# Profile Bins     =  512
# Profile Avg      =  1521.86919528691 
# Profile StdDev   =  119.79077582804  
# Reduced chi-sqr  =  0.591
# Prob(Noise)      <  1   (~0.0 sigma)
# P_topo (ms)      =  714.522400205159  +/- 0.000244
# P'_topo (s/s)    =  -0                +/- 1.29e-10
# P''_topo (s/s^2) =  0                 +/- 5.68e-14
# P_bary (ms)      =  N/A
# P'_bary (s/s)    =  N/A
# P''_bary (s/s^2) =  N/A
# P_orb (s)        =  N/A
# asin(i)/c (s)    =  N/A
# eccentricity     =  N/A
# w (rad)          =  N/A
# T_peri           =  N/A
######################################################
   0  1463.785
   1  1407.494
   2  1399.915
   3  1508.375
   4  1421.563
   5  1399.386
   6  1441.709
   7  1483.531
   8  1474.519
   9  1414.859
  10  1506.241
  11  1504.486
  12  1420.125
  13  1452.527
  14  1434.768
  15  1431.495
  16  1419.398
  17  1420.072
  18  1371.409
  19  1328.574
  20  1441.976
  21  1464.345
  22  1484.337
  23  1417.606
  24  1491.136
  25  1535.007
  26  1489.06
  27  1464.424
  28  1409.011
  29  1488.428
  30  1479.173
  31  1464.501
  32  1524.864
  33  1427.104
  34  1503.117
  35  1484.51
  36  1458.093
  37  1462.471
  38  1424.449
  39  1522.016
  40  1475.785
  41  1445.023
  42  1563.823
  43  1510.711
  44  1435.193
  45  1397.081
  46  1454.994
  47  1479.306
  48  1610.977
  49  1585.507
  50  1594.963
  51  1584.722
  52  1581.749
  53  1565.869
  54  1498.391
  55  1519.839
  56  1551.627
  57  1469.181
  58  1455.034
  59  1520
  60  1501.979
  61  1511.454
  62  1467.933
  63  1589.793
  64  1530.449
  65  1538.648
  66  1516.068
  67  1551.148
  68  1505.768
  69  1534.846
  70  1579.089
  71  1610.349
  72  1629.686
  73  1543.255
  74  1510.17
  75  1625.809
  76  1427.972
  77  1368.875
  78  1463.798
  79  1519.931
  80  1477.9
  81  1419.492
  82  1556.478
  83  1500.881
  84  1517.297
  85  1523.518
  86  1527.402
  87  1563.94
  88  1597.475
  89  1585.992
  90  1480.881
  91  1508.949
  92  1542.059
  93  1440.51
  94  1487.623
  95  1566.549
  96  1557.057
  97  1520.48
  98  1488.359
  99  1529.139
 100  1514.087
 101  1494.095
 102  1574.461
 103  1605.163
 104  1582.712
 105  1442.08
 106  1502.901
 107  1496.782
 108  1467.659
 109  1476.485
 110  1471.937
 111  1517.621
 112  1525.664
 113  1472.748
 114  1466.651
 115  1498.801
 116  1529.868
 117  1488.119
 118  1426.83
 119  1448.504
 120  1480.339
 121  1526.742
 122  1530.677
 123  1658.247
 124  1576.602
 125  1588.421
 126  1542.949
 127  1504.932
 128  1490.779
 129  1492.952
 130  1535.438
 131  1568.969
 132  1526.875
 133  1449.11
 134  1435.468
 135  1440.662
 136  1487.409
 137  1507.887
 138  1474.154
 139  1555.634
 140  1514.91
 141  1479.606
 142  1551.516
 143  1572.896
 144  1503.802
 145  1483.407
 146  1554.946
 147  1549.116
 148  1440.522
 149  1429.384
 150  1590.333
 151  1703.828
 152  1643.133
 153  1645.881
 154  1585.143
 155  1575.117
 156  1525.267
 157  1570.809
 158  1645.695
 159  1686.796
 160  1619.417
 161  1581.27
 162  1430.468
 163  1507.973
 164  1560.087
 165  1552.63
 166  1604.694
 167  1566.046
 168  1513.845
 169  1452.613
 170  1476.13
 171  1631.474
 172  1579.436
 173  1506.556
 174  1507.129
 175  1523.619
 176  1518.578
 177  1496.097
 178  1482.082
 179  1636.288
 180  1632.531
 181  1623.39
 182  1532.559
 183  1508.164
 184  1564.818
 185  1617.104
 186  1614.561
 187  1561.548
 188  1556.287
 189  1505.184
 190  1502.002
 191  1483.12
 192  1479.995
 193  1427.32
 194  1535.619
 195  1577.869
 196  1563.605
 197  1515.239
 198  1508.655
 199  1571.933
 200  1572.264
 201  1454.591
 202  1539.684
 203  1564.346
 204  1631.181
 205  1515.048
 206  1508.575
 207  1591.809
 208  1566.569
 209  1536.911
 210  1510.925
 211  1596.344
 212  1633.368
 213  1585.236
 214  1589.326
 215  1555.204
 216  1522.974
 217  1506.311
 218  1582.42
 219  1531.34
 220  1581.948
 221  1566.102
 222  1622.633
 223  1591.804
 224  1597.998
 225  1533.504
 226  1577.128
 227  1516.254
 228  1406.479
 229  1348.368
 230  1485.886
 231  1568.841
 232  1549.079
 233  1510.442
 234  1456.641
 235  1544.59
 236  1528.505
 237  1476.425
 238  1518.998
 239  1623.101
 240  1597.166
 241  1555.65
 242  1563.13
 243  1534.598
 244  1452.195
 245  1517.29
 246  1572.869
 247  1544.283
 248  1442.48
 249  1522.121
 250  1662.353
 251  1653.045
 252  1592.478
 253  1697.907
 254  1665.364
 255  1592.67
 256  1619.503
 257  1476.688
 258  1367.61
 259  1552.922
 260  1589.922
 261  1619.249
 262  1532.529
 263  1502.891
 264  1497.777
 265  1499.46
 266  1483.202
 267  1527.271
 268  1465.182
 269  1402.92
 270  1474.601
 271  1500.386
 272  1528.51
 273  1502.033
 274  1603.067
 275  1627.337
 276  1599.005
 277  1524.978
 278  1614.545
 279  1592.922
 280  1511.544
 281  1513.705
 282  1529.678
 283  1545.339
 284  1603.605
 285  1591.057
 286  1491.263
 287  1464.349
 288  1561.933
 289  1496.32
 290  1529.156
 291  1483.927
 292  1548.947
 293  1545.684
 294  1621.761
 295  1630
 296  1591.412
 297  1601.046
 298  1598.841
 299  1476.822
 300  1572.565
 301  1500.46
 302  1559.025
 303  1596.996
 304  1546.545
 305  1390.074
 306  1394.388
 307  1519.971
 308  1590.369
 309  1639.521
 310  1600.056
 311  1524.943
 312  1588.802
 313  1508.128
 314  1522.576
 315  1573.441
 316  1568.975
 317  1548.153
 318  1490.231
 319  1478.027
 320  1438.308
 321  1457.779
 322  1488.47
 323  1420.445
 324  1524.602
 325  1576.556
 326  1598.332
 327  1508.629
 328  1499.655
 329  1516.127
 330  1448.59
 331  1513.343
 332  1528.093
 333  1556.272
 334  1584.566
 335  1618.53
 336  1608.381
 337  1561.39
 338  1536.13
 339  1590.574
 340  1535.262
 341  1444.053
 342  1469.805
 343  1540.586
 344  1458.897
 345  1456.921
 346  1469.262
 347  1443.612
 348  1488.824
 349  1495.357
 350  1493.983
 351  1527.418
 352  1554.185
 353  1577.323
 354  1570.388
 355  1591.705
 356  1522.814
 357  1515.386
 358  1489.406
 359  1489.039
 360  1539.685
 361  1551.541
 362  1570.207
 363  1456.793
 364  1481.891
 365  1493.905
 366  1612.891
 367  1560.042
 368  1543.086
 369  1479.94
 370  1519.729
 371  1552.315
 372  1441.166
 373  1418.8
 374  1486.668
 375  1504.11
 376  1599.003
 377  1492.934
 378  1393.079
 379  1414.809
 380  1444.805
 381  1481.209
 382  1462.807
 383  1548.563
 384  1587.629
 385  1422.563
 386  1530.999
 387  1529.999
 388  1543.41
 389  1483.76
 390  1461.878
 391  1430.202
 392  1465.707
 393  1472.186
 394  1505.442
 395  1441.079
 396  1409.327
 397  1338.41
 398  1513.036
 399  1549.951
 400  1461.034
 401  1410.914
 402  1433.144
 403  1514.157
 404  1506.134
 405  1460.112
 406  1442.509
 407  1630.01
 408  1564.325
 409  1503.552
 410  1504.653
 411  1445.142
 412  1547.894
 413  1646.673
 414  1658.476
 415  1502.27
 416  1365.076
 417  1432.394
 418  1531.941
 419  1568.217
 420  1471.069
 421  1463.676
 422  1477.157
 423  1408.943
 424  1414.702
 425  1510.994
 426  1582.799
 427  1588.278
 428  1632.321
 429  1596.235
 430  1553.994
 431  1575.574
 432  1617.75
 433  1562.494
 434  1577.046
 435  1542.176
 436  1543.735
 437  1573.76
 438  1569.47
 439  1543.968
 440  1484.67
 441  1541.767
 442  1518.914
 443  1600.127
 444  1566.105
 445  1416.44
 446  1496.981
 447  1552.594
 448  1494.537
 449  1502.354
 450  1564.649
 451  1476.264
 452  1414.679
 453  1453.658
 454  1515.86
 455  1489.997
 456  1541.043
 457  1571.16
 458  1611.701
 459  1535.505
 460  1518.536
 461  1500.94
 462  1574.567
 463  1575.304
 464  1585.943
 465  1563.668
 466  1623.118
 467  1590.102
 468  1499.828
 469  1437.838
 470  1471.285
 471  1491.526
 472  1482.382
 473  1396.289
 474  1413.32
 475  1415.918
 476  1443.853
 477  1409.678
 478  1435.752
 479  1420.029
 480  1382.331
 481  1368.889
 482  1513.494
 483  1609.609
 484  1519.812
 485  1457.236
 486  1515.395
 487  1534.396
 488  1571.919
 489  1662.851
 490  1606.138
 491  1616.154
 492  1534.995
 493  1588.294
 494  1632.278
 495  1664.527
 496  1722.87
 497  1640.72
 498  1527.573
 499  1497.779
 500  1492.891
 501  1584.672
 502  1582.143
 503  1632.936
 504  1616.793
 505  1593.221
 506  1598.554
 507  1641.226
 508  1504.851
 509  1409.873
 510  1463.558
 511  1495.864
