# Input file       =  1195502192.101845_cleaned.dat
# Candidate        =  PSR_0332+5434
# Telescope        =  AR
# Epoch_topo       =  58080.831147012097
# Epoch_bary       =  N/A
# T_sample         =  0.002
# Data Folded      =  7340032
# Data Avg         =  0.29390138376974 
# Data StdDev      =  4.9719115818058  
# Profile Bins     =  512
# Profile Avg      =  4212.12153586194 
# Profile StdDev   =  595.302070286419 
# Reduced chi-sqr  =  0.582
# Prob(Noise)      <  1   (~0.0 sigma)
# P_topo (ms)      =  714.51826556142   +/- 0.000743
# P'_topo (s/s)    =  -0                +/- 3.92e-10
# P''_topo (s/s^2) =  0                 +/- 1.73e-13
# P_bary (ms)      =  N/A
# P'_bary (s/s)    =  N/A
# P''_bary (s/s^2) =  N/A
# P_orb (s)        =  N/A
# asin(i)/c (s)    =  N/A
# eccentricity     =  N/A
# w (rad)          =  N/A
# T_peri           =  N/A
######################################################
   0  4278.11
   1  4514.833
   2  4266.936
   3  4165.933
   4  4818.209
   5  4664.832
   6  4595.33
   7  4701.208
   8  4382.347
   9  4424.253
  10  4406.714
  11  4284.71
  12  3877.499
  13  4035.025
  14  4224.733
  15  4494.244
  16  4165.695
  17  4071.588
  18  4302.551
  19  4220.05
  20  4214.446
  21  4180.536
  22  4310.104
  23  4120.504
  24  3975.221
  25  4427.157
  26  4370.942
  27  4028.063
  28  4120.127
  29  4167.735
  30  4078.71
  31  4444.018
  32  4857.024
  33  4408.39
  34  4415.091
  35  4502.245
  36  4434.824
  37  4489.096
  38  4192.347
  39  4280.983
  40  3957.47
  41  4137.392
  42  4657.787
  43  4465.518
  44  4689.372
  45  4693.842
  46  4336.333
  47  3886.468
  48  3808.988
  49  4103.473
  50  4321.584
  51  4207.051
  52  3921.927
  53  4260.451
  54  4292.37
  55  3956.594
  56  4326.022
  57  4315.321
  58  4477.756
  59  3959.277
  60  3889.252
  61  4053.251
  62  4021.259
  63  3897.862
  64  4234.776
  65  4798.78
  66  4745.288
  67  4778.622
  68  4490.805
  69  4581.416
  70  4463.248
  71  4083.196
  72  4445.22
  73  4832.023
  74  4214.899
  75  4163.09
  76  4444.656
  77  4787.429
  78  4350.226
  79  4319.557
  80  4356.67
  81  4367.691
  82  4106.66
  83  4124.809
  84  4240.699
  85  4070.865
  86  4360.955
  87  4355.406
  88  4008.96
  89  4384.896
  90  4515.502
  91  4434.456
  92  4340.315
  93  4198.167
  94  4519.098
  95  4326.971
  96  4261.427
  97  4342.526
  98  4201.669
  99  4396.488
 100  4442.12
 101  4206.219
 102  4235.003
 103  4131.205
 104  4172.872
 105  4141.188
 106  4308.505
 107  4663.207
 108  4816.385
 109  4507.668
 110  4615.286
 111  4399.271
 112  4307.848
 113  4383
 114  5081.754
 115  5157.549
 116  4612.386
 117  4465.3
 118  4595.676
 119  4381.624
 120  4597.455
 121  4324.38
 122  4222.812
 123  4360.551
 124  4584.062
 125  4573.177
 126  4104.306
 127  4273.683
 128  4513.247
 129  4514.625
 130  4022.196
 131  4008.427
 132  4365.995
 133  4376.89
 134  4406.644
 135  3990.877
 136  3794.029
 137  3824.747
 138  4191.541
 139  4309.755
 140  3971.94
 141  3856.802
 142  4074.16
 143  3736.449
 144  3830.139
 145  3740.745
 146  3888.607
 147  4122.282
 148  4048.955
 149  4202.537
 150  3957.679
 151  3724.51
 152  3668.308
 153  4203.028
 154  4250.906
 155  4078.497
 156  3782.002
 157  4086.321
 158  4394.301
 159  4568.242
 160  4589.67
 161  4661.514
 162  4680.173
 163  4422.95
 164  4333.073
 165  4078.278
 166  4135.397
 167  4540.02
 168  4387.54
 169  4311.81
 170  4042.035
 171  4217.748
 172  4408.877
 173  4295.515
 174  4304.943
 175  4143.157
 176  4351.738
 177  4423.232
 178  4374.31
 179  4420.838
 180  4044.572
 181  4243.033
 182  4443.39
 183  4246.087
 184  4312.583
 185  4132.646
 186  4564.528
 187  4496.955
 188  4424.379
 189  4485.554
 190  4385.008
 191  4418.651
 192  4291.139
 193  4256.304
 194  4493.926
 195  4360.659
 196  4611.342
 197  4640.456
 198  4247.567
 199  4279.58
 200  4233.385
 201  4138.502
 202  4139.313
 203  4509.667
 204  4621.364
 205  4569.062
 206  4379.837
 207  4172.056
 208  4440.651
 209  4394.643
 210  4771.559
 211  4729.938
 212  4550.786
 213  4052.056
 214  4114.691
 215  4591.698
 216  4187.885
 217  4028.219
 218  4353.089
 219  4093.43
 220  4079.81
 221  4172.112
 222  4538.978
 223  4359.09
 224  4244.209
 225  4392.391
 226  4150.221
 227  3888.796
 228  3921.679
 229  4211.346
 230  4092.266
 231  4356.904
 232  4235.474
 233  4231.366
 234  4225.731
 235  4200.021
 236  4249.195
 237  4167.582
 238  3833.362
 239  3866.124
 240  4098.327
 241  4063.831
 242  3966.78
 243  4160.524
 244  4341.96
 245  4463.097
 246  4214.875
 247  4286.769
 248  4075.45
 249  4269.273
 250  4446.885
 251  4627.834
 252  4455.194
 253  4770.561
 254  4734.891
 255  4255.024
 256  4427.115
 257  4545.058
 258  4442.304
 259  4499.965
 260  4352.51
 261  4454.943
 262  4518.176
 263  4662.935
 264  4571.57
 265  4123.398
 266  3725.499
 267  3567.614
 268  3512.441
 269  3547.929
 270  3381.27
 271  3682.707
 272  3806.357
 273  3689.085
 274  3318.581
 275  3725.481
 276  3994.162
 277  3969.17
 278  3939.299
 279  4042.297
 280  3888.266
 281  3645.816
 282  3956.471
 283  3941.69
 284  4247.496
 285  4203.03
 286  3987.469
 287  3961.261
 288  3957.523
 289  3945.168
 290  3828.186
 291  3912.642
 292  4246.866
 293  4311.248
 294  4458.861
 295  3820.324
 296  3914.869
 297  4158.406
 298  3950.203
 299  3800.424
 300  3857.455
 301  3740.417
 302  3708.216
 303  3922.255
 304  4098.733
 305  4385.705
 306  4388.89
 307  4461.264
 308  4568.111
 309  4602.677
 310  4759.767
 311  4618.883
 312  4560.927
 313  4617.127
 314  4728.028
 315  4978.239
 316  4966.061
 317  4558.974
 318  4324.642
 319  3994.788
 320  4223.626
 321  4268.086
 322  4329.578
 323  4604.07
 324  4330.308
 325  4648.723
 326  4625.343
 327  4356.642
 328  4366.56
 329  4630.021
 330  4715.556
 331  4584.743
 332  4536.213
 333  4504.153
 334  3904.338
 335  3741.747
 336  3978.019
 337  4072.76
 338  3974.17
 339  3832.973
 340  4179.659
 341  3996.223
 342  4258.823
 343  4806.359
 344  4826.505
 345  4732.95
 346  4663.965
 347  4397.306
 348  4212.033
 349  3894.938
 350  4321.125
 351  4481.221
 352  4165.127
 353  3834.847
 354  3816.648
 355  4205.531
 356  3882.755
 357  3832.316
 358  4105.572
 359  4154.919
 360  3835.781
 361  3830.377
 362  3957.655
 363  4107.549
 364  4039.714
 365  4163.493
 366  4142.814
 367  4050.93
 368  4030.089
 369  4095.312
 370  4277.877
 371  4090.814
 372  3810.722
 373  3576.879
 374  3892.404
 375  4088.022
 376  3905.282
 377  4007.718
 378  4548.523
 379  4718.726
 380  4770.023
 381  5419.984
 382  5845.933
 383  5535.519
 384  4833.063
 385  4762.583
 386  4320.45
 387  4057.387
 388  4178.853
 389  4370.617
 390  4326.507
 391  3882.998
 392  3813.887
 393  4007.546
 394  4218.29
 395  4144.589
 396  4342.688
 397  4331.205
 398  4408.289
 399  4125.29
 400  4200.685
 401  4125.361
 402  3930.605
 403  3985.793
 404  3978.768
 405  4205.115
 406  4377.83
 407  4420.359
 408  4227.056
 409  4179.871
 410  4271.976
 411  4313.887
 412  4464.684
 413  4053.278
 414  3757.782
 415  3923.229
 416  3752.242
 417  3929.024
 418  3968.474
 419  4256.758
 420  4031.423
 421  3871.238
 422  4134.674
 423  4626.644
 424  4138.655
 425  4091.327
 426  4089.31
 427  4404.259
 428  4445.278
 429  4194.274
 430  4205.418
 431  4104.819
 432  4191.643
 433  4076.322
 434  3910.792
 435  4095.292
 436  4333.713
 437  4278.495
 438  4286.538
 439  4422.287
 440  4233.942
 441  4436.667
 442  4163.611
 443  4077.263
 444  4152.315
 445  3977.055
 446  3638.1
 447  3371.131
 448  3657.626
 449  3838.809
 450  3949.94
 451  3807.33
 452  3894.922
 453  3746.291
 454  3562.991
 455  3491.211
 456  3614.016
 457  3702.562
 458  3610.423
 459  3747.072
 460  3656.207
 461  3960.643
 462  3822.218
 463  3640.849
 464  3771.052
 465  3890.907
 466  4070.219
 467  3816.594
 468  4050.113
 469  3839.682
 470  3679.285
 471  3728.453
 472  3653.031
 473  3586.987
 474  3335.851
 475  3161.774
 476  3723.918
 477  3983.098
 478  3485.224
 479  3726.561
 480  3827.599
 481  3976.661
 482  3983.398
 483  3906.793
 484  3726.444
 485  3203.117
 486  3721.768
 487  4267.737
 488  3648.628
 489  3947.092
 490  4435.39
 491  4438.577
 492  4406.132
 493  4460.544
 494  4513.397
 495  4356.516
 496  4214.931
 497  4447.477
 498  4675.796
 499  4323.272
 500  4141.633
 501  3767.85
 502  3866.668
 503  4024.714
 504  4201.765
 505  4347.034
 506  4233.123
 507  4184.772
 508  4092.092
 509  4212.493
 510  4317.88
 511  4296.478
