# Input file       =  1195861735.106926_cleaned.dat
# Candidate        =  PSR_0332+5434
# Telescope        =  AR
# Epoch_topo       =  58084.992524385714
# Epoch_bary       =  N/A
# T_sample         =  0.002
# Data Folded      =  7340032
# Data Avg         =  0.0806865234700583
# Data StdDev      =  1.00021874835651 
# Profile Bins     =  512
# Profile Avg      =  1156.63269051683 
# Profile StdDev   =  119.759227781694 
# Reduced chi-sqr  =  0.993
# Prob(Noise)      <  0.538   (~0.0 sigma)
# P_topo (ms)      =  714.522917634064  +/- 0.000132
# P'_topo (s/s)    =  -0                +/- 6.95e-11
# P''_topo (s/s^2) =  0                 +/- 3.07e-14
# P_bary (ms)      =  N/A
# P'_bary (s/s)    =  N/A
# P''_bary (s/s^2) =  N/A
# P_orb (s)        =  N/A
# asin(i)/c (s)    =  N/A
# eccentricity     =  N/A
# w (rad)          =  N/A
# T_peri           =  N/A
######################################################
   0  1015.637
   1  1031.942
   2  1227.387
   3  1161.583
   4  1011.674
   5  982.0959
   6  1137.418
   7  1121.037
   8  1117.074
   9  1020.271
  10  1039.922
  11  1192.788
  12  1102.859
  13  1182.557
  14  1218.435
  15  1214.848
  16  1174.447
  17  1271.776
  18  1191.538
  19  1102.189
  20  1154.492
  21  1157.384
  22  1150.193
  23  1086.653
  24  1215.574
  25  1310.496
  26  1204.187
  27  1159.808
  28  1176.797
  29  1248.125
  30  1201.443
  31  1187.332
  32  1182.052
  33  1123.336
  34  1144.056
  35  1287.474
  36  1208.813
  37  1068.638
  38  1103.521
  39  1123.302
  40  1164.518
  41  1117.257
  42  1178.933
  43  1380.025
  44  1396.645
  45  1546.763
  46  1554.69
  47  1583.975
  48  1579
  49  1389.239
  50  1311.255
  51  1260.45
  52  1223.638
  53  1154.972
  54  1196.896
  55  1284.568
  56  1282.774
  57  1184.088
  58  1314.439
  59  1251.189
  60  1169.877
  61  1191.974
  62  1156.659
  63  1115.183
  64  1126.074
  65  1171.784
  66  1114.947
  67  1100.341
  68  1111.055
  69  1139.726
  70  1161.316
  71  1099.811
  72  1115.87
  73  1036.178
  74  1115.36
  75  1182.477
  76  1181.116
  77  1139.673
  78  1075.779
  79  1182.267
  80  1143.359
  81  1076.246
  82  1090.751
  83  1260.504
  84  1284.923
  85  1149.075
  86  1062.929
  87  1137.724
  88  1276.706
  89  1278.247
  90  1238.909
  91  1191.877
  92  1192.597
  93  1241.866
  94  1280.662
  95  1193.01
  96  1166.946
  97  1114.013
  98  1084.583
  99  1068.809
 100  1071.52
 101  1177.357
 102  1186.708
 103  1135.404
 104  1073.845
 105  1166.361
 106  1158.854
 107  1174.191
 108  1144.067
 109  1211.681
 110  1116.03
 111  1279.814
 112  1292.685
 113  1202.367
 114  1071.26
 115  1004.152
 116  1028.244
 117  1087.044
 118  1148.775
 119  1198.934
 120  1194.436
 121  1282.777
 122  1165.619
 123  1074.715
 124  1017.078
 125  1137.589
 126  1311.258
 127  1366.525
 128  1265.986
 129  1094.976
 130  1204.848
 131  1286.961
 132  1171.53
 133  1164.464
 134  1239.669
 135  1145.213
 136  1056.173
 137  1139.209
 138  1071.611
 139  1068.807
 140  1132.644
 141  1147.599
 142  1149.717
 143  1145.2
 144  1153.248
 145  1199.891
 146  1222.846
 147  1219.659
 148  1160.429
 149  1219.249
 150  1141.963
 151  1118.019
 152  1149.857
 153  1204.842
 154  1193.693
 155  1196.632
 156  1124.426
 157  1082.661
 158  1129.127
 159  1173.647
 160  1273.471
 161  1286.091
 162  1308.608
 163  1242.76
 164  1237.858
 165  1270.993
 166  1146.692
 167  1084.137
 168  1159.652
 169  1179.561
 170  1131.79
 171  1153.335
 172  1284.539
 173  1121.614
 174  1099.393
 175  1192.434
 176  1171.957
 177  1050.998
 178  1134.067
 179  1169.119
 180  1192.609
 181  1238.385
 182  1246.83
 183  1295.586
 184  1280.124
 185  1231.937
 186  1192.062
 187  1145.748
 188  1138.39
 189  1108.781
 190  1235.851
 191  1177.019
 192  1213.587
 193  1276.953
 194  1209.989
 195  1000.799
 196  984.0482
 197  1218.808
 198  1294.651
 199  1201.303
 200  1149.955
 201  1129.397
 202  1118.96
 203  1263.331
 204  1287.311
 205  1185.257
 206  1279.568
 207  1371.952
 208  1245.376
 209  1064.369
 210  1130.608
 211  1191.499
 212  1237.898
 213  1264.818
 214  1158.241
 215  1177.247
 216  1151.6
 217  1187.789
 218  1185.094
 219  1251.095
 220  1300.869
 221  1274.182
 222  1206.675
 223  1216.042
 224  1242.129
 225  1212.371
 226  1258.612
 227  1100.857
 228  1163.818
 229  1127.015
 230  1128.263
 231  1302.102
 232  1172.052
 233  1216.258
 234  1073.462
 235  1221.679
 236  1153.467
 237  1117.968
 238  1114.86
 239  1052.266
 240  1055.734
 241  1061.62
 242  1092.671
 243  1140.401
 244  1189.372
 245  1232.843
 246  1220.448
 247  1238.792
 248  1193.303
 249  1215.378
 250  1168.624
 251  1116.471
 252  1132.966
 253  1276.964
 254  1172.327
 255  1232.425
 256  1164.401
 257  1120.465
 258  1243.831
 259  1177.787
 260  1210.744
 261  1169.78
 262  1162.568
 263  1203.359
 264  1166.168
 265  1228.309
 266  1133.558
 267  1103.685
 268  1103.293
 269  1170.107
 270  1138.006
 271  1157.867
 272  1007.874
 273  1102.482
 274  1144.622
 275  1124.801
 276  1095.747
 277  1131.578
 278  1071.4
 279  1083.905
 280  1114.377
 281  1135.561
 282  1128.314
 283  1154.306
 284  1133.827
 285  1308.536
 286  1189.831
 287  1019.103
 288  968.0667
 289  1113.539
 290  1142.089
 291  1058.022
 292  1108.09
 293  1139.061
 294  1196.129
 295  1188.102
 296  1187.682
 297  1230.382
 298  1226.299
 299  1250.423
 300  1132.643
 301  1221.436
 302  1215.827
 303  1247.755
 304  1113.833
 305  1087.479
 306  1081.28
 307  1063.024
 308  1214.697
 309  1133.44
 310  1075.978
 311  1153.302
 312  1264.444
 313  1145.301
 314  1180.668
 315  1262.086
 316  1187.297
 317  1189.795
 318  1119.234
 319  1111.085
 320  1201.517
 321  1231.703
 322  1259.187
 323  1237.682
 324  1096.912
 325  1025.827
 326  1104.299
 327  1020.267
 328  1062.628
 329  1205.048
 330  1227.265
 331  1158.875
 332  1329.524
 333  1192.733
 334  1129.127
 335  1083.822
 336  1207.991
 337  1243.271
 338  1252.993
 339  1267.178
 340  1233.804
 341  1201.252
 342  1170.46
 343  1132.105
 344  1135.629
 345  1176.005
 346  1213.166
 347  1298.458
 348  1323.779
 349  1206.065
 350  1158.806
 351  1224.923
 352  1163.166
 353  1261.787
 354  1262.571
 355  1226.57
 356  1131.91
 357  1217.238
 358  1200.125
 359  1165.209
 360  1098.825
 361  1174.388
 362  1252.17
 363  990.6523
 364  960.1195
 365  1117.472
 366  1155.089
 367  1180.864
 368  1016.134
 369  1116.3
 370  1256.144
 371  1226.107
 372  1127.029
 373  1113.867
 374  1168.155
 375  1146.454
 376  1181.09
 377  1173.021
 378  1132.546
 379  1094.057
 380  1137.457
 381  1141.349
 382  1127.375
 383  1179.777
 384  1083.195
 385  1020.185
 386  1157.66
 387  1129.682
 388  1032.901
 389  1031.949
 390  1203.276
 391  1183.735
 392  1198.041
 393  1116.716
 394  1114.817
 395  1046.524
 396  1027.562
 397  1191.727
 398  1268.48
 399  1214.289
 400  1200.384
 401  1181.434
 402  1046.335
 403  1124.357
 404  1169.229
 405  1205.703
 406  1126.221
 407  1028.261
 408  1034.844
 409  1130.967
 410  1163.918
 411  1035.436
 412  1083.383
 413  1204.756
 414  1134.443
 415  1079.641
 416  1074.547
 417  1106.368
 418  1129.323
 419  1086.347
 420  1089.048
 421  1079.917
 422  1033.3
 423  1104.721
 424  1099.5
 425  1109.339
 426  1042.772
 427  1058.632
 428  1129.159
 429  1198.074
 430  1183.682
 431  1069.893
 432  1132.382
 433  1203.188
 434  1197.62
 435  1120.164
 436  1084.314
 437  1084.149
 438  1099.288
 439  1051.703
 440  975.4742
 441  1012.793
 442  1039.899
 443  948.9768
 444  1009.178
 445  977.8068
 446  957.467
 447  1028.41
 448  1116.915
 449  1148.787
 450  1076.746
 451  1069.822
 452  1006.667
 453  1027.367
 454  1108.964
 455  1194.391
 456  1100.576
 457  1040.869
 458  1069.607
 459  1080.851
 460  1132.395
 461  983.2698
 462  1103.001
 463  1138.469
 464  994.3369
 465  1049.835
 466  1127.222
 467  1210.345
 468  1172.028
 469  1168.418
 470  1207.115
 471  1137.361
 472  1089.092
 473  1135.414
 474  1021.256
 475  1097.667
 476  1018.872
 477  1041.392
 478  1096.205
 479  1114.873
 480  1099.459
 481  1058.622
 482  969.5539
 483  979.3851
 484  1041.257
 485  1142.731
 486  1241.765
 487  1236.299
 488  1188.999
 489  1159.332
 490  1177.908
 491  1176.896
 492  1148.485
 493  1202.455
 494  1170.775
 495  1132.393
 496  1072.052
 497  1081.843
 498  1123.062
 499  1080.17
 500  1093.538
 501  1127.895
 502  1021.781
 503  1060.345
 504  1131.703
 505  1206.357
 506  1104.27
 507  1157.639
 508  1173.456
 509  1140.864
 510  1059.258
 511  1100.838
