# Input file       =  1195659868.110136_cleaned.dat
# Candidate        =  PSR_0332+5434
# Telescope        =  AR
# Epoch_topo       =  58082.656100811757
# Epoch_bary       =  N/A
# T_sample         =  0.002
# Data Folded      =  7143424
# Data Avg         =  0.988628438720906
# Data StdDev      =  18.8957968992687 
# Profile Bins     =  512
# Profile Avg      =  13793.1724231552 
# Profile StdDev   =  2231.94478239847 
# Reduced chi-sqr  =  0.443
# Prob(Noise)      <  1   (~0.0 sigma)
# P_topo (ms)      =  714.520134035946  +/- 7.03e-05
# P'_topo (s/s)    =  -0                +/- 3.81e-11
# P''_topo (s/s^2) =  0                 +/- 1.73e-14
# P_bary (ms)      =  N/A
# P'_bary (s/s)    =  N/A
# P''_bary (s/s^2) =  N/A
# P_orb (s)        =  N/A
# asin(i)/c (s)    =  N/A
# eccentricity     =  N/A
# w (rad)          =  N/A
# T_peri           =  N/A
######################################################
   0  13122.19
   1  12192.04
   2  13204.73
   3  12416.05
   4  12495.35
   5  11284.25
   6  10547.16
   7  11356.66
   8  10641.68
   9  10882.67
  10  12239.79
  11  14667.08
  12  14296.14
  13  13140.36
  14  14303.26
  15  13584.23
  16  13195.06
  17  13201.83
  18  14167.84
  19  13384.56
  20  13980.27
  21  13842.38
  22  14629.92
  23  13614.07
  24  13927.82
  25  14429.41
  26  14438.64
  27  13375.9
  28  11737.59
  29  11314.65
  30  11389.02
  31  12800.39
  32  12536.29
  33  13199.72
  34  11842.26
  35  11427.08
  36  11199.86
  37  11515.53
  38  13164.55
  39  13804.67
  40  14182.04
  41  15220.11
  42  17432.75
  43  16498.79
  44  13536.34
  45  12850.23
  46  13278.24
  47  12283.67
  48  12775.11
  49  13254.6
  50  13905.31
  51  13705.99
  52  14018.71
  53  16201.48
  54  16184.19
  55  14342.12
  56  15077.7
  57  16832.18
  58  15282.22
  59  13041.96
  60  11443.26
  61  11803.51
  62  12069.58
  63  12533.99
  64  13268.24
  65  13444.68
  66  13936.65
  67  13463.23
  68  12979.31
  69  13736.47
  70  14834.08
  71  14766.53
  72  13292.41
  73  14109.24
  74  13619.02
  75  13233.16
  76  14104.48
  77  14604.05
  78  13655.63
  79  12414.42
  80  13678.76
  81  14302.59
  82  15652.3
  83  15789.94
  84  16232.31
  85  16902.4
  86  15457.24
  87  13363.72
  88  14112.34
  89  15835.94
  90  14230.72
  91  13435.79
  92  12316.84
  93  13919.32
  94  14127.95
  95  13548.04
  96  14078.63
  97  15386.42
  98  14577.41
  99  14470.26
 100  15433.66
 101  13051.19
 102  14486.79
 103  14393.51
 104  14716.71
 105  14517.08
 106  13499.85
 107  13246.53
 108  12631.19
 109  12809.7
 110  13883.32
 111  14965.04
 112  14591.31
 113  15162.14
 114  14672.9
 115  13909.52
 116  13816.38
 117  14608.83
 118  15025.84
 119  14187.21
 120  13247.56
 121  14963.2
 122  14962.74
 123  13767.05
 124  14124.04
 125  13827.94
 126  13768.71
 127  13987.32
 128  14901.96
 129  13801.68
 130  12795.18
 131  12993.56
 132  13475.19
 133  12210
 134  12464.92
 135  13247.87
 136  14190.72
 137  13350.66
 138  13718.6
 139  13994.98
 140  14523.38
 141  13553.81
 142  11542.24
 143  13148.32
 144  11528.26
 145  12139.5
 146  12059.21
 147  12626.85
 148  12132.5
 149  12797.92
 150  13147.45
 151  13741.65
 152  13136.49
 153  12493.56
 154  13547.41
 155  13647.4
 156  14686.58
 157  15894.36
 158  14483.54
 159  13237.03
 160  13628.78
 161  13480.24
 162  13133.47
 163  13046.38
 164  13443.19
 165  12970.88
 166  12798.01
 167  14123.56
 168  16164.46
 169  14668.27
 170  14060.29
 171  14600.17
 172  14834.47
 173  13257.03
 174  12826.18
 175  13454.41
 176  14661.79
 177  13247.23
 178  12501.77
 179  12910.41
 180  13017.06
 181  14206.09
 182  14717.14
 183  15115.92
 184  13289.77
 185  14454.29
 186  15836.47
 187  13213.25
 188  12483.49
 189  13942.25
 190  15659.2
 191  14858.35
 192  15032.81
 193  13558.72
 194  13347.06
 195  13483.76
 196  13888.82
 197  14627.13
 198  14412.52
 199  15077.66
 200  15055.63
 201  14726.88
 202  14248.81
 203  14271.1
 204  14095.53
 205  14129.22
 206  13085.38
 207  12383.44
 208  12055.73
 209  12525.15
 210  13034.11
 211  13395.48
 212  13340.09
 213  13251.92
 214  14390.7
 215  14221.55
 216  13001.43
 217  13652.71
 218  13704.14
 219  13128.42
 220  14110.8
 221  13931.7
 222  13615.14
 223  12230.65
 224  13141.63
 225  13934.73
 226  13330.97
 227  14354.67
 228  13439.26
 229  13510.26
 230  14096.67
 231  15064.33
 232  14796.61
 233  13225.71
 234  12878.31
 235  13627.06
 236  13744.68
 237  13127.12
 238  13886.18
 239  13872.84
 240  13300.84
 241  12541.67
 242  13208.77
 243  12798.43
 244  12488.05
 245  12412.62
 246  13393.79
 247  12708.78
 248  13244.19
 249  13757.31
 250  14511.9
 251  14670.64
 252  13961.39
 253  15895.07
 254  15855.69
 255  14593.4
 256  13474.2
 257  14600.27
 258  14874.23
 259  13068.26
 260  13579.44
 261  13424.29
 262  13519.42
 263  14889.23
 264  14197.84
 265  14136.56
 266  14021.25
 267  14905.04
 268  14887.24
 269  13382.99
 270  12880.02
 271  12483.39
 272  13192.7
 273  12840.59
 274  13025.95
 275  14335.36
 276  14457.97
 277  14019.28
 278  13699.33
 279  14093.87
 280  13564.52
 281  13732.99
 282  14058.01
 283  14095.84
 284  14463.64
 285  14410.29
 286  13747.21
 287  12246.95
 288  12851.57
 289  14437.83
 290  14388.3
 291  14511.54
 292  13362.72
 293  13586.46
 294  12373.42
 295  12015.21
 296  11663.18
 297  14326.59
 298  13431.27
 299  14574.4
 300  15570.4
 301  13818.52
 302  12064.3
 303  12695.46
 304  13517.38
 305  13075.83
 306  14037.43
 307  13871.06
 308  14925.75
 309  14718.75
 310  14130.26
 311  14180.75
 312  14730.76
 313  14728.26
 314  14990.2
 315  16104.19
 316  14955.78
 317  14481.03
 318  15576.02
 319  14919.33
 320  14382.41
 321  13697.14
 322  13588.4
 323  13697.25
 324  14810.93
 325  15479.38
 326  14730.62
 327  13851.29
 328  14314.67
 329  13163.01
 330  14363.66
 331  15041.28
 332  15616.55
 333  15374.4
 334  14603.99
 335  13715.33
 336  12745.14
 337  13004.05
 338  13340.49
 339  14085.74
 340  13973.06
 341  12346.14
 342  12968.88
 343  13770.8
 344  11675.47
 345  11755.96
 346  13001.89
 347  14356.7
 348  13495.3
 349  13582.03
 350  14310.54
 351  13599.9
 352  12118
 353  12226.19
 354  14298.19
 355  13444.16
 356  12833.65
 357  12567.57
 358  14735.49
 359  13861.63
 360  12748.72
 361  14934.98
 362  16119.06
 363  16039.27
 364  14542.19
 365  14868.8
 366  14852.2
 367  14504.25
 368  15306.12
 369  13938.81
 370  12887.62
 371  13639.35
 372  13707.52
 373  13631.15
 374  13938.21
 375  14451.45
 376  13815.96
 377  13362.06
 378  13861.69
 379  14560.25
 380  14503.62
 381  13792.72
 382  12955.63
 383  14378.15
 384  14436.02
 385  13638.47
 386  14735.15
 387  14660.46
 388  14668.62
 389  15462.77
 390  16356.13
 391  15102.16
 392  15016.47
 393  14902.14
 394  15627.17
 395  15031.57
 396  13606.95
 397  13782.64
 398  12878.9
 399  13098.81
 400  13375.14
 401  14398.3
 402  12990.29
 403  13470.16
 404  14754.49
 405  14948.04
 406  14305.95
 407  13526.31
 408  14715.38
 409  15118.97
 410  13348.21
 411  14469.69
 412  13756.46
 413  12955.62
 414  13813.61
 415  14031.54
 416  13226.79
 417  13928.7
 418  14544.41
 419  13309.01
 420  11948.24
 421  13502.44
 422  14506.68
 423  14746.55
 424  14969.07
 425  17291.04
 426  16020.66
 427  13477.47
 428  12713.01
 429  14570.09
 430  15462.95
 431  15148.88
 432  15608.67
 433  15160.23
 434  13231.38
 435  13244.96
 436  14255.01
 437  14722.09
 438  14137.73
 439  13525.35
 440  14830.28
 441  13740.31
 442  12161.16
 443  12603.03
 444  12725.5
 445  12656.48
 446  14206.59
 447  14581.92
 448  13769.51
 449  13962.95
 450  13644.58
 451  13060.81
 452  13629.57
 453  13833.38
 454  13741
 455  13711.54
 456  13619.4
 457  13224.17
 458  13172.48
 459  12725.58
 460  12416.29
 461  13500.8
 462  14043.41
 463  12939.7
 464  12005.11
 465  12150.48
 466  12643.58
 467  13816.12
 468  14454.25
 469  15826.63
 470  14387.14
 471  13877.34
 472  14732.16
 473  14685.12
 474  15117
 475  14264.99
 476  14664.77
 477  15058.81
 478  15130.92
 479  14445.06
 480  13942.34
 481  14213.93
 482  15417.2
 483  15031.19
 484  12047.39
 485  11215.9
 486  11823.92
 487  12968.96
 488  11808.09
 489  13389.87
 490  13610.86
 491  12578.19
 492  12495.16
 493  11861.7
 494  13823.09
 495  14644.99
 496  13899.2
 497  14006.37
 498  12658.51
 499  12323.23
 500  12852.3
 501  14370.25
 502  12792.23
 503  12898.67
 504  14244.83
 505  14004.09
 506  13341.41
 507  12682.96
 508  12745.69
 509  12878.63
 510  14617.96
 511  14542.42
