# Input file       =  1195517101.114235_cleaned.dat
# Candidate        =  PSR_0332+5434
# Telescope        =  AR
# Epoch_topo       =  58081.003705025869
# Epoch_bary       =  N/A
# T_sample         =  0.002
# Data Folded      =  7340032
# Data Avg         =  0.188998384439661
# Data StdDev      =  4.56230092643915 
# Profile Bins     =  1024
# Profile Avg      =  1354.73468861342 
# Profile StdDev   =  386.262837043123 
# Reduced chi-sqr  =  0.660
# Prob(Noise)      <  1   (~0.0 sigma)
# P_topo (ms)      =  714.518783602049  +/- 7.23e-05
# P'_topo (s/s)    =  -0                +/- 3.81e-11
# P''_topo (s/s^2) =  0                 +/- 1.68e-14
# P_bary (ms)      =  N/A
# P'_bary (s/s)    =  N/A
# P''_bary (s/s^2) =  N/A
# P_orb (s)        =  N/A
# asin(i)/c (s)    =  N/A
# eccentricity     =  N/A
# w (rad)          =  N/A
# T_peri           =  N/A
######################################################
   0  1480.944
   1  1638.784
   2  1649.242
   3  1567.728
   4  1424.315
   5  1366.06
   6  1326.261
   7  1301.233
   8  1237.659
   9  1445.882
  10  1460.365
  11  1526.969
  12  1430.541
  13  1404.932
  14  1525.446
  15  1609.404
  16  1506.549
  17  1379.144
  18  1393.766
  19  1485.758
  20  1397.214
  21  1411.16
  22  1425.888
  23  1453.288
  24  1294.408
  25  1228.625
  26  1261.792
  27  1302.379
  28  1310.926
  29  1294.16
  30  1413.326
  31  1364.745
  32  1386.639
  33  1430.869
  34  1511.125
  35  1463.025
  36  1565.783
  37  1596.899
  38  1753.544
  39  1768.526
  40  1754.16
  41  1587.77
  42  1548.212
  43  1543.915
  44  1551.223
  45  1454.02
  46  1428.482
  47  1290.35
  48  1214.583
  49  1145.453
  50  1277.626
  51  1349.59
  52  1516.561
  53  1524.573
  54  1543.645
  55  1474.837
  56  1487.28
  57  1409.737
  58  1408.739
  59  1359.91
  60  1438.415
  61  1397.14
  62  1375.03
  63  1336.112
  64  1285.028
  65  1199.415
  66  1203.562
  67  1028.833
  68  943.9448
  69  971.7962
  70  1200.155
  71  1285.648
  72  1215.38
  73  1301.285
  74  1299.231
  75  1425.188
  76  1488.538
  77  1470.765
  78  1436.321
  79  1403.285
  80  1463.464
  81  1236.274
  82  1095.565
  83  1154.174
  84  1184.806
  85  1220.722
  86  1118.666
  87  1231.492
  88  1243.488
  89  1255.805
  90  1340.38
  91  1444.085
  92  1378.616
  93  1333.138
  94  1341.91
  95  1465.399
  96  1263.098
  97  1270.964
  98  1254.814
  99  1313.543
 100  1264.33
 101  1373.104
 102  1354.164
 103  1349.768
 104  1298.757
 105  1423.48
 106  1349.644
 107  1292.608
 108  1314.201
 109  1452.346
 110  1375.525
 111  1368.867
 112  1282.758
 113  1318.984
 114  1403.976
 115  1523.474
 116  1613.614
 117  1576.662
 118  1475.443
 119  1477.691
 120  1425.632
 121  1402.93
 122  1469.654
 123  1581.891
 124  1785.08
 125  1646.275
 126  1518.689
 127  1451.436
 128  1374.198
 129  1263.624
 130  1243.732
 131  1191.416
 132  1366.384
 133  1407.992
 134  1455.48
 135  1294.491
 136  1260.462
 137  1189.214
 138  1205.273
 139  1123.827
 140  1267.764
 141  1150.18
 142  1175.5
 143  1191.238
 144  1323.925
 145  1412.126
 146  1417.413
 147  1357.203
 148  1316.03
 149  1353.365
 150  1316.017
 151  1300.524
 152  1276.555
 153  1267.455
 154  1246.429
 155  1253.183
 156  1219.955
 157  1356.679
 158  1415.086
 159  1436.113
 160  1343.839
 161  1429.56
 162  1362.348
 163  1351.157
 164  1347.607
 165  1520.816
 166  1649.562
 167  1671.131
 168  1492.488
 169  1366.271
 170  1163.35
 171  1322.283
 172  1373.498
 173  1689.405
 174  1753.836
 175  1722.524
 176  1590.071
 177  1534.375
 178  1468.667
 179  1464.144
 180  1380.412
 181  1532.323
 182  1558.691
 183  1532.348
 184  1443.971
 185  1382.257
 186  1387.032
 187  1516.088
 188  1542.204
 189  1573.648
 190  1442.735
 191  1418.569
 192  1432.046
 193  1413.965
 194  1410.08
 195  1366.525
 196  1329.646
 197  1267.839
 198  1314.393
 199  1387.677
 200  1467.047
 201  1438.239
 202  1324.696
 203  1243.391
 204  1140.971
 205  1198.296
 206  1215.56
 207  1214.394
 208  1291.733
 209  1255.11
 210  1310.552
 211  1367.819
 212  1358.953
 213  1137.672
 214  1063.23
 215  1026.278
 216  1230.319
 217  1132.713
 218  1146.549
 219  1050.78
 220  1084.725
 221  1145.764
 222  1254.874
 223  1361.792
 224  1439.155
 225  1356.638
 226  1349.278
 227  1237.345
 228  1189.198
 229  1156.098
 230  1246.451
 231  1297.29
 232  1355.807
 233  1222.246
 234  1327.133
 235  1486.247
 236  1498.114
 237  1402.105
 238  1316.164
 239  1421.339
 240  1376.09
 241  1263.846
 242  992.7771
 243  964.5535
 244  1124.222
 245  1440.155
 246  1554.497
 247  1552.382
 248  1386.972
 249  1435.906
 250  1521.198
 251  1638.193
 252  1550.415
 253  1433.605
 254  1261.476
 255  1098.632
 256  1074.514
 257  1206.4
 258  1366.27
 259  1472.976
 260  1398.237
 261  1312.451
 262  1315.37
 263  1387.161
 264  1434.596
 265  1626.02
 266  1686.166
 267  1896.375
 268  1728.632
 269  1587.615
 270  1379.071
 271  1294.956
 272  1225.541
 273  1242.483
 274  1261.366
 275  1271.752
 276  1176.885
 277  1223.069
 278  1268.648
 279  1319.936
 280  1330.411
 281  1369.675
 282  1396.282
 283  1324.644
 284  1263.45
 285  1238.485
 286  1305.457
 287  1357.052
 288  1333.643
 289  1274.59
 290  1235.893
 291  1270.492
 292  1293.629
 293  1283.403
 294  1449.854
 295  1484.92
 296  1441.784
 297  1462.792
 298  1401.761
 299  1552.067
 300  1571.696
 301  1606.271
 302  1594.765
 303  1452.752
 304  1545.83
 305  1385.348
 306  1338.734
 307  1289.194
 308  1383.147
 309  1455.953
 310  1507.211
 311  1450.582
 312  1491.89
 313  1552.843
 314  1501.242
 315  1564.869
 316  1586.157
 317  1626.286
 318  1525.665
 319  1505.856
 320  1476.802
 321  1440.24
 322  1474.791
 323  1355.694
 324  1336.707
 325  1268.678
 326  1252.638
 327  1311.714
 328  1284.623
 329  1403.749
 330  1343.471
 331  1304.491
 332  1257.463
 333  1362.371
 334  1466.876
 335  1421.756
 336  1168.807
 337  1030.534
 338  950.1886
 339  1010.613
 340  1148.464
 341  1256.438
 342  1122.069
 343  1058.817
 344  1230.125
 345  1431.654
 346  1509.346
 347  1483.398
 348  1437.418
 349  1315.999
 350  1206.536
 351  1219.242
 352  1338.293
 353  1515.68
 354  1427.027
 355  1276.803
 356  1116.723
 357  1088.763
 358  1104.677
 359  1136.976
 360  1089.26
 361  1186.925
 362  1190.118
 363  1308.094
 364  1345.906
 365  1409.237
 366  1399.609
 367  1416.897
 368  1423.724
 369  1475.395
 370  1407.879
 371  1422.037
 372  1469.695
 373  1534.787
 374  1466.049
 375  1334.628
 376  1142.825
 377  1190.337
 378  1280.23
 379  1468.462
 380  1629.187
 381  1698.628
 382  1764.331
 383  1521.978
 384  1467.4
 385  1436.046
 386  1525.183
 387  1571.514
 388  1530.546
 389  1535.473
 390  1525.792
 391  1405.572
 392  1361.705
 393  1286.128
 394  1577.764
 395  1553.811
 396  1707.928
 397  1565.13
 398  1573.652
 399  1500.84
 400  1451.04
 401  1394.437
 402  1416.699
 403  1521.257
 404  1575.036
 405  1385.765
 406  1292.342
 407  1271.446
 408  1335.72
 409  1381.36
 410  1385.871
 411  1435.541
 412  1382.995
 413  1418.985
 414  1296.816
 415  1310.658
 416  1263.248
 417  1308.904
 418  1330.136
 419  1236.112
 420  1206.191
 421  1224.254
 422  1252.712
 423  1217.756
 424  1211.151
 425  1254.061
 426  1238.564
 427  1304.837
 428  1511.453
 429  1662.305
 430  1621.326
 431  1613.163
 432  1681.734
 433  1685.824
 434  1611.414
 435  1534.984
 436  1536.862
 437  1584.995
 438  1610.55
 439  1630.466
 440  1613.441
 441  1560.577
 442  1468.468
 443  1453.057
 444  1450.787
 445  1600.355
 446  1551.039
 447  1589.228
 448  1500.02
 449  1395.64
 450  1275.218
 451  1242.113
 452  1398.172
 453  1309.666
 454  1165.884
 455  1118.97
 456  1158.739
 457  1211.378
 458  1287.962
 459  1400.478
 460  1465.591
 461  1383.761
 462  1333.615
 463  1335.511
 464  1303.314
 465  1359.415
 466  1488.594
 467  1468.793
 468  1434.904
 469  1290.841
 470  1367.328
 471  1282.894
 472  1197.59
 473  1039.208
 474  1110.326
 475  1105.319
 476  1319.486
 477  1330.874
 478  1388.255
 479  1209.489
 480  1265.522
 481  1276.078
 482  1388.218
 483  1384.057
 484  1427.608
 485  1304.629
 486  1331.299
 487  1359.64
 488  1434.65
 489  1345.974
 490  1316.285
 491  1451.178
 492  1459.389
 493  1278.661
 494  1061.964
 495  1111.76
 496  1320.604
 497  1432.566
 498  1371.217
 499  1403.454
 500  1357.979
 501  1371.776
 502  1338.663
 503  1358.036
 504  1311.214
 505  1279.185
 506  1280.036
 507  1310.178
 508  1115.977
 509  1134.088
 510  1120.882
 511  1250.812
 512  1344.216
 513  1429.898
 514  1345.409
 515  1333.872
 516  1322.829
 517  1446.365
 518  1339.399
 519  1253.95
 520  1168.337
 521  1140.919
 522  1089.536
 523  1101.786
 524  1062.823
 525  1063.914
 526  1000.592
 527  1071.992
 528  1152.236
 529  1279.414
 530  1403.95
 531  1433.662
 532  1451.19
 533  1515.735
 534  1487.34
 535  1349.659
 536  1290.645
 537  1312.95
 538  1332.868
 539  1242.981
 540  1135.135
 541  1207.453
 542  1227.422
 543  1205.993
 544  1351.656
 545  1407.47
 546  1532.506
 547  1481.444
 548  1596.917
 549  1560.736
 550  1373.639
 551  1255.698
 552  1388.291
 553  1570.307
 554  1668.362
 555  1574.198
 556  1367.427
 557  1281.76
 558  1306.632
 559  1314.267
 560  1427.297
 561  1370.84
 562  1428.535
 563  1390.305
 564  1356.932
 565  1380.197
 566  1493.037
 567  1571.085
 568  1445.243
 569  1287.132
 570  1287.163
 571  1212.726
 572  1296.74
 573  1479.374
 574  1688.942
 575  1743.336
 576  1495.116
 577  1352.298
 578  1188.156
 579  1225.002
 580  1293.446
 581  1352.474
 582  1445.924
 583  1393.508
 584  1376.812
 585  1312.096
 586  1236.381
 587  1330.413
 588  1345.602
 589  1310.66
 590  1394.195
 591  1444.108
 592  1419.63
 593  1248.281
 594  1156.087
 595  1223.812
 596  1197.95
 597  1226.798
 598  1287.225
 599  1337.013
 600  1267.865
 601  1150.724
 602  1171.639
 603  1336.478
 604  1381.096
 605  1429.982
 606  1379.775
 607  1306.986
 608  1249.569
 609  1427.873
 610  1578.279
 611  1647.489
 612  1486.087
 613  1383.229
 614  1416.817
 615  1465.98
 616  1630.754
 617  1757.763
 618  1766.949
 619  1750.152
 620  1781.673
 621  1773.911
 622  1761.154
 623  1816.32
 624  1973.089
 625  2107.208
 626  2052.592
 627  2045.629
 628  2131.114
 629  2148.236
 630  2189.335
 631  2110.207
 632  2087.215
 633  1958.629
 634  1761.017
 635  1707.806
 636  1572.971
 637  1380.869
 638  1385.502
 639  1344.679
 640  1280.33
 641  1208.079
 642  1274.003
 643  1337.476
 644  1403.968
 645  1402.751
 646  1425.981
 647  1246.89
 648  1278.729
 649  1204.489
 650  1272.474
 651  1295.712
 652  1370.148
 653  1332.677
 654  1282.795
 655  1222.393
 656  1276.546
 657  1253.207
 658  1136.08
 659  1170.145
 660  1371.442
 661  1521.637
 662  1509.942
 663  1482.19
 664  1487.262
 665  1502.684
 666  1309.016
 667  1225.432
 668  1294.101
 669  1320.126
 670  1239.933
 671  1204.127
 672  1099.135
 673  1229.136
 674  1206.602
 675  1308.63
 676  1362.852
 677  1265.041
 678  1318.946
 679  1190.605
 680  1226.307
 681  1257.439
 682  1299.274
 683  1164.431
 684  1124.992
 685  1098.062
 686  1105.764
 687  1186.156
 688  1240.926
 689  1403.115
 690  1286.438
 691  1259.98
 692  1163.731
 693  1195.287
 694  1166.961
 695  1267.406
 696  1292.627
 697  1370.89
 698  1395.666
 699  1296.962
 700  1252.856
 701  1129.151
 702  1233.065
 703  1407.392
 704  1469.094
 705  1318.253
 706  1133.584
 707  1045.958
 708  1119.859
 709  1259.603
 710  1374.317
 711  1461.787
 712  1372.742
 713  1338.493
 714  1236.652
 715  1253.361
 716  1405.682
 717  1433.59
 718  1544.676
 719  1437.918
 720  1252.339
 721  1121.545
 722  1219.077
 723  1239.529
 724  1305.118
 725  1275.421
 726  1420.07
 727  1278.334
 728  1186.997
 729  1125.894
 730  1276.444
 731  1419.666
 732  1505.587
 733  1497.979
 734  1614.249
 735  1605.38
 736  1541.677
 737  1374.347
 738  1321.845
 739  1292.362
 740  1380.744
 741  1336.156
 742  1354.722
 743  1218.606
 744  1139.473
 745  1084.431
 746  1230.106
 747  1332.001
 748  1333.097
 749  1326.421
 750  1222.698
 751  1074.438
 752  1055.515
 753  1263.115
 754  1383.762
 755  1338.97
 756  1274.19
 757  1194.16
 758  1202.481
 759  1299.004
 760  1441.437
 761  1575.553
 762  1637.477
 763  1628.705
 764  1472.917
 765  1385.012
 766  1280.568
 767  1317.255
 768  1426
 769  1383.947
 770  1295.259
 771  1269.314
 772  1439.27
 773  1623.76
 774  1530.641
 775  1524.119
 776  1465.22
 777  1416.756
 778  1457.208
 779  1472.625
 780  1529.957
 781  1409.428
 782  1253.117
 783  1154.697
 784  926.1147
 785  809.8199
 786  863.1382
 787  1014.186
 788  1211.188
 789  1422.074
 790  1464.701
 791  1540.653
 792  1487.884
 793  1418.407
 794  1235.413
 795  1104.597
 796  1164.683
 797  1341.481
 798  1469.963
 799  1489.047
 800  1319.61
 801  1310.245
 802  1393.669
 803  1443.977
 804  1467.008
 805  1440.28
 806  1391.859
 807  1491.775
 808  1474.614
 809  1382.551
 810  1350.331
 811  1424.629
 812  1492.722
 813  1491.816
 814  1443.784
 815  1409.046
 816  1448.128
 817  1562.343
 818  1749.169
 819  1700.42
 820  1582.233
 821  1359.763
 822  1223.131
 823  1197.018
 824  1142.02
 825  1145.828
 826  1137.623
 827  1008.7
 828  1052.074
 829  1155.36
 830  1257.837
 831  1277.402
 832  1373.65
 833  1385.244
 834  1127.041
 835  958.9052
 836  970.6796
 837  1177.116
 838  1211.719
 839  1277.026
 840  1395.356
 841  1525.663
 842  1400.94
 843  1285.029
 844  1229.374
 845  1426.774
 846  1463.997
 847  1531.305
 848  1501.161
 849  1564.549
 850  1510.529
 851  1436.213
 852  1339.56
 853  1316.689
 854  1367.81
 855  1381.644
 856  1349.204
 857  1384.229
 858  1393.306
 859  1592.679
 860  1532.808
 861  1511.119
 862  1324.702
 863  1279.615
 864  1327.945
 865  1240.156
 866  1050.843
 867  1142.634
 868  1216.943
 869  1400.383
 870  1331.234
 871  1366.055
 872  1311.411
 873  1325.599
 874  1401.736
 875  1405.989
 876  1359.985
 877  1306.017
 878  1219.096
 879  1082.812
 880  1041.727
 881  1073.543
 882  1224.16
 883  1358.978
 884  1355.696
 885  1217.08
 886  1094.347
 887  1021.531
 888  1070.487
 889  1087.382
 890  1306.565
 891  1317.028
 892  1224.121
 893  1121.101
 894  966.8193
 895  948.5051
 896  956.8538
 897  986.3939
 898  974.1476
 899  1028.887
 900  1241.076
 901  1297.703
 902  1218.134
 903  1141.705
 904  1235.397
 905  1132.398
 906  1136.723
 907  998.8049
 908  1006.278
 909  979.4486
 910  1229.976
 911  1294.832
 912  1328.965
 913  1253.903
 914  1377.35
 915  1351.493
 916  1274.221
 917  1241.592
 918  1386.511
 919  1375.674
 920  1310.784
 921  1189.586
 922  1121.332
 923  1015.286
 924  1039.542
 925  1095.872
 926  1158.92
 927  1311.856
 928  1484.101
 929  1515.628
 930  1506.137
 931  1462.886
 932  1324.146
 933  1164.101
 934  1091.192
 935  1127.662
 936  1111.886
 937  1130.085
 938  1123.102
 939  1310.479
 940  1297.293
 941  1180.554
 942  1060.83
 943  1117.066
 944  1106.047
 945  1106.462
 946  1117.911
 947  1294.759
 948  1354.741
 949  1310.888
 950  1232.399
 951  1227.426
 952  1347.894
 953  1379.524
 954  1339.663
 955  1435.965
 956  1416.949
 957  1457.88
 958  1405.088
 959  1514.117
 960  1436.111
 961  1497.416
 962  1402.022
 963  1558.926
 964  1482.085
 965  1366.436
 966  1300.961
 967  1366.534
 968  1469.174
 969  1426.889
 970  1380.087
 971  1404.695
 972  1523.312
 973  1604.862
 974  1531.298
 975  1302.404
 976  1283.819
 977  1243.644
 978  1199.611
 979  1140.963
 980  1111.524
 981  1148.698
 982  1271.444
 983  1423.69
 984  1445.211
 985  1296.547
 986  1226.238
 987  1297.806
 988  1413.362
 989  1483.79
 990  1428.076
 991  1204.017
 992  1147.026
 993  1195.782
 994  1256.701
 995  1356.261
 996  1363.338
 997  1413.122
 998  1436.897
 999  1418.56
1000  1446.644
1001  1382.209
1002  1412.75
1003  1353.218
1004  1349.677
1005  1192.349
1006  1212.193
1007  1169.042
1008  1264.661
1009  1335.859
1010  1350.622
1011  1369.813
1012  1332.8
1013  1472.272
1014  1509.171
1015  1535.637
1016  1469.737
1017  1471.242
1018  1450.362
1019  1307.385
1020  1219.079
1021  1252.08
1022  1315.336
1023  1462.945
