# Input file       =  1195142387.113752_cleaned.dat
# Candidate        =  PSR_0332+5434
# Telescope        =  AR
# Epoch_topo       =  58076.666737427680
# Epoch_bary       =  N/A
# T_sample         =  0.002
# Data Folded      =  7143424
# Data Avg         =  0.0649630166856422
# Data StdDev      =  1.00026028951031 
# Profile Bins     =  512
# Profile Avg      =  906.355121113321 
# Profile StdDev   =  118.149329510381 
# Reduced chi-sqr  =  0.537
# Prob(Noise)      <  1   (~0.0 sigma)
# P_topo (ms)      =  714.513946223085  +/- 0.000134
# P'_topo (s/s)    =  -0                +/- 7.24e-11
# P''_topo (s/s^2) =  0                 +/- 3.28e-14
# P_bary (ms)      =  N/A
# P'_bary (s/s)    =  N/A
# P''_bary (s/s^2) =  N/A
# P_orb (s)        =  N/A
# asin(i)/c (s)    =  N/A
# eccentricity     =  N/A
# w (rad)          =  N/A
# T_peri           =  N/A
######################################################
   0  744.8377
   1  790.4749
   2  805.4265
   3  864.5319
   4  891.0987
   5  839.6464
   6  840.2018
   7  852.301
   8  868.844
   9  861.421
  10  919.2927
  11  902.9527
  12  938.748
  13  815.0226
  14  905.5923
  15  892.5941
  16  895.0231
  17  898.2673
  18  955.5426
  19  806.2502
  20  720.0862
  21  805.8138
  22  782.2575
  23  870.2859
  24  902.5347
  25  1001.86
  26  896.0425
  27  881.7499
  28  924.261
  29  815.8503
  30  874.2326
  31  859.3682
  32  817.3232
  33  794.7252
  34  797.5709
  35  787.8993
  36  775.8773
  37  852.0513
  38  833.2567
  39  971.2787
  40  960.1783
  41  940.2078
  42  912.405
  43  915.6331
  44  896.7955
  45  945.7978
  46  959.988
  47  959.332
  48  1026.583
  49  1008.675
  50  1084.548
  51  1088.88
  52  1041.724
  53  1061.721
  54  1035.561
  55  1068.449
  56  1042.125
  57  1015.185
  58  955.7823
  59  912.0613
  60  923.1112
  61  894.8975
  62  902.423
  63  925.1583
  64  936.778
  65  958.0654
  66  910.5461
  67  841.3627
  68  913.0836
  69  954.5593
  70  906.821
  71  934.4095
  72  864.5781
  73  887.5634
  74  873.9509
  75  911.0801
  76  949.5598
  77  885.4528
  78  902.0872
  79  867.1932
  80  893.0797
  81  898.3333
  82  930.7635
  83  960.7883
  84  930.4031
  85  840.3301
  86  844.4114
  87  875.5043
  88  859.2275
  89  978.1461
  90  968.5206
  91  948.6855
  92  907.1771
  93  837.2596
  94  808.4751
  95  813.624
  96  842.2226
  97  882.7217
  98  943.177
  99  923.6605
 100  846.6013
 101  896.113
 102  883.8536
 103  979.3689
 104  957.7879
 105  942.1824
 106  934.1586
 107  1004.764
 108  970.2595
 109  1001.529
 110  947.6664
 111  992.8116
 112  949.8557
 113  894.1138
 114  947.7963
 115  916.9684
 116  940.7869
 117  905.1857
 118  784.6945
 119  781.2452
 120  816.5558
 121  915.3878
 122  926.927
 123  939.2755
 124  983.577
 125  946.2342
 126  929.7487
 127  927.2215
 128  959.8499
 129  883.7114
 130  904.1221
 131  841.3835
 132  935.2004
 133  871.5354
 134  812.6932
 135  740.4056
 136  790.0222
 137  916.1609
 138  936.4058
 139  977.1216
 140  924.9195
 141  981.813
 142  879.9433
 143  872.6656
 144  834.6854
 145  861.6151
 146  964.4303
 147  936.2578
 148  957.3991
 149  915.721
 150  1001.629
 151  912.5059
 152  907.7115
 153  972.2472
 154  983.4493
 155  979.1411
 156  1005.936
 157  1028.669
 158  940.0478
 159  976.4649
 160  923.7635
 161  977.1949
 162  1033.608
 163  993.0217
 164  926.1371
 165  877.7539
 166  849.1176
 167  828.4818
 168  860.1994
 169  910.2229
 170  939.9036
 171  980.6674
 172  980.3601
 173  951.2792
 174  933.1673
 175  1017.663
 176  963.9626
 177  924.6166
 178  868.1528
 179  952.7095
 180  913.5175
 181  863.4236
 182  937.7877
 183  962.2309
 184  945.0676
 185  875.4315
 186  952.6093
 187  971.5364
 188  902.2426
 189  894.1533
 190  858.8265
 191  962.6509
 192  862.4267
 193  854.5418
 194  838.949
 195  826.7179
 196  895.7601
 197  868.262
 198  939.6424
 199  891.5995
 200  927.864
 201  858.5432
 202  832.0105
 203  880.2076
 204  914.0307
 205  987.9751
 206  1000.507
 207  994.7116
 208  920.1849
 209  967.068
 210  932.3926
 211  894.124
 212  868.5737
 213  871.7391
 214  846.703
 215  833.9666
 216  897.4583
 217  781.884
 218  835.0626
 219  980.941
 220  971.2386
 221  922.0781
 222  898.3116
 223  941.783
 224  830.121
 225  812.7665
 226  801.1296
 227  829.2059
 228  848.9266
 229  880.4413
 230  932.492
 231  938.6477
 232  870.4498
 233  877.5019
 234  932.7657
 235  922.9175
 236  852.9178
 237  823.1024
 238  857.7866
 239  904.1041
 240  951.8226
 241  938.7369
 242  854.1808
 243  805.7977
 244  796.3311
 245  848.8726
 246  910.2628
 247  967.0281
 248  960.373
 249  1012.591
 250  971.5101
 251  941.1022
 252  874.8365
 253  959.6422
 254  965.1469
 255  863.2576
 256  887.5912
 257  917.0428
 258  867.6166
 259  910.3495
 260  970.297
 261  905.2063
 262  874.1406
 263  914.7347
 264  971.7445
 265  1053.469
 266  1027.832
 267  1025.7
 268  992.9695
 269  925.8734
 270  895.348
 271  822.2626
 272  818.7855
 273  890.1837
 274  920.0381
 275  897.4868
 276  870.1123
 277  937.5207
 278  877.0234
 279  950.3286
 280  898.433
 281  936.4755
 282  958.3292
 283  904.8376
 284  856.1315
 285  817.8903
 286  805.7053
 287  859.6799
 288  918.4025
 289  903.5505
 290  935.61
 291  936.8418
 292  920.9396
 293  912.4389
 294  849.1111
 295  864.0574
 296  906.0811
 297  959.9782
 298  925.3596
 299  965.5934
 300  980.5323
 301  906.5908
 302  916.8966
 303  886.6474
 304  956.3817
 305  962.5972
 306  1029.51
 307  979.3566
 308  886.6069
 309  936.6052
 310  844.0461
 311  862.1481
 312  859.0704
 313  930.4801
 314  900.5904
 315  950.8707
 316  1069.65
 317  898.353
 318  1014.626
 319  949.7474
 320  1015.73
 321  957.4271
 322  946.6809
 323  1038.781
 324  890.1345
 325  910.8698
 326  935.4095
 327  970.7916
 328  953.2285
 329  1032.759
 330  949.2795
 331  839.7317
 332  867.8685
 333  873.1292
 334  972.6749
 335  969.5029
 336  1058.653
 337  938.4651
 338  913.7283
 339  909.7818
 340  925.2736
 341  939.9783
 342  876.4102
 343  899.5754
 344  806.0536
 345  914.545
 346  902.1471
 347  867.9503
 348  865.9948
 349  843.7481
 350  959.8629
 351  897.598
 352  838.1725
 353  873.9226
 354  945.4268
 355  925.3081
 356  843.7456
 357  825.0598
 358  846.5748
 359  834.0308
 360  799.7642
 361  775.2371
 362  801.3754
 363  870.8591
 364  849.9499
 365  954.7224
 366  950.5392
 367  949.0898
 368  1000.37
 369  993.1126
 370  987.7368
 371  989.7592
 372  936.3246
 373  882.4207
 374  807.6218
 375  867.2136
 376  885.3483
 377  888.281
 378  870.1383
 379  941.3783
 380  938.4576
 381  885.647
 382  767.9688
 383  762.3994
 384  819.702
 385  896.074
 386  974.0719
 387  928.0302
 388  936.7437
 389  888.207
 390  909.5173
 391  909.2621
 392  974.3199
 393  1047.457
 394  980.0221
 395  952.2243
 396  859.0867
 397  858.6454
 398  850.6034
 399  865.0974
 400  940.6796
 401  1068.044
 402  1031.441
 403  891.162
 404  847.8374
 405  864.1828
 406  885.7672
 407  955.2712
 408  1000.792
 409  902.9012
 410  789.0077
 411  865.7155
 412  883.458
 413  814.6199
 414  843.8702
 415  875.7142
 416  861.9946
 417  865.5552
 418  879.7511
 419  833.6431
 420  908.1124
 421  899.2404
 422  904.4642
 423  873.4685
 424  819.4014
 425  842.5154
 426  900.5575
 427  895.9819
 428  790.0119
 429  924.7215
 430  887.6931
 431  867.1873
 432  798.6874
 433  895.2961
 434  883.3207
 435  892.491
 436  925.0394
 437  960.0999
 438  966.4965
 439  960.563
 440  1009.313
 441  882.5761
 442  947.3948
 443  989.4886
 444  934.4294
 445  988.4291
 446  914.3429
 447  892.591
 448  830.0308
 449  921.6614
 450  929.3319
 451  970.2904
 452  892.937
 453  851.6208
 454  895.0708
 455  954.0489
 456  979.5237
 457  879.4891
 458  910.157
 459  912.2614
 460  815.0689
 461  752.0983
 462  787.6743
 463  912.986
 464  905.6
 465  839.4009
 466  875.537
 467  853.4072
 468  881.1656
 469  888.5281
 470  881.4653
 471  892.0643
 472  912.5251
 473  869.6248
 474  888.7757
 475  880.9269
 476  875.5265
 477  901.9127
 478  890.1722
 479  853.4426
 480  834.1646
 481  843.5069
 482  836.8545
 483  963.6063
 484  1035.465
 485  1018.144
 486  1021.388
 487  903.9674
 488  979.2605
 489  902.3383
 490  968.4485
 491  893.4856
 492  928.1719
 493  909.6285
 494  904.1193
 495  899.7757
 496  866.3372
 497  914.2573
 498  915.1322
 499  821.0668
 500  851.6598
 501  901.3093
 502  905.4096
 503  907.3484
 504  830.5331
 505  843.0251
 506  869.4006
 507  847.244
 508  806.031
 509  831.2444
 510  885.1313
 511  828.2888
