# Input file       =  1195502192.101845_cleaned.dat
# Candidate        =  PSR_0332+5434
# Telescope        =  AR
# Epoch_topo       =  58080.831147012097
# Epoch_bary       =  N/A
# T_sample         =  0.002
# Data Folded      =  7340032
# Data Avg         =  0.0601848189979186
# Data StdDev      =  1.00011082207458 
# Profile Bins     =  512
# Profile Avg      =  862.549821285024 
# Profile StdDev   =  119.746305440253 
# Reduced chi-sqr  =  0.717
# Prob(Noise)      <  1   (~0.0 sigma)
# P_topo (ms)      =  714.518264437592  +/- 0.000942
# P'_topo (s/s)    =  -0                +/- 4.97e-10
# P''_topo (s/s^2) =  0                 +/- 2.2e-13
# P_bary (ms)      =  N/A
# P'_bary (s/s)    =  N/A
# P''_bary (s/s^2) =  N/A
# P_orb (s)        =  N/A
# asin(i)/c (s)    =  N/A
# eccentricity     =  N/A
# w (rad)          =  N/A
# T_peri           =  N/A
######################################################
   0  1205.854
   1  1032.626
   2  1006.053
   3  904.9194
   4  835.1255
   5  837.8016
   6  902.6609
   7  923.2204
   8  832.5741
   9  802.6003
  10  823.3106
  11  926.4838
  12  897.268
  13  926.4422
  14  908.5664
  15  901.2427
  16  830.5198
  17  865.7304
  18  884.4949
  19  832.7552
  20  815.4327
  21  816.0771
  22  847.7503
  23  917.3411
  24  896.2719
  25  844.4302
  26  837.9595
  27  884.1589
  28  918.1219
  29  965.6764
  30  828.0003
  31  759.2435
  32  832.3632
  33  809.5037
  34  875.7776
  35  865.7722
  36  910.1376
  37  836.9995
  38  773.4653
  39  879.081
  40  1032.034
  41  845.8523
  42  811.1824
  43  845.6357
  44  901.9978
  45  926.3649
  46  879.4466
  47  901.1772
  48  859.7298
  49  871.6361
  50  877.7834
  51  807.1044
  52  850.14
  53  891.4069
  54  875.5641
  55  894.3218
  56  922.063
  57  897.8998
  58  950.8574
  59  871.0963
  60  836.3176
  61  889.5645
  62  830.5262
  63  738.6534
  64  702.967
  65  786.2523
  66  799.6924
  67  789.874
  68  790.0599
  69  812.981
  70  781.1011
  71  749.0493
  72  702.7294
  73  707.7443
  74  731.1122
  75  738.39
  76  750.978
  77  727.6382
  78  823.9907
  79  780.4008
  80  766.9437
  81  785.219
  82  815.9641
  83  856.3146
  84  809.0745
  85  856.183
  86  800.5225
  87  743.9268
  88  773.1215
  89  752.376
  90  772.5747
  91  662.0495
  92  656.0723
  93  792.8102
  94  815.8549
  95  733.7463
  96  803.2601
  97  811.6558
  98  825.2344
  99  795.303
 100  808.2663
 101  792.3454
 102  637.5781
 103  750.523
 104  855.4775
 105  712.9192
 106  822.5839
 107  973.9512
 108  980.7466
 109  929.6611
 110  881.9932
 111  928.2245
 112  874.2053
 113  856.5618
 114  935.3502
 115  962.4045
 116  861.318
 117  815.1981
 118  760.2991
 119  796.7908
 120  793.5795
 121  860.5224
 122  866.9998
 123  838.3799
 124  830.4794
 125  842.7887
 126  840.2205
 127  849.6537
 128  847.0641
 129  891.7324
 130  928.3848
 131  836.2336
 132  850.6996
 133  1000.043
 134  919.436
 135  936.3384
 136  954.6201
 137  900.4361
 138  925.7572
 139  865.0655
 140  823.4578
 141  712.6477
 142  734.7838
 143  828.6572
 144  899.4708
 145  817.2255
 146  783.7688
 147  835.1885
 148  789.2419
 149  815.2379
 150  850.788
 151  884.92
 152  818.0513
 153  784.7258
 154  898.567
 155  844.5219
 156  783.0306
 157  813.1003
 158  833.4843
 159  800.8074
 160  899.7328
 161  1011.388
 162  895.3159
 163  901.8347
 164  887.6251
 165  880.8122
 166  892.9308
 167  813.17
 168  871.105
 169  785.4383
 170  870.6025
 171  953.3708
 172  912.8561
 173  930.2791
 174  920.817
 175  864.9236
 176  763.9731
 177  746.806
 178  831.621
 179  895.7718
 180  854.4902
 181  790.1479
 182  846.0029
 183  869.0787
 184  816.8126
 185  903.0798
 186  898.4783
 187  942.6233
 188  781.9943
 189  777.6269
 190  834.2746
 191  816.3672
 192  778.9927
 193  827.4929
 194  950.7358
 195  945.7371
 196  971.8176
 197  869.4247
 198  891.3555
 199  844.9597
 200  739.6641
 201  883.3424
 202  949.0063
 203  786.7495
 204  835.9293
 205  888.6398
 206  944.152
 207  852.6785
 208  885.9144
 209  888.4199
 210  861.9424
 211  840.8992
 212  830.1238
 213  872.2761
 214  827.6578
 215  890.5302
 216  845.7109
 217  828.9676
 218  906.9283
 219  947.5836
 220  903.7976
 221  885.279
 222  858.4123
 223  943.4188
 224  898.4199
 225  874.8472
 226  891.6442
 227  852.3943
 228  907.2903
 229  914.6517
 230  856.121
 231  881.689
 232  820.6353
 233  870.5189
 234  825.1273
 235  835.8047
 236  925.2902
 237  982.116
 238  892.2294
 239  902.8297
 240  890.8972
 241  831.5579
 242  843.7206
 243  1041.281
 244  1064.785
 245  929.9858
 246  927.4619
 247  940.4757
 248  891.3797
 249  936.9034
 250  862.7363
 251  869.4406
 252  882.5361
 253  936.4584
 254  885.3891
 255  800.7335
 256  896.3297
 257  924.2358
 258  946.7921
 259  815.7721
 260  810.7572
 261  886.5572
 262  902.7651
 263  902.7294
 264  807.83
 265  776.4915
 266  778.4192
 267  845.7391
 268  875.4583
 269  809.4205
 270  779.7593
 271  823.7299
 272  761.5228
 273  788.7753
 274  770.0683
 275  817.5017
 276  857.1781
 277  842.3569
 278  881.871
 279  812.0999
 280  755.0187
 281  738.1032
 282  863.2902
 283  891.2093
 284  819.7591
 285  768.3101
 286  865.6375
 287  919.9803
 288  957.6703
 289  964.0439
 290  1009.211
 291  1022.429
 292  928.0691
 293  892.8989
 294  821.9324
 295  847.8129
 296  900.3454
 297  849.2131
 298  829.3304
 299  809.0502
 300  872.2417
 301  925.76
 302  884.9543
 303  884.9552
 304  851.2944
 305  916.2543
 306  909.447
 307  901.0161
 308  910.5667
 309  810.152
 310  898.5438
 311  978.2709
 312  905.3937
 313  885.8905
 314  856.2698
 315  1015.281
 316  945.6237
 317  892.6712
 318  928.2468
 319  919.1057
 320  902.7751
 321  878.7228
 322  887.9216
 323  935.3602
 324  926.2812
 325  974.5001
 326  957.7733
 327  864.1983
 328  853.1921
 329  852.8329
 330  816.3618
 331  839.9774
 332  948.1268
 333  964.4645
 334  958.2018
 335  920.8252
 336  859.001
 337  895.1294
 338  876.2948
 339  956.7312
 340  972.1359
 341  917.6694
 342  841.5636
 343  823.8817
 344  932.6181
 345  818.2321
 346  820.6908
 347  916.8396
 348  862.423
 349  855.7885
 350  854.78
 351  936.7142
 352  858.6451
 353  838.0522
 354  883.2563
 355  812.6436
 356  771.6556
 357  768.9973
 358  870.0007
 359  833.5952
 360  868.9052
 361  861.4868
 362  875.2142
 363  882.1517
 364  881.0129
 365  904.5331
 366  870.9046
 367  798.8453
 368  809.356
 369  871.374
 370  860.0923
 371  845.4092
 372  887.5411
 373  902.4724
 374  936.6979
 375  883.2747
 376  867.5283
 377  835.9447
 378  862.207
 379  903.716
 380  939.7048
 381  906.6342
 382  955.3431
 383  966.7363
 384  853.8481
 385  887.0057
 386  891.0633
 387  885.1646
 388  913.5115
 389  881.4871
 390  928.8347
 391  926.5859
 392  949.0576
 393  968.4031
 394  864.4673
 395  785.8253
 396  716.5795
 397  717.4549
 398  734.5482
 399  716.715
 400  795.2192
 401  844.4003
 402  798.9548
 403  700.6675
 404  774.3976
 405  835.9793
 406  823.6503
 407  809.9045
 408  829.4543
 409  782.3662
 410  750.7324
 411  806.1121
 412  824.3472
 413  886.9612
 414  829.3773
 415  779.4268
 416  786.7422
 417  782.2879
 418  777.2552
 419  776.0099
 420  818.6537
 421  869.478
 422  884.1733
 423  944.856
 424  813.4729
 425  789.3887
 426  852.8096
 427  797.2106
 428  792.7121
 429  790.8102
 430  768.4384
 431  753.1298
 432  787.0175
 433  828.5356
 434  913.8204
 435  895.3372
 436  922.5179
 437  975.4816
 438  950.1606
 439  958.3195
 440  894.0573
 441  916.254
 442  952.2557
 443  956.047
 444  1039.115
 445  1007.618
 446  919.204
 447  838.5815
 448  790.8888
 449  862.7426
 450  884.1042
 451  899.3318
 452  930.586
 453  831.317
 454  906.9286
 455  924.9671
 456  851.0519
 457  868.6292
 458  966.3268
 459  954.2634
 460  928.2654
 461  933.9813
 462  923.4491
 463  766.2719
 464  747.1241
 465  801.2111
 466  806.1309
 467  805.8596
 468  782.5825
 469  887.7908
 470  819.0779
 471  905.6383
 472  992.3837
 473  985.4232
 474  951.8075
 475  985.5204
 476  950.2376
 477  896.887
 478  821.9158
 479  909.1335
 480  934.9371
 481  832.425
 482  771.7804
 483  822.7375
 484  919.2791
 485  805.5751
 486  788.281
 487  871.6071
 488  840.7775
 489  742.2599
 490  741.6666
 491  846.608
 492  877.2368
 493  858.3291
 494  871.4905
 495  864.9144
 496  848.8574
 497  822.1002
 498  871.4794
 499  906.0686
 500  836.9794
 501  776.0837
 502  721.4247
 503  786.4054
 504  841.9733
 505  804.0389
 506  824.6793
 507  948.2679
 508  976.1183
 509  1000.639
 510  1209.895
 511  1270.071
