# Input file       =  1195502192.101845_cleaned.dat
# Candidate        =  PSR_0332+5434
# Telescope        =  AR
# Epoch_topo       =  58080.831147012097
# Epoch_bary       =  N/A
# T_sample         =  0.002
# Data Folded      =  7340032
# Data Avg         =  0.29390138376974 
# Data StdDev      =  4.9719115818058  
# Profile Bins     =  256
# Profile Avg      =  8424.24307283803 
# Profile StdDev   =  841.884261507836 
# Reduced chi-sqr  =  0.731
# Prob(Noise)      <  1   (~0.0 sigma)
# P_topo (ms)      =  714.518265726736  +/- 0.000745
# P'_topo (s/s)    =  -0                +/- 3.93e-10
# P''_topo (s/s^2) =  0                 +/- 1.74e-13
# P_bary (ms)      =  N/A
# P'_bary (s/s)    =  N/A
# P''_bary (s/s^2) =  N/A
# P_orb (s)        =  N/A
# asin(i)/c (s)    =  N/A
# eccentricity     =  N/A
# w (rad)          =  N/A
# T_peri           =  N/A
######################################################
   0  9062.069
   1  8456.289
   2  9346.511
   3  8327.26
   4  9303.44
   5  8606.271
   6  8713.248
   7  8244.89
   8  8269.897
   9  8689.357
  10  8484.356
  11  8911.678
  12  8576.269
  13  8806.881
  14  8620.051
  15  8628.059
  16  8616.827
  17  8340.98
  18  8308.706
  19  9077.644
  20  9311.386
  21  8961.95
  22  8787.598
  23  10218.29
  24  9063.829
  25  8919.591
  26  8886.334
  27  8646.277
  28  9125.742
  29  8408.889
  30  8973.393
  31  8057.341
  32  8777.096
  33  8253.122
  34  7651.862
  35  8547.433
  36  7844.915
  37  7733.599
  38  7560.203
  39  8095.885
  40  8252.004
  41  7587.947
  42  7956.307
  43  8232.104
  44  7968.232
  45  9036.27
  46  9263.461
  47  9045.861
  48  8326.59
  49  8801.476
  50  8590.628
  51  8319.257
  52  8699.449
  53  8435.166
  54  8778.904
  55  8807.622
  56  8337.541
  57  8669.229
  58  8419.107
  59  9081.384
  60  8889.896
  61  8824.675
  62  8533.396
  63  8886.813
  64  9213.702
  65  8493.742
  66  8321.503
  67  8762.571
  68  9191.478
  69  8525.606
  70  8912.731
  71  9477.913
  72  8448
  73  8813.051
  74  8158.122
  75  8414.591
  76  8377.364
  77  8828.874
  78  8633.959
  79  7972.173
  80  8197.253
  81  8481.458
  82  8453.312
  83  8411.354
  84  8353.08
  85  7745.478
  86  8148.698
  87  8181.312
  88  8810.175
  89  8469.924
  90  8361.705
  91  9071.488
  92  9312.654
  93  8925.248
  94  8987.973
  95  8918.543
  96  8841.598
  97  9219.202
  98  8546.803
  99  7205.36
 100  6997.642
 101  7169.991
 102  7469.487
 103  7108.28
 104  7976.294
 105  7999.502
 106  7521.086
 107  7943.288
 108  8448.138
 109  7900.497
 110  7867.935
 111  7824.198
 112  8602.945
 113  8156.141
 114  8125.013
 115  7721.608
 116  7515.545
 117  7700.827
 118  8544.873
 119  8887.58
 120  9238.787
 121  9335.368
 122  9222.869
 123  9777.635
 124  9426.519
 125  8219.543
 126  8572.99
 127  8928.172
 128  9018.712
 129  8895
 130  9090.015
 131  9264.768
 132  8957.452
 133  7594.915
 134  8062.156
 135  7809.078
 136  8181.631
 137  9221.416
 138  9547.88
 139  8986.195
 140  8063.298
 141  8850.614
 142  7863.354
 143  8127.11
 144  7688.597
 145  8235.456
 146  7630.862
 147  8138.705
 148  8232.051
 149  8163.734
 150  8166.44
 151  8291.493
 152  7339.878
 153  8032.331
 154  7994.901
 155  9314.843
 156  10407.64
 157  11241.74
 158  9503.82
 159  8288.701
 160  8588.529
 161  8111.907
 162  7902.712
 163  8370.292
 164  8701.378
 165  8498.846
 166  8265.734
 167  7938.626
 168  8225.94
 169  8805.028
 170  8404.154
 171  8636.905
 172  8391.599
 173  7682.761
 174  7712.848
 175  8261.267
 176  7832.122
 177  8831.673
 178  8189.394
 179  8591.969
 180  8581.479
 181  8313.797
 182  8262.057
 183  8034.661
 184  8622.318
 185  8677.741
 186  8679.044
 187  8209.054
 188  8088.27
 189  6983.679
 190  7594.038
 191  7687.575
 192  7584.499
 193  7033.618
 194  7342.141
 195  7375.289
 196  7696.752
 197  7384.792
 198  7729.976
 199  7876.438
 200  7816.764
 201  7441.571
 202  7181.505
 203  6476.398
 204  7753.75
 205  7258.032
 206  7823.599
 207  7893.707
 208  6824.431
 209  8088.323
 210  7655.774
 211  8865.668
 212  8927.591
 213  8839.804
 214  8727.961
 215  8904.031
 216  7827.113
 217  7953.051
 218  8554.968
 219  8430.225
 220  8331.7
 221  8573.191
 222  8865.238
 223  8463.494
 224  9437.898
 225  9295.725
 226  8801.012
 227  8592.726
 228  7922.399
 229  8775.986
 230  8211.334
 231  8547.074
 232  8391.379
 233  8361.233
 234  8520.89
 235  8285.773
 236  8293.732
 237  8683.06
 238  9184.891
 239  8913.207
 240  8899.013
 241  8475.371
 242  8187.779
 243  9100.126
 244  9365.915
 245  8101.145
 246  7994.342
 247  8464.866
 248  8263.268
 249  8202.651
 250  8722.064
 251  8299.512
 252  7983.22
 253  7910.779
 254  9184.635
 255  9500.168
