# Input file       =  1195918367.104826_cleaned.dat
# Candidate        =  PSR_0332+5434
# Telescope        =  AR
# Epoch_topo       =  58085.647987324373
# Epoch_bary       =  N/A
# T_sample         =  0.002
# Data Folded      =  7208960
# Data Avg         =  0.0415427918902178
# Data StdDev      =  1.0002852879254  
# Profile Bins     =  512
# Profile Avg      =  584.837883048543 
# Profile StdDev   =  118.693027823623 
# Reduced chi-sqr  =  0.793
# Prob(Noise)      <  1   (~0.0 sigma)
# P_topo (ms)      =  714.523232917174  +/- 3.08e-05
# P'_topo (s/s)    =  -0                +/- 1.65e-11
# P''_topo (s/s^2) =  0                 +/- 7.43e-15
# P_bary (ms)      =  N/A
# P'_bary (s/s)    =  N/A
# P''_bary (s/s^2) =  N/A
# P_orb (s)        =  N/A
# asin(i)/c (s)    =  N/A
# eccentricity     =  N/A
# w (rad)          =  N/A
# T_peri           =  N/A
######################################################
   0  835.6379
   1  882.7333
   2  754.5985
   3  627.7741
   4  553.0383
   5  552.3888
   6  591.4911
   7  492.8654
   8  588.9435
   9  633.0745
  10  586.1803
  11  628.0985
  12  634.9293
  13  663.7018
  14  631.0965
  15  542.3239
  16  564.05
  17  492.2144
  18  540.1954
  19  582.8615
  20  598.1776
  21  574.0596
  22  518.2834
  23  602.3422
  24  564.3956
  25  541.7561
  26  600.0043
  27  598.6156
  28  544.4611
  29  568.7587
  30  637.1293
  31  594.8187
  32  390.2532
  33  452.4067
  34  657.6976
  35  626.3824
  36  559.7598
  37  641.3005
  38  656.352
  39  591.6012
  40  658.0533
  41  612.8085
  42  504.0677
  43  517.3972
  44  615.9761
  45  688.8555
  46  675.3033
  47  598.6017
  48  642.0187
  49  553.3391
  50  555.3338
  51  616.1431
  52  618.5138
  53  611.5348
  54  551.638
  55  624.2551
  56  608.464
  57  567.4932
  58  572.8186
  59  751.0878
  60  729.6911
  61  560.3109
  62  626.6783
  63  676.6869
  64  634.0668
  65  657.3956
  66  751.4512
  67  786.6343
  68  681.2999
  69  634.8492
  70  532.3694
  71  528.8
  72  558.4715
  73  595.2725
  74  593.4907
  75  636.4191
  76  616.0073
  77  614.2348
  78  611.178
  79  624.5399
  80  683.6721
  81  616.0381
  82  544.3251
  83  558.55
  84  628.6667
  85  549.7028
  86  582.1609
  87  637.9625
  88  584.3638
  89  566.298
  90  605.1787
  91  642.8188
  92  540.2398
  93  491.6628
  94  580.5715
  95  562.9557
  96  616.6745
  97  595.4208
  98  614.3604
  99  624.3627
 100  634.9982
 101  612.0945
 102  639.116
 103  636.8417
 104  528.9971
 105  620.5071
 106  554.8127
 107  542.2935
 108  622.3847
 109  644.551
 110  521.4298
 111  563.741
 112  580.1492
 113  607.0103
 114  654.3983
 115  625.0504
 116  613.3044
 117  654.5707
 118  577.4918
 119  623.2178
 120  676.8506
 121  711.9932
 122  595.9572
 123  568.86
 124  604.3079
 125  679.8035
 126  671.7307
 127  744.0814
 128  710.4883
 129  688.0655
 130  701.6629
 131  598.2114
 132  600.779
 133  574.3326
 134  689.806
 135  647.6886
 136  615.1871
 137  494.005
 138  495.4812
 139  499.69
 140  511.8934
 141  645.1816
 142  565.5433
 143  440.4966
 144  441.0431
 145  605.4744
 146  570.3288
 147  463.5667
 148  563.1047
 149  592.2892
 150  602.855
 151  621.5172
 152  585.0334
 153  546.7894
 154  555.3546
 155  604.7659
 156  646.1069
 157  585.007
 158  591.3803
 159  577.0905
 160  578.7291
 161  633.1232
 162  615.9553
 163  643.571
 164  554.3807
 165  503.4492
 166  568.4521
 167  529.3929
 168  481.9202
 169  559.2321
 170  603.4977
 171  454.1537
 172  504.0104
 173  561.7335
 174  525.957
 175  418.6812
 176  431.1489
 177  537.0591
 178  391.8718
 179  495.1816
 180  513.7275
 181  509.1447
 182  466.8049
 183  510.9719
 184  654.8813
 185  610.9182
 186  573.8442
 187  602.8245
 188  724.0131
 189  544.1785
 190  495.1339
 191  578.6434
 192  554.9227
 193  512.2921
 194  489.5475
 195  548.3792
 196  573.009
 197  513.7479
 198  569.212
 199  563.6517
 200  505.0146
 201  493.9977
 202  540.8195
 203  601.2233
 204  559.3585
 205  539.3737
 206  561.3614
 207  491.0807
 208  562.9775
 209  603.7427
 210  640.0619
 211  634.9542
 212  672.2576
 213  701.7535
 214  612.3215
 215  542.3035
 216  605.0934
 217  661.8181
 218  616.9799
 219  616.2841
 220  551.7326
 221  468.9495
 222  450.1861
 223  484.6483
 224  531.2924
 225  557.9489
 226  520.0249
 227  589.2248
 228  549.3904
 229  519.9889
 230  645.988
 231  618.4873
 232  522.0124
 233  536.524
 234  505.0145
 235  489.7018
 236  549.2416
 237  657.66
 238  678.4896
 239  614.0546
 240  569.4765
 241  584.7709
 242  615.8684
 243  585.3163
 244  593.8511
 245  572.5718
 246  589.473
 247  497.8863
 248  589.8799
 249  549.768
 250  502.6327
 251  502.9741
 252  594.2254
 253  589.2869
 254  414.1137
 255  466.9653
 256  619.8361
 257  513.2315
 258  499.3885
 259  506.4274
 260  459.5873
 261  391.6617
 262  546.1528
 263  647.4573
 264  651.8788
 265  602.7487
 266  630.1605
 267  575.9636
 268  467.2014
 269  486.1401
 270  502.4203
 271  463.3825
 272  533.8906
 273  617.5771
 274  590.9377
 275  526.6526
 276  561.2869
 277  595.5364
 278  632.1967
 279  526.0999
 280  565.0847
 281  617.2363
 282  604.5289
 283  491.3315
 284  585.8845
 285  698.0123
 286  529.2338
 287  464.0346
 288  534.897
 289  613.3305
 290  554.8669
 291  507.9013
 292  525.1605
 293  495.1241
 294  502.9499
 295  660.963
 296  565.6545
 297  466.9864
 298  450.5086
 299  533.494
 300  518.2473
 301  537.5999
 302  589.9056
 303  536.4791
 304  570.2471
 305  643.6216
 306  661.1609
 307  556.2682
 308  468.619
 309  622.6413
 310  645.6634
 311  652.9642
 312  620.4113
 313  679.7632
 314  529.5996
 315  534.8293
 316  560.9728
 317  632.0391
 318  628.1918
 319  524.3476
 320  610.9718
 321  533.4578
 322  565.4009
 323  647.5118
 324  666.6836
 325  587.3895
 326  504.2949
 327  578.7224
 328  566.763
 329  488.2216
 330  471.8411
 331  515.111
 332  614.1458
 333  498.9636
 334  470.7682
 335  457.4194
 336  422.0822
 337  399.3217
 338  518.4814
 339  581.6993
 340  590.362
 341  632.1747
 342  625.7195
 343  520.0436
 344  501.8307
 345  536.4254
 346  541.65
 347  542.9512
 348  515.2536
 349  588.3754
 350  500.9362
 351  440.2247
 352  564.1629
 353  530.2668
 354  616.2778
 355  643.1569
 356  724.3265
 357  645.8903
 358  503.0717
 359  621.6354
 360  603.0596
 361  466.5835
 362  453.677
 363  588.9993
 364  527.8929
 365  488.2474
 366  552.4355
 367  635.2379
 368  590.464
 369  534.2531
 370  599.6656
 371  580.9642
 372  498.0004
 373  683.0947
 374  637.0594
 375  560.888
 376  446.2972
 377  525.9212
 378  646.3051
 379  578.2725
 380  615.0864
 381  613.2272
 382  539.9743
 383  575.065
 384  479.9777
 385  538.5982
 386  570.0782
 387  662.8111
 388  653.8959
 389  632.0991
 390  547.2425
 391  509.8287
 392  636.6375
 393  603.85
 394  571.8044
 395  589.3134
 396  522.3218
 397  561.1393
 398  632.7922
 399  611.5573
 400  527.2703
 401  581.4241
 402  563.1346
 403  581.9064
 404  544.8566
 405  625.8734
 406  723.301
 407  648.3348
 408  537.7509
 409  570.5959
 410  549.1368
 411  396.2534
 412  366.6842
 413  467.1056
 414  542.4991
 415  528.233
 416  496.9659
 417  541.8937
 418  522.0495
 419  500.805
 420  593.0184
 421  563.5914
 422  471.2201
 423  512.8234
 424  617.8109
 425  570.7296
 426  533.9702
 427  554.7012
 428  662.3604
 429  513.8741
 430  481.5189
 431  615.9497
 432  615.6923
 433  548.2609
 434  525.065
 435  566.7821
 436  498.6412
 437  558.35
 438  603.4485
 439  675.5648
 440  645.6601
 441  545.6998
 442  587.5324
 443  614.1793
 444  548.1531
 445  535.4987
 446  687.4423
 447  650.9494
 448  535.4801
 449  638.0968
 450  663.5328
 451  607.903
 452  619.2198
 453  644.3365
 454  547.388
 455  547.6803
 456  652.7946
 457  558.2451
 458  522.168
 459  684.1293
 460  668.1965
 461  633.4802
 462  612.2135
 463  687.8586
 464  673.0952
 465  688.6696
 466  719.3795
 467  650.6353
 468  549.4421
 469  606.0349
 470  772.9793
 471  697.5419
 472  670.7052
 473  629.4444
 474  707.418
 475  640.8417
 476  632.2565
 477  672.4595
 478  776.1991
 479  652.5401
 480  699.0051
 481  818.2501
 482  648.7589
 483  653.5063
 484  586.6201
 485  576.9252
 486  493.1177
 487  542.9178
 488  664.7427
 489  713.0397
 490  628.7524
 491  543.3228
 492  515.6904
 493  592.9733
 494  618.2144
 495  731.5828
 496  699.6299
 497  656.9791
 498  621.6283
 499  627.9808
 500  613.0739
 501  584.5833
 502  590.3533
 503  712.0656
 504  724.7454
 505  716.9818
 506  747.9037
 507  732.9494
 508  696.6373
 509  824.6527
 510  943.8794
 511  880.629
