# Input file       =  1195315227.114825_cleaned.dat
# Candidate        =  PSR_0332+5434
# Telescope        =  AR
# Epoch_topo       =  58078.667200403070
# Epoch_bary       =  N/A
# T_sample         =  0.002
# Data Folded      =  7143424
# Data Avg         =  1.30218302923652 
# Data StdDev      =  30.6661693874867 
# Profile Bins     =  1024
# Profile Avg      =  9084.0479005015  
# Profile StdDev   =  2561.31366287625 
# Reduced chi-sqr  =  0.431
# Prob(Noise)      <  1   (~0.0 sigma)
# P_topo (ms)      =  714.51600285784   +/- 7.56e-05
# P'_topo (s/s)    =  -0                +/- 4.1e-11
# P''_topo (s/s^2) =  0                 +/- 1.86e-14
# P_bary (ms)      =  N/A
# P'_bary (s/s)    =  N/A
# P''_bary (s/s^2) =  N/A
# P_orb (s)        =  N/A
# asin(i)/c (s)    =  N/A
# eccentricity     =  N/A
# w (rad)          =  N/A
# T_peri           =  N/A
######################################################
   0  9408.506
   1  9401.502
   2  8331.124
   3  8152.355
   4  8979.326
   5  9537.048
   6  9302.071
   7  9340.5
   8  10331.35
   9  11023.07
  10  11157.06
  11  9737.448
  12  8672.567
  13  9042.19
  14  9821.338
  15  9721.092
  16  8949.319
  17  8701.32
  18  9491.016
  19  9547.749
  20  9222.003
  21  9917.162
  22  10482.22
  23  10961.17
  24  10819.65
  25  11257.86
  26  11188.16
  27  11123.52
  28  10312.98
  29  9812.378
  30  9669.208
  31  9331.317
  32  9131.604
  33  8753.213
  34  8667.996
  35  9206.959
  36  9548.784
  37  9133.182
  38  9071.012
  39  9743.632
  40  9812.521
  41  9503.189
  42  9748.43
  43  10757.91
  44  10952.45
  45  10471.68
  46  9997.997
  47  10441.33
  48  10999.54
  49  10178.9
  50  9736.792
  51  10322.88
  52  10824.01
  53  10286.04
  54  9294.883
  55  9257.904
  56  9747.116
  57  10971.29
  58  11076.51
  59  10118.82
  60  8839.733
  61  9601.174
  62  9815.157
  63  10101.74
  64  9715.979
  65  9960.199
  66  9725.381
  67  9411.15
  68  9234.281
  69  8954.617
  70  8531.998
  71  8828.926
  72  8747.59
  73  8867.209
  74  9124.137
  75  9399.983
  76  9047.871
  77  8776.475
  78  8781.087
  79  8736.061
  80  8678.326
  81  8905.078
  82  9191.014
  83  8909.126
  84  8383.71
  85  7908.888
  86  8382.762
  87  9155.853
  88  9651.347
  89  9536.033
  90  9413.735
  91  9485.177
  92  9054.187
  93  8658.938
  94  9104.266
  95  9487.24
  96  9697.899
  97  8856.304
  98  8548.719
  99  8101.326
 100  9050.312
 101  9411.828
 102  9999.381
 103  10592.38
 104  10809.59
 105  10126.92
 106  9418.414
 107  8923.462
 108  9696.768
 109  9969.676
 110  10458.27
 111  10481.19
 112  10573.45
 113  11017.61
 114  11442.08
 115  11304.11
 116  10896.5
 117  10469.35
 118  10196.86
 119  10115.54
 120  10138.85
 121  9913.746
 122  10282.36
 123  10754.06
 124  10883.1
 125  10259.47
 126  8497.491
 127  8348.58
 128  8811.833
 129  9914.314
 130  9866.479
 131  10138.69
 132  10277.11
 133  11089.69
 134  10759.42
 135  10115.56
 136  9522.253
 137  9299.186
 138  9044.296
 139  8759.227
 140  8492.848
 141  8476.759
 142  8751.612
 143  10006.48
 144  10061.65
 145  9680.502
 146  8594.828
 147  8794.262
 148  8988.333
 149  9264.002
 150  9143.701
 151  8406.835
 152  8183.307
 153  8221.321
 154  8333.693
 155  8094.785
 156  8355.248
 157  8493.823
 158  8955.068
 159  7788.096
 160  7802.199
 161  7922.58
 162  8160.502
 163  7542.451
 164  7662.45
 165  7986.344
 166  8411.567
 167  8237.96
 168  8290.918
 169  7755.481
 170  7257.634
 171  6940.607
 172  8246.727
 173  8289.625
 174  8526.044
 175  7440.95
 176  8695.317
 177  8774.979
 178  9339.518
 179  8521.655
 180  8454.19
 181  8453.964
 182  8178.746
 183  7406.889
 184  7436.268
 185  7855.509
 186  8448.201
 187  7945.683
 188  7384.399
 189  6902.625
 190  7732.162
 191  9084.274
 192  9529.153
 193  8952.021
 194  8847.364
 195  8406.486
 196  8467.979
 197  7938.042
 198  7406.503
 199  7399.585
 200  7659.039
 201  8708.213
 202  8656.674
 203  7960.989
 204  7970.512
 205  8496.484
 206  8768.28
 207  7844.143
 208  7162.809
 209  7090.712
 210  7409.328
 211  7909.768
 212  7730.268
 213  8035.771
 214  8160.327
 215  9158.367
 216  9107.057
 217  9017.734
 218  9327.442
 219  9568.104
 220  9113.288
 221  9174.595
 222  8376.853
 223  8854.688
 224  7882.22
 225  8518.713
 226  8137.579
 227  8839.747
 228  9909.027
 229  10157.92
 230  9334.873
 231  9143.05
 232  9035.541
 233  9602.707
 234  9086.163
 235  9265.435
 236  8596.727
 237  8642.968
 238  8768.231
 239  9101.104
 240  9394.868
 241  9665.118
 242  9918.498
 243  10164.6
 244  10001.96
 245  9220.065
 246  8885.99
 247  8574.802
 248  8845.783
 249  8440.942
 250  9287.183
 251  9073.788
 252  9305.068
 253  9462.513
 254  10029.76
 255  10660.67
 256  10203.74
 257  10046.77
 258  9818.527
 259  10071.28
 260  9906.657
 261  9003.258
 262  9373.34
 263  9601.592
 264  9572.562
 265  9805.628
 266  9719.479
 267  9325.134
 268  9117.523
 269  8637.434
 270  8362.862
 271  7803.294
 272  9137.886
 273  10003.27
 274  9513.495
 275  9392.864
 276  9688.384
 277  10448.04
 278  9403.298
 279  8945.329
 280  8942.106
 281  8502.107
 282  9141.768
 283  9153.841
 284  8740.188
 285  8026.033
 286  8793.397
 287  10227.98
 288  9678.063
 289  8685.115
 290  7882.142
 291  8460.668
 292  8264.169
 293  8296.61
 294  8293.276
 295  8410.329
 296  8222.222
 297  7629.462
 298  7012.572
 299  7088.387
 300  7181.388
 301  8402.471
 302  8305.11
 303  8563.48
 304  8731.637
 305  8841.141
 306  8874.916
 307  8538.914
 308  8762.188
 309  9161.99
 310  8735.258
 311  8918.182
 312  7922.152
 313  7801.166
 314  7654.13
 315  8320.701
 316  8687.245
 317  9346.157
 318  9144.544
 319  8849.97
 320  8183.83
 321  8476.353
 322  8948.104
 323  9475.049
 324  10334.45
 325  10549.31
 326  10299.28
 327  9168.704
 328  8275.903
 329  8322.192
 330  9277.375
 331  9859.552
 332  9770.081
 333  9260.839
 334  8995.541
 335  8575.401
 336  8605.146
 337  8869.284
 338  8756.671
 339  8592.844
 340  8118.649
 341  7449.155
 342  7172.027
 343  7651.772
 344  8157.119
 345  8080.453
 346  8267.517
 347  8061.293
 348  8459.878
 349  8623.191
 350  9646.015
 351  9706.343
 352  9941.866
 353  10079.63
 354  9741.144
 355  7912.088
 356  6988.045
 357  7436.291
 358  8710.973
 359  9012.285
 360  8380.057
 361  8782.752
 362  9433.146
 363  10003.03
 364  9692.436
 365  9491.363
 366  9429.808
 367  9130.836
 368  9261.41
 369  8611.594
 370  7617.195
 371  7382.037
 372  8088.345
 373  8656.008
 374  7746.885
 375  7306.547
 376  7146.188
 377  6748.079
 378  6681.077
 379  6996.327
 380  7379.798
 381  7900.957
 382  8130.384
 383  8218.712
 384  7344.734
 385  7146.102
 386  7488.3
 387  8174.518
 388  8568.49
 389  9597.905
 390  8910.734
 391  9142.703
 392  8617.545
 393  9071.22
 394  9069.056
 395  9154.045
 396  8931.681
 397  8921.371
 398  8651.804
 399  7869.644
 400  8643.15
 401  9234.719
 402  9401.287
 403  8826.108
 404  8508.439
 405  9096.683
 406  9068.036
 407  9168.447
 408  9590.017
 409  9172.312
 410  9590.49
 411  9376.052
 412  10259.06
 413  9613.689
 414  9781.433
 415  10347.89
 416  11481.29
 417  11070.74
 418  10380.87
 419  10371.58
 420  10580.09
 421  10890.38
 422  10520.91
 423  10161.23
 424  9753.186
 425  8731.493
 426  8892.818
 427  8418.855
 428  9020.351
 429  8422.243
 430  8896.403
 431  9049.273
 432  9189.25
 433  8580.125
 434  9500.802
 435  9939.479
 436  10781.64
 437  10417.05
 438  10130.94
 439  9359.326
 440  8645.721
 441  8015.105
 442  8178.942
 443  8729.192
 444  9810.703
 445  9914.751
 446  9678.85
 447  9855.163
 448  10196.35
 449  10156.37
 450  9725.266
 451  9942.995
 452  10686.2
 453  10837.44
 454  9963.653
 455  9477
 456  9500.67
 457  9583.702
 458  9286.871
 459  8605.478
 460  8942.222
 461  9866.798
 462  9768.286
 463  9564.907
 464  9050.438
 465  9639.454
 466  9044.04
 467  8713.337
 468  8239.554
 469  8586.085
 470  7905.849
 471  7801.978
 472  8553.956
 473  10316.35
 474  10371.16
 475  10321.65
 476  9760.598
 477  10221.66
 478  9967.42
 479  10090.1
 480  8898.246
 481  8749.008
 482  8988.393
 483  8848.26
 484  7840.687
 485  7771.14
 486  8544.57
 487  9111.524
 488  8514.249
 489  8531.232
 490  8616.067
 491  9326.004
 492  9782.246
 493  9337.922
 494  8045.625
 495  7059.263
 496  8032.017
 497  9057.779
 498  8856.988
 499  7525.273
 500  7762.267
 501  8547.311
 502  8789.688
 503  8931.84
 504  8895.26
 505  8806.261
 506  8778.558
 507  9237.454
 508  9303.678
 509  7729.221
 510  7115.75
 511  7291.552
 512  8303.624
 513  7901.824
 514  7519.726
 515  7534.991
 516  8334.367
 517  7830.734
 518  7463.705
 519  6719.424
 520  7414.315
 521  8114.761
 522  8606.262
 523  8040.95
 524  8683.895
 525  9521.629
 526  9279.075
 527  8796.371
 528  8346.577
 529  9429.496
 530  9630.097
 531  9847.943
 532  8901.937
 533  8215.868
 534  7967.617
 535  8184.084
 536  7828.71
 537  8172.196
 538  8576.21
 539  8990.423
 540  9103.703
 541  8542.047
 542  8101.536
 543  8338.965
 544  9207.73
 545  9909.045
 546  9088.105
 547  8168.068
 548  7070.192
 549  6831.75
 550  7535.672
 551  9060.907
 552  9414.167
 553  9674.659
 554  9607.822
 555  10053.36
 556  9786.114
 557  9832.038
 558  10091.63
 559  10719.54
 560  10212.52
 561  10328.03
 562  9849.56
 563  9887.818
 564  9750.781
 565  10301.49
 566  9812.364
 567  9529.847
 568  9032.271
 569  9514.623
 570  9027.506
 571  8849.381
 572  8531.922
 573  8630.057
 574  8775.056
 575  8938.261
 576  8330.933
 577  8608.15
 578  9126.44
 579  9392.832
 580  8756.479
 581  8981.259
 582  10332.68
 583  10190.8
 584  8922.4
 585  7914.173
 586  8976.405
 587  9981.766
 588  10825.97
 589  10325.39
 590  9737.905
 591  9395.363
 592  9062.192
 593  9113.331
 594  8903.792
 595  8900.528
 596  9241.47
 597  9795.382
 598  11073.06
 599  11133.08
 600  10773.49
 601  10726.89
 602  11274.9
 603  11065.53
 604  10374.87
 605  9106.128
 606  9620.26
 607  9731.871
 608  11004.76
 609  10707.52
 610  10965.47
 611  10950.72
 612  10680.16
 613  10148.38
 614  10354.33
 615  10204.17
 616  10279.99
 617  10265.35
 618  9577.636
 619  8742.999
 620  8034.038
 621  8585.217
 622  9219.935
 623  10115.43
 624  9960.359
 625  10286.06
 626  9771.333
 627  9573.783
 628  8929.883
 629  9726.548
 630  10399.99
 631  10581.68
 632  10226.65
 633  9341.591
 634  8424.898
 635  7586.428
 636  7882.522
 637  7883.914
 638  7676.802
 639  7325.997
 640  7661.5
 641  8749.903
 642  8806.121
 643  7884.694
 644  8683.576
 645  9292.491
 646  10066.07
 647  9605.007
 648  9568.728
 649  9158.362
 650  9042.108
 651  8704.799
 652  8368.318
 653  8207.475
 654  8386.94
 655  9043.946
 656  8985.439
 657  9049.936
 658  8996.724
 659  9289.661
 660  9301.359
 661  8022.17
 662  6569.253
 663  6524.972
 664  6899.895
 665  7997.755
 666  8434.688
 667  8069.311
 668  8268.346
 669  8569.696
 670  8956.531
 671  8466.893
 672  8881.377
 673  9460.747
 674  9493.082
 675  8396.494
 676  8535.235
 677  8389.176
 678  8500.57
 679  9518.629
 680  9776.887
 681  9339.592
 682  9099.823
 683  8888.185
 684  8357.307
 685  7316.158
 686  7515.199
 687  7320.871
 688  8319.706
 689  8681.728
 690  9597.63
 691  8943.431
 692  9861.306
 693  10001.7
 694  10668.45
 695  10225.62
 696  9467.727
 697  8658.313
 698  8858.575
 699  8518.769
 700  8636.656
 701  8419.291
 702  9755.332
 703  9800.318
 704  9273.883
 705  8696.175
 706  9164.539
 707  9814.044
 708  10160.07
 709  9940.824
 710  10088.23
 711  9718.633
 712  9538.062
 713  8899.947
 714  8759.72
 715  8365.979
 716  8770.817
 717  8899.969
 718  9487.024
 719  8638.328
 720  7842.074
 721  7679.306
 722  8710.765
 723  9681.271
 724  9468.606
 725  9800.278
 726  10255.88
 727  10749.68
 728  10065.32
 729  9336.311
 730  8931.094
 731  10146.52
 732  10519.89
 733  10926.18
 734  9519.611
 735  9493.792
 736  9470.041
 737  10361.36
 738  10708.23
 739  11423.96
 740  10785.44
 741  10442.35
 742  9341.832
 743  9191.117
 744  8787.193
 745  8943.588
 746  9034.896
 747  9156.374
 748  8546.783
 749  8206.124
 750  8334.787
 751  8573.999
 752  8371.656
 753  8018.163
 754  8169.497
 755  8685.577
 756  9240.317
 757  9193.162
 758  9499.071
 759  10226.59
 760  11004.25
 761  10294.43
 762  9591.577
 763  8842.289
 764  9212.464
 765  9713.397
 766  9888.567
 767  8558.506
 768  7878.73
 769  7785.941
 770  8340.253
 771  7972.497
 772  8151.344
 773  8481.257
 774  8848.548
 775  8922.951
 776  8776.193
 777  7643.456
 778  7978.085
 779  7720.736
 780  8725.054
 781  7919.76
 782  7971.979
 783  8359.765
 784  9363.977
 785  8845.116
 786  8438.636
 787  9528.595
 788  10657.14
 789  11050.17
 790  10501.92
 791  10028.53
 792  9407.169
 793  8898.987
 794  8422.92
 795  8009.921
 796  7277.609
 797  7439.273
 798  7816.257
 799  7798.357
 800  7665.864
 801  7529.264
 802  8130.19
 803  8754.424
 804  8537.988
 805  8504.288
 806  8405.047
 807  8372.558
 808  8367.819
 809  8961.832
 810  9361.829
 811  9419.191
 812  8903.219
 813  9398.256
 814  8711.87
 815  8935.36
 816  9031.303
 817  10052.7
 818  10616.46
 819  10654.98
 820  10108.86
 821  9354.389
 822  9618.604
 823  9882.177
 824  9513.202
 825  9640.979
 826  9046.641
 827  8751.853
 828  7795.883
 829  7876.854
 830  8081.475
 831  8914.637
 832  9419.3
 833  9035.882
 834  7802.407
 835  7783.263
 836  8595.15
 837  10154.23
 838  10931.77
 839  10563.15
 840  10253.84
 841  10234.65
 842  9587.215
 843  8731.113
 844  8301.749
 845  8561.011
 846  9338.601
 847  9467.682
 848  9919.156
 849  8221.765
 850  8362.373
 851  9003.814
 852  10102.34
 853  9095.683
 854  7880.282
 855  7935.48
 856  7981.535
 857  8054.25
 858  8161.03
 859  8435.928
 860  8590.071
 861  8316.319
 862  8781.149
 863  7786.852
 864  7339.021
 865  7114.805
 866  8020.204
 867  8293.941
 868  9435.646
 869  10804.18
 870  11247.6
 871  10232.21
 872  9342.129
 873  9611.379
 874  9651.653
 875  9832.769
 876  9533.613
 877  9543.846
 878  9129.698
 879  10034.5
 880  10320.96
 881  10475.54
 882  9644.615
 883  10029.65
 884  10288.04
 885  10351.82
 886  9667.734
 887  10009.1
 888  10050.71
 889  10020.9
 890  9770.801
 891  9024.107
 892  8365.004
 893  7976.275
 894  8625.21
 895  9566.572
 896  10246.74
 897  10258.01
 898  10068.87
 899  9747.769
 900  8858.881
 901  8815.657
 902  9077.74
 903  9384.899
 904  8427.792
 905  8766.129
 906  8223.367
 907  8744.27
 908  8290.104
 909  9307.239
 910  8904.568
 911  9024.461
 912  8702.133
 913  9182.758
 914  9014.019
 915  9538.568
 916  9651.93
 917  10454.68
 918  10072.75
 919  9280.6
 920  8218.344
 921  8082.078
 922  8429.629
 923  9468.493
 924  9620.502
 925  9394.766
 926  9150.647
 927  9421.824
 928  9175.302
 929  8696.294
 930  8942.56
 931  9671.377
 932  9896.101
 933  8910.795
 934  8115.52
 935  8322.844
 936  8851.07
 937  9299.015
 938  9465.521
 939  9418.062
 940  9247.943
 941  8170.564
 942  8610.465
 943  8142.989
 944  8976.194
 945  9083.472
 946  9480.738
 947  9235.696
 948  9108.352
 949  8590.801
 950  8185.726
 951  8192.046
 952  9244.356
 953  9739.248
 954  9611.93
 955  9146.318
 956  9155.823
 957  9129.188
 958  9375.287
 959  9508.824
 960  9606.257
 961  9118.44
 962  8451.439
 963  8090.354
 964  7699.659
 965  7976.223
 966  8148.037
 967  9286.479
 968  9381.476
 969  9437.149
 970  8548.687
 971  8494.076
 972  8502.377
 973  9074.364
 974  8875.896
 975  7881.327
 976  7638.759
 977  8012.97
 978  8132.254
 979  8346.216
 980  9609.864
 981  11137.35
 982  10980.83
 983  10130.28
 984  9410.722
 985  9071.752
 986  8325.307
 987  8682.601
 988  8936.947
 989  9285.215
 990  9797.833
 991  11055.57
 992  11178.26
 993  10519.26
 994  10061.69
 995  10609.6
 996  10230.62
 997  9151.967
 998  8360.488
 999  8306.323
1000  7924.34
1001  7614.686
1002  8011.096
1003  9267.298
1004  10006.29
1005  9890.512
1006  9725.635
1007  8454.081
1008  8751.823
1009  8018.323
1010  9080.853
1011  8599.401
1012  8655.849
1013  8787.915
1014  9562.005
1015  9819.07
1016  9744.375
1017  10116.72
1018  10627.8
1019  10638.95
1020  10425.64
1021  9979.469
1022  9293.898
1023  9095.503
