# Input file       =  1195659868.110136_cleaned.dat
# Candidate        =  PSR_0332+5434
# Telescope        =  AR
# Epoch_topo       =  58082.656100811757
# Epoch_bary       =  N/A
# T_sample         =  0.002
# Data Folded      =  7143424
# Data Avg         =  0.988628438720906
# Data StdDev      =  18.8957968992687 
# Profile Bins     =  512
# Profile Avg      =  13793.1724228889 
# Profile StdDev   =  2231.94478239847 
# Reduced chi-sqr  =  0.442
# Prob(Noise)      <  1   (~0.0 sigma)
# P_topo (ms)      =  714.520133921693  +/- 7.03e-05
# P'_topo (s/s)    =  -0                +/- 3.81e-11
# P''_topo (s/s^2) =  0                 +/- 1.73e-14
# P_bary (ms)      =  N/A
# P'_bary (s/s)    =  N/A
# P''_bary (s/s^2) =  N/A
# P_orb (s)        =  N/A
# asin(i)/c (s)    =  N/A
# eccentricity     =  N/A
# w (rad)          =  N/A
# T_peri           =  N/A
######################################################
   0  13979.39
   1  13839.25
   2  14625.53
   3  13618.74
   4  13930.35
   5  14427.94
   6  14437.89
   7  13376.39
   8  11751.87
   9  11313.01
  10  11386.12
  11  12795.91
  12  12541.64
  13  13195.65
  14  11846.12
  15  11430.21
  16  11202.01
  17  11512.79
  18  13151.78
  19  13808.49
  20  14177.44
  21  15213.03
  22  17420.36
  23  16519.55
  24  13545.53
  25  12843.96
  26  13277.54
  27  12290.26
  28  12773.93
  29  13247.52
  30  13907.43
  31  13705.39
  32  14020.7
  33  16178.06
  34  16199.52
  35  14345.38
  36  15075.93
  37  16818.21
  38  15295.6
  39  13054.41
  40  11451.02
  41  11795.9
  42  12064.8
  43  12537.12
  44  13261.66
  45  13442.25
  46  13935.04
  47  13474.86
  48  12975.56
  49  13731.47
  50  14826.8
  51  14777.07
  52  13294.6
  53  14100.22
  54  13628.89
  55  13229.95
  56  14101.1
  57  14601.25
  58  13669.54
  59  12407.09
  60  13677.29
  61  14296.06
  62  15649.52
  63  15789.29
  64  16231.83
  65  16894.6
  66  15478.37
  67  13363.86
  68  14100.44
  69  15836.05
  70  14238.79
  71  13444.19
  72  12310.5
  73  13913.56
  74  14130.56
  75  13559.35
  76  14057.5
  77  15389.64
  78  14585.97
  79  14468.33
  80  15427.23
  81  13060.09
  82  14478.33
  83  14402.4
  84  14709.45
  85  14519.44
  86  13506.72
  87  13245.07
  88  12628.61
  89  12807.78
  90  13882.86
  91  14963.99
  92  14588.62
  93  15161.88
  94  14678.94
  95  13914.51
  96  13803.85
  97  14612.1
  98  15026.11
  99  14194.91
 100  13243.67
 101  14958.42
 102  14964.36
 103  13771.23
 104  14118.55
 105  13833.9
 106  13770.63
 107  13981.91
 108  14898.18
 109  13817.57
 110  12791.56
 111  12988.72
 112  13476.79
 113  12215.75
 114  12466.25
 115  13235.11
 116  14195.04
 117  13353.63
 118  13723.04
 119  13978.74
 120  14528.24
 121  13564.37
 122  11551.08
 123  13131.9
 124  11542.86
 125  12132.88
 126  12061.8
 127  12621.89
 128  12127.53
 129  12804.03
 130  13138.11
 131  13742.34
 132  13137.75
 133  12500.42
 134  13542.02
 135  13643.98
 136  14675.37
 137  15897.16
 138  14494.21
 139  13235.35
 140  13629.1
 141  13485.53
 142  13133.95
 143  13046.6
 144  13443.62
 145  12971.79
 146  12797.77
 147  14105.46
 148  16169.77
 149  14673.35
 150  14063.29
 151  14588.05
 152  14850.86
 153  13255.01
 154  12825.17
 155  13447.13
 156  14665.41
 157  13259.59
 158  12495.04
 159  12915.46
 160  13006.25
 161  14214.18
 162  14699.01
 163  15124.81
 164  13296.07
 165  14444.77
 166  15834.56
 167  13229.28
 168  12481.28
 169  13932.04
 170  15654.81
 171  14859.62
 172  15036.68
 173  13567.76
 174  13338.4
 175  13483.04
 176  13893.64
 177  14626.48
 178  14409.66
 179  15070.79
 180  15059.91
 181  14727.48
 182  14249.69
 183  14273.18
 184  14100.44
 185  14126.97
 186  13089.97
 187  12387.52
 188  12056.09
 189  12521.55
 190  13027.56
 191  13400.52
 192  13336.21
 193  13254.73
 194  14376.62
 195  14240.41
 196  12996.2
 197  13650.08
 198  13707.37
 199  13128.44
 200  14107.79
 201  13928.07
 202  13623.9
 203  12232.53
 204  13141.41
 205  13928.27
 206  13329.43
 207  14353.72
 208  13448.85
 209  13500.91
 210  14095.04
 211  15060.41
 212  14804.98
 213  13228.07
 214  12871.69
 215  13629.36
 216  13745.93
 217  13125.36
 218  13882.83
 219  13880.38
 220  13305.88
 221  12537.03
 222  13202.82
 223  12806.14
 224  12488.77
 225  12410.45
 226  13393.07
 227  12710.65
 228  13242.41
 229  13749.91
 230  14514.42
 231  14668.69
 232  13965.75
 233  15877.26
 234  15872.18
 235  14596.07
 236  13473.22
 237  14591.4
 238  14883.64
 239  13073.39
 240  13573.79
 241  13425.14
 242  13518.43
 243  14885.03
 244  14200.25
 245  14135.92
 246  14024.23
 247  14901.86
 248  14885.44
 249  13388
 250  12886.29
 251  12486.85
 252  13179.11
 253  12849.51
 254  13022.35
 255  14329.04
 256  14455.73
 257  14019.41
 258  13704.72
 259  14096.3
 260  13560.79
 261  13729.57
 262  14061.72
 263  14097.14
 264  14460.31
 265  14407.95
 266  13755.87
 267  12252.68
 268  12838.96
 269  14436.47
 270  14390.84
 271  14518.16
 272  13357.68
 273  13592.85
 274  12374.26
 275  12023.59
 276  11647.06
 277  14331.19
 278  13430.35
 279  14562.16
 280  15572.24
 281  13831.96
 282  12072.27
 283  12682.11
 284  13522.8
 285  13071.05
 286  14042.08
 287  13860.25
 288  14927.36
 289  14719.75
 290  14138.3
 291  14166.07
 292  14734.1
 293  14731.66
 294  14987.5
 295  16098.66
 296  14959.98
 297  14486.89
 298  15568.03
 299  14920.98
 300  14381.01
 301  13707.42
 302  13587.75
 303  13690.95
 304  14802.43
 305  15487.24
 306  14738.57
 307  13843.26
 308  14316.02
 309  13170.09
 310  14355.68
 311  15034.79
 312  15620.38
 313  15377.84
 314  14611.1
 315  13716.29
 316  12748.33
 317  13000.39
 318  13341.3
 319  14078.71
 320  13983.58
 321  12350.1
 322  12955.51
 323  13776.68
 324  11684.76
 325  11752.75
 326  12989.57
 327  14359.93
 328  13501.87
 329  13576.55
 330  14305.39
 331  13606.7
 332  12131.36
 333  12217.85
 334  14283.61
 335  13451.58
 336  12839.32
 337  12566.62
 338  14724.04
 339  13868.65
 340  12749.27
 341  14923.93
 342  16113.4
 343  16043.92
 344  14548.72
 345  14863.46
 346  14855.36
 347  14499.65
 348  15310.91
 349  13948.66
 350  12883.63
 351  13636.62
 352  13711.41
 353  13630.64
 354  13929.1
 355  14459.03
 356  13821.98
 357  13361.25
 358  13853.49
 359  14559
 360  14507.47
 361  13797.4
 362  12947.54
 363  14383.38
 364  14438.11
 365  13634.54
 366  14729
 367  14666.51
 368  14664.52
 369  15456
 370  16359.67
 371  15107.62
 372  15017.91
 373  14896.85
 374  15625.83
 375  15040.18
 376  13616.4
 377  13769.03
 378  12889.41
 379  13093.68
 380  13377.3
 381  14390.7
 382  12996.37
 383  13467.07
 384  14748.64
 385  14947.22
 386  14305.26
 387  13538.01
 388  14701.63
 389  15127.09
 390  13346.86
 391  14466.42
 392  13770.81
 393  12945.3
 394  13814.04
 395  14034.1
 396  13229.73
 397  13920.98
 398  14547.91
 399  13321.18
 400  11948.09
 401  13487.86
 402  14504.41
 403  14749.4
 404  14965.38
 405  17278.48
 406  16042.77
 407  13482.59
 408  12707.78
 409  14556.72
 410  15467.5
 411  15148.16
 412  15605.32
 413  15168.36
 414  13241.16
 415  13244.89
 416  14243.8
 417  14722.22
 418  14145.28
 419  13523.74
 420  14819.15
 421  13754.64
 422  12162.9
 423  12604.11
 424  12715.9
 425  12658
 426  14200.01
 427  14587.69
 428  13762.49
 429  13966.01
 430  13651.34
 431  13062.32
 432  13624.5
 433  13826.55
 434  13749.51
 435  13709.59
 436  13620.63
 437  13225.55
 438  13178.9
 439  12723.91
 440  12412.17
 441  13496.48
 442  14047.13
 443  12948.69
 444  11999.54
 445  12154.91
 446  12636.94
 447  13813.04
 448  14443.33
 449  15835.31
 450  14389.15
 451  13872
 452  14729.26
 453  14688.59
 454  15120.99
 455  14262.7
 456  14666.6
 457  15054.92
 458  15139.46
 459  14437.03
 460  13949.25
 461  14209.23
 462  15419.82
 463  15026.26
 464  12063.25
 465  11214.65
 466  11823.55
 467  12963.82
 468  11806.59
 469  13387.3
 470  13614.67
 471  12575.55
 472  12495.28
 473  11868.59
 474  13812.82
 475  14646.04
 476  13895.26
 477  14012.33
 478  12665.62
 479  12319.4
 480  12846.49
 481  14371.1
 482  12800.48
 483  12890.78
 484  14245.73
 485  14005.47
 486  13347.37
 487  12679.95
 488  12749.63
 489  12871.13
 490  14612.7
 491  14543.73
 492  13136.49
 493  12190.88
 494  13194.26
 495  12419.86
 496  12500.95
 497  11290.93
 498  10541.96
 499  11359.28
 500  10645.41
 501  10884.17
 502  12217.14
 503  14663.44
 504  14308.57
 505  13144.83
 506  14287.78
 507  13589.88
 508  13200.13
 509  13201.51
 510  14163.15
 511  13385.78
