# Input file       =  1195832188.113894_cleaned.dat
# Candidate        =  PSR_0332+5434
# Telescope        =  AR
# Epoch_topo       =  58084.650545299701
# Epoch_bary       =  N/A
# T_sample         =  0.002
# Data Folded      =  7208960
# Data Avg         =  0.042615808125844
# Data StdDev      =  1.00024512718123 
# Profile Bins     =  512
# Profile Avg      =  600.02142249193  
# Profile StdDev   =  118.68826238282  
# Reduced chi-sqr  =  0.649
# Prob(Noise)      <  1   (~0.0 sigma)
# P_topo (ms)      =  714.522200206688  +/- 0.000287
# P'_topo (s/s)    =  -0                +/- 1.54e-10
# P''_topo (s/s^2) =  0                 +/- 6.93e-14
# P_bary (ms)      =  N/A
# P'_bary (s/s)    =  N/A
# P''_bary (s/s^2) =  N/A
# P_orb (s)        =  N/A
# asin(i)/c (s)    =  N/A
# eccentricity     =  N/A
# w (rad)          =  N/A
# T_peri           =  N/A
######################################################
   0  915.8624
   1  873.5625
   2  837.4606
   3  697.7475
   4  689.7437
   5  571.5969
   6  544.033
   7  510.0145
   8  489.9194
   9  638.8477
  10  622.1885
  11  655.3438
  12  586.1278
  13  617.3599
  14  732.7259
  15  752.8698
  16  693.0185
  17  612.9396
  18  535.6403
  19  570.8465
  20  623.6255
  21  674.5365
  22  592.0766
  23  567.4932
  24  581.6039
  25  586.7176
  26  618.1733
  27  629.8624
  28  695.8361
  29  649.2703
  30  659.9952
  31  700.288
  32  609.2976
  33  611.1503
  34  539.0591
  35  454.0624
  36  608.208
  37  539.0357
  38  613.9763
  39  622.7211
  40  607.197
  41  668.2953
  42  663.8389
  43  591.3569
  44  587.6329
  45  659.3246
  46  616.917
  47  495.4901
  48  535.4965
  49  567.7288
  50  654.933
  51  586.3511
  52  593.7258
  53  609.7927
  54  632.1729
  55  604.2037
  56  619.6027
  57  664.3811
  58  664.3588
  59  632.8557
  60  546.1797
  61  536.1821
  62  518.1313
  63  618.9911
  64  681.7576
  65  634.4862
  66  588.9189
  67  690.4626
  68  655.3278
  69  663.0725
  70  635.7112
  71  528.7386
  72  498.0312
  73  560.2393
  74  654.8955
  75  627.9573
  76  592.7361
  77  573.5165
  78  552.1663
  79  519.4934
  80  529.6734
  81  556.7878
  82  591.639
  83  495.4722
  84  503.3973
  85  474.7515
  86  492.1026
  87  604.2383
  88  612.5728
  89  719.9949
  90  660.2302
  91  594.3655
  92  558.2914
  93  489.3948
  94  541.7592
  95  531.9041
  96  445.3088
  97  573.7318
  98  641.3207
  99  520.0624
 100  575.1248
 101  586.1384
 102  592.2291
 103  558.4467
 104  538.6808
 105  580.6548
 106  595.3164
 107  668.0359
 108  594.6615
 109  475.8636
 110  454.9716
 111  451.6688
 112  536.587
 113  667.818
 114  723.5121
 115  651.861
 116  613.8044
 117  641.4709
 118  551.5063
 119  479.9178
 120  526.1219
 121  631.6246
 122  591.6624
 123  568.5953
 124  674.1496
 125  723.3983
 126  662.2101
 127  659.215
 128  681.1722
 129  626.4494
 130  544.1849
 131  639.1813
 132  682.7943
 133  582.2297
 134  573.5964
 135  556.2808
 136  688.035
 137  659.2178
 138  630.6371
 139  617.683
 140  670.6846
 141  754.8032
 142  724.7824
 143  729.4907
 144  681.1545
 145  658.0857
 146  666.5513
 147  636.1718
 148  595.6309
 149  612.7667
 150  712.1484
 151  624.9653
 152  599.4604
 153  610.2978
 154  600.741
 155  601.0668
 156  588.9364
 157  585.1057
 158  598.862
 159  631.2952
 160  631.1668
 161  608.1991
 162  545.6671
 163  646.9828
 164  647.8541
 165  585.6005
 166  609.1329
 167  585.6635
 168  598.1057
 169  552.9474
 170  569.4735
 171  597.3776
 172  566.9384
 173  554.7037
 174  640.4517
 175  597.2025
 176  582.7895
 177  568.5713
 178  628.0624
 179  620.1589
 180  575.4423
 181  628.4325
 182  585.7177
 183  612.3619
 184  627.2982
 185  646.368
 186  718.0609
 187  670.876
 188  589.7518
 189  642.0874
 190  693.6255
 191  564.9871
 192  524.8137
 193  612.1936
 194  543.7159
 195  657.6973
 196  574.0016
 197  467.6555
 198  566.871
 199  501.1237
 200  529.298
 201  559.4436
 202  671.7369
 203  589.6636
 204  430.3011
 205  433.0003
 206  437.9903
 207  472.99
 208  552.1076
 209  625.7748
 210  537.8789
 211  635.4295
 212  491.5918
 213  559.7488
 214  657.8716
 215  602.7855
 216  538.7595
 217  531.1988
 218  487.9117
 219  522.9552
 220  530.8298
 221  575.0359
 222  569.6797
 223  483.092
 224  604.888
 225  636.4149
 226  560.7413
 227  608.5173
 228  542.1555
 229  517.463
 230  490.6088
 231  598.2062
 232  620.1021
 233  604.5126
 234  583.9507
 235  535.1465
 236  543.335
 237  500.8314
 238  511.6693
 239  565.6902
 240  556.4598
 241  556.3981
 242  499.1792
 243  651.9136
 244  610.0178
 245  597.1022
 246  560.4404
 247  499.8209
 248  462.496
 249  547.1356
 250  649.8132
 251  487.5192
 252  528.9066
 253  652.269
 254  811.3608
 255  691.9012
 256  669.306
 257  665.7648
 258  550.7234
 259  556.3376
 260  590.1196
 261  645.7086
 262  595.4438
 263  607.8056
 264  476.2354
 265  516.6793
 266  599.2796
 267  678.7668
 268  592.7836
 269  553.8862
 270  620.793
 271  654.9097
 272  646.5593
 273  589.5772
 274  583.5295
 275  608.2199
 276  563.727
 277  653.2971
 278  702.3142
 279  566.7884
 280  534.8548
 281  567.0284
 282  572.8481
 283  642.989
 284  671.2346
 285  650.3135
 286  603.0531
 287  603.7626
 288  511.7652
 289  515.1132
 290  549.1163
 291  545.5281
 292  606.2403
 293  644.4998
 294  603.7396
 295  440.5858
 296  407.8514
 297  573.638
 298  634.5624
 299  598.5378
 300  590.3461
 301  561.871
 302  514.2513
 303  548.9402
 304  564.0696
 305  669.2525
 306  613.6449
 307  608.078
 308  626.3055
 309  614.5898
 310  554.6982
 311  534.218
 312  571.4943
 313  659.9135
 314  597.1526
 315  628.5722
 316  623.2903
 317  571.0365
 318  655.1493
 319  665.5117
 320  643.3907
 321  588.217
 322  579.6909
 323  570.0519
 324  674.0429
 325  669.9358
 326  593.8723
 327  580.5203
 328  571.1395
 329  494.07
 330  479.912
 331  626.7817
 332  564.9023
 333  552.1008
 334  557.5037
 335  594.7554
 336  534.7734
 337  538.4056
 338  495.0813
 339  593.9685
 340  668.6802
 341  600.2034
 342  641.6627
 343  623.2484
 344  625.2209
 345  632.931
 346  607.2534
 347  644.7438
 348  530.7637
 349  488.0337
 350  540.4554
 351  601.6183
 352  606.7615
 353  597.9085
 354  540.9942
 355  584.0197
 356  687.3191
 357  715.8003
 358  705.8016
 359  626.7928
 360  589.8685
 361  714.2297
 362  568.561
 363  536.9117
 364  588.7669
 365  568.5743
 366  679.9322
 367  728.8772
 368  699.0143
 369  656.2419
 370  632.3118
 371  591.8656
 372  541.8531
 373  552.9103
 374  606.4008
 375  711.3301
 376  598.3351
 377  642.7754
 378  575.4606
 379  582.9213
 380  671.3917
 381  704.8009
 382  721.7804
 383  604.933
 384  566.0251
 385  628.148
 386  654.8448
 387  714.1287
 388  653.1814
 389  705.9825
 390  622.7441
 391  521.7173
 392  635.9214
 393  780.9047
 394  701.9556
 395  632.3636
 396  691.0415
 397  720.6169
 398  705.8126
 399  654.2629
 400  639.6146
 401  599.8914
 402  624.4776
 403  617.5461
 404  596.0673
 405  578.538
 406  627.1235
 407  614.3493
 408  584.868
 409  598.2764
 410  599.7155
 411  624.9661
 412  505.5804
 413  519.642
 414  518.7151
 415  535.5587
 416  577.6063
 417  508.2534
 418  479.4717
 419  506.5974
 420  574.3944
 421  661.9093
 422  637.8597
 423  685.1533
 424  714.4382
 425  574.7535
 426  496.0891
 427  475.6039
 428  553.3726
 429  625.3091
 430  634.5186
 431  547.844
 432  532.3365
 433  641.8459
 434  561.3251
 435  539.4612
 436  622.8385
 437  661.7866
 438  552.4772
 439  547.9903
 440  477.4931
 441  476.5023
 442  561.4451
 443  666.6368
 444  743.9744
 445  648.6297
 446  630.1717
 447  585.6179
 448  568.5913
 449  563.5715
 450  498.8913
 451  521.679
 452  552.0012
 453  593.6224
 454  655.7722
 455  626.8358
 456  689.3781
 457  661.2283
 458  631.4697
 459  552.4058
 460  543.8231
 461  674.6418
 462  691.3575
 463  669.1998
 464  611.9828
 465  547.0776
 466  539.8631
 467  581.8368
 468  487.3296
 469  552.9231
 470  557.1559
 471  612.5264
 472  578.9009
 473  541.8481
 474  552.2639
 475  662.853
 476  704.3395
 477  642.8047
 478  637.0648
 479  607.0165
 480  560.2315
 481  544.9515
 482  610.1086
 483  645.687
 484  590.8414
 485  669.3465
 486  664.604
 487  611.0057
 488  609.6254
 489  585.576
 490  596.7678
 491  580.95
 492  550.571
 493  585.1884
 494  506.0146
 495  537.2225
 496  543.01
 497  605.2858
 498  557.4749
 499  564.7774
 500  617.7224
 501  514.574
 502  563.269
 503  604.906
 504  621.6879
 505  675.2199
 506  671.4693
 507  622.079
 508  653.1046
 509  785.186
 510  881.5281
 511  820.49
