# Input file       =  1195229060.104711_cleaned.dat
# Candidate        =  PSR_0332+5434
# Telescope        =  AR
# Epoch_topo       =  58077.669897045263
# Epoch_bary       =  N/A
# T_sample         =  0.002
# Data Folded      =  7208960
# Data Avg         =  0.0930344098668329
# Data StdDev      =  1.00051133684816 
# Profile Bins     =  512
# Profile Avg      =  1309.87387618102 
# Profile StdDev   =  118.719850602486 
# Reduced chi-sqr  =  0.449
# Prob(Noise)      <  1   (~0.0 sigma)
# P_topo (ms)      =  714.514973231662  +/- 0.000973
# P'_topo (s/s)    =  -0                +/- 5.22e-10
# P''_topo (s/s^2) =  0                 +/- 2.35e-13
# P_bary (ms)      =  N/A
# P'_bary (s/s)    =  N/A
# P''_bary (s/s^2) =  N/A
# P_orb (s)        =  N/A
# asin(i)/c (s)    =  N/A
# eccentricity     =  N/A
# w (rad)          =  N/A
# T_peri           =  N/A
######################################################
   0  1278.496
   1  1315.815
   2  1264.532
   3  1337.511
   4  1312.683
   5  1378.552
   6  1241.091
   7  1272.125
   8  1340.226
   9  1381.801
  10  1306.099
  11  1301.911
  12  1230.666
  13  1247.724
  14  1300.483
  15  1218.361
  16  1253.669
  17  1253.37
  18  1253.129
  19  1207.563
  20  1212.643
  21  1148.195
  22  1222.277
  23  1257.627
  24  1265.662
  25  1294.77
  26  1342.731
  27  1397.336
  28  1325.079
  29  1256.005
  30  1273.946
  31  1294.393
  32  1342.58
  33  1320.257
  34  1339.368
  35  1277.639
  36  1353.012
  37  1382.71
  38  1360.799
  39  1339.035
  40  1283.844
  41  1350.948
  42  1352.243
  43  1274.679
  44  1250.456
  45  1288.532
  46  1332.472
  47  1327.785
  48  1375.911
  49  1377.468
  50  1353.157
  51  1322.885
  52  1357.56
  53  1292.785
  54  1277.077
  55  1281.334
  56  1335.105
  57  1328.593
  58  1390.473
  59  1432.289
  60  1399.564
  61  1388.783
  62  1373.507
  63  1304.056
  64  1262.16
  65  1339.842
  66  1336.171
  67  1342.897
  68  1291.492
  69  1274.374
  70  1286.226
  71  1307.082
  72  1303.362
  73  1295.194
  74  1260.202
  75  1303.186
  76  1269.338
  77  1290.521
  78  1277.74
  79  1375.489
  80  1485.533
  81  1356.366
  82  1371.314
  83  1325.524
  84  1274.104
  85  1276.688
  86  1267.303
  87  1293.52
  88  1309.354
  89  1337.476
  90  1378.378
  91  1408.681
  92  1343.309
  93  1362.671
  94  1398.707
  95  1294.298
  96  1318.279
  97  1332.256
  98  1336.457
  99  1298.662
 100  1354.519
 101  1340.437
 102  1248.094
 103  1177.116
 104  1277.335
 105  1250.569
 106  1263.615
 107  1268.489
 108  1219.969
 109  1242.878
 110  1245.717
 111  1226.313
 112  1203.862
 113  1291.145
 114  1281.016
 115  1261.714
 116  1254.806
 117  1385.411
 118  1384.857
 119  1290.687
 120  1355.959
 121  1297.112
 122  1332.48
 123  1391.569
 124  1372.074
 125  1319.384
 126  1259.223
 127  1221.382
 128  1205.062
 129  1247.928
 130  1262.688
 131  1345.779
 132  1339.822
 133  1335.147
 134  1361.58
 135  1309.369
 136  1322.718
 137  1251.314
 138  1244.477
 139  1313.081
 140  1359.918
 141  1382.311
 142  1298.363
 143  1282.937
 144  1318.671
 145  1367.882
 146  1325.378
 147  1361.546
 148  1367.388
 149  1378.761
 150  1310.185
 151  1335.826
 152  1323.35
 153  1357.204
 154  1433.747
 155  1355.592
 156  1373.698
 157  1318.55
 158  1223.497
 159  1242.051
 160  1283.668
 161  1363.252
 162  1306.849
 163  1287.182
 164  1299.718
 165  1387.799
 166  1381.734
 167  1350.749
 168  1314.468
 169  1270.036
 170  1255.351
 171  1240.319
 172  1232.316
 173  1292.641
 174  1295.937
 175  1325.768
 176  1298.797
 177  1238.614
 178  1186.655
 179  1259.271
 180  1312.964
 181  1339.114
 182  1239.232
 183  1269.611
 184  1276.818
 185  1193.864
 186  1204.813
 187  1190.317
 188  1284.492
 189  1310.48
 190  1289.787
 191  1275.671
 192  1241.661
 193  1268.665
 194  1273.374
 195  1336.219
 196  1336.641
 197  1361.142
 198  1355.625
 199  1346.526
 200  1418.065
 201  1382.654
 202  1410.227
 203  1383.604
 204  1465.451
 205  1377.449
 206  1355.502
 207  1350.287
 208  1398.294
 209  1454.902
 210  1357.46
 211  1276.169
 212  1209.467
 213  1326.002
 214  1390.278
 215  1317.823
 216  1311.5
 217  1327.671
 218  1394.107
 219  1424.992
 220  1462.87
 221  1385.697
 222  1394.954
 223  1424.57
 224  1276.577
 225  1320.287
 226  1324.519
 227  1443.307
 228  1397.407
 229  1391.706
 230  1349.884
 231  1339.541
 232  1281.569
 233  1293.301
 234  1328.445
 235  1326.446
 236  1344.065
 237  1296.032
 238  1314.116
 239  1287.442
 240  1296.457
 241  1291.733
 242  1291.849
 243  1291.224
 244  1225.83
 245  1300.48
 246  1292.758
 247  1325.269
 248  1339.363
 249  1284.013
 250  1199.951
 251  1206.98
 252  1294.907
 253  1241.484
 254  1265.446
 255  1322.508
 256  1368.149
 257  1350.215
 258  1400.071
 259  1379.268
 260  1377.972
 261  1364.651
 262  1375.825
 263  1341.515
 264  1357.229
 265  1359.602
 266  1339.67
 267  1356.147
 268  1405.71
 269  1326.384
 270  1341.068
 271  1338.987
 272  1359.751
 273  1401.73
 274  1348.508
 275  1340.81
 276  1358.799
 277  1352.101
 278  1381.194
 279  1357.286
 280  1376.259
 281  1303.134
 282  1313.21
 283  1308.029
 284  1272.193
 285  1345.107
 286  1413.072
 287  1394.745
 288  1336.818
 289  1325.913
 290  1360.385
 291  1364.272
 292  1307.537
 293  1305.822
 294  1387.324
 295  1380.244
 296  1344.939
 297  1422.359
 298  1365.32
 299  1351.942
 300  1410.41
 301  1382.68
 302  1388.102
 303  1367.552
 304  1368.02
 305  1387.252
 306  1326.242
 307  1288.658
 308  1376.184
 309  1364.071
 310  1322.848
 311  1304.21
 312  1310.971
 313  1349.04
 314  1321.93
 315  1301.134
 316  1281.001
 317  1303.77
 318  1271.227
 319  1303.428
 320  1281.406
 321  1275.562
 322  1336.281
 323  1343.473
 324  1338.976
 325  1344.012
 326  1355.036
 327  1294.218
 328  1291.858
 329  1315.957
 330  1308.955
 331  1303.637
 332  1301.755
 333  1382.985
 334  1344.249
 335  1203.307
 336  1119.597
 337  1219.704
 338  1319.825
 339  1295.916
 340  1304.499
 341  1309.899
 342  1265.654
 343  1279.777
 344  1224.907
 345  1281.835
 346  1266.258
 347  1302.458
 348  1277.559
 349  1317.971
 350  1307.39
 351  1309.616
 352  1331.878
 353  1286.369
 354  1390.48
 355  1333.035
 356  1373.844
 357  1323.5
 358  1328.407
 359  1358.902
 360  1333.356
 361  1309.998
 362  1273.888
 363  1284.193
 364  1257.904
 365  1251.185
 366  1251.645
 367  1346.645
 368  1387.736
 369  1300.79
 370  1299.972
 371  1297.327
 372  1289.074
 373  1248.071
 374  1273.833
 375  1268.085
 376  1248.527
 377  1272.046
 378  1307.579
 379  1358.072
 380  1304.234
 381  1299.831
 382  1337.412
 383  1262.154
 384  1244.791
 385  1264.537
 386  1306.653
 387  1257.444
 388  1209.251
 389  1193.087
 390  1199.974
 391  1190.806
 392  1188.36
 393  1229.847
 394  1316.832
 395  1283.51
 396  1260.005
 397  1279.112
 398  1225.278
 399  1196.092
 400  1224.553
 401  1216.98
 402  1167.569
 403  1230.42
 404  1190.436
 405  1184.742
 406  1236.125
 407  1266.185
 408  1202.556
 409  1231.396
 410  1267.831
 411  1274.335
 412  1331.15
 413  1349.019
 414  1355.616
 415  1393.798
 416  1361.654
 417  1398.638
 418  1432.109
 419  1487.066
 420  1416.863
 421  1266.311
 422  1262.688
 423  1297.741
 424  1299.182
 425  1285.432
 426  1308.096
 427  1298.828
 428  1296.914
 429  1271.712
 430  1330.011
 431  1400.708
 432  1380.037
 433  1382.729
 434  1350.604
 435  1344.172
 436  1266.622
 437  1304.792
 438  1325.807
 439  1316.699
 440  1313.454
 441  1290.433
 442  1259.936
 443  1205.536
 444  1213.34
 445  1233.433
 446  1234.247
 447  1240.847
 448  1275.784
 449  1255.836
 450  1142.024
 451  1296.951
 452  1306.016
 453  1299.769
 454  1292.967
 455  1328.297
 456  1323.539
 457  1249.872
 458  1277.04
 459  1256.962
 460  1322.74
 461  1302.408
 462  1349.868
 463  1370.892
 464  1352.616
 465  1342.932
 466  1298.801
 467  1314.918
 468  1317.6
 469  1366.313
 470  1342.61
 471  1320.694
 472  1333.782
 473  1340.063
 474  1364.185
 475  1300.519
 476  1306.759
 477  1315.266
 478  1247.903
 479  1222.873
 480  1288.954
 481  1374.882
 482  1325.727
 483  1233.369
 484  1196.657
 485  1308.313
 486  1280.962
 487  1314.907
 488  1302.381
 489  1266.714
 490  1218.785
 491  1161.686
 492  1278.339
 493  1283.581
 494  1309.501
 495  1332.692
 496  1381.396
 497  1329.753
 498  1259.177
 499  1225.974
 500  1248.669
 501  1354.044
 502  1307.425
 503  1230.629
 504  1233.255
 505  1261.65
 506  1348.028
 507  1345.469
 508  1322.229
 509  1325.122
 510  1335.811
 511  1306.999
