# Input file       =  1195603227.108312_cleaned.dat
# Candidate        =  PSR_0332+5434
# Telescope        =  AR
# Epoch_topo       =  58082.000533661019
# Epoch_bary       =  N/A
# T_sample         =  0.002
# Data Folded      =  7340032
# Data Avg         =  0.0873649678253105
# Data StdDev      =  1.00038443336647 
# Profile Bins     =  512
# Profile Avg      =  1252.4888027834  
# Profile StdDev   =  119.779065751018 
# Reduced chi-sqr  =  0.936
# Prob(Noise)      <  0.848   (~0.0 sigma)
# P_topo (ms)      =  714.519814504483  +/- 4.84e-05
# P'_topo (s/s)    =  -0                +/- 2.55e-11
# P''_topo (s/s^2) =  0                 +/- 1.13e-14
# P_bary (ms)      =  N/A
# P'_bary (s/s)    =  N/A
# P''_bary (s/s^2) =  N/A
# P_orb (s)        =  N/A
# asin(i)/c (s)    =  N/A
# eccentricity     =  N/A
# w (rad)          =  N/A
# T_peri           =  N/A
######################################################
   0  1664.659
   1  1518.403
   2  1512.7
   3  1493.981
   4  1422.949
   5  1327.354
   6  1317.139
   7  1263.107
   8  1279.242
   9  1278.597
  10  1344.452
  11  1367.667
  12  1218.381
  13  1286.529
  14  1417.938
  15  1389.767
  16  1327.952
  17  1331.163
  18  1355.466
  19  1253.42
  20  1444.362
  21  1423.046
  22  1274.045
  23  1181.609
  24  1367.483
  25  1325.388
  26  1299.573
  27  1242.974
  28  1292.401
  29  1272.51
  30  1224.755
  31  1221.398
  32  1346.738
  33  1353.679
  34  1331.933
  35  1316.924
  36  1357.058
  37  1263.935
  38  1297.417
  39  1276.367
  40  1255.588
  41  1254.34
  42  1370.358
  43  1268.758
  44  1280.43
  45  1281.968
  46  1103.029
  47  1253.802
  48  1272.184
  49  1371.091
  50  1333.271
  51  1244.444
  52  1142.898
  53  1270.586
  54  1259.139
  55  1215.795
  56  1294.281
  57  1416.815
  58  1321.454
  59  1263.612
  60  1238.209
  61  1246.664
  62  1364.604
  63  1452.205
  64  1287.729
  65  1211.821
  66  1172.398
  67  1218.343
  68  1165.497
  69  1189.366
  70  1293.056
  71  1304.353
  72  1194.142
  73  1256.902
  74  1258.682
  75  1261.015
  76  1120.104
  77  1184.178
  78  1265.445
  79  1385.948
  80  1259.422
  81  1158.7
  82  1198.556
  83  1341.61
  84  1353.682
  85  1274.267
  86  1160.173
  87  1157.365
  88  1180.414
  89  1196.672
  90  1181.146
  91  1188.118
  92  1229.894
  93  1303.331
  94  1292.807
  95  1201.404
  96  1278.726
  97  1170.327
  98  1193.945
  99  1229.1
 100  1216.234
 101  1193.078
 102  1153.46
 103  1159.786
 104  1135.972
 105  1137.73
 106  1263.734
 107  1247.376
 108  1228.848
 109  1175.292
 110  1186.459
 111  1171.08
 112  1073.987
 113  1071.718
 114  1210.005
 115  1115.782
 116  1081.96
 117  1219.941
 118  1185.605
 119  1151.53
 120  1224.812
 121  1254.08
 122  1363.156
 123  1259.496
 124  1241.982
 125  1257.511
 126  1275.374
 127  1296.973
 128  1190.812
 129  1287.965
 130  1254.242
 131  1335.308
 132  1303.469
 133  1313.513
 134  1311.031
 135  1283.95
 136  1257.855
 137  1347.966
 138  1330.45
 139  1321.95
 140  1292.282
 141  1167.925
 142  1187.704
 143  1364.945
 144  1274.354
 145  1179.399
 146  1253.068
 147  1292.96
 148  1160.567
 149  1296.216
 150  1373.414
 151  1233.869
 152  1162.275
 153  1299.432
 154  1175.828
 155  1147.285
 156  1318.25
 157  1265.905
 158  1230.452
 159  1187.885
 160  1164.949
 161  1203.788
 162  1179.561
 163  1263.32
 164  1246.609
 165  1173.554
 166  1037.257
 167  1129.926
 168  1249.352
 169  1280.61
 170  1270.203
 171  1267.662
 172  1273.697
 173  1203.112
 174  1129.027
 175  1213.054
 176  1280.138
 177  1291.716
 178  1317.134
 179  1335.132
 180  1271.223
 181  1207.633
 182  1265.378
 183  1215.291
 184  1207.354
 185  1144.808
 186  1201.114
 187  1185.179
 188  1087.963
 189  1235.176
 190  1410.34
 191  1295.866
 192  1307.573
 193  1242.031
 194  1199.005
 195  1185.176
 196  1214.596
 197  1203.985
 198  1204.728
 199  1209.224
 200  1360.037
 201  1290.885
 202  1355.64
 203  1287.76
 204  1330.668
 205  1288.952
 206  1205.831
 207  1212.375
 208  1181.132
 209  1157.044
 210  1188.822
 211  1200.076
 212  1183.732
 213  1115.881
 214  1227.944
 215  1205.392
 216  1167.611
 217  1194.141
 218  1249.09
 219  1291.929
 220  1231.233
 221  1305.977
 222  1334.093
 223  1347.796
 224  1188.203
 225  1218.584
 226  1179.168
 227  1213.477
 228  1153.937
 229  1146.466
 230  1220.602
 231  1218.956
 232  1263.195
 233  1310.775
 234  1259.265
 235  1254.625
 236  1070.062
 237  1046.358
 238  1241.383
 239  1255.059
 240  1096.057
 241  1190.164
 242  1272.552
 243  1276.014
 244  1296.295
 245  1228.934
 246  1212.552
 247  1196.702
 248  1234.28
 249  1255.26
 250  1221.993
 251  1223.475
 252  1212.225
 253  1218.329
 254  1175.796
 255  1270.021
 256  1268.403
 257  1293.275
 258  1305.041
 259  1209.413
 260  1320.618
 261  1418.682
 262  1219.347
 263  1173.612
 264  1269.767
 265  1300.333
 266  1247.726
 267  1223.675
 268  1258.549
 269  1134.573
 270  1115.338
 271  1228.447
 272  1257.18
 273  1110.045
 274  1075.97
 275  1230.863
 276  1238.545
 277  1098.469
 278  1220.141
 279  1257.644
 280  1368.045
 281  1172.396
 282  1165.413
 283  1228.721
 284  1176.938
 285  1190.111
 286  1228.16
 287  1174.425
 288  1149.087
 289  1301.543
 290  1330.389
 291  1255.649
 292  1278.735
 293  1265.791
 294  1219.227
 295  1178.926
 296  1212.689
 297  1239.191
 298  1142.364
 299  1248.181
 300  1261.164
 301  1308.889
 302  1253.035
 303  1229.896
 304  1275.082
 305  1225.674
 306  1242.725
 307  1333.776
 308  1339.483
 309  1188.712
 310  1135.7
 311  1207.64
 312  1138.321
 313  1219.827
 314  1215.589
 315  1255.897
 316  1310.448
 317  1367.401
 318  1307.078
 319  1344.836
 320  1277.672
 321  1374.958
 322  1324.534
 323  1382.943
 324  1339.983
 325  1353.413
 326  1250.637
 327  1162.929
 328  1243.684
 329  1320.627
 330  1330.621
 331  1343.206
 332  1259.343
 333  1310.885
 334  1212.644
 335  1208.22
 336  1338.05
 337  1341.152
 338  1161.243
 339  1162.339
 340  1251.189
 341  1259.869
 342  1282.249
 343  1368.574
 344  1402.038
 345  1363.292
 346  1310.366
 347  1272.867
 348  1277.525
 349  1236.981
 350  1368.794
 351  1326.671
 352  1342.638
 353  1374.659
 354  1258.762
 355  1305.048
 356  1258.691
 357  1235.171
 358  1309.95
 359  1158.056
 360  1279.297
 361  1372.046
 362  1338.767
 363  1301.367
 364  1410.04
 365  1270.698
 366  1177.953
 367  1173.55
 368  1304.463
 369  1255.425
 370  1206.633
 371  1408.562
 372  1284.253
 373  1251.708
 374  1220.854
 375  1240.852
 376  1219.291
 377  1215.329
 378  1218.368
 379  1145.199
 380  1138.513
 381  1122.489
 382  1176.599
 383  1233.755
 384  1246.678
 385  1308.827
 386  1294.166
 387  1198.502
 388  1121.492
 389  1263.153
 390  1360.575
 391  1226.151
 392  1233.763
 393  1274.007
 394  1133.853
 395  1119.739
 396  1134.268
 397  1229.416
 398  1223.579
 399  1151.908
 400  1218.465
 401  1235.635
 402  1152.758
 403  1270.79
 404  1294.094
 405  1245.768
 406  1223.345
 407  1265.932
 408  1226.456
 409  1266.075
 410  1242.951
 411  1244.59
 412  1123.486
 413  1160.702
 414  1215.702
 415  1146.219
 416  1136.608
 417  1122.542
 418  1189.808
 419  1219.62
 420  1209.621
 421  1144.601
 422  1240.679
 423  1223.083
 424  1126.917
 425  1132.659
 426  1217.06
 427  1216.147
 428  1174.673
 429  1201.299
 430  1217.434
 431  1170.391
 432  1200.157
 433  1196.797
 434  1230.39
 435  1140.944
 436  1186.852
 437  1126.832
 438  1156.221
 439  1184.349
 440  1312.509
 441  1235.073
 442  1183.182
 443  1316.32
 444  1305.968
 445  1227.553
 446  1156.089
 447  1182.921
 448  1276.371
 449  1181.009
 450  1216.811
 451  1218.328
 452  1250.078
 453  1323.986
 454  1340.508
 455  1260.963
 456  1322.512
 457  1198.745
 458  1139.158
 459  1125.586
 460  1183.521
 461  1201.734
 462  1240.916
 463  1088.974
 464  1238.162
 465  1275.391
 466  1267.058
 467  1207.27
 468  1353.338
 469  1375.44
 470  1196.367
 471  1248.088
 472  1292.461
 473  1240.943
 474  1219.484
 475  1277.108
 476  1284.202
 477  1265.94
 478  1150.619
 479  1296.157
 480  1304.067
 481  1331.633
 482  1345.94
 483  1399.903
 484  1232.221
 485  1242.825
 486  1298.981
 487  1264.826
 488  1279.499
 489  1324.499
 490  1296.151
 491  1241.422
 492  1231.682
 493  1307.298
 494  1267.288
 495  1251.678
 496  1212.023
 497  1417.609
 498  1415.899
 499  1321.643
 500  1357.358
 501  1325.286
 502  1324.72
 503  1340.936
 504  1456.461
 505  1380.182
 506  1297.872
 507  1421.013
 508  1425.166
 509  1428.386
 510  1638.711
 511  1731.862
