# Input file       =  1195071474.114979-PSRB0329-2ms-sampling-dd.dat
# Candidate        =  PSR_0332+5434
# Telescope        =  AR
# Epoch_topo       =  58075.845985127075
# Epoch_bary       =  N/A
# T_sample         =  0.002
# Data Folded      =  7340032
# Data Avg         =  -1.55598732166625e-10
# Data StdDev      =  11.039211506369  
# Profile Bins     =  512
# Profile Avg      =  -0.0528709065852288
# Profile StdDev   =  1321.7583128629  
# Reduced chi-sqr  =  0.437
# Prob(Noise)      <  1   (~0.0 sigma)
# P_topo (ms)      =  714.513122147189  +/- 0.00337
# P'_topo (s/s)    =  -0                +/- 1.78e-09
# P''_topo (s/s^2) =  0                 +/- 7.85e-13
# P_bary (ms)      =  N/A
# P'_bary (s/s)    =  N/A
# P''_bary (s/s^2) =  N/A
# P_orb (s)        =  N/A
# asin(i)/c (s)    =  N/A
# eccentricity     =  N/A
# w (rad)          =  N/A
# T_peri           =  N/A
######################################################
   0  -146.172
   1  -42.80521
   2  -54.78696
   3  277.7325
   4  108.2998
   5  -354.5394
   6  -1515.93
   7  -1827.266
   8  -923.2844
   9  -461.0378
  10  -1154.126
  11  -1126.275
  12  -898.1812
  13  -246.5988
  14  -277.6076
  15  -712.6259
  16  -912.8225
  17  -912.8962
  18  -445.7562
  19  527.3466
  20  -796.6493
  21  -958.6219
  22  -563.6583
  23  -291.5582
  24  -562.2119
  25  -1070.385
  26  -129.2926
  27  -120.1479
  28  -190.6863
  29  -468.2625
  30  -650.001
  31  -693.8868
  32  -444.0412
  33  268.4439
  34  401.4682
  35  -130.16
  36  -582.8419
  37  -206.8063
  38  167.6378
  39  -635.6868
  40  -156.1843
  41  32.7097
  42  -333.9416
  43  -498.6135
  44  -557.4524
  45  -387.5395
  46  -363.1024
  47  706.6828
  48  803.6934
  49  -568.4032
  50  -1016.186
  51  -446.8819
  52  -622.3574
  53  -1340.515
  54  -399.0689
  55  -750.4877
  56  -739.8708
  57  -519.8258
  58  -407.1424
  59  -267.5661
  60  -396.5874
  61  -41.47375
  62  285.2635
  63  -564.3676
  64  12.31717
  65  -197.5282
  66  229.8257
  67  180.6958
  68  -140.8983
  69  179.0813
  70  -799.3022
  71  -908.8965
  72  65.64642
  73  256.4075
  74  -485.6929
  75  -844.7026
  76  576.3492
  77  472.0524
  78  -1043.625
  79  -1034.916
  80  -686.9424
  81  -703.9958
  82  -1135.624
  83  -1045.864
  84  -1101.731
  85  -990.6946
  86  -558.2158
  87  -426.1883
  88  -1204.569
  89  -6.555103
  90  -245.9838
  91  -236.3484
  92  -866.0044
  93  -1060.898
  94  -323.3589
  95  -256.1813
  96  298.7005
  97  -278.094
  98  -1016.446
  99  -307.1467
 100  -929.9648
 101  -890.5676
 102  -792.8572
 103  -163.3359
 104  -699.8818
 105  319.9543
 106  -441.7397
 107  -653.945
 108  32.84202
 109  95.37961
 110  433.4898
 111  842.4205
 112  1077.436
 113  509.5741
 114  574.4816
 115  451.2439
 116  225.5169
 117  539.8594
 118  -256.8784
 119  313.4048
 120  315.8516
 121  -739.8414
 122  -524.7764
 123  -177.5338
 124  288.8755
 125  481.5991
 126  806.0355
 127  126.6672
 128  -408.6781
 129  415.3484
 130  950.2558
 131  392.3542
 132  400.7616
 133  116.0225
 134  719.9042
 135  115.8512
 136  -347.1247
 137  99.84174
 138  277.144
 139  -695.5027
 140  -474.6197
 141  -178.4509
 142  176.2994
 143  -229.033
 144  741.8115
 145  668.6596
 146  68.7385
 147  -37.0933
 148  834.7101
 149  654.4025
 150  -77.80032
 151  432.7653
 152  257.9828
 153  463.654
 154  332.6148
 155  532.4494
 156  360.5919
 157  -142.3803
 158  130.2131
 159  -220.0503
 160  -142.7311
 161  -73.78801
 162  350.7077
 163  202.7706
 164  -704.4334
 165  -733.9249
 166  -682.8701
 167  -162.2941
 168  -448.4925
 169  -503.1221
 170  -260.5891
 171  133.5681
 172  458.4366
 173  916.9959
 174  583.9803
 175  387.8874
 176  668.7759
 177  613.1776
 178  1078.194
 179  351.7159
 180  -235.2084
 181  -402.1258
 182  -617.925
 183  -562.7987
 184  -991.0704
 185  -186.991
 186  -206.5203
 187  153.9904
 188  -345.2727
 189  -257.2727
 190  -598.8062
 191  -610.303
 192  -349.5908
 193  -648.6198
 194  -723.7305
 195  -427.7888
 196  -1095.576
 197  -140.9352
 198  752.9879
 199  1004.023
 200  47.56911
 201  -486.0958
 202  -344.7958
 203  -906.3137
 204  -683.9774
 205  278.6263
 206  420.4898
 207  -227.0236
 208  -220.1344
 209  -623.9921
 210  -248.9244
 211  469.8715
 212  75.41358
 213  -233.3759
 214  843.3574
 215  802.8857
 216  908.5406
 217  153.8467
 218  -664.9973
 219  -639.1427
 220  462.5552
 221  -297.3715
 222  -219.1986
 223  318.3741
 224  -253.0339
 225  -654.2473
 226  766.6771
 227  1815.193
 228  719.224
 229  -114.5861
 230  -26.35333
 231  -118.215
 232  -589.377
 233  364.6132
 234  1295.654
 235  937.2181
 236  620.5968
 237  -450.9912
 238  -47.93116
 239  -393.9272
 240  -606.0051
 241  -420.5656
 242  134.1999
 243  511.612
 244  1183.438
 245  276.1645
 246  176.1708
 247  -315.746
 248  -174.3685
 249  126.3028
 250  731.3624
 251  594.1347
 252  413.3938
 253  340.1059
 254  -17.04881
 255  207.558
 256  91.65748
 257  -45.80716
 258  365.5737
 259  877.8329
 260  -250.9291
 261  -239.314
 262  -21.25176
 263  -186.231
 264  217.5771
 265  614.8925
 266  42.96918
 267  760.5092
 268  539.4217
 269  523.217
 270  492.4152
 271  719.345
 272  716.1519
 273  299.5071
 274  -238.1532
 275  -265.457
 276  899.2521
 277  1636.878
 278  640.244
 279  821.4705
 280  809.7484
 281  776.9984
 282  -227.0315
 283  739.7155
 284  518.9271
 285  1122.438
 286  775.2238
 287  751.7369
 288  1109.601
 289  36.22563
 290  715.7367
 291  418.3809
 292  922.7178
 293  332.8636
 294  145.0162
 295  526.9569
 296  299.5736
 297  -331.3923
 298  848.4569
 299  700.7432
 300  853.6707
 301  930.2575
 302  969.9232
 303  1253.613
 304  1962.546
 305  3086.305
 306  3570.026
 307  1353.964
 308  181.7799
 309  112.5908
 310  382.7336
 311  -70.63288
 312  977.2578
 313  471.5685
 314  834.8356
 315  694.5826
 316  612.1454
 317  -269.5934
 318  -737.6566
 319  -127.2622
 320  761.4229
 321  -293.8774
 322  753.5352
 323  545.1061
 324  565.8262
 325  -498.0756
 326  245.1008
 327  741.121
 328  308.0446
 329  21.93717
 330  294.4399
 331  -635.1341
 332  -467.0058
 333  838.069
 334  832.2803
 335  925.8808
 336  698.6416
 337  650.0881
 338  240.5377
 339  323.3738
 340  610.9856
 341  1363.565
 342  877.7263
 343  372.7263
 344  483.5223
 345  598.989
 346  47.0325
 347  215.7517
 348  488.0268
 349  666.8513
 350  467.1079
 351  392.2346
 352  663.7731
 353  1135.343
 354  -371.2776
 355  -190.6931
 356  56.51127
 357  1067.314
 358  407.0058
 359  164.6124
 360  414.6293
 361  289.9236
 362  728.1517
 363  922.2689
 364  224.546
 365  7.569746
 366  -255.4744
 367  288.8025
 368  108.8785
 369  280.0012
 370  275.5148
 371  -496.2621
 372  -1010.38
 373  131.6604
 374  17.03323
 375  -1189.44
 376  -267.4801
 377  473.3668
 378  232.3053
 379  -398.8614
 380  411.3671
 381  444.1865
 382  -319.8777
 383  -1036.866
 384  -682.4016
 385  -1035.608
 386  -581.5199
 387  -379.1959
 388  265.9238
 389  -484.2876
 390  -267.4028
 391  128.634
 392  946.2748
 393  213.4646
 394  50.59985
 395  505.0737
 396  1267.297
 397  1347.998
 398  228.8573
 399  -1048.064
 400  -542.4315
 401  -606.2181
 402  -269.0796
 403  -1302.963
 404  -485.3291
 405  107.1697
 406  -534.4066
 407  -825.8381
 408  -721.7534
 409  -542.6763
 410  -769.2676
 411  -79.5847
 412  471.0217
 413  642.6513
 414  39.57561
 415  -852.9926
 416  -666.4085
 417  -582.9372
 418  -501.2235
 419  198.6376
 420  -131.2672
 421  194.7013
 422  51.12736
 423  -652.0042
 424  -1127.413
 425  -360.5619
 426  346.3311
 427  673.7957
 428  -527.0526
 429  -169.6196
 430  495.1231
 431  22.23559
 432  -690.6844
 433  -715.0406
 434  -555.3964
 435  -441.0196
 436  -739.1635
 437  -419.6618
 438  -305.5779
 439  191.7114
 440  -249.3042
 441  274.456
 442  214.3319
 443  106.5831
 444  138.5185
 445  833.9639
 446  888.6089
 447  -214.4645
 448  -418.8462
 449  143.7075
 450  149.491
 451  842.2147
 452  868.2412
 453  101.5325
 454  -672.8617
 455  426.892
 456  477.6825
 457  202.6267
 458  500.9021
 459  348.1916
 460  229.1495
 461  -256.0261
 462  -997.4465
 463  55.12676
 464  119.9216
 465  -381.5709
 466  -110.8716
 467  -232.0909
 468  -972.9987
 469  -1579.894
 470  -544.7955
 471  -921.9969
 472  -859.5649
 473  378.3976
 474  1246.198
 475  76.18536
 476  -762.3011
 477  -261.6559
 478  -65.14805
 479  -552.1373
 480  -519.6051
 481  -206.127
 482  -102.1046
 483  -606.5453
 484  -289.7847
 485  -956.704
 486  -431.8443
 487  -199.7768
 488  -89.66874
 489  -596.6066
 490  -888.0635
 491  188.3761
 492  871.9873
 493  -24.06378
 494  -767.8581
 495  -682.5291
 496  -217.7331
 497  -398.8331
 498  172.6568
 499  -312.9217
 500  -169.1119
 501  -155.4744
 502  320.2287
 503  -122.646
 504  20.37788
 505  89.92606
 506  307.4493
 507  -426.5724
 508  -607.7755
 509  -392.5139
 510  458.8623
 511  540.2158
