# Input file       =  1195603227.108312_cleaned.dat
# Candidate        =  PSR_0332+5434
# Telescope        =  AR
# Epoch_topo       =  58082.000533661019
# Epoch_bary       =  N/A
# T_sample         =  0.002
# Data Folded      =  7340032
# Data Avg         =  1.43736878731579 
# Data StdDev      =  12.8462569283401 
# Profile Bins     =  1024
# Profile Avg      =  10303.0832595065 
# Profile StdDev   =  1087.61603553371 
# Reduced chi-sqr  =  0.888
# Prob(Noise)      <  0.996   (~0.0 sigma)
# P_topo (ms)      =  714.519815916777  +/- 2.86e-05
# P'_topo (s/s)    =  -0                +/- 1.51e-11
# P''_topo (s/s^2) =  0                 +/- 6.67e-15
# P_bary (ms)      =  N/A
# P'_bary (s/s)    =  N/A
# P''_bary (s/s^2) =  N/A
# P_orb (s)        =  N/A
# asin(i)/c (s)    =  N/A
# eccentricity     =  N/A
# w (rad)          =  N/A
# T_peri           =  N/A
######################################################
   0  10900.44
   1  10762.04
   2  10791.78
   3  10212.02
   4  10259.5
   5  10864.22
   6  11023.66
   7  10452.35
   8  10298.78
   9  9831.553
  10  10362
  11  10604.56
  12  10782.98
  13  11390.65
  14  10988.22
  15  10831.71
  16  10993.89
  17  10813.25
  18  10620.24
  19  10529.39
  20  10616.14
  21  10811.09
  22  10104.54
  23  9884.172
  24  9578.91
  25  9429.733
  26  10027.71
  27  9542.942
  28  9330.662
  29  9836.681
  30  9814.35
  31  10157.37
  32  9604.9
  33  9907.354
  34  9991.182
  35  9749.649
  36  9567.758
  37  9607.514
  38  9119.655
  39  9373.161
  40  9324.599
  41  9664.159
  42  10108.96
  43  9870.564
  44  10223.37
  45  10075.26
  46  10049.34
  47  10471.5
  48  10314.36
  49  10220.88
  50  10139.1
  51  10239.6
  52  10574.19
  53  9990.851
  54  10207.1
  55  10325.97
  56  10421.32
  57  10371.62
  58  10179.75
  59  10153.92
  60  10335.2
  61  9872.604
  62  9844.637
  63  9800.683
  64  9659.881
  65  9749.693
  66  10006.56
  67  10146.42
  68  10537.86
  69  10555.41
  70  11014.83
  71  10715.69
  72  10175.98
  73  10214.4
  74  10045.49
  75  10561.68
  76  10325.71
  77  9799.971
  78  9639.999
  79  8808.971
  80  9014.42
  81  9687.154
  82  10087.28
  83  10858.54
  84  10880.21
  85  10628.44
  86  10588.7
  87  10469.5
  88  10747.35
  89  10632.11
  90  10256.21
  91  10737.01
  92  10670.29
  93  10662.98
  94  10398.92
  95  9977.691
  96  10314.89
  97  10604.52
  98  10448.44
  99  10708.43
 100  10084.44
 101  9708.851
 102  9723.396
 103  9517.759
 104  9668.138
 105  9495.681
 106  9649.9
 107  10015.69
 108  9649.301
 109  9537.633
 110  9592.873
 111  9941.773
 112  10106.57
 113  10168.04
 114  10023.49
 115  10013.9
 116  9585.1
 117  9958.449
 118  9727.213
 119  9907.447
 120  10253.04
 121  10351.02
 122  9941.459
 123  9895.706
 124  9867.645
 125  10219.08
 126  10571.94
 127  10977.31
 128  11051.01
 129  10325.34
 130  10095.59
 131  9906.514
 132  10236.08
 133  10405.01
 134  10316.2
 135  10627.28
 136  10656.22
 137  10268.53
 138  10123.85
 139  10115.97
 140  10798.65
 141  10894.15
 142  10456.15
 143  9925.631
 144  9418.735
 145  9398.062
 146  9720.44
 147  9535.534
 148  9926.473
 149  9963.579
 150  9711.876
 151  9464.365
 152  9063.755
 153  9470.243
 154  9980.19
 155  10048.54
 156  10519.09
 157  10485.09
 158  10083.36
 159  9689.014
 160  9115.963
 161  9517.355
 162  9855.282
 163  9847.023
 164  10588.29
 165  10347.56
 166  9978.453
 167  9734.947
 168  10040.9
 169  10671.76
 170  10692.57
 171  10519.69
 172  10477.55
 173  9879.896
 174  9763.577
 175  9873.592
 176  9865.849
 177  10487.45
 178  10810.17
 179  10545.13
 180  10293.25
 181  10018
 182  10605.68
 183  10813.58
 184  10884.42
 185  11172.12
 186  10678.63
 187  10368.71
 188  9984.691
 189  9902.494
 190  10193.13
 191  10119.75
 192  10354.9
 193  10662.3
 194  10326.98
 195  10503.24
 196  10466.05
 197  10580.47
 198  10655.47
 199  10881.04
 200  10823.07
 201  10455.09
 202  10073.43
 203  10694.38
 204  10880.89
 205  10700.48
 206  10380.83
 207  9953.159
 208  9747.069
 209  9831.176
 210  9793.888
 211  10148.83
 212  9915.283
 213  9706.979
 214  9852.302
 215  9571.977
 216  9736.425
 217  9917.984
 218  10116.88
 219  10714.79
 220  10338.41
 221  10900.89
 222  10767.3
 223  10247.1
 224  9943.991
 225  10132.43
 226  10338.51
 227  10176.13
 228  9895.015
 229  10076.48
 230  10089.04
 231  10178.08
 232  10914.99
 233  10530.34
 234  10649.49
 235  10624.67
 236  10839.5
 237  11207.69
 238  10926.84
 239  11121.68
 240  11365.05
 241  10702.37
 242  10973.12
 243  10846.78
 244  11072.47
 245  10590.17
 246  10306.71
 247  11151.64
 248  11728.78
 249  11712.12
 250  11834.66
 251  11551.5
 252  11370.11
 253  11110.49
 254  11056.33
 255  11202.67
 256  10853.34
 257  10450.02
 258  10628.02
 259  10006.92
 260  10183.32
 261  10219.78
 262  10409.11
 263  10645.09
 264  10654.14
 265  10345.77
 266  10416.95
 267  10210.96
 268  10777.44
 269  10609.41
 270  10527.01
 271  11030.81
 272  10555.1
 273  9932.427
 274  9418.162
 275  9593.838
 276  10569.59
 277  10798.68
 278  10938.52
 279  10899.41
 280  10279.54
 281  9581.687
 282  8884.466
 283  9055.73
 284  9667.203
 285  9792.512
 286  9688.336
 287  9908.241
 288  9944.255
 289  10440.61
 290  10456.57
 291  10858.47
 292  11394.52
 293  11251
 294  10977.11
 295  10605.48
 296  10568.19
 297  10645.4
 298  10209.79
 299  10635.03
 300  10687.18
 301  10508.43
 302  10012.81
 303  9675.814
 304  9827.244
 305  10199.97
 306  10176.35
 307  10496.54
 308  10606.77
 309  10627.67
 310  10818.79
 311  10984.21
 312  11242.02
 313  10970.55
 314  10698.15
 315  10833.05
 316  10400.86
 317  10450.25
 318  10799.15
 319  10732.66
 320  11337.34
 321  11835.93
 322  11422.81
 323  10509.39
 324  9549.533
 325  10002.14
 326  10436.74
 327  10497.73
 328  11165.47
 329  10834.24
 330  10321.48
 331  9953.18
 332  10035.57
 333  10373.56
 334  10390.38
 335  10455.23
 336  10620.8
 337  10203.51
 338  9797.119
 339  10136.47
 340  10511.84
 341  11070.63
 342  10984.16
 343  10777.56
 344  10377
 345  9775.085
 346  9989.394
 347  10507.57
 348  10672.44
 349  10651.94
 350  10404.59
 351  10332.67
 352  10159.36
 353  9969.203
 354  9960.831
 355  10346.97
 356  10392.33
 357  10580.25
 358  9913.005
 359  9566.528
 360  9666.547
 361  9894.694
 362  10006.01
 363  9881.269
 364  9669.196
 365  9955.231
 366  9524.819
 367  9744.547
 368  9678.286
 369  9805.099
 370  10064.91
 371  10160.55
 372  10149.63
 373  10180.61
 374  10311.02
 375  10924.29
 376  10897.9
 377  11071.69
 378  11029.64
 379  10783.59
 380  10479.56
 381  9987.396
 382  9625.2
 383  10329.95
 384  10597.88
 385  11214.14
 386  10893.88
 387  10196.61
 388  9334.735
 389  8987.683
 390  9146.099
 391  9403.336
 392  9131.602
 393  9483.304
 394  9291.349
 395  9159.861
 396  9453.617
 397  9232.783
 398  9582.442
 399  9818.377
 400  9862.55
 401  9779.464
 402  9445.279
 403  9198.294
 404  9655.622
 405  9894.923
 406  10941.96
 407  10791.73
 408  10382.98
 409  9985.847
 410  9895.882
 411  10420.95
 412  10979.75
 413  10640.25
 414  10794.5
 415  10347.97
 416  9769.957
 417  9587.855
 418  9458.271
 419  9734.825
 420  9759.817
 421  9415.547
 422  9685.835
 423  9237.701
 424  9339.912
 425  9802.673
 426  9969.267
 427  10380.6
 428  9984.682
 429  9545.508
 430  9352.445
 431  9248.743
 432  9993.328
 433  10327.96
 434  10232.21
 435  10363.79
 436  10312.6
 437  10350.01
 438  10509.58
 439  10065.67
 440  10161.23
 441  10307.15
 442  10177.98
 443  10543.14
 444  9945.986
 445  10053.49
 446  9928.257
 447  9812.797
 448  10058.5
 449  9898.831
 450  10037.17
 451  10310.9
 452  9912.261
 453  9732.087
 454  9657.975
 455  9592.979
 456  10269.32
 457  10252.48
 458  10315.95
 459  10115.63
 460  9879.688
 461  10281
 462  10298.54
 463  10644.7
 464  10851.53
 465  10379.19
 466  9763.901
 467  9821.285
 468  10071.36
 469  10254.47
 470  9796.249
 471  9761.762
 472  10179.83
 473  9768.285
 474  9570.401
 475  9287.029
 476  9769.042
 477  9990.033
 478  9786.316
 479  9545.505
 480  9741.991
 481  9523.203
 482  9822.14
 483  10016.24
 484  10546.13
 485  11008.19
 486  10790.15
 487  10617.78
 488  9958.119
 489  9846.662
 490  10315.92
 491  10365.85
 492  10596.1
 493  10543.95
 494  10195.5
 495  9994.384
 496  9540.947
 497  9798.52
 498  10113.43
 499  10101.87
 500  10897.99
 501  10545.1
 502  10015.71
 503  9686.125
 504  9508.679
 505  9923.457
 506  9949.043
 507  9725.812
 508  10108.85
 509  10122.34
 510  9827.106
 511  10077.78
 512  10302.84
 513  11158.84
 514  10940.12
 515  10447.44
 516  10411.32
 517  10337.15
 518  10508.65
 519  10484.33
 520  9805.896
 521  9877.717
 522  9788.072
 523  9837.521
 524  9897.978
 525  9710.953
 526  10188.62
 527  9832.117
 528  9978.125
 529  10377.4
 530  10133.39
 531  9252.677
 532  9329.926
 533  9547.032
 534  9901.681
 535  9757.341
 536  10063.37
 537  10750.94
 538  10450.02
 539  10708.19
 540  10816.39
 541  11066.56
 542  11752.1
 543  11493.46
 544  11174.06
 545  10832.77
 546  10576.61
 547  11379.71
 548  11294.06
 549  11639.8
 550  11697.03
 551  11320.7
 552  11095.88
 553  11057.03
 554  11645.59
 555  11827.73
 556  11530.31
 557  11538.04
 558  11889.63
 559  11586.71
 560  11190.98
 561  10707.43
 562  10431.25
 563  10557.25
 564  10189.22
 565  10278.11
 566  10208.76
 567  10513.08
 568  10819.67
 569  10840.18
 570  11043.07
 571  11255.18
 572  10952.04
 573  10439.64
 574  10158.16
 575  10329.25
 576  10848.39
 577  10331.44
 578  10648.72
 579  10698.96
 580  10724.37
 581  10688.29
 582  10653.79
 583  10847.02
 584  10962.05
 585  10875.95
 586  11252.3
 587  10769.74
 588  10370.47
 589  10015.52
 590  10439.76
 591  10471.43
 592  10171.67
 593  9621.15
 594  10089.54
 595  10311.1
 596  10785.83
 597  11048.24
 598  10925.03
 599  11389.93
 600  11523.46
 601  11633.95
 602  11462.43
 603  10545.8
 604  10762.17
 605  10975.8
 606  10764.72
 607  10901.56
 608  10598.44
 609  10654.34
 610  10312.27
 611  10477.96
 612  11249.41
 613  11185.04
 614  10781.31
 615  10474.83
 616  9756.992
 617  9414.412
 618  9369.144
 619  9702.996
 620  9825.522
 621  9621.077
 622  9216.747
 623  9666.519
 624  9525.943
 625  10438.75
 626  10489.52
 627  10718.51
 628  11118.82
 629  11272.78
 630  11074.63
 631  10666.43
 632  10261.58
 633  10887.44
 634  10847.07
 635  11032.98
 636  10853.25
 637  10795.14
 638  10952.24
 639  11031.02
 640  10845.88
 641  11101.78
 642  10804.84
 643  10858.48
 644  10735.77
 645  10032.45
 646  10123.51
 647  9931.949
 648  10097.67
 649  9962.438
 650  9684.584
 651  10110.71
 652  9871.421
 653  9735.831
 654  9868.071
 655  9770.85
 656  10490.63
 657  10701.58
 658  10620.48
 659  10494.44
 660  10633.81
 661  10841.92
 662  11599.94
 663  11073.17
 664  11534.58
 665  11641.34
 666  11393.21
 667  11136.62
 668  10953.68
 669  11824.04
 670  12207.4
 671  12212.67
 672  12205.88
 673  11131.31
 674  10264.27
 675  9924.652
 676  10114.23
 677  10816.96
 678  10915
 679  10906.02
 680  10914.99
 681  10650.42
 682  10402.51
 683  10338.37
 684  10209.65
 685  10357.16
 686  10114.32
 687  9727.925
 688  10177.32
 689  10128.67
 690  10422.14
 691  10305.32
 692  10388.9
 693  10944.28
 694  10745.88
 695  10433.27
 696  10676.07
 697  10938.66
 698  11759.11
 699  11492.83
 700  11556.25
 701  11716.91
 702  11360.74
 703  11116.35
 704  10760.97
 705  10823.49
 706  10567.08
 707  10322.7
 708  10004.04
 709  10377.57
 710  10059.52
 711  10331.87
 712  10622.42
 713  11063.13
 714  11297.01
 715  10723.27
 716  10465.8
 717  10500.67
 718  10522.1
 719  11043.06
 720  10764.7
 721  10530.9
 722  10422.69
 723  10395.58
 724  10582.75
 725  10687.65
 726  11183.14
 727  11735
 728  11257.11
 729  11332.25
 730  11112.12
 731  10787.06
 732  10587.24
 733  10274
 734  10459.87
 735  10902.88
 736  10718.87
 737  10510.49
 738  10046.61
 739  9964.337
 740  10044.37
 741  10376.32
 742  11155.85
 743  11108.25
 744  10644.16
 745  10265.11
 746  10087.47
 747  10230.01
 748  10972.25
 749  11016.07
 750  11396.12
 751  11146.15
 752  10890.15
 753  10751.72
 754  10545.53
 755  11099.83
 756  11247.05
 757  10996.89
 758  10767.52
 759  10229.06
 760  9881.988
 761  9911.708
 762  10004.49
 763  10561.88
 764  10527.43
 765  10170.1
 766  10104.88
 767  9710.381
 768  9871.937
 769  10130.14
 770  10189.63
 771  10631.57
 772  10193.57
 773  9643.746
 774  9326.075
 775  9154.54
 776  9792.403
 777  10359.57
 778  10487.01
 779  11088.58
 780  10660.67
 781  10269.77
 782  9491.255
 783  9233.142
 784  9749.358
 785  9755.879
 786  10236.61
 787  11181.73
 788  11038.14
 789  10460.31
 790  9908.432
 791  9908.226
 792  10179.9
 793  10197.86
 794  10149.61
 795  10462.86
 796  10237.51
 797  10234.32
 798  10540.53
 799  10536.54
 800  10453.86
 801  9622.679
 802  9315.652
 803  9246.647
 804  9028.333
 805  9585.953
 806  9697.677
 807  9977.988
 808  10062.39
 809  9786.57
 810  9702.373
 811  9711.613
 812  9912.21
 813  10172.85
 814  10079.5
 815  10802.31
 816  11080.94
 817  10953.69
 818  10442.9
 819  10359.9
 820  10883.85
 821  11073.48
 822  10433.74
 823  10184.57
 824  10284.6
 825  10022.18
 826  10000.35
 827  9954.281
 828  10321.2
 829  10427.14
 830  10007.4
 831  9939.725
 832  9435.919
 833  9534.049
 834  9807.834
 835  10004.16
 836  10358.88
 837  9982.438
 838  9583.782
 839  9985.485
 840  9607.971
 841  9930.889
 842  9740.657
 843  9913.588
 844  10183.57
 845  10066.58
 846  9776.602
 847  9317.695
 848  8999.631
 849  9612.81
 850  9631.508
 851  9487.741
 852  10078.49
 853  10049.31
 854  9753.805
 855  9672.346
 856  9822.462
 857  10607.26
 858  10494.67
 859  9888.305
 860  9493.41
 861  9077.171
 862  9832.554
 863  10372.08
 864  10394.4
 865  10808.34
 866  10092.44
 867  9734.537
 868  9248.401
 869  9527.149
 870  9777.432
 871  9893.229
 872  10117.92
 873  10621.5
 874  10093.91
 875  9724.909
 876  9680.477
 877  10144.36
 878  10345.33
 879  10323.51
 880  10243.08
 881  10649.33
 882  10449.48
 883  10418.23
 884  10255.73
 885  10353.29
 886  10833.45
 887  10906.77
 888  10726.02
 889  10315.9
 890  10009.06
 891  10339.09
 892  10251.42
 893  10533.52
 894  11115.31
 895  11004.11
 896  10836.49
 897  10396.61
 898  10532.6
 899  10576.32
 900  10503.84
 901  10592.39
 902  10504.69
 903  10140.26
 904  10208.4
 905  9940.39
 906  10230.96
 907  10297.94
 908  10234.94
 909  10468.47
 910  10492.91
 911  10277.61
 912  10229
 913  10117.25
 914  10619.14
 915  11082.04
 916  11228.69
 917  10881.68
 918  10075.91
 919  9690.868
 920  9611.707
 921  9464.183
 922  10477.3
 923  10787.05
 924  10598.13
 925  10136.59
 926  9910.307
 927  10290.57
 928  10696.67
 929  10615.23
 930  10748.58
 931  10109.73
 932  9595.938
 933  9164.935
 934  8924.012
 935  9306.529
 936  9358.332
 937  9250.491
 938  9206.922
 939  8962.649
 940  9398.077
 941  10073.95
 942  10051.04
 943  10135.85
 944  9774.953
 945  9846.937
 946  9635.831
 947  9338.041
 948  9253.696
 949  9626.665
 950  9942.942
 951  10505.28
 952  10097.76
 953  9261.864
 954  9440.381
 955  9607.119
 956  10418.17
 957  10660.46
 958  10678.77
 959  11272.93
 960  10829.43
 961  10224.99
 962  9508.881
 963  9621.833
 964  9999.015
 965  9970.71
 966  9996.931
 967  10212.67
 968  10069.68
 969  10301.25
 970  10147.07
 971  10252.8
 972  10514.95
 973  10448.14
 974  10175.07
 975  10104.9
 976  9529.964
 977  9755.341
 978  9632.33
 979  10167.67
 980  10677.27
 981  10551.18
 982  10653.78
 983  10723.51
 984  10556.29
 985  10853.78
 986  10424.36
 987  10813.38
 988  10986.97
 989  11121.6
 990  10992.34
 991  10625.98
 992  10613.74
 993  10691.95
 994  10202.24
 995  10156.58
 996  10104.65
 997  9898.893
 998  9678.226
 999  9278.513
1000  9474.029
1001  9883.612
1002  9805.749
1003  9935.474
1004  9621.653
1005  9468.216
1006  9647.757
1007  9821.622
1008  11168.78
1009  11158.94
1010  10865.56
1011  10552.82
1012  10508.03
1013  10681.31
1014  10892.34
1015  10571.83
1016  10342.8
1017  9418.524
1018  9541.892
1019  9875.092
1020  9725.2
1021  10199.26
1022  10332.88
1023  10434.9
