# Input file       =  1195156967.112164_cleaned.dat
# Candidate        =  PSR_0332+5434
# Telescope        =  AR
# Epoch_topo       =  58076.835487409306
# Epoch_bary       =  N/A
# T_sample         =  0.002
# Data Folded      =  7340032
# Data Avg         =  0.0573536789368944
# Data StdDev      =  1.00014884991658 
# Profile Bins     =  512
# Profile Avg      =  822.176767646128 
# Profile StdDev   =  119.750858629243 
# Reduced chi-sqr  =  0.649
# Prob(Noise)      <  1   (~0.0 sigma)
# P_topo (ms)      =  714.514127954662  +/- 0.000349
# P'_topo (s/s)    =  -0                +/- 1.84e-10
# P''_topo (s/s^2) =  0                 +/- 8.13e-14
# P_bary (ms)      =  N/A
# P'_bary (s/s)    =  N/A
# P''_bary (s/s^2) =  N/A
# P_orb (s)        =  N/A
# asin(i)/c (s)    =  N/A
# eccentricity     =  N/A
# w (rad)          =  N/A
# T_peri           =  N/A
######################################################
   0  1080.38
   1  1068.595
   2  1006.643
   3  929.7811
   4  798.0442
   5  794.8646
   6  850.2126
   7  900.4278
   8  842.0662
   9  739.5942
  10  771.7764
  11  793.4175
  12  765.0434
  13  804.9982
  14  787.0692
  15  835.4656
  16  842.2904
  17  836.1816
  18  868.4575
  19  754.0719
  20  757.2621
  21  898.002
  22  824.3064
  23  669.4317
  24  787.1476
  25  860.105
  26  807.3358
  27  734.3912
  28  780.8696
  29  829.731
  30  883.2476
  31  930.8029
  32  858.21
  33  799.059
  34  738.9653
  35  774.2333
  36  724.5657
  37  780.0952
  38  866.6935
  39  859.3818
  40  771.1612
  41  808.1244
  42  889.1679
  43  826.879
  44  782.373
  45  747.7702
  46  737.7852
  47  792.1771
  48  821.1196
  49  823.9871
  50  802.9467
  51  740.7022
  52  701.7899
  53  779.8329
  54  821.6011
  55  771.1917
  56  782.64
  57  806.5311
  58  736.582
  59  790.0011
  60  833.8355
  61  790.858
  62  746.696
  63  827.0732
  64  883.6675
  65  817.1787
  66  840.0414
  67  871.6032
  68  784.797
  69  735.0784
  70  870.9484
  71  890.5825
  72  779.7194
  73  780.4392
  74  830.3338
  75  771.2385
  76  806.5102
  77  803.6008
  78  791.7972
  79  712.6098
  80  734.0232
  81  781.7333
  82  767.6776
  83  773.639
  84  824.9529
  85  874.9388
  86  827.1706
  87  844.3168
  88  862.1325
  89  836.1138
  90  812.4241
  91  810.157
  92  814.6463
  93  847.9816
  94  851.8423
  95  879.2764
  96  769.2155
  97  738.902
  98  768.288
  99  795.4324
 100  871.1935
 101  855.8967
 102  824.1606
 103  756.3179
 104  821.6954
 105  740.6782
 106  830.6618
 107  893.4784
 108  849.4095
 109  865.996
 110  853.362
 111  823.9297
 112  729.8029
 113  760.0333
 114  839.7238
 115  830.972
 116  816.569
 117  820.7356
 118  802.2678
 119  856.0971
 120  932.0668
 121  958.1462
 122  846.7234
 123  814.0396
 124  769.0294
 125  827.5035
 126  814.674
 127  805.9816
 128  822.7616
 129  827.2474
 130  830.632
 131  867.7477
 132  907.624
 133  733.5832
 134  769.8809
 135  892.7076
 136  953.6664
 137  895.6215
 138  869.0687
 139  949.7269
 140  856.082
 141  846.9827
 142  959.4951
 143  932.0169
 144  923.1111
 145  867.8599
 146  853.8295
 147  906.9037
 148  929.6923
 149  952.5466
 150  972.9247
 151  786.078
 152  757.2178
 153  768.2528
 154  787.6649
 155  784.5171
 156  786.5273
 157  853.6432
 158  840.6439
 159  789.9815
 160  818.3016
 161  883.7963
 162  855.7168
 163  810.8647
 164  852.71
 165  888.0372
 166  846.9052
 167  802.043
 168  829.3382
 169  808.491
 170  750.789
 171  830.673
 172  808.0088
 173  820.6281
 174  884.4103
 175  875.819
 176  829.9625
 177  722.7847
 178  734.3055
 179  743.1247
 180  654.4208
 181  735.246
 182  767.2581
 183  772.2557
 184  770.1955
 185  731.1998
 186  756.334
 187  794.0072
 188  836.1378
 189  823.8987
 190  834.2257
 191  754.4527
 192  748.3176
 193  751.9191
 194  742.6062
 195  758.8926
 196  856.1337
 197  836.8811
 198  776.9366
 199  824.6819
 200  881.394
 201  939.8694
 202  873.225
 203  824.0468
 204  871.3094
 205  881.0574
 206  895.6746
 207  851.1029
 208  803.744
 209  829.9519
 210  882.2064
 211  851.4098
 212  802.2936
 213  758.1592
 214  782.7908
 215  784.0239
 216  771.2276
 217  786.3147
 218  821.1121
 219  841.0794
 220  895.8505
 221  863.6669
 222  825.5907
 223  796.473
 224  869.2513
 225  942.7198
 226  856.484
 227  766.7018
 228  755.1271
 229  868.4672
 230  802.2467
 231  704.6655
 232  754.3385
 233  841.0393
 234  862.6279
 235  918.3005
 236  933.1088
 237  812.373
 238  731.8899
 239  778.6431
 240  860.628
 241  865.0729
 242  900.5239
 243  914.7689
 244  790.2933
 245  830.4224
 246  982.3831
 247  879.7155
 248  861.0071
 249  811.8931
 250  888.6907
 251  792.7416
 252  762.5564
 253  725.7435
 254  804.0573
 255  849.1375
 256  819.5213
 257  832.3985
 258  865.7482
 259  904.5031
 260  785.4252
 261  765.8738
 262  748.7692
 263  726.1549
 264  805.1489
 265  836.7586
 266  788.3518
 267  785.9593
 268  796.4332
 269  733.3246
 270  686.744
 271  813.0394
 272  820.64
 273  725.3468
 274  848.0771
 275  868.4032
 276  714.2075
 277  673.5444
 278  812.3845
 279  853.3071
 280  826.3962
 281  811.958
 282  962.5567
 283  863.1991
 284  806.1572
 285  817.0167
 286  798.0391
 287  761.7455
 288  737.567
 289  861.8411
 290  836.5895
 291  823.3098
 292  792.657
 293  816.0967
 294  868.3577
 295  885.3723
 296  855.5229
 297  756.0934
 298  675.8931
 299  672.1962
 300  679.3972
 301  725.0778
 302  726.1959
 303  709.8432
 304  749.2764
 305  673.6003
 306  652.6475
 307  739.3817
 308  832.7747
 309  726.1827
 310  702.1367
 311  728.7479
 312  736.705
 313  695.6127
 314  693.5349
 315  670.1469
 316  687.2693
 317  709.5203
 318  737.6081
 319  665.2532
 320  669.1135
 321  813.4742
 322  738.333
 323  692.9161
 324  756.3423
 325  767.4916
 326  761.1005
 327  705.5996
 328  725.2872
 329  814.4749
 330  811.1052
 331  823.2081
 332  829.8375
 333  774.3518
 334  873.2966
 335  834.4832
 336  892.5929
 337  798.9457
 338  786.7134
 339  844.4973
 340  781.691
 341  752.1981
 342  721.8797
 343  681.2849
 344  592.7625
 345  688.1586
 346  754.0895
 347  762.5123
 348  747.3036
 349  721.4697
 350  758.8716
 351  729.1179
 352  825.1887
 353  766.7416
 354  877.9073
 355  883.9581
 356  803.8847
 357  802.585
 358  805.6831
 359  801.9957
 360  783.4976
 361  779.4043
 362  797.2468
 363  847.3798
 364  799.1417
 365  834.6938
 366  896.2959
 367  831.4033
 368  814.804
 369  841.4697
 370  852.5339
 371  798.6672
 372  802.4055
 373  839.7175
 374  832.8654
 375  810.8983
 376  841.9319
 377  832.1563
 378  809.6467
 379  786.4876
 380  916.0867
 381  852.7645
 382  837.9627
 383  892.3292
 384  967.0406
 385  931.3604
 386  901.8423
 387  802.861
 388  770.549
 389  773.1808
 390  900.0947
 391  961.1599
 392  955.0447
 393  921.6743
 394  876.46
 395  766.204
 396  820.4889
 397  903.6823
 398  896.8068
 399  903.0948
 400  942.4008
 401  813.3691
 402  748.1273
 403  787.3565
 404  749.6025
 405  832.8874
 406  853.0992
 407  765.3826
 408  761.6057
 409  815.431
 410  838.2136
 411  798.3984
 412  809.0441
 413  834.8018
 414  853.4231
 415  851.2818
 416  707.4917
 417  753.4138
 418  847.5085
 419  848.2098
 420  787.7299
 421  784.1118
 422  818.699
 423  818.3705
 424  853.2079
 425  927.2972
 426  943.8879
 427  906.509
 428  830.6336
 429  824.7922
 430  823.7249
 431  786.2985
 432  869.0372
 433  886.3483
 434  886.5054
 435  842.9438
 436  878.3582
 437  878.4747
 438  977.2982
 439  997.1605
 440  1011.826
 441  930.0663
 442  794.1501
 443  811.0404
 444  772.1969
 445  847.1888
 446  881.3415
 447  873.6545
 448  944.3201
 449  841.5279
 450  825.3498
 451  835.1642
 452  770.4454
 453  835.7589
 454  863.2612
 455  927.3427
 456  937.5804
 457  921.233
 458  903.9066
 459  848.8342
 460  885.6042
 461  851.2092
 462  768.372
 463  781.716
 464  859.2634
 465  924.5676
 466  876.3143
 467  925.8954
 468  871.196
 469  819.4672
 470  910.6185
 471  969.4521
 472  963.5748
 473  822.6208
 474  775.5761
 475  851.9899
 476  911.0745
 477  816.2715
 478  828.7588
 479  840.5981
 480  860.3207
 481  852.9966
 482  860.183
 483  849.3279
 484  788.3401
 485  802.4211
 486  865.5038
 487  829.5037
 488  814.8544
 489  945.1829
 490  964.6338
 491  815.7944
 492  785.8618
 493  749.1364
 494  773.8226
 495  826.9474
 496  827.5829
 497  789.6743
 498  789.9837
 499  827.5078
 500  888.207
 501  821.5844
 502  827.8342
 503  937.6052
 504  875.7366
 505  874.7607
 506  919.2628
 507  905.3469
 508  878.644
 509  856.9486
 510  1025.539
 511  1133.022
