# Input file       =  1195229060.104711_cleaned.dat
# Candidate        =  PSR_0332+5434
# Telescope        =  AR
# Epoch_topo       =  58077.669897045263
# Epoch_bary       =  N/A
# T_sample         =  0.002
# Data Folded      =  7208960
# Data Avg         =  0.0930344098668329
# Data StdDev      =  1.00051133684816 
# Profile Bins     =  512
# Profile Avg      =  1309.87380000967 
# Profile StdDev   =  118.719850602486 
# Reduced chi-sqr  =  0.448
# Prob(Noise)      <  1   (~0.0 sigma)
# P_topo (ms)      =  714.514971984952  +/- 0.000974
# P'_topo (s/s)    =  -0                +/- 5.23e-10
# P''_topo (s/s^2) =  0                 +/- 2.35e-13
# P_bary (ms)      =  N/A
# P'_bary (s/s)    =  N/A
# P''_bary (s/s^2) =  N/A
# P_orb (s)        =  N/A
# asin(i)/c (s)    =  N/A
# eccentricity     =  N/A
# w (rad)          =  N/A
# T_peri           =  N/A
######################################################
   0  1467.435
   1  1461.26
   2  1367.397
   3  1246.231
   4  1283.296
   5  1289.011
   6  1301.657
   7  1299.078
   8  1298.904
   9  1301.681
  10  1278.47
  11  1292.817
  12  1362.962
  13  1396.661
  14  1389.931
  15  1355.126
  16  1365.725
  17  1290.276
  18  1304.079
  19  1294.6
  20  1333.412
  21  1309.956
  22  1314.618
  23  1280.545
  24  1223.16
  25  1209.616
  26  1227.919
  27  1239.521
  28  1228.957
  29  1240.274
  30  1306.186
  31  1187.714
  32  1183.214
  33  1318.891
  34  1316.917
  35  1276.709
  36  1309.783
  37  1322.297
  38  1314.143
  39  1247.595
  40  1264.524
  41  1283.099
  42  1319.725
  43  1323.1
  44  1351.335
  45  1383.851
  46  1336.478
  47  1336.935
  48  1282.367
  49  1318.113
  50  1339.314
  51  1360.354
  52  1335.435
  53  1319.409
  54  1341.745
  55  1341.915
  56  1347.884
  57  1307.079
  58  1310.839
  59  1305.795
  60  1203.796
  61  1262.317
  62  1316.479
  63  1378.904
  64  1281.848
  65  1203.341
  66  1249.211
  67  1293.229
  68  1302.093
  69  1307.906
  70  1298.961
  71  1237.484
  72  1189.261
  73  1202.484
  74  1286.821
  75  1295.407
  76  1302.459
  77  1370.998
  78  1364.721
  79  1296.89
  80  1234.914
  81  1234.448
  82  1291.466
  83  1344.494
  84  1285.344
  85  1212.906
  86  1250.713
  87  1285.729
  88  1363.599
  89  1337.743
  90  1316.802
  91  1329.796
  92  1326.044
  93  1288.548
  94  1288.875
  95  1308.909
  96  1281.821
  97  1338.792
  98  1333.5
  99  1339.398
 100  1248.267
 101  1282.288
 102  1366.796
 103  1345.284
 104  1316.772
 105  1275.122
 106  1219.845
 107  1282.516
 108  1276.927
 109  1225.56
 110  1241.839
 111  1268.504
 112  1219.907
 113  1228.017
 114  1175.433
 115  1164.771
 116  1259.724
 117  1242.024
 118  1279.644
 119  1301.065
 120  1386.522
 121  1373.448
 122  1294.495
 123  1241.668
 124  1292.256
 125  1314.468
 126  1327.271
 127  1349.63
 128  1296.78
 129  1314.391
 130  1356.447
 131  1387.952
 132  1349.578
 133  1319.728
 134  1286.236
 135  1373.869
 136  1329.249
 137  1249.774
 138  1271.271
 139  1298.41
 140  1339.319
 141  1331.323
 142  1379.882
 143  1387.11
 144  1328.409
 145  1339.455
 146  1329.096
 147  1293.188
 148  1272.344
 149  1301.865
 150  1325.026
 151  1362.507
 152  1408.645
 153  1418.975
 154  1391.628
 155  1388.279
 156  1368.228
 157  1251.974
 158  1300.352
 159  1334.975
 160  1355.008
 161  1316.277
 162  1277.602
 163  1289.908
 164  1285.657
 165  1309.408
 166  1293.056
 167  1292.751
 168  1259.486
 169  1308.213
 170  1258.244
 171  1298.768
 172  1299.273
 173  1427.024
 174  1464.411
 175  1320.77
 176  1391.743
 177  1278.256
 178  1295.798
 179  1254.831
 180  1275.655
 181  1309.478
 182  1313.053
 183  1364.046
 184  1377.573
 185  1389.238
 186  1345.471
 187  1386.436
 188  1372.317
 189  1276.38
 190  1343.392
 191  1324.216
 192  1324.111
 193  1301.745
 194  1379.864
 195  1311.153
 196  1189.741
 197  1219.372
 198  1277.991
 199  1260.731
 200  1251.322
 201  1260.659
 202  1222.201
 203  1249.456
 204  1241.525
 205  1193.203
 206  1260.835
 207  1269.978
 208  1294.82
 209  1231.96
 210  1311.743
 211  1411.318
 212  1327.478
 213  1319.774
 214  1337.199
 215  1306.4
 216  1349.359
 217  1401.091
 218  1350.342
 219  1291.606
 220  1244.071
 221  1205.908
 222  1228.838
 223  1241.599
 224  1294.43
 225  1360.7
 226  1327.616
 227  1349.593
 228  1338.985
 229  1324.999
 230  1298.199
 231  1234.286
 232  1259.19
 233  1352.821
 234  1367.54
 235  1353.37
 236  1273.949
 237  1295.346
 238  1357.933
 239  1332.556
 240  1355.792
 241  1352.354
 242  1387.85
 243  1336.72
 244  1310.301
 245  1359.476
 246  1304.329
 247  1408.294
 248  1388.979
 249  1376.536
 250  1360.946
 251  1275.608
 252  1213.502
 253  1259.625
 254  1324.773
 255  1335.142
 256  1313.801
 257  1263.654
 258  1352.775
 259  1378.178
 260  1379.056
 261  1341.446
 262  1291.976
 263  1262.938
 264  1254.585
 265  1232.582
 266  1250.369
 267  1299.459
 268  1300.581
 269  1323.216
 270  1277.969
 271  1205.362
 272  1221.574
 273  1270.859
 274  1344.658
 275  1293.98
 276  1248.328
 277  1284.659
 278  1237.781
 279  1195.014
 280  1188.889
 281  1237.489
 282  1281.09
 283  1321.963
 284  1273.094
 285  1285.139
 286  1222.032
 287  1268.353
 288  1315.721
 289  1324.031
 290  1354.457
 291  1344.498
 292  1366.119
 293  1369.903
 294  1402.134
 295  1383.909
 296  1405.41
 297  1415.314
 298  1442.788
 299  1368.941
 300  1339.524
 301  1373.776
 302  1410.823
 303  1451.516
 304  1321.205
 305  1235.442
 306  1244.16
 307  1352.409
 308  1390.472
 309  1279.716
 310  1330.647
 311  1349.176
 312  1408.408
 313  1443.656
 314  1431.666
 315  1397.041
 316  1406.744
 317  1376.149
 318  1262.121
 319  1328.924
 320  1375.203
 321  1426.035
 322  1404.872
 323  1364.43
 324  1372.195
 325  1282.729
 326  1301.962
 327  1299.551
 328  1342.201
 329  1319.495
 330  1330.201
 331  1306.406
 332  1299.906
 333  1294.023
 334  1284.056
 335  1306.844
 336  1290.314
 337  1262.506
 338  1240.441
 339  1310.265
 340  1305.962
 341  1327.291
 342  1345.411
 343  1229.285
 344  1202.444
 345  1227.159
 346  1297.899
 347  1228.15
 348  1281.157
 349  1356.677
 350  1353.02
 351  1382.203
 352  1379.514
 353  1389.079
 354  1366.763
 355  1377.313
 356  1357.861
 357  1335.988
 358  1384.375
 359  1342.974
 360  1337.629
 361  1372.03
 362  1400.404
 363  1309.865
 364  1345.066
 365  1344.179
 366  1373.644
 367  1411.1
 368  1300.478
 369  1379.049
 370  1336.411
 371  1383.475
 372  1350.48
 373  1369.458
 374  1369.401
 375  1286.812
 376  1331.159
 377  1269.953
 378  1299.717
 379  1372.468
 380  1415.683
 381  1378.526
 382  1319.442
 383  1343.447
 384  1360.711
 385  1350.053
 386  1292.386
 387  1326.162
 388  1408.93
 389  1343.86
 390  1392.99
 391  1399.31
 392  1358.101
 393  1364.208
 394  1420.03
 395  1371.405
 396  1387.043
 397  1364.966
 398  1385.309
 399  1357.869
 400  1306.533
 401  1312.454
 402  1400.086
 403  1337.43
 404  1312.377
 405  1313.537
 406  1320.304
 407  1335.911
 408  1322.166
 409  1286.618
 410  1304.603
 411  1263.2
 412  1288.485
 413  1308.85
 414  1275.895
 415  1289.364
 416  1326.804
 417  1373.492
 418  1308.378
 419  1372.736
 420  1308.568
 421  1308.789
 422  1305.275
 423  1310.178
 424  1318.149
 425  1283.539
 426  1339.427
 427  1375.783
 428  1313.511
 429  1139.862
 430  1147.461
 431  1254.222
 432  1336.057
 433  1281.385
 434  1324.504
 435  1278.257
 436  1278.727
 437  1261.144
 438  1234.009
 439  1289.325
 440  1277.733
 441  1301.422
 442  1278.083
 443  1321.591
 444  1312.815
 445  1307.822
 446  1319.616
 447  1300.106
 448  1410.448
 449  1317.276
 450  1364.788
 451  1321.456
 452  1347.521
 453  1372.88
 454  1290.995
 455  1301.071
 456  1277.012
 457  1281.582
 458  1252.948
 459  1242.49
 460  1294.997
 461  1365.889
 462  1361.407
 463  1270.268
 464  1328.47
 465  1294.722
 466  1272.994
 467  1254.922
 468  1267.263
 469  1264.14
 470  1242.826
 471  1297.549
 472  1329.537
 473  1345.76
 474  1277.778
 475  1325.179
 476  1322.241
 477  1241.156
 478  1257.974
 479  1279.053
 480  1299.165
 481  1226.683
 482  1201.692
 483  1203.644
 484  1196.453
 485  1189.165
 486  1183.561
 487  1278.222
 488  1308.628
 489  1257.555
 490  1274.967
 491  1275.777
 492  1203.109
 493  1192.564
 494  1234.391
 495  1197.829
 496  1196.063
 497  1217.463
 498  1173.906
 499  1207.2
 500  1257.146
 501  1241.625
 502  1197.687
 503  1263.052
 504  1256.42
 505  1292.197
 506  1343.224
 507  1359.206
 508  1366.666
 509  1374.139
 510  1382.478
 511  1400.343
