# Input file       =  1195156967.112164_cleaned.dat
# Candidate        =  PSR_0332+5434
# Telescope        =  AR
# Epoch_topo       =  58076.835487409306
# Epoch_bary       =  N/A
# T_sample         =  0.002
# Data Folded      =  7340032
# Data Avg         =  0.807955678106477
# Data StdDev      =  19.8665726326821 
# Profile Bins     =  512
# Profile Avg      =  11582.5065609477 
# Profile StdDev   =  2378.68506371059 
# Reduced chi-sqr  =  0.424
# Prob(Noise)      <  1   (~0.0 sigma)
# P_topo (ms)      =  714.514129287381  +/- 0.00124
# P'_topo (s/s)    =  -0                +/- 6.56e-10
# P''_topo (s/s^2) =  0                 +/- 2.9e-13
# P_bary (ms)      =  N/A
# P'_bary (s/s)    =  N/A
# P''_bary (s/s^2) =  N/A
# P_orb (s)        =  N/A
# asin(i)/c (s)    =  N/A
# eccentricity     =  N/A
# w (rad)          =  N/A
# T_peri           =  N/A
######################################################
   0  11238.82
   1  11240.88
   2  11438.16
   3  10884.89
   4  12178.67
   5  11246.41
   6  11276.26
   7  10705.83
   8  10704.07
   9  11767.86
  10  10356.56
  11  12725.49
  12  12160.09
  13  10986.91
  14  11755.55
  15  11642.49
  16  12006.15
  17  11460.22
  18  11551.13
  19  12605.68
  20  11638.55
  21  11046.54
  22  11212.22
  23  10819.17
  24  10444.6
  25  9564.509
  26  10818.31
  27  10302.78
  28  10208.38
  29  12375.95
  30  12623.17
  31  13118.83
  32  11758.38
  33  12263.41
  34  14081.17
  35  13337.17
  36  12693.87
  37  12478.61
  38  11433.98
  39  9273.224
  40  9141.642
  41  10253.53
  42  11953.25
  43  12598.38
  44  11958.48
  45  13374.74
  46  12405.18
  47  11298.34
  48  10708.75
  49  11431.79
  50  11474.72
  51  12245.46
  52  13047.12
  53  11554.53
  54  10004.89
  55  12458.85
  56  12750.09
  57  12244.36
  58  13900.45
  59  13190.83
  60  11950.7
  61  11594.64
  62  11626.92
  63  10464.09
  64  10320.27
  65  12010.54
  66  10914.81
  67  10829.44
  68  11657.16
  69  10865.46
  70  9960.498
  71  11223.26
  72  9970.715
  73  9971.194
  74  10739.1
  75  9957.806
  76  10514.11
  77  11114.11
  78  9662.018
  79  9493.306
  80  9572.598
  81  10081.65
  82  9310.801
  83  9782.05
  84  11452.96
  85  10938.8
  86  10963.69
  87  10511.14
  88  12044.78
  89  11318.59
  90  12322.9
  91  12416.75
  92  13504.46
  93  11417.21
  94  11907.29
  95  11689.96
  96  11217.54
  97  10804.95
  98  13105.56
  99  12285.57
 100  9919.671
 101  10373.97
 102  10151.7
 103  11823.19
 104  12465.22
 105  11743.75
 106  12340.28
 107  10216.25
 108  10123.6
 109  9601.028
 110  10604.58
 111  11716.18
 112  11016.45
 113  11399.78
 114  10554.5
 115  9777.619
 116  9280.547
 117  10530.94
 118  11093.73
 119  10601.41
 120  10595.3
 121  9684.205
 122  9804.564
 123  10700.81
 124  11135.72
 125  11215.8
 126  11083.52
 127  8900.641
 128  10895.75
 129  9774.376
 130  11635.88
 131  11755.68
 132  10755.56
 133  11113.77
 134  10873.07
 135  12265.19
 136  11746.41
 137  12606.28
 138  12672.86
 139  11370.08
 140  11519.89
 141  11980.83
 142  10943.48
 143  9881.389
 144  12269.86
 145  12080.96
 146  12378.26
 147  11352.84
 148  11705.22
 149  11601.32
 150  11029.49
 151  11013.99
 152  11320.41
 153  9111.334
 154  8729.856
 155  10657.59
 156  11608.56
 157  10772.43
 158  11077.37
 159  11503.12
 160  11803.48
 161  11733.99
 162  13513.9
 163  12571.21
 164  11667.48
 165  12014.32
 166  12497.82
 167  12635.51
 168  12450.56
 169  12237.85
 170  13052.43
 171  12527.75
 172  12800.49
 173  14419.87
 174  13081.18
 175  12584.77
 176  13185.23
 177  12967.39
 178  13680.51
 179  12342.75
 180  12851.9
 181  10893.68
 182  11007.17
 183  11588.05
 184  10861.69
 185  11054.57
 186  11017.26
 187  12408.47
 188  11895.13
 189  11159.71
 190  12405.6
 191  10871.53
 192  11998.03
 193  12892.08
 194  13747.6
 195  11932
 196  11710.62
 197  11454.5
 198  11041.54
 199  11446.63
 200  12122.1
 201  13410.73
 202  13132.64
 203  12603.89
 204  11243.74
 205  10137.97
 206  10462.52
 207  12007.62
 208  13019.05
 209  12776.9
 210  13125.41
 211  12235.07
 212  12412.38
 213  12321.05
 214  11346.75
 215  11641.22
 216  10571.79
 217  10659.34
 218  10676.52
 219  12726.57
 220  13377.48
 221  12751.84
 222  13935.35
 223  13424.02
 224  13356.2
 225  10883.48
 226  9455.269
 227  10879.77
 228  12548.65
 229  13612.98
 230  12744.72
 231  12490.78
 232  11088.21
 233  11538.23
 234  10709.58
 235  11876.33
 236  12665.93
 237  13960.2
 238  12922.64
 239  11239.09
 240  10057.31
 241  9848.102
 242  12025.33
 243  12059.7
 244  12823.74
 245  11997.32
 246  11526.25
 247  10806.09
 248  12961.93
 249  14312.18
 250  13382.17
 251  13401.69
 252  12502.27
 253  12996.31
 254  10901.07
 255  12482.98
 256  12279.18
 257  11421
 258  11784
 259  10708.89
 260  12495.13
 261  12002.3
 262  11442.97
 263  12142.31
 264  11683.11
 265  12775.83
 266  11579.9
 267  13097.21
 268  11502.86
 269  11077.06
 270  13011.94
 271  12058.97
 272  10461.72
 273  10607.49
 274  11343.3
 275  12855.46
 276  12853.93
 277  12031.73
 278  11499.1
 279  11872.77
 280  12798.19
 281  13151.58
 282  12369.99
 283  10756.25
 284  11200.56
 285  12738.93
 286  12014.31
 287  12075.78
 288  10491.28
 289  10660.51
 290  11097.51
 291  11942.81
 292  11581.75
 293  11260.07
 294  12022.41
 295  12939.15
 296  11793.3
 297  11015.97
 298  13049.94
 299  14013.86
 300  13221.84
 301  12880.29
 302  12638.25
 303  11371.5
 304  10839.03
 305  12122.11
 306  12397.19
 307  11566.51
 308  11956.48
 309  12211.61
 310  12713.46
 311  12012.66
 312  12568.65
 313  12371.66
 314  11962.29
 315  13095.33
 316  12843.14
 317  13853.16
 318  12461.25
 319  11915.77
 320  13164.85
 321  15052.99
 322  14396.63
 323  15626.17
 324  13708.03
 325  11099.18
 326  9274.161
 327  12139.2
 328  14072.23
 329  13448.28
 330  13147.89
 331  12073.19
 332  10813.09
 333  10368.4
 334  11159.06
 335  11922.34
 336  11759.58
 337  13086.94
 338  12354.97
 339  11520.08
 340  10322.89
 341  10041.43
 342  11784.15
 343  12518.93
 344  10054.26
 345  10321.57
 346  11615.41
 347  10183.98
 348  11156.69
 349  10838.15
 350  10855.05
 351  11022.38
 352  11792.38
 353  12511.05
 354  10688.54
 355  9513.558
 356  9924.997
 357  9921.729
 358  8884.253
 359  11285.41
 360  12197.11
 361  11416.49
 362  11009.95
 363  12184.22
 364  12229.33
 365  10023.98
 366  10538.88
 367  10038.68
 368  8901.028
 369  9832.303
 370  10232.83
 371  10287.79
 372  10354.05
 373  11316.11
 374  9695.21
 375  11473.79
 376  11566.01
 377  10860.22
 378  10600
 379  9777.105
 380  10838.6
 381  11398.73
 382  10955.3
 383  10047.3
 384  9521.307
 385  10348.71
 386  12040.92
 387  12373.33
 388  11947.32
 389  12969.05
 390  10571.56
 391  11244.99
 392  12717.38
 393  12401.34
 394  11878.8
 395  10637.75
 396  11475.44
 397  10933.98
 398  10885.79
 399  10679.07
 400  12208.81
 401  11087.68
 402  12209.52
 403  12175.21
 404  10773.21
 405  12041.28
 406  12446.88
 407  12904.3
 408  11458.15
 409  12647.98
 410  13028.4
 411  13276.55
 412  13194.16
 413  12023.29
 414  11812.4
 415  10716.34
 416  11937.17
 417  12114.25
 418  11119.97
 419  10853.4
 420  10969.15
 421  10218.84
 422  10018.02
 423  10001.01
 424  10742.7
 425  11043.6
 426  11256.48
 427  10157.92
 428  10806.57
 429  10590.34
 430  12213.21
 431  11687.84
 432  11687.04
 433  11874.98
 434  10951.75
 435  10508.17
 436  10387.11
 437  10344.09
 438  9963.458
 439  10986.21
 440  11371.22
 441  12315.76
 442  13018.45
 443  12648.72
 444  11653.38
 445  10976.65
 446  11585.23
 447  11298.29
 448  12655.72
 449  11529.2
 450  12512.28
 451  11905.05
 452  11039.66
 453  11548.58
 454  10106.44
 455  10535.31
 456  11029.3
 457  12815.67
 458  12088.24
 459  11545.71
 460  11362.9
 461  12262.5
 462  12512.21
 463  13090.57
 464  13516.01
 465  14692.96
 466  15150.6
 467  13148.52
 468  12045.07
 469  11223.47
 470  11655.29
 471  12965.83
 472  11500.98
 473  11027.1
 474  10865.76
 475  11892.43
 476  10831.61
 477  10757.62
 478  10542.48
 479  12072.08
 480  12162
 481  12578.56
 482  11008.05
 483  10663.96
 484  11016.05
 485  11376.08
 486  12502.1
 487  12333.84
 488  11547.38
 489  11700.02
 490  11220.33
 491  10752.1
 492  10761.84
 493  12221.72
 494  11149.54
 495  11593.83
 496  11466.18
 497  10877.2
 498  10969.56
 499  10900.71
 500  10670.21
 501  9311.425
 502  9333.321
 503  9845.522
 504  10236.34
 505  9684.864
 506  9747.138
 507  10674.95
 508  10501.52
 509  11760.14
 510  12308.19
 511  11693.54
