# Input file       =  1195846833.110793_cleaned.dat
# Candidate        =  PSR_0332+5434
# Telescope        =  AR
# Epoch_topo       =  58084.820047578622
# Epoch_bary       =  N/A
# T_sample         =  0.002
# Data Folded      =  7340032
# Data Avg         =  0.676072763522304
# Data StdDev      =  6.52504351914176 
# Profile Bins     =  1024
# Profile Avg      =  4846.17798364083 
# Profile StdDev   =  552.43655825673  
# Reduced chi-sqr  =  0.525
# Prob(Noise)      <  1   (~0.0 sigma)
# P_topo (ms)      =  714.522400205159  +/- 0.000219
# P'_topo (s/s)    =  -0                +/- 1.16e-10
# P''_topo (s/s^2) =  0                 +/- 5.11e-14
# P_bary (ms)      =  N/A
# P'_bary (s/s)    =  N/A
# P''_bary (s/s^2) =  N/A
# P_orb (s)        =  N/A
# asin(i)/c (s)    =  N/A
# eccentricity     =  N/A
# w (rad)          =  N/A
# T_peri           =  N/A
######################################################
   0  5161.327
   1  4975.027
   2  4947.518
   3  4951.281
   4  4872.628
   5  4922.735
   6  5107.58
   7  5197.199
   8  5209.737
   9  5165.517
  10  5138.817
  11  5040.702
  12  5026.35
  13  5119.472
  14  5007.686
  15  4944.924
  16  4809.827
  17  4843.828
  18  4739.134
  19  4590.292
  20  4764.386
  21  4846.138
  22  4761.745
  23  4546.777
  24  4599.847
  25  4706.277
  26  4781.602
  27  4814.259
  28  5002.503
  29  5006.467
  30  4977.107
  31  4858.976
  32  4815.074
  33  4779.332
  34  4843.896
  35  4836.074
  36  5068.935
  37  5126.973
  38  4969.712
  39  4734.401
  40  4612.58
  41  4782.509
  42  4868.693
  43  4789.235
  44  5021.161
  45  5167.195
  46  5254.576
  47  5029.846
  48  4876.26
  49  4900.494
  50  4845.264
  51  4942.917
  52  5018.096
  53  5007.422
  54  4968.864
  55  4908.927
  56  4959.615
  57  4886.903
  58  4773.187
  59  4951.312
  60  5120.064
  61  5230.245
  62  5206.265
  63  5212.585
  64  5030.502
  65  5213.913
  66  5091.23
  67  5088.404
  68  4931.213
  69  4884.256
  70  4993.71
  71  4889.915
  72  5056.248
  73  5215.125
  74  5116.71
  75  4971.651
  76  4952.052
  77  5021.503
  78  5102.746
  79  5131.554
  80  5040.442
  81  5148.596
  82  5254.048
  83  5252.318
  84  5125.26
  85  5161.282
  86  5149.269
  87  5082.752
  88  4864.397
  89  4986.716
  90  4992.288
  91  4924.419
  92  4786.751
  93  4690.487
  94  4525.318
  95  4430.09
  96  4400.098
  97  4619.046
  98  4749.853
  99  4960.756
 100  4945.232
 101  4901.531
 102  4853.729
 103  4793.241
 104  4683.097
 105  4538.097
 106  4590.157
 107  4727.249
 108  4949.446
 109  4954.205
 110  4877.104
 111  4780.882
 112  4868.438
 113  4773.916
 114  4860.104
 115  4924.847
 116  5124.888
 117  5120.683
 118  5096.233
 119  4997.305
 120  4994.533
 121  4976.092
 122  5054.966
 123  5018.808
 124  4848.423
 125  4652.042
 126  4679.958
 127  4778.119
 128  5070.007
 129  4976.726
 130  5121.03
 131  5062.757
 132  4918.716
 133  4775.576
 134  4627.913
 135  4860.762
 136  4959.998
 137  5184.793
 138  5324.907
 139  5297.809
 140  5261.125
 141  5129.746
 142  5248.718
 143  5432.951
 144  5521.56
 145  5444.463
 146  5263.91
 147  5120.402
 148  5157.974
 149  5294.349
 150  5238.085
 151  5121.435
 152  4823.729
 153  4565.669
 154  4505.223
 155  4752.324
 156  5117.704
 157  5265.188
 158  5128.878
 159  5249.703
 160  5233.746
 161  5128.993
 162  4824.146
 163  4755.693
 164  4760.573
 165  4866.504
 166  4758.694
 167  4906.101
 168  4796.058
 169  4756.791
 170  4748.413
 171  4702.47
 172  4861.318
 173  4658.58
 174  4523.479
 175  4390.356
 176  4408.167
 177  4602.107
 178  4673.732
 179  4731.352
 180  4745.248
 181  4783.715
 182  4796.134
 183  4610.768
 184  4755.385
 185  4912.363
 186  5017.483
 187  5003.804
 188  5080.949
 189  5123.77
 190  4931.584
 191  4774.409
 192  4865.333
 193  5014.04
 194  5159.027
 195  5157.676
 196  5049.281
 197  4935.719
 198  4824.265
 199  4772.874
 200  4975.174
 201  5001.768
 202  4919.427
 203  4900.053
 204  5088.6
 205  5231.55
 206  5256.122
 207  5154.726
 208  5163.913
 209  4898.877
 210  4635.424
 211  4491.856
 212  4599.245
 213  4957.728
 214  4958.53
 215  4790.832
 216  4770.687
 217  4877.903
 218  4985
 219  4871.9
 220  4811.503
 221  4983.244
 222  5075.648
 223  5089.156
 224  5050.366
 225  5110.432
 226  5223.25
 227  5284.834
 228  5188.611
 229  5234.204
 230  5179.919
 231  5181.613
 232  5134.128
 233  5124.594
 234  4964.886
 235  4812.813
 236  4837.319
 237  5182.625
 238  5181.954
 239  4987.272
 240  4819.162
 241  4846.685
 242  5123.978
 243  5080.402
 244  5024.8
 245  5020.183
 246  4959.109
 247  4723.253
 248  4296.101
 249  4259.506
 250  4464.044
 251  4647.557
 252  4823.23
 253  4966.407
 254  4984.984
 255  5010.349
 256  5159.928
 257  5087.067
 258  4800.094
 259  4646.459
 260  4672.48
 261  4866.222
 262  4875.519
 263  4865.042
 264  4679.989
 265  4778.36
 266  4943.72
 267  5046.964
 268  4999.056
 269  4899.979
 270  5105.08
 271  5148.372
 272  4974.703
 273  4808.25
 274  4797.502
 275  4766.627
 276  4650.701
 277  4506.601
 278  4623.354
 279  4619.908
 280  4733.572
 281  4880.147
 282  4736.648
 283  4578.741
 284  4581.9
 285  4826.609
 286  4924.188
 287  4941.315
 288  4999.314
 289  5106.538
 290  4993.163
 291  4876.048
 292  4742.729
 293  4747.232
 294  4870.428
 295  4950.33
 296  4809.278
 297  4606.958
 298  4493.664
 299  4654.81
 300  4779.041
 301  4810.618
 302  4897.64
 303  4916.75
 304  5054.25
 305  5043.43
 306  5060.433
 307  5240.083
 308  5290.156
 309  5158.368
 310  5107.936
 311  5014.842
 312  4858.311
 313  4827.896
 314  4807.368
 315  4948.254
 316  4846.063
 317  4829.923
 318  4797.233
 319  4712.388
 320  4714.085
 321  4714.906
 322  4713.525
 323  4908.955
 324  4897.513
 325  4632.084
 326  4438.282
 327  4407.62
 328  4680.885
 329  4693.479
 330  4590.936
 331  4543.243
 332  4613.618
 333  4752.773
 334  4721.046
 335  4687.605
 336  4751.055
 337  4784.864
 338  4819.085
 339  4848.606
 340  4844.451
 341  4998.421
 342  5015.347
 343  5091.829
 344  5004.16
 345  4972.162
 346  5021.582
 347  4994.552
 348  5114.342
 349  5076.43
 350  4945.6
 351  4913.152
 352  4978.234
 353  4851.822
 354  4592.041
 355  4545.778
 356  4781.839
 357  4939.352
 358  4924.732
 359  4929.432
 360  5050.173
 361  5041.837
 362  4995.408
 363  4662.929
 364  4718.18
 365  4756.192
 366  4765.886
 367  4713.282
 368  4662.313
 369  4888.3
 370  4989.306
 371  4854.707
 372  4944.179
 373  4997.252
 374  4952.676
 375  4769.98
 376  4734.538
 377  4832.271
 378  4949.96
 379  4963.25
 380  4983.148
 381  4792.56
 382  4604.511
 383  4494.822
 384  4502.91
 385  4669.67
 386  4620.191
 387  4616.687
 388  4675.77
 389  4983.851
 390  5045.734
 391  4911.86
 392  4559.115
 393  4421.298
 394  4460.562
 395  4487.618
 396  4623.818
 397  4591.656
 398  4638.603
 399  4642.161
 400  4589.942
 401  4630.933
 402  4564.787
 403  4709.39
 404  4879.942
 405  5097.078
 406  4900.662
 407  4557.132
 408  4449.045
 409  4745.127
 410  4774.84
 411  4715.036
 412  4620.355
 413  4731.251
 414  4814.426
 415  4850.811
 416  4770.675
 417  4826.028
 418  4637.882
 419  4614.769
 420  4698.865
 421  4730.082
 422  4635.981
 423  4566.705
 424  4684.748
 425  4717.758
 426  4624.398
 427  4539.724
 428  4497.449
 429  4584.337
 430  4543.121
 431  4429.017
 432  4311.709
 433  4526.069
 434  4940.476
 435  4917.606
 436  4763.149
 437  4566.756
 438  4624.024
 439  4518.306
 440  4452.256
 441  4386
 442  4534.429
 443  4748.16
 444  4843.525
 445  4873.184
 446  4886.697
 447  4868.454
 448  4603.73
 449  4406.337
 450  4701.366
 451  4987.461
 452  5149.539
 453  5012.58
 454  4835.116
 455  4708.725
 456  4756.355
 457  4783.074
 458  4787.149
 459  4645.812
 460  4599.682
 461  4779.452
 462  4967.253
 463  5198.517
 464  5192.202
 465  5227.736
 466  5188.619
 467  4919.579
 468  4615.434
 469  4379.578
 470  4368.734
 471  4521.275
 472  4638.769
 473  4687.31
 474  4889.358
 475  5005.927
 476  4845.575
 477  4650.233
 478  4622.778
 479  4737.849
 480  4682.227
 481  4701.69
 482  4764.264
 483  4587.216
 484  4494.394
 485  4438.817
 486  4636.641
 487  4885.143
 488  4950.637
 489  5080.052
 490  4966.655
 491  4968.642
 492  5145.28
 493  5302.362
 494  5299.562
 495  5288.848
 496  5180.31
 497  5091.875
 498  4879.166
 499  4889.641
 500  4994.777
 501  5166.536
 502  5139.06
 503  5102.208
 504  4832.816
 505  5023.583
 506  4969.92
 507  4981.468
 508  4884.284
 509  4908.062
 510  5022.603
 511  5041.33
 512  5003.219
 513  4932.307
 514  4923.146
 515  4846.363
 516  4902.569
 517  4708.851
 518  4723.159
 519  4755.207
 520  4874.826
 521  4865.871
 522  4808.366
 523  4963.851
 524  5179.94
 525  5248.205
 526  4929.367
 527  4645.566
 528  4524.263
 529  4779.755
 530  4827.383
 531  5037.002
 532  5012.209
 533  5019.815
 534  4762.079
 535  4713.079
 536  4830.298
 537  4883.381
 538  4944.166
 539  4781.452
 540  4741.761
 541  4676.092
 542  4665.06
 543  4705.731
 544  4792.394
 545  4984.291
 546  4769.331
 547  4695.052
 548  4712.667
 549  4941.456
 550  4944.534
 551  5012.301
 552  5278.762
 553  5254.235
 554  5155.755
 555  4891.699
 556  4824.636
 557  5011.461
 558  4977.013
 559  4910.324
 560  4942.401
 561  5042.793
 562  5033.99
 563  4914.308
 564  4901.071
 565  4990.77
 566  4979.308
 567  4941.766
 568  4927.091
 569  5025.032
 570  5110.799
 571  5127.43
 572  5031.514
 573  4947.267
 574  4848.758
 575  4808.412
 576  4696.213
 577  4751.392
 578  4760.149
 579  4866.827
 580  4716.346
 581  4864.789
 582  4786.534
 583  4604.282
 584  4373.366
 585  4328.752
 586  4463.725
 587  4538.397
 588  4491.408
 589  4580.179
 590  4588.55
 591  4634.403
 592  4478.571
 593  4503.133
 594  4504.462
 595  4474.98
 596  4428.639
 597  4437.676
 598  4391.803
 599  4448.537
 600  4511.03
 601  4620.973
 602  4831.728
 603  4891.099
 604  4984.695
 605  4841.432
 606  4790.708
 607  4789.46
 608  4738.793
 609  4894.621
 610  4900.31
 611  4905.181
 612  4643.75
 613  4728.553
 614  4939.024
 615  5288.282
 616  5177.531
 617  5137.75
 618  5057.158
 619  5022.935
 620  5026.044
 621  4819.285
 622  4845.55
 623  4861.006
 624  5130.239
 625  5198.054
 626  5170.618
 627  5052.862
 628  5318.665
 629  5449.453
 630  5427.662
 631  5255.658
 632  5251.596
 633  5031.762
 634  4803.029
 635  4808.299
 636  4783.181
 637  4632.667
 638  4709.753
 639  4913.772
 640  5037.474
 641  4972.324
 642  4985.228
 643  5167.507
 644  5220.715
 645  5120.77
 646  5132.209
 647  5038.133
 648  5118.219
 649  5005.1
 650  5067.854
 651  5165.242
 652  5123.511
 653  4955.235
 654  4649.408
 655  4467.454
 656  4432.647
 657  4442.318
 658  4639.29
 659  4776.465
 660  4694.365
 661  4665.295
 662  4660.447
 663  4583.932
 664  4516.867
 665  4503.267
 666  4418.621
 667  4680.652
 668  4785.456
 669  4710.437
 670  4252.459
 671  4156.401
 672  4359.677
 673  4489.266
 674  4545.636
 675  4640.735
 676  4679.903
 677  4844.769
 678  4671.567
 679  4656.362
 680  4520.154
 681  4658.557
 682  4807.596
 683  4880.603
 684  4633.467
 685  4521.491
 686  4577.139
 687  4667.999
 688  4683.501
 689  4592.34
 690  4655.863
 691  4614.822
 692  4608.02
 693  4578.34
 694  4521.446
 695  4519.951
 696  4516.321
 697  4469.902
 698  4192.726
 699  4038.696
 700  4356.257
 701  4592.428
 702  4604.942
 703  4536.793
 704  4707.021
 705  4751.178
 706  4503.583
 707  4343.876
 708  4454.719
 709  4500.826
 710  4708.877
 711  4762.548
 712  4759.332
 713  4609.581
 714  4691.863
 715  4685.202
 716  4589.186
 717  4515.208
 718  4580.224
 719  4637.034
 720  4753.188
 721  4680.003
 722  4658.968
 723  4521.434
 724  4828.357
 725  4910.537
 726  4895.353
 727  4573.495
 728  4482.672
 729  4696.343
 730  4833.665
 731  4748.716
 732  4746.96
 733  4634.997
 734  4656.493
 735  4612.319
 736  4570.739
 737  4403.643
 738  4464.872
 739  4598.427
 740  4770.716
 741  4624.788
 742  4560.722
 743  4527.624
 744  4602.458
 745  4871.013
 746  4893.57
 747  4791.718
 748  4674.505
 749  4634.78
 750  4716.952
 751  4621.569
 752  4536.16
 753  4566.612
 754  4664.495
 755  4632.581
 756  4663.037
 757  4892.367
 758  5082.598
 759  5084.569
 760  4967.021
 761  5079.531
 762  5086.91
 763  5054.394
 764  4967.763
 765  4930.359
 766  4976.284
 767  4955.793
 768  4934.208
 769  4856.892
 770  4728.755
 771  4650.565
 772  4865.455
 773  4927.286
 774  4949.106
 775  4910.446
 776  4794.375
 777  4720.652
 778  4721.943
 779  4868.708
 780  4806.91
 781  4798.101
 782  4965.09
 783  5092.473
 784  4871.127
 785  4688.394
 786  4776.115
 787  5074.108
 788  5100.558
 789  4944.675
 790  4846.261
 791  4907.382
 792  4865.181
 793  4762.289
 794  4892.197
 795  4883.469
 796  4934.915
 797  4719.454
 798  4794.541
 799  4859.421
 800  4989.844
 801  4985.317
 802  5034.155
 803  5131.225
 804  5096.585
 805  5080.723
 806  5096.628
 807  5100.954
 808  4899.093
 809  4811.411
 810  4937.327
 811  5187.128
 812  5067.618
 813  4727.755
 814  4384.423
 815  4302.707
 816  4422.104
 817  4410.701
 818  4655.155
 819  4709.97
 820  4713.669
 821  4690.502
 822  4578.228
 823  4514.609
 824  4437.208
 825  4682.67
 826  4867.265
 827  4811.892
 828  4657.9
 829  4813.789
 830  4814.689
 831  4928.847
 832  4833.949
 833  4862.334
 834  4768.125
 835  4809.797
 836  4989.233
 837  5003.196
 838  5090.979
 839  5084.375
 840  5065.603
 841  4911.387
 842  4643.401
 843  4663.45
 844  4768.401
 845  4984.256
 846  4796.804
 847  4769.221
 848  4581.741
 849  4711.013
 850  4752.519
 851  4914.002
 852  4810.656
 853  4804.479
 854  4909.574
 855  4873.103
 856  4749.49
 857  4602.194
 858  4736.093
 859  4836.974
 860  4860.192
 861  4890.673
 862  4840.783
 863  4831.446
 864  4853.06
 865  5090.797
 866  5055.62
 867  5095.747
 868  5203.603
 869  5209.236
 870  5091.967
 871  4710.235
 872  4750.063
 873  4881.507
 874  4980.873
 875  4961.86
 876  4822.418
 877  4851.7
 878  4783.293
 879  4740.357
 880  4818.491
 881  4758.863
 882  4704.774
 883  4827.241
 884  5051.636
 885  5018.435
 886  4854.966
 887  4686.791
 888  4786.694
 889  4802.031
 890  4637.825
 891  4720.204
 892  4764.212
 893  4826.714
 894  4871.92
 895  4715.993
 896  4787.29
 897  4669.389
 898  4592.914
 899  4698.408
 900  4504.544
 901  4581.214
 902  4711.418
 903  4824.098
 904  4903.685
 905  4817.754
 906  4989.854
 907  5227.063
 908  5260.638
 909  5196.575
 910  5002.059
 911  5057.803
 912  5096.716
 913  5001.005
 914  4736.742
 915  4700.476
 916  4697.013
 917  4912.282
 918  4759.305
 919  4781.363
 920  4867.561
 921  4926.733
 922  4914.998
 923  4978.643
 924  4904.589
 925  4891.028
 926  4801.555
 927  4719.688
 928  4402.46
 929  4439.39
 930  4507.047
 931  4662.415
 932  4607.258
 933  4675.798
 934  4752.104
 935  4837.231
 936  4765.416
 937  4640.668
 938  4633.185
 939  4855.32
 940  4844.506
 941  4830.264
 942  4809.561
 943  4801.415
 944  4775.277
 945  4822.16
 946  4940.579
 947  4956.209
 948  5026.435
 949  4921.987
 950  4898.195
 951  4848.313
 952  4837.576
 953  4938.128
 954  5031.602
 955  5023.092
 956  4972.365
 957  4706.973
 958  4700.948
 959  4642.484
 960  4704.214
 961  4919.082
 962  5093.831
 963  5312.562
 964  5303.37
 965  5075.022
 966  5186.973
 967  5199.812
 968  5158.462
 969  5074.409
 970  5029.583
 971  4949.035
 972  4975.564
 973  4896.19
 974  4970.741
 975  5083.492
 976  5122.277
 977  5150.37
 978  5143.527
 979  5293.18
 980  5392.133
 981  5162.088
 982  5123.686
 983  4979.837
 984  5028.689
 985  4745.17
 986  4535.92
 987  4685.554
 988  4892.946
 989  5000.44
 990  4971.737
 991  4987.999
 992  4928.161
 993  5036.114
 994  5092.391
 995  5077.667
 996  4822.3
 997  4771.86
 998  4699.44
 999  4618.592
1000  4490.21
1001  4556.463
1002  4638.688
1003  4962.233
1004  5042.271
1005  4995.489
1006  4841.306
1007  4827.341
1008  4803.834
1009  4857.15
1010  4764.911
1011  4866.812
1012  4699.554
1013  4843.347
1014  4667.948
1015  4673.605
1016  4533.911
1017  4489.71
1018  4665.396
1019  5007.883
1020  5113.529
1021  5159.266
1022  5209.781
1023  5314.979
