# Input file       =  1195832188.113894_cleaned.dat
# Candidate        =  PSR_0332+5434
# Telescope        =  AR
# Epoch_topo       =  58084.650545299701
# Epoch_bary       =  N/A
# T_sample         =  0.002
# Data Folded      =  7208960
# Data Avg         =  0.269733371867119
# Data StdDev      =  10.8381336525375 
# Profile Bins     =  1024
# Profile Avg      =  1898.8812839553  
# Profile StdDev   =  909.370437794562 
# Reduced chi-sqr  =  0.312
# Prob(Noise)      <  1   (~0.0 sigma)
# P_topo (ms)      =  714.522201499049  +/- 0.0177
# P'_topo (s/s)    =  -0                +/- 1.92e-08
# P''_topo (s/s^2) =  0                 +/- 8.55e-12
# P_bary (ms)      =  N/A
# P'_bary (s/s)    =  N/A
# P''_bary (s/s^2) =  N/A
# P_orb (s)        =  N/A
# asin(i)/c (s)    =  N/A
# eccentricity     =  N/A
# w (rad)          =  N/A
# T_peri           =  N/A
######################################################
   0  2165.241
   1  2259.956
   2  2166.982
   3  1750.193
   4  1769.24
   5  1667.625
   6  1828.016
   7  1981.078
   8  2003.552
   9  1922.021
  10  1879.763
  11  1813.708
  12  1698.081
  13  1390.792
  14  1459.868
  15  1513.723
  16  1552.088
  17  1688.802
  18  1614.498
  19  1679.963
  20  1743.487
  21  2024.313
  22  1925.812
  23  1685.301
  24  1600.219
  25  1657.924
  26  1823.768
  27  2074.179
  28  2213.05
  29  2182.101
  30  2277.039
  31  2325.177
  32  2314.19
  33  2152.498
  34  2223.364
  35  2179.023
  36  2014
  37  1924.2
  38  1886.396
  39  1984.257
  40  1759.979
  41  1535.513
  42  1581.754
  43  1787.322
  44  2034.277
  45  2043.191
  46  1952.703
  47  1732.296
  48  1865.917
  49  1958.713
  50  1883.435
  51  1810.824
  52  2008.278
  53  2162.081
  54  2033.554
  55  2102.985
  56  2118.191
  57  1866.016
  58  2045.343
  59  2353.239
  60  2327.135
  61  1840.634
  62  1465.294
  63  1622.517
  64  1834.757
  65  1806.227
  66  1993.065
  67  2213.653
  68  2414.184
  69  2081.07
  70  1974.288
  71  1968.246
  72  1977.483
  73  1982.801
  74  1830.281
  75  1585.401
  76  1486.786
  77  1807.007
  78  1907.854
  79  1799.384
  80  1647.048
  81  1859.947
  82  1930.422
  83  1795.16
  84  1750.571
  85  1871.174
  86  1911.611
  87  1835.631
  88  1754.033
  89  1848.222
  90  2155.453
  91  2314.682
  92  2176.333
  93  2192.022
  94  2166.863
  95  2103.469
  96  1999.346
  97  2001.452
  98  1926.977
  99  1734.749
 100  1683.138
 101  1945.538
 102  1909.248
 103  1959.453
 104  2007.334
 105  2153.325
 106  2005.426
 107  1755.809
 108  1531.421
 109  1638.058
 110  1978.317
 111  2323.503
 112  2419.119
 113  2544.516
 114  2512.275
 115  2419.717
 116  2246.185
 117  2303.771
 118  1925.19
 119  2039.41
 120  2019.781
 121  2068.046
 122  1680.069
 123  1741.067
 124  1791.966
 125  1865.798
 126  1978.56
 127  2189.205
 128  2267.088
 129  2127.246
 130  2127.998
 131  2199.708
 132  1849.29
 133  1602.023
 134  1604.384
 135  1728.673
 136  1878.856
 137  1886.049
 138  2251.86
 139  2066.046
 140  1964.67
 141  1946.983
 142  2083.727
 143  2024.47
 144  2096.329
 145  2179.645
 146  2163.807
 147  1996.367
 148  1962.605
 149  1991.555
 150  1931.489
 151  1748.384
 152  1989.815
 153  2042.989
 154  1956.109
 155  1923.965
 156  1838.41
 157  1836.019
 158  2080.677
 159  2285.865
 160  2637.829
 161  2294.889
 162  2038.381
 163  1848.551
 164  1510.091
 165  1516.453
 166  1458.824
 167  1592.798
 168  1683.719
 169  1710.341
 170  1825.647
 171  2032.938
 172  2294.455
 173  2446.763
 174  2456.084
 175  2347.941
 176  2148.318
 177  1743.914
 178  1570.399
 179  1674.023
 180  1380.965
 181  1410.112
 182  1334.412
 183  1551.225
 184  1500.549
 185  1578.416
 186  1662.943
 187  1854.318
 188  1775.212
 189  1970.636
 190  1929.034
 191  1791.87
 192  1554.947
 193  1658.379
 194  1645.188
 195  1385.388
 196  1132.827
 197  1315.422
 198  1458.962
 199  1607.567
 200  1758.029
 201  1937.085
 202  2007.038
 203  2013.253
 204  1735.912
 205  1747.551
 206  1722.441
 207  1661.319
 208  1369.022
 209  1545.385
 210  1835.534
 211  1917.562
 212  1609.155
 213  1470.685
 214  1450.137
 215  1506.442
 216  1608.645
 217  1866.063
 218  2023.305
 219  2112.156
 220  1949.321
 221  1921.569
 222  1998.246
 223  1828.042
 224  1708.147
 225  1702.974
 226  1686.701
 227  1746.751
 228  1649.585
 229  1864.018
 230  2051.199
 231  2142.729
 232  2002.25
 233  1765.704
 234  1688.117
 235  1897.716
 236  2070.213
 237  1896.745
 238  1725.047
 239  1533.164
 240  1527.037
 241  1712.872
 242  1721.032
 243  2012.594
 244  1958.605
 245  1972.331
 246  1964.48
 247  1894.966
 248  1787.432
 249  2043.544
 250  1926.93
 251  2059.217
 252  2125.198
 253  2360.415
 254  2280.128
 255  2135.56
 256  1846.191
 257  1865.842
 258  1790.577
 259  1744.923
 260  1570.017
 261  1588.473
 262  1696.685
 263  1446.919
 264  1342.506
 265  1530.549
 266  1752.76
 267  2023.802
 268  1794
 269  1732.026
 270  1566.354
 271  1583.933
 272  1501.955
 273  1511.814
 274  1492.791
 275  1595.855
 276  1447.801
 277  1271.003
 278  1573.602
 279  1997.252
 280  1813.409
 281  1764.521
 282  1843.966
 283  2103.823
 284  1944.781
 285  2110.087
 286  2092.385
 287  2198.476
 288  2126.045
 289  2218.031
 290  2008.786
 291  1965.431
 292  2197.061
 293  2369.024
 294  2227.501
 295  2141.171
 296  2253.713
 297  2397.937
 298  2244.545
 299  2020.346
 300  1816.104
 301  1712.399
 302  1463.664
 303  1499.195
 304  1506.638
 305  1766.047
 306  1880.575
 307  1976.438
 308  2159.058
 309  2095.757
 310  1983.586
 311  1831.645
 312  1833.341
 313  1855.896
 314  1948.118
 315  2018.776
 316  2187.232
 317  2309.861
 318  2070.072
 319  1828.661
 320  1811.105
 321  2039.488
 322  2228.075
 323  2041.25
 324  1904.898
 325  2186.493
 326  2408.17
 327  2600.429
 328  2173.408
 329  1854.095
 330  1685.739
 331  1697.6
 332  1784.905
 333  1556.763
 334  1620.809
 335  1769.457
 336  1990.874
 337  2077.372
 338  2007.639
 339  1976.387
 340  2095.191
 341  2259.864
 342  2229.704
 343  2203.951
 344  2202.758
 345  2113.949
 346  2063.197
 347  1765.445
 348  1726.054
 349  1655.118
 350  1793.509
 351  1969.651
 352  1715.59
 353  1775.077
 354  1914.24
 355  2084.946
 356  1991.639
 357  1946.613
 358  1988.784
 359  2017.978
 360  1944.624
 361  1774.452
 362  1459.818
 363  1592.854
 364  1854.048
 365  2144.319
 366  2104.229
 367  2196.71
 368  2141.85
 369  2219.53
 370  2003.789
 371  1828.873
 372  1564.751
 373  1577.413
 374  1749.071
 375  1739.972
 376  1618.266
 377  1476.97
 378  1639.09
 379  1757.403
 380  1709.548
 381  1777.439
 382  1933.928
 383  2175.634
 384  2041.776
 385  1804.936
 386  1836.116
 387  1718.147
 388  1760.939
 389  2020.104
 390  2383.696
 391  2624.322
 392  2583.064
 393  2464.528
 394  2485.717
 395  2304.656
 396  2369.855
 397  2374.645
 398  2360.159
 399  2198.934
 400  2220.308
 401  2116.793
 402  2186.771
 403  2007.752
 404  1907.201
 405  1795.344
 406  1568.727
 407  1678.632
 408  1959.359
 409  1938.163
 410  1932.339
 411  1839.525
 412  2141.832
 413  1980.358
 414  1852.115
 415  2021.843
 416  2095.772
 417  2040.592
 418  1849.006
 419  1849.12
 420  1658.498
 421  1841.06
 422  1980.298
 423  2099.251
 424  2161.563
 425  2148.759
 426  2167.955
 427  1993.359
 428  1955.46
 429  1922.744
 430  1824.323
 431  1762.775
 432  1755.586
 433  1649.573
 434  1552.406
 435  1335.962
 436  1540.28
 437  1707.259
 438  1570.424
 439  1541.689
 440  1547.365
 441  1775.952
 442  1832.684
 443  1736.194
 444  1728.564
 445  1721.091
 446  2103.598
 447  2217.71
 448  2088.873
 449  1911.015
 450  2036.538
 451  2380.222
 452  2353.404
 453  1994.305
 454  1763.428
 455  1785.4
 456  1728.351
 457  1593.199
 458  1612.931
 459  1828.945
 460  1953.981
 461  1857.991
 462  1787.932
 463  1579.15
 464  1926.886
 465  2072.628
 466  2148.748
 467  1835.534
 468  1681.568
 469  1815.359
 470  1943.151
 471  1962.017
 472  1971.85
 473  1887.637
 474  1754.195
 475  1678.286
 476  1740.421
 477  1877.405
 478  2031.405
 479  2237.584
 480  2125.906
 481  1829.752
 482  1647.759
 483  1529.391
 484  1499.934
 485  1499.512
 486  1705.469
 487  1483.125
 488  1578.298
 489  1623.674
 490  1629.157
 491  1930.064
 492  1785.089
 493  1995.93
 494  1870.801
 495  1885.682
 496  1756.577
 497  1809.95
 498  1766.285
 499  1558.683
 500  1290.028
 501  1544.832
 502  1671.271
 503  1615.387
 504  1577.664
 505  1410.291
 506  1460.734
 507  1684.395
 508  1651.664
 509  1682.36
 510  1833.402
 511  1894.492
 512  2146.711
 513  2035.108
 514  1805.193
 515  1763.31
 516  1770.041
 517  2045.116
 518  1983.112
 519  2018.144
 520  1777.394
 521  1685.432
 522  1632.067
 523  1881.247
 524  1764.637
 525  1931.771
 526  2129.182
 527  2245.673
 528  2371.066
 529  2271.181
 530  2069.369
 531  2074.87
 532  1983.477
 533  2182.084
 534  2123.982
 535  2083.576
 536  1909.624
 537  2030.813
 538  1919.437
 539  1807.913
 540  1345.91
 541  1444.613
 542  1514.547
 543  2018.061
 544  1965.504
 545  2004.536
 546  2195.805
 547  2358.803
 548  2103.672
 549  1889.459
 550  1878.46
 551  1969.683
 552  1917.511
 553  2016.159
 554  2127.446
 555  2289.015
 556  2425.888
 557  2404.724
 558  2385.573
 559  2363.187
 560  2348.705
 561  2217.841
 562  2020.42
 563  1801.655
 564  1904.376
 565  1878.347
 566  2200.154
 567  2198.339
 568  2165.106
 569  1974.738
 570  1903.203
 571  1918.344
 572  1847.602
 573  1701.652
 574  2078.603
 575  2232.497
 576  2104.912
 577  1832.122
 578  1785.356
 579  1914.693
 580  1906.952
 581  1753.268
 582  1660.13
 583  1562.285
 584  1660.851
 585  1875.981
 586  1816.847
 587  1667.346
 588  1665.793
 589  1700.637
 590  1787.741
 591  1813.91
 592  1599.672
 593  1612.005
 594  1555.218
 595  1735.065
 596  1810.581
 597  1471.565
 598  1658.568
 599  1654.76
 600  1889.36
 601  1807.165
 602  1712.461
 603  1823.846
 604  1770.123
 605  1739.403
 606  1620.907
 607  1324.632
 608  1206.394
 609  1354.599
 610  1417.606
 611  1265.608
 612  1238.445
 613  1517.92
 614  1891.298
 615  2093.15
 616  1945.22
 617  2222.341
 618  2090.83
 619  2121.391
 620  1752.501
 621  1906.863
 622  2125.085
 623  2212.478
 624  2291.5
 625  2283.57
 626  2050.141
 627  2111.074
 628  2274.258
 629  2429.694
 630  2299.894
 631  2314.393
 632  2742.07
 633  2623.572
 634  2079.957
 635  1795.817
 636  1907.32
 637  1897.604
 638  1417.652
 639  1317.201
 640  1205.599
 641  1173.932
 642  1318.51
 643  1340.27
 644  1369.858
 645  1294.426
 646  1742.409
 647  1759.284
 648  1490.474
 649  1312.514
 650  1550.533
 651  1695.975
 652  1674.595
 653  1781.79
 654  1717.049
 655  1586.007
 656  1654.883
 657  2015.56
 658  2163.982
 659  1742.965
 660  1947.424
 661  2083.209
 662  2021.668
 663  1840.498
 664  1660.369
 665  1699.832
 666  1674.782
 667  1639.004
 668  1606.489
 669  1667.639
 670  1991.012
 671  1990.949
 672  1982.761
 673  2068.312
 674  2097.671
 675  1977.657
 676  2073.074
 677  1934.473
 678  1930.085
 679  2087.438
 680  2221.68
 681  2202.782
 682  2215.186
 683  2364.653
 684  2578.1
 685  2498.677
 686  2514.65
 687  2759.032
 688  2845.742
 689  2901.912
 690  2821.701
 691  2759.557
 692  2517.595
 693  2067.573
 694  1856.086
 695  2005.071
 696  1993.428
 697  1917.517
 698  1547.259
 699  1510.601
 700  1887.273
 701  2125.232
 702  2092.875
 703  2198.23
 704  2135.593
 705  2149.165
 706  2037.378
 707  2099.471
 708  2217.547
 709  2276.985
 710  2380.477
 711  2490.774
 712  2325.887
 713  2296.187
 714  2077.772
 715  1969.882
 716  1846.736
 717  2092.934
 718  2128.317
 719  2114.62
 720  1841.894
 721  1764.885
 722  1681.618
 723  1640.042
 724  1783.898
 725  1799.956
 726  1930.778
 727  2114.927
 728  2109.344
 729  1988.006
 730  1800.383
 731  1611.958
 732  1558.232
 733  1582.776
 734  1674.917
 735  1868.616
 736  1807.715
 737  1890.289
 738  2127.508
 739  2423.615
 740  2434.016
 741  2498.352
 742  2432.886
 743  2480.01
 744  2322.771
 745  2174.15
 746  2291.637
 747  2052.151
 748  1991.379
 749  1724.066
 750  1720.179
 751  1633.251
 752  1730.569
 753  1645.985
 754  1800.495
 755  1910.091
 756  2091.622
 757  2284.587
 758  2406.937
 759  2303.387
 760  2191.649
 761  2004.666
 762  2249.302
 763  2016.796
 764  2103.854
 765  2222.984
 766  2258.531
 767  2222.647
 768  2015.415
 769  1853.484
 770  1712.157
 771  1570.504
 772  1586.079
 773  1440.176
 774  1516.764
 775  1608.608
 776  1835.98
 777  1774.185
 778  1827.43
 779  1762.631
 780  1800.901
 781  1868.372
 782  1867.788
 783  1779.675
 784  1620.203
 785  1688.709
 786  1736.618
 787  1710.496
 788  1371.099
 789  1634.202
 790  1694.732
 791  1731.878
 792  1626.653
 793  1815.794
 794  1998.405
 795  1891.438
 796  1970.973
 797  1744.384
 798  1513.868
 799  1387.676
 800  1513.396
 801  1351.504
 802  1448.185
 803  1791.27
 804  2078.22
 805  1960.475
 806  1841.395
 807  1967.007
 808  1955.548
 809  1775.338
 810  1480.95
 811  1638.916
 812  1594.98
 813  1662.34
 814  1511.469
 815  1557.231
 816  1635.786
 817  1677.26
 818  1728.493
 819  1765.267
 820  1494.98
 821  1467.471
 822  1501.554
 823  1701.87
 824  1868.464
 825  1860.821
 826  1433.637
 827  1309.311
 828  1273.721
 829  1648.541
 830  1825.571
 831  1827.069
 832  1748.375
 833  1731.713
 834  1400.031
 835  1419.129
 836  1033.361
 837  1279.352
 838  1610.779
 839  1822.463
 840  1851.804
 841  1636.835
 842  1864.777
 843  2116.634
 844  1922.859
 845  1711.674
 846  1733.674
 847  1626.504
 848  1470.339
 849  1329.411
 850  1445.132
 851  1509.586
 852  1668.946
 853  2060.14
 854  2387.28
 855  2291.763
 856  2238.338
 857  2107.987
 858  2145.653
 859  2233.964
 860  2110.962
 861  2112.528
 862  1998.48
 863  1964.637
 864  1875.566
 865  1522.509
 866  1464.116
 867  1505.883
 868  1651.549
 869  1635.945
 870  1642.122
 871  1838.302
 872  1847.074
 873  1866.955
 874  1899.139
 875  2009.99
 876  2023.685
 877  2314.058
 878  2331.734
 879  2175.5
 880  2051.693
 881  2120.833
 882  2205.827
 883  2088.375
 884  1865.596
 885  1930.314
 886  1908.725
 887  1912.657
 888  1799.303
 889  1826.02
 890  1997.236
 891  2155.823
 892  2360.708
 893  1977.636
 894  1768.605
 895  1529.499
 896  1683.478
 897  1720.434
 898  1552.642
 899  1693.795
 900  2025.027
 901  2019.202
 902  2259.914
 903  2224.158
 904  2215.234
 905  1774.379
 906  1704.696
 907  1774.316
 908  1919.35
 909  2053.931
 910  2517.169
 911  2626.283
 912  2228.57
 913  2024.902
 914  2030.398
 915  2265
 916  2408.759
 917  2272.278
 918  2209.633
 919  2176.746
 920  2314.394
 921  2206.302
 922  1817.879
 923  1793.937
 924  1977.892
 925  1686.189
 926  1512.453
 927  1570.652
 928  1967.326
 929  2149.374
 930  1949.033
 931  1854.775
 932  1773.638
 933  1737.396
 934  1742.444
 935  1786.184
 936  1920.462
 937  1849.246
 938  1881.656
 939  1905.643
 940  1888.774
 941  1694.404
 942  1807.435
 943  1841.965
 944  1850.139
 945  1730.249
 946  1958.719
 947  1999.658
 948  2022.821
 949  1905.304
 950  1836.275
 951  1806.859
 952  1530.726
 953  1712.516
 954  1682.713
 955  1613.443
 956  1598.335
 957  1421.122
 958  1389.579
 959  1382.499
 960  1703.801
 961  1881.078
 962  1918.807
 963  1828.157
 964  1813.595
 965  1700.397
 966  1636.789
 967  1700.471
 968  1619.929
 969  1674.122
 970  1443.925
 971  1471.603
 972  1611.11
 973  1791.986
 974  1691.767
 975  1803.382
 976  2110.826
 977  2168.484
 978  1979.546
 979  1682.2
 980  1930.547
 981  2027.482
 982  2029.172
 983  1868.863
 984  1895.636
 985  1987.229
 986  2083.655
 987  2053.654
 988  1849.181
 989  1750.566
 990  1898.908
 991  2002.979
 992  1857.223
 993  2035.315
 994  2091.453
 995  2335.211
 996  2232.095
 997  2235.23
 998  2113.223
 999  2080.496
1000  2223.304
1001  2202.367
1002  2201.082
1003  2165.833
1004  2364.314
1005  2408.703
1006  2221.652
1007  2237.852
1008  2136.475
1009  2225.754
1010  2194.667
1011  2088.15
1012  1984.184
1013  1903.293
1014  2002.687
1015  2330.802
1016  2169.935
1017  2278.408
1018  2345.477
1019  2669.463
1020  2464.952
1021  2140.62
1022  1867.976
1023  1932.943
