# Input file       =  1195573752.099748_cleaned.dat
# Candidate        =  PSR_0332+5434
# Telescope        =  AR
# Epoch_topo       =  58081.659387728563
# Epoch_bary       =  N/A
# T_sample         =  0.002
# Data Folded      =  7143424
# Data Avg         =  0.238636494376013
# Data StdDev      =  9.07675368155552 
# Profile Bins     =  1024
# Profile Avg      =  1664.78523430604 
# Profile StdDev   =  758.112724330576 
# Reduced chi-sqr  =  0.377
# Prob(Noise)      <  1   (~0.0 sigma)
# P_topo (ms)      =  714.519099983143  +/- 3.05e-05
# P'_topo (s/s)    =  -0                +/- 1.66e-11
# P''_topo (s/s^2) =  0                 +/- 7.51e-15
# P_bary (ms)      =  N/A
# P'_bary (s/s)    =  N/A
# P''_bary (s/s^2) =  N/A
# P_orb (s)        =  N/A
# asin(i)/c (s)    =  N/A
# eccentricity     =  N/A
# w (rad)          =  N/A
# T_peri           =  N/A
######################################################
   0  1159.232
   1  1378.753
   2  1600.644
   3  1753.71
   4  1652.099
   5  1565.085
   6  1490.318
   7  1508.334
   8  1528.92
   9  1584.767
  10  1525.482
  11  1789.492
  12  1984.73
  13  2079.091
  14  1612.748
  15  1491.53
  16  1750.299
  17  2187.754
  18  1971.726
  19  1626.011
  20  1510.735
  21  1618.884
  22  1596.077
  23  1625.962
  24  1727.742
  25  2000.118
  26  2012.779
  27  1804.841
  28  1624.868
  29  1673.57
  30  1740.522
  31  1699.028
  32  1536.391
  33  1541.931
  34  1572.49
  35  1645.133
  36  1398.45
  37  1304.562
  38  1309.708
  39  1564.856
  40  1643.143
  41  1649.892
  42  1679.251
  43  1724.475
  44  1712.508
  45  1825.509
  46  1962.173
  47  1871.328
  48  1718.028
  49  1713.199
  50  1633.553
  51  1370.774
  52  1303.282
  53  1545.695
  54  1776.348
  55  1628.241
  56  1821.901
  57  1456.636
  58  1641.035
  59  1820.397
  60  2028.043
  61  1957.322
  62  1789.23
  63  1596.295
  64  1300.579
  65  908.6097
  66  964.6279
  67  1167.903
  68  1684.057
  69  1612.667
  70  1622.63
  71  1310.108
  72  1339.225
  73  1450.284
  74  1856.281
  75  2058.745
  76  1979.812
  77  1993.395
  78  2014.147
  79  1784.737
  80  1716.594
  81  1601.75
  82  1796.288
  83  1845.87
  84  1885.25
  85  1640.799
  86  1439.889
  87  1334.663
  88  1496.625
  89  1553.416
  90  1893.404
  91  1959.284
  92  1800.023
  93  1573.482
  94  1525.534
  95  1697.127
  96  1759.322
  97  1968.041
  98  2042.431
  99  2078.453
 100  1904.278
 101  1978.752
 102  1985.798
 103  2039.979
 104  1926.602
 105  1820.928
 106  1595
 107  1662.176
 108  1578.713
 109  1702.557
 110  1743.706
 111  1917.944
 112  1990.2
 113  1795.577
 114  1504.714
 115  1475.903
 116  1642.542
 117  1917.53
 118  2174.547
 119  2217.431
 120  2008.263
 121  1873.351
 122  1770.034
 123  1964.208
 124  2048.956
 125  2055.84
 126  2039.005
 127  1877.671
 128  1800.339
 129  1609.769
 130  1565.273
 131  1765.259
 132  1866.369
 133  1905.459
 134  1911.691
 135  1573.72
 136  1543.937
 137  1498.166
 138  1586.044
 139  1620.318
 140  1574.104
 141  1494.289
 142  1412.28
 143  1194.843
 144  1297.593
 145  1249.741
 146  1514.127
 147  1615.423
 148  1755.532
 149  1729.085
 150  1727.212
 151  1717.163
 152  1610.03
 153  1657.88
 154  1683.889
 155  1796.715
 156  1658.281
 157  1359.603
 158  1175.259
 159  1216.346
 160  1640.521
 161  1821.382
 162  1599.148
 163  1424.371
 164  1614.766
 165  1759.122
 166  1923.708
 167  1730.225
 168  2032.084
 169  1891.622
 170  1642.276
 171  1210.975
 172  1051.253
 173  1251.338
 174  1483.752
 175  1633.53
 176  1656.802
 177  1547.714
 178  1398.962
 179  1232.151
 180  1179.405
 181  1182.851
 182  1436.098
 183  1461.503
 184  1322.623
 185  1293.577
 186  1271.502
 187  1393.716
 188  1501.47
 189  1777.133
 190  1911.487
 191  1995.267
 192  1986.309
 193  2118.986
 194  1874.101
 195  1628.396
 196  1633.937
 197  1872.147
 198  1859.148
 199  1498.121
 200  1299.754
 201  1456.984
 202  1375.103
 203  1471.455
 204  1511.393
 205  1635.754
 206  1787.955
 207  1682.75
 208  1453.73
 209  1406.283
 210  1335.144
 211  1463.075
 212  1377.274
 213  1370.943
 214  1449.915
 215  1340.449
 216  1489.233
 217  1604.744
 218  1859.714
 219  1620.916
 220  1425.65
 221  1352.883
 222  1601.076
 223  1823.774
 224  1878.863
 225  2120.411
 226  2206.895
 227  1988.338
 228  1773.341
 229  1421.305
 230  1646.792
 231  1503.759
 232  1725.714
 233  1821.176
 234  1988.051
 235  1783.832
 236  1816.698
 237  1534.419
 238  1466.88
 239  1432.398
 240  1689.046
 241  1591.977
 242  1359.344
 243  1201.232
 244  1217.191
 245  1219.488
 246  1612.529
 247  1907.374
 248  1774.469
 249  1648.549
 250  1792.866
 251  1956.571
 252  1921.894
 253  1912.779
 254  2121.448
 255  2118.927
 256  2111.882
 257  1911.686
 258  1855.21
 259  1539.89
 260  1575.48
 261  1735.298
 262  1777.311
 263  1789.22
 264  1461.032
 265  1601.168
 266  1723.036
 267  1808.337
 268  1572.119
 269  1334.82
 270  1352.745
 271  1392.879
 272  1322.953
 273  1188.733
 274  1299.415
 275  1488.458
 276  1601.951
 277  1512.409
 278  1630.367
 279  1928.683
 280  2029.311
 281  1905.337
 282  1774.564
 283  1764.163
 284  1641.397
 285  1577.877
 286  1448.503
 287  1610.578
 288  1715.237
 289  1970.718
 290  2014.263
 291  2048.307
 292  2055.988
 293  1887.486
 294  1810.793
 295  1981.409
 296  1961.465
 297  1806.166
 298  1822.618
 299  1871.341
 300  1958.153
 301  1792.109
 302  1750.081
 303  1923.988
 304  2054.891
 305  1984.269
 306  1777.911
 307  1542.88
 308  1542.678
 309  1453.159
 310  1529.23
 311  1537.279
 312  1675.249
 313  1661.447
 314  1639.165
 315  1678.166
 316  1738.653
 317  1606.782
 318  1460.25
 319  1575.956
 320  1620.362
 321  1690.62
 322  1504.975
 323  1421.749
 324  1526.497
 325  1683.588
 326  1778.602
 327  1697.407
 328  1580.982
 329  1389.62
 330  1600.211
 331  1667.168
 332  1681.321
 333  1668.198
 334  1675.378
 335  1650.073
 336  1621.089
 337  1695.313
 338  1856.933
 339  1810.836
 340  1841.124
 341  1934.512
 342  1859.883
 343  1555.294
 344  1276.057
 345  1443.333
 346  1578.706
 347  1651.191
 348  1629.558
 349  1626.204
 350  1408.094
 351  1212.01
 352  1059.267
 353  1425.682
 354  1662.122
 355  1738.515
 356  1807.724
 357  1829.703
 358  1754.849
 359  1702.385
 360  1849.802
 361  1812.897
 362  1787.948
 363  1694.299
 364  1587.94
 365  1469.605
 366  1372.501
 367  1407.377
 368  1656.435
 369  1994.999
 370  2146.906
 371  2028.976
 372  1639.112
 373  1759.62
 374  1761.396
 375  1864.798
 376  1851.106
 377  1635.612
 378  1432.194
 379  1187.638
 380  1218.799
 381  1404.013
 382  1427.407
 383  1439.841
 384  1217.905
 385  1264.195
 386  1419.893
 387  1439.199
 388  1358.383
 389  1736.488
 390  2057.466
 391  2137.546
 392  1809.428
 393  1597.745
 394  1682.756
 395  1716.75
 396  1809.355
 397  1807.013
 398  1856.258
 399  1680.615
 400  1852.241
 401  1663.587
 402  1589.705
 403  1566.302
 404  1955.944
 405  2019.984
 406  1787.767
 407  1652.453
 408  1484.943
 409  1394.06
 410  1524.884
 411  1791.888
 412  1906.849
 413  1951.839
 414  2032.258
 415  1747.276
 416  1668.896
 417  1618.103
 418  2045.687
 419  2135.773
 420  1950.994
 421  1726.07
 422  1976.517
 423  2112.058
 424  2150.017
 425  1983.026
 426  2162.579
 427  2082.34
 428  1882.974
 429  1636.45
 430  1344.263
 431  1159.397
 432  1345.14
 433  1736.335
 434  1859.146
 435  1675.943
 436  1513.805
 437  1665.539
 438  1786.363
 439  1872.289
 440  1972.012
 441  2031.199
 442  2113.001
 443  2084.229
 444  1866.788
 445  1819.596
 446  1866.312
 447  2115.092
 448  1773.4
 449  1402.778
 450  1041.94
 451  1333.448
 452  1492.203
 453  1693.532
 454  1823.006
 455  2180.095
 456  2117.53
 457  1917.749
 458  1541.128
 459  1454.185
 460  1429.256
 461  1633.583
 462  1630.246
 463  1482.311
 464  1576.103
 465  1825.705
 466  1758.046
 467  1742.791
 468  1693.574
 469  1701.5
 470  1487.453
 471  1509.06
 472  1579.569
 473  1539.595
 474  1179.649
 475  1418.227
 476  1682.511
 477  1682.409
 478  1460.567
 479  1350.107
 480  1431.079
 481  1465.864
 482  1467.051
 483  1716.696
 484  1694.428
 485  1590.932
 486  1514.14
 487  1426.177
 488  1545.552
 489  1661.182
 490  1914.136
 491  1978.334
 492  1888.62
 493  1882.967
 494  1579.155
 495  1467.71
 496  1544.278
 497  1744.981
 498  1660.171
 499  1470.819
 500  1580.651
 501  1711.701
 502  1890.138
 503  2118.823
 504  2361.364
 505  2455.636
 506  2052.595
 507  1674.123
 508  1265.374
 509  1299.044
 510  1471.173
 511  1462.029
 512  1704.914
 513  1721.832
 514  1837.998
 515  1724.278
 516  1542.497
 517  1426.625
 518  1618.429
 519  1852.914
 520  1809.185
 521  1612.203
 522  1407.933
 523  1425.464
 524  1371.637
 525  1384.424
 526  1293.949
 527  1157.949
 528  1325.792
 529  1447.749
 530  1193.381
 531  1181
 532  1333.778
 533  1569.411
 534  1520.629
 535  1498.464
 536  1538.625
 537  1480.684
 538  1332.522
 539  1419.69
 540  1552.615
 541  1563.208
 542  1577.536
 543  1516.176
 544  1169.478
 545  944.2628
 546  962.3837
 547  1259.247
 548  1436.141
 549  1385.777
 550  1272.183
 551  1081.778
 552  1095.862
 553  1300.333
 554  1426.339
 555  1341.978
 556  1332.82
 557  1394.617
 558  1515.278
 559  1386.857
 560  1373.482
 561  1715.372
 562  2055.738
 563  1754.84
 564  1496.935
 565  1279.972
 566  1396.113
 567  1393.725
 568  1494.796
 569  1743.928
 570  1825.329
 571  1775.72
 572  1571.542
 573  1264.708
 574  1195.414
 575  1466.122
 576  1658.767
 577  1664.173
 578  1408.126
 579  1187.708
 580  1112.121
 581  1098.479
 582  1372.267
 583  1452.163
 584  1543.362
 585  1667.001
 586  1858.272
 587  1779.782
 588  1655.657
 589  1587.543
 590  1762.381
 591  1805.409
 592  1622.946
 593  1564.444
 594  1354.265
 595  1336.063
 596  1486.964
 597  1442.859
 598  1578.694
 599  1740.435
 600  1838.857
 601  1709.425
 602  1270.737
 603  1457.556
 604  1850.333
 605  1958.501
 606  1847.285
 607  1755.601
 608  1828.799
 609  1820.363
 610  1833.859
 611  1874.283
 612  1693.223
 613  1497.182
 614  1423.251
 615  1416.997
 616  1375.776
 617  1564.994
 618  1788.997
 619  2135.261
 620  1885.882
 621  1868.471
 622  1702.926
 623  1781.645
 624  1672.256
 625  1764.463
 626  2032.853
 627  2403.445
 628  2297.673
 629  2052.842
 630  1719.335
 631  1791.552
 632  1634.933
 633  1721.466
 634  1734.078
 635  1596.889
 636  1371.053
 637  1190.572
 638  1283.126
 639  1464.388
 640  1783.007
 641  1788.394
 642  1717.837
 643  1656.551
 644  1475.277
 645  1395.949
 646  1468.076
 647  1843.253
 648  2170.608
 649  2236.689
 650  2069.331
 651  1860.375
 652  1715.142
 653  1807.019
 654  1770.974
 655  1943.717
 656  1774.563
 657  1668.705
 658  1625.153
 659  1529.862
 660  1687.391
 661  1944.325
 662  2121.383
 663  2164.902
 664  1922.384
 665  1781.945
 666  1611.198
 667  1637.449
 668  1602.475
 669  1760.314
 670  1693.599
 671  1713.869
 672  1736.695
 673  1599.319
 674  1601.877
 675  1646.444
 676  2066.55
 677  2179.571
 678  2021.737
 679  1924.213
 680  1840.654
 681  1589.144
 682  1574.688
 683  1561.306
 684  1827.775
 685  1652.479
 686  1576.101
 687  1395.942
 688  1267.797
 689  1316.838
 690  1548.149
 691  1702.658
 692  1784.919
 693  1488.581
 694  1626.468
 695  1705.112
 696  1724.318
 697  1640.912
 698  1580.553
 699  1709.818
 700  1652.903
 701  1587.766
 702  1503.953
 703  1385.709
 704  1804.143
 705  1893.807
 706  1932.879
 707  1432.161
 708  1276.964
 709  1408.052
 710  1449.43
 711  1475.825
 712  1493.692
 713  1652.952
 714  1499.438
 715  1303.363
 716  1142.55
 717  1474.33
 718  1654.197
 719  1980.236
 720  2108.231
 721  2168.977
 722  1980.677
 723  1775.879
 724  1710.76
 725  1815.346
 726  1882.842
 727  1865.769
 728  1801.135
 729  1828.915
 730  1915.385
 731  1817.957
 732  1790.025
 733  2041.1
 734  2430.863
 735  2251.179
 736  2064.901
 737  1802.099
 738  1942.338
 739  2154.61
 740  2118.069
 741  2145.247
 742  2163.808
 743  1991.234
 744  1840.631
 745  1578.184
 746  1674.658
 747  1835.673
 748  1820.381
 749  1816.298
 750  1764.866
 751  1846.017
 752  2051.166
 753  2055.335
 754  2373.817
 755  2442.307
 756  2168.637
 757  1800.863
 758  1722.851
 759  1679.694
 760  1729.498
 761  1848.744
 762  2036.8
 763  1994.169
 764  1684.923
 765  1504.703
 766  1279.702
 767  1390.115
 768  1606.989
 769  1676.114
 770  1892.441
 771  1867.86
 772  1870.234
 773  1616.373
 774  1475.108
 775  1565.214
 776  1692.96
 777  1870.058
 778  1960.033
 779  1720.825
 780  1303.57
 781  1222.349
 782  1502.2
 783  1877.916
 784  1708.658
 785  1651.844
 786  1561.007
 787  1571.192
 788  1539.096
 789  1568.225
 790  1768.908
 791  2043.871
 792  2392.676
 793  2229.563
 794  1739.13
 795  1482.077
 796  1247.678
 797  1345.224
 798  1233.166
 799  1485.726
 800  1345.265
 801  1317.032
 802  1126.184
 803  1370.867
 804  1475.926
 805  1715.983
 806  1962.388
 807  2097.075
 808  1934.756
 809  1666.648
 810  1687.165
 811  1654.973
 812  1557.593
 813  1420.757
 814  1440.959
 815  1405.824
 816  1269.039
 817  1307.33
 818  1402.087
 819  1691.012
 820  1924.638
 821  1799.784
 822  1598.845
 823  1232.144
 824  1659.009
 825  1825.724
 826  1693.78
 827  1766.702
 828  1859.009
 829  1787.855
 830  1421.528
 831  1271.737
 832  1457.189
 833  1600.559
 834  1760.387
 835  1919.486
 836  1867.27
 837  1630.774
 838  1399.68
 839  1382.385
 840  1714.978
 841  2041.44
 842  2240.138
 843  2095.197
 844  1941.255
 845  1726.778
 846  1744.386
 847  1679.028
 848  1755.47
 849  1989.074
 850  1941.08
 851  1829.188
 852  1640.661
 853  1567.479
 854  1724.111
 855  1644.432
 856  1928.689
 857  1874.165
 858  1523.301
 859  1120.534
 860  1079.059
 861  1271.573
 862  1446.049
 863  1509.776
 864  1608.861
 865  1646.519
 866  1582.948
 867  1753.644
 868  1717.906
 869  1867.991
 870  1731.291
 871  1844.135
 872  1846.994
 873  1716.862
 874  1463.988
 875  1445.167
 876  1619.59
 877  1912.451
 878  1842.119
 879  1674.363
 880  1222.851
 881  1414.859
 882  1544.891
 883  1779.997
 884  1751.571
 885  1840.887
 886  1800.629
 887  1889.31
 888  1729.089
 889  1876.842
 890  1629.917
 891  1613.753
 892  1602.227
 893  1701.597
 894  1659.727
 895  1520.086
 896  1807.399
 897  1817.336
 898  1770.183
 899  1577.319
 900  1666.914
 901  1676.057
 902  1669.243
 903  1612.566
 904  1521.863
 905  1579.496
 906  1781.432
 907  1736.663
 908  1681.368
 909  1272.659
 910  1304.975
 911  1522.817
 912  1444.874
 913  1470.219
 914  1573.782
 915  1658.987
 916  1510.645
 917  1249.736
 918  1473.913
 919  1481.383
 920  1654.778
 921  1961.99
 922  2037.503
 923  1860.222
 924  1645.144
 925  1748.304
 926  1753.016
 927  1585.194
 928  1352.839
 929  1095.568
 930  1234.934
 931  1199.206
 932  1479.861
 933  1496.155
 934  1842.554
 935  1994.907
 936  1994.102
 937  1913.887
 938  1854.891
 939  1993.105
 940  2166.48
 941  2048.744
 942  2059.667
 943  1865.966
 944  1569.677
 945  1491.312
 946  1417.301
 947  1443.924
 948  1603.917
 949  1998.234
 950  2154.458
 951  1992.726
 952  1837.161
 953  1869.944
 954  1719.903
 955  1704.715
 956  1662.51
 957  1715.251
 958  1577.206
 959  1673.975
 960  1657.052
 961  1737.704
 962  1767.279
 963  2156.188
 964  2268.936
 965  1951.608
 966  1386.893
 967  1236.168
 968  1248.142
 969  1485.403
 970  1478.235
 971  1652.873
 972  1692.622
 973  1629.635
 974  1502.275
 975  1681.661
 976  1706.315
 977  1759.713
 978  1635.424
 979  1425.024
 980  1338.303
 981  1334.547
 982  1540.904
 983  1760.657
 984  2021.85
 985  1846.247
 986  1777.385
 987  1645.878
 988  1840.569
 989  1809.195
 990  1892.705
 991  1972.911
 992  1954.853
 993  1675.77
 994  1359.925
 995  958.4845
 996  888.0677
 997  945.1249
 998  1255.491
 999  1464.12
1000  1465.58
1001  1476.296
1002  1474.817
1003  1458.632
1004  1426.649
1005  1522.063
1006  1543.848
1007  1599.122
1008  1484.905
1009  1445.192
1010  1310.463
1011  1161.422
1012  1268.9
1013  1543.547
1014  1697.581
1015  1888.071
1016  2133.879
1017  2237.138
1018  2152.824
1019  2082.077
1020  2111.768
1021  2171.738
1022  1915.678
1023  1568.563
