# Input file       =  1195659868.110136_cleaned.dat
# Candidate        =  PSR_0332+5434
# Telescope        =  AR
# Epoch_topo       =  58082.656100811757
# Epoch_bary       =  N/A
# T_sample         =  0.002
# Data Folded      =  7143424
# Data Avg         =  0.0511174887175249
# Data StdDev      =  1.00035802261466 
# Profile Bins     =  512
# Profile Avg      =  713.181355139337 
# Profile StdDev   =  118.160873606323 
# Reduced chi-sqr  =  0.814
# Prob(Noise)      <  0.999   (~0.0 sigma)
# P_topo (ms)      =  714.520133921693  +/- 2.44e-05
# P'_topo (s/s)    =  -0                +/- 1.32e-11
# P''_topo (s/s^2) =  0                 +/- 6e-15
# P_bary (ms)      =  N/A
# P'_bary (s/s)    =  N/A
# P''_bary (s/s^2) =  N/A
# P_orb (s)        =  N/A
# asin(i)/c (s)    =  N/A
# eccentricity     =  N/A
# w (rad)          =  N/A
# T_peri           =  N/A
######################################################
   0  803.4914
   1  761.4146
   2  755.6955
   3  670.2072
   4  712.3536
   5  672.3492
   6  669.0605
   7  724.8883
   8  687.3893
   9  636.6494
  10  552.0656
  11  636.7289
  12  627.5656
  13  653.8903
  14  625.4613
  15  631.3194
  16  562.4341
  17  510.9098
  18  700.0377
  19  708.154
  20  744.295
  21  770.7932
  22  888.2572
  23  786.7589
  24  655.1174
  25  634.7981
  26  694.1725
  27  629.2238
  28  690.4027
  29  747.138
  30  726.8471
  31  673.6407
  32  710.0766
  33  766.0297
  34  695.6086
  35  629.5189
  36  757.0427
  37  823.0804
  38  705.6223
  39  586.8179
  40  597.123
  41  619.4879
  42  608.7146
  43  714.2432
  44  717.3353
  45  674.9319
  46  638.3121
  47  718.238
  48  609.3322
  49  578.7457
  50  747.9205
  51  764.3867
  52  686.9883
  53  681.0556
  54  701.5406
  55  677.7811
  56  710.6938
  57  782.309
  58  782.0209
  59  688.0121
  60  631.4106
  61  694.8655
  62  749.4399
  63  745.4114
  64  893.2421
  65  982.9977
  66  768.415
  67  633.3366
  68  746.5973
  69  853.1871
  70  725.0974
  71  680.1433
  72  676.1434
  73  716.7305
  74  633.8753
  75  679.9753
  76  746.3367
  77  761.9385
  78  789.3247
  79  840.0723
  80  833.6648
  81  668.7801
  82  792.7468
  83  812.476
  84  717.6026
  85  622.7183
  86  676.2391
  87  722.3342
  88  638.6238
  89  686.163
  90  746.0768
  91  732.3814
  92  728.7949
  93  728.623
  94  654.2068
  95  619.6267
  96  605.2747
  97  708.5271
  98  769.2236
  99  668.5374
 100  735.1325
 101  823.9667
 102  757.9813
 103  634.096
 104  749.9015
 105  674.4734
 106  657.2899
 107  592.9923
 108  712.381
 109  607.6696
 110  574.0535
 111  636.3939
 112  669.913
 113  613.5256
 114  673.7765
 115  747.7852
 116  744.4818
 117  646.8135
 118  723.6683
 119  756.4354
 120  749.6912
 121  746.0681
 122  737.0117
 123  759.1161
 124  598.0599
 125  632.9792
 126  658.3743
 127  635.3437
 128  602.192
 129  597.6853
 130  690.8365
 131  711.8972
 132  665.3058
 133  682.1617
 134  742.85
 135  684.7262
 136  695.6921
 137  821.9059
 138  749.8599
 139  725.4595
 140  718.9557
 141  698.9688
 142  619.6804
 143  718.8896
 144  813.9011
 145  667.8003
 146  571.8191
 147  742.3352
 148  830.1297
 149  686.6786
 150  669.512
 151  773.0382
 152  711.6809
 153  616.4822
 154  671.5966
 155  725.4091
 156  763.7972
 157  713.9152
 158  692.7479
 159  629.6533
 160  633.1218
 161  697.6331
 162  729.8213
 163  782.3421
 164  738.8398
 165  760.0961
 166  715.1671
 167  620.4228
 168  661.8984
 169  735.9673
 170  773.1318
 171  733.0457
 172  876.812
 173  824.1815
 174  785.3672
 175  744.3951
 176  768.5464
 177  800.7405
 178  790.0959
 179  855.9901
 180  914.3523
 181  832.1352
 182  774.5101
 183  847.1461
 184  775.0496
 185  606.0288
 186  619.1828
 187  623.3596
 188  595.2655
 189  612.8204
 190  692.2821
 191  704.5679
 192  635.4348
 193  704.6663
 194  767.3095
 195  705.944
 196  637.652
 197  721.074
 198  736.859
 199  706.8925
 200  723.333
 201  727.7338
 202  718.7364
 203  629.8743
 204  671.3564
 205  752.5218
 206  664.0489
 207  691.3196
 208  748.8402
 209  761.7101
 210  663.6301
 211  749.703
 212  803.3847
 213  689.1374
 214  763.6867
 215  833.4505
 216  815.8421
 217  668.4772
 218  738.3616
 219  805.9902
 220  772.7712
 221  639.7807
 222  698.7727
 223  669.6619
 224  588.1637
 225  592.2105
 226  730.7276
 227  691.1807
 228  667.8135
 229  777.2458
 230  775.4494
 231  756.3862
 232  738.8882
 233  913.3533
 234  785.3042
 235  730.7614
 236  692.9299
 237  782.4952
 238  648.8671
 239  568.2247
 240  741.8786
 241  745.3019
 242  711.6857
 243  736.1219
 244  779.4712
 245  802.2371
 246  740.1409
 247  832.8168
 248  828.3365
 249  714.8499
 250  667.5302
 251  705.3044
 252  689.1506
 253  585.3151
 254  590.0056
 255  722.4047
 256  714.5184
 257  688.8245
 258  728.012
 259  744.838
 260  713.6594
 261  720.8491
 262  724.7159
 263  693.0632
 264  674.6124
 265  757.6192
 266  752.2184
 267  647.4789
 268  677.5454
 269  768.5042
 270  751.1368
 271  702.5125
 272  686.1016
 273  671.2949
 274  639.1967
 275  598.455
 276  641.2086
 277  648.0638
 278  658.1047
 279  759.0189
 280  893.8931
 281  760.8902
 282  651.2286
 283  684.712
 284  742.8546
 285  626.5525
 286  695.1978
 287  772.0257
 288  807.2005
 289  740.4705
 290  797.9
 291  842.0717
 292  898.2171
 293  961.6911
 294  1021.156
 295  987.7441
 296  851.4796
 297  829.999
 298  847.4564
 299  773.5867
 300  762.3959
 301  770.7457
 302  733.6046
 303  773.3325
 304  829.3644
 305  842.0244
 306  726.7458
 307  692.6835
 308  778.2037
 309  665.5612
 310  637.9592
 311  704.3987
 312  820.5963
 313  799.1625
 314  744.4908
 315  718.8507
 316  682.5557
 317  655.8229
 318  686.9878
 319  750.3265
 320  703.6272
 321  631.2723
 322  639.6808
 323  728.3624
 324  649.5152
 325  628.873
 326  682.9333
 327  701.0026
 328  614.8652
 329  675.5595
 330  778.1174
 331  719.4838
 332  712.4601
 333  737.8389
 334  775.4453
 335  683.4764
 336  685.2778
 337  698.6436
 338  763.6059
 339  632.6873
 340  585.5089
 341  732.1308
 342  766.9808
 343  763.4965
 344  787.814
 345  784.2462
 346  828.389
 347  753.571
 348  752.654
 349  634.5802
 350  549.7919
 351  644.6207
 352  710.1718
 353  638.3922
 354  712.6304
 355  790.8635
 356  702.333
 357  677.9369
 358  789.8618
 359  764.0106
 360  700.9041
 361  648.4571
 362  640.4744
 363  670.4705
 364  667.972
 365  688.7898
 366  810.4078
 367  790.7355
 368  663.3031
 369  696.6242
 370  799.1341
 371  710.0858
 372  726.9442
 373  800.8422
 374  839.4434
 375  724.3165
 376  696.6538
 377  693.59
 378  614.7037
 379  671.249
 380  722.0197
 381  705.8252
 382  591.485
 383  723.296
 384  751.4125
 385  686.6661
 386  697.7705
 387  780.4807
 388  887.4369
 389  817.5665
 390  693.1866
 391  733.0623
 392  656.9837
 393  582.458
 394  680.4944
 395  668.9443
 396  618.8698
 397  690.4901
 398  736.0137
 399  679.9705
 400  563.5631
 401  703.557
 402  784.8389
 403  783.761
 404  813.3531
 405  910.6154
 406  773.4965
 407  652.6247
 408  622.5504
 409  762.4313
 410  825.808
 411  774.7425
 412  852.3294
 413  818.2327
 414  624.4808
 415  653.4401
 416  751.1895
 417  789.0316
 418  724.5281
 419  730.0183
 420  809.7554
 421  741.1453
 422  632.1105
 423  659.4474
 424  644.1603
 425  558.7056
 426  676.2403
 427  778.0657
 428  751.8929
 429  755.4757
 430  736.4432
 431  681.8318
 432  658.6342
 433  721.6596
 434  706.2092
 435  676.2858
 436  685.122
 437  719.7944
 438  739.1463
 439  699.4642
 440  633.265
 441  734.5985
 442  641.6241
 443  587.1612
 444  645.4734
 445  634.3619
 446  600.1836
 447  629.1066
 448  721.6794
 449  815.8818
 450  758.3682
 451  770.7266
 452  826.317
 453  729.3303
 454  700.2568
 455  690.4013
 456  790.8087
 457  751.6136
 458  773.9832
 459  868.0653
 460  762.3737
 461  702.8441
 462  862.7244
 463  890.3706
 464  701.0853
 465  618.6024
 466  660.6099
 467  686.3273
 468  607.73
 469  725.1291
 470  702.1771
 471  583.101
 472  628.1033
 473  581.7968
 474  741.6183
 475  831.781
 476  792.7398
 477  761.1233
 478  648.0485
 479  583.4381
 480  655.8334
 481  702.2058
 482  517.7581
 483  629.2844
 484  870.0143
 485  804.2339
 486  646.6328
 487  680.1771
 488  637.8468
 489  643.877
 490  757.3876
 491  816.368
 492  717.3634
 493  622.211
 494  649.8277
 495  649.8492
 496  555.8614
 497  516.9505
 498  586.3306
 499  652.4776
 500  572.1596
 501  537.0156
 502  696.1263
 503  866.4931
 504  807.0548
 505  740.6973
 506  716.0593
 507  670.3119
 508  709.189
 509  741.5271
 510  734.2376
 511  699.0347
