# Input file       =  1195861735.106926_cleaned.dat
# Candidate        =  PSR_0332+5434
# Telescope        =  AR
# Epoch_topo       =  58084.992524385714
# Epoch_bary       =  N/A
# T_sample         =  0.002
# Data Folded      =  7340032
# Data Avg         =  0.94353685261324 
# Data StdDev      =  9.22899509499065 
# Profile Bins     =  1024
# Profile Avg      =  6763.1427579715  
# Profile StdDev   =  781.364027916166 
# Reduced chi-sqr  =  0.774
# Prob(Noise)      <  1   (~0.0 sigma)
# P_topo (ms)      =  714.522917634064  +/- 4.2e-05
# P'_topo (s/s)    =  -0                +/- 2.22e-11
# P''_topo (s/s^2) =  0                 +/- 9.79e-15
# P_bary (ms)      =  N/A
# P'_bary (s/s)    =  N/A
# P''_bary (s/s^2) =  N/A
# P_orb (s)        =  N/A
# asin(i)/c (s)    =  N/A
# eccentricity     =  N/A
# w (rad)          =  N/A
# T_peri           =  N/A
######################################################
   0  6972.248
   1  7123.017
   2  7112.752
   3  7184.591
   4  7327.652
   5  7405.921
   6  7439.123
   7  7117.06
   8  6962.378
   9  7015.729
  10  7097.449
  11  7070.786
  12  7098.097
  13  6932.244
  14  6917.98
  15  7058.642
  16  7390.34
  17  7572.197
  18  7414.245
  19  7210.716
  20  7289.211
  21  7377.239
  22  7181.846
  23  6984.15
  24  6840.087
  25  7081.76
  26  7348.671
  27  7449.413
  28  7147.656
  29  6888.592
  30  6937.417
  31  7406.707
  32  7360.019
  33  7217.452
  34  7166.419
  35  7210.903
  36  7234.329
  37  7247.604
  38  7262.275
  39  7313.501
  40  7118.313
  41  7107.037
  42  6869
  43  6441.504
  44  6428.364
  45  6611.888
  46  6644.529
  47  6751.54
  48  6672.065
  49  6888.125
  50  6981.581
  51  6735.815
  52  7088.379
  53  7110.598
  54  6927.577
  55  6666.248
  56  6683.192
  57  6790.116
  58  6856.917
  59  6881.84
  60  7135.897
  61  7069.813
  62  6934.171
  63  7115.148
  64  7008.592
  65  6982.374
  66  6870.839
  67  6473.683
  68  6594.227
  69  6695.507
  70  6800.576
  71  6842.346
  72  6578.781
  73  6514.692
  74  6280.337
  75  6322.729
  76  6563.247
  77  6759.733
  78  6544.383
  79  6423.148
  80  6819.097
  81  7289.241
  82  7726.943
  83  7406.358
  84  6902.172
  85  6234.022
  86  5841.273
  87  5900.824
  88  6047.538
  89  6314.223
  90  6838.18
  91  6937.938
  92  6758.709
  93  6524.28
  94  6265.853
  95  6489.558
  96  6559.856
  97  6712.373
  98  6828.994
  99  6845.592
 100  6618.954
 101  6528.515
 102  6593.016
 103  6621.584
 104  6702.101
 105  6602.938
 106  6885.306
 107  6723.405
 108  6788.308
 109  6761.055
 110  6786.711
 111  6559.502
 112  6388.548
 113  6436.16
 114  6947.316
 115  6807.203
 116  6797.255
 117  6950.637
 118  6785.286
 119  6700.41
 120  6712.237
 121  6883.222
 122  6602.959
 123  6315.134
 124  6292.958
 125  6744.77
 126  6896.727
 127  7141.589
 128  7108.761
 129  6761.673
 130  6803.113
 131  6726.854
 132  6937.625
 133  6886.353
 134  7000.502
 135  6955.35
 136  6705.285
 137  6502.138
 138  6693.731
 139  7006.968
 140  7130.949
 141  7365.575
 142  7344.641
 143  7381.763
 144  7200.667
 145  7209.177
 146  7318.97
 147  7212.353
 148  6839.032
 149  6754.408
 150  6745.822
 151  6749.484
 152  7063.632
 153  7084.51
 154  6978.308
 155  6840.566
 156  6916.976
 157  7050.294
 158  6638.404
 159  6491.864
 160  6403.97
 161  6225.924
 162  6347.546
 163  6296.614
 164  6346.078
 165  6063.812
 166  6121.759
 167  6173.431
 168  6439.415
 169  6711.784
 170  7206.592
 171  7130.592
 172  6741.363
 173  6576.769
 174  6912.275
 175  7386.298
 176  7537.858
 177  7067.707
 178  7017.241
 179  6742.919
 180  6579.264
 181  6280.077
 182  6580.687
 183  6873.674
 184  7096.415
 185  6965.738
 186  6745.055
 187  6895.355
 188  6898.292
 189  7074.59
 190  6854.61
 191  6923.276
 192  6978.361
 193  6865.918
 194  6719.317
 195  6618.027
 196  6635.977
 197  6837.843
 198  6836.119
 199  6661.826
 200  6541.43
 201  6870.132
 202  6983.799
 203  7118.938
 204  6930.819
 205  7017.053
 206  7243.344
 207  7201.681
 208  7066.192
 209  6820.53
 210  6763.848
 211  6801.872
 212  6874.268
 213  7115.567
 214  7258.485
 215  6981.712
 216  7019.143
 217  6990.106
 218  6801.706
 219  6961.462
 220  6961.036
 221  7202.333
 222  6898.249
 223  6901.159
 224  6855.917
 225  7108.515
 226  6945.537
 227  6988.757
 228  6910.639
 229  6800.965
 230  6627.47
 231  6299.658
 232  6575.915
 233  6935.799
 234  6989.005
 235  7021.335
 236  6345.025
 237  5694.797
 238  5279.645
 239  5480.514
 240  6094.146
 241  6301.352
 242  6416.266
 243  6370.564
 244  6281.361
 245  6316.427
 246  6322.202
 247  6072.491
 248  6025.985
 249  6143.61
 250  6309.524
 251  6587.375
 252  6814.704
 253  6895.109
 254  6832.455
 255  6668.877
 256  6483.281
 257  6267.553
 258  6189.214
 259  6111.775
 260  6079.392
 261  6253.878
 262  6506.447
 263  6536.169
 264  6517.154
 265  6365.949
 266  6726.075
 267  6865.914
 268  6772.713
 269  6348.803
 270  6500.206
 271  6591.531
 272  6475.632
 273  6297.898
 274  6224.511
 275  6315.881
 276  6508.247
 277  6546.887
 278  6601.512
 279  6251.547
 280  6158.815
 281  6178.91
 282  6451.962
 283  6741.088
 284  6772.988
 285  6614.664
 286  6402.881
 287  6364.565
 288  6365.866
 289  6341.208
 290  6375.484
 291  6832.547
 292  6901.785
 293  6595.125
 294  6263.735
 295  6470.044
 296  6589.075
 297  6745.927
 298  6824.341
 299  6812.64
 300  6758.358
 301  6387.166
 302  6492.801
 303  6529.389
 304  6765.878
 305  6738.712
 306  6643.812
 307  6954.863
 308  6849.056
 309  6836.29
 310  6872.058
 311  7130.177
 312  7181.333
 313  7394.034
 314  6824.225
 315  6344.978
 316  6260.168
 317  6595.028
 318  6763.456
 319  6861.424
 320  6909.126
 321  7014.636
 322  6502.824
 323  6355.392
 324  6346.066
 325  6358.992
 326  6478.682
 327  6725.818
 328  6774.653
 329  6801.6
 330  6305.898
 331  6508.174
 332  6512.715
 333  6500.987
 334  6498.094
 335  6589.746
 336  6452.999
 337  6576.457
 338  6678.776
 339  6688.398
 340  6520.478
 341  6564.941
 342  6700.595
 343  6422.18
 344  5983.531
 345  6074.07
 346  6341.352
 347  6501.084
 348  6612.3
 349  6530.556
 350  6318.092
 351  6128.902
 352  6270.044
 353  6368.971
 354  5983.827
 355  6297.379
 356  6629.326
 357  6630.213
 358  6089.999
 359  5906.201
 360  5968.345
 361  6174.89
 362  6224.166
 363  6352.163
 364  6551.549
 365  6376.985
 366  6262.115
 367  6420.265
 368  6471.806
 369  6566.979
 370  6610.685
 371  6691.412
 372  6734.42
 373  6480.16
 374  6814.047
 375  7166.223
 376  7445.672
 377  7433.064
 378  7626.436
 379  7257.777
 380  6968.084
 381  6620.787
 382  6612.857
 383  6587.779
 384  6384.332
 385  6402.559
 386  6330.563
 387  6163.98
 388  6255.343
 389  6162.728
 390  6231.671
 391  6127.814
 392  6031.684
 393  6166.128
 394  6051.759
 395  6092.813
 396  6270.645
 397  6377.119
 398  6197.866
 399  6379.354
 400  6182.125
 401  5951.423
 402  5807.037
 403  5945.419
 404  6201.215
 405  6296.889
 406  6513.008
 407  6662.207
 408  6472.245
 409  6559.614
 410  6615.813
 411  6455.336
 412  6658.466
 413  6610.744
 414  6558.687
 415  6225.761
 416  5847.529
 417  5863.059
 418  6310.786
 419  6446.842
 420  6802.049
 421  6631.885
 422  6481.061
 423  6357.179
 424  6182.767
 425  6228.698
 426  6267.747
 427  6364.468
 428  6474.418
 429  6426.482
 430  6484.135
 431  6752.932
 432  6806.442
 433  6565.971
 434  6221.303
 435  6349.126
 436  6614.745
 437  6628.625
 438  6105.109
 439  5942.729
 440  6083.395
 441  6451.331
 442  6600.821
 443  6459.312
 444  6498.232
 445  6577.903
 446  6647.316
 447  6795.589
 448  6849.281
 449  6827.162
 450  6812.467
 451  6692.559
 452  6822.207
 453  6731.414
 454  6753.666
 455  6904.699
 456  6965.297
 457  6705.599
 458  6265.352
 459  6146.034
 460  6236.356
 461  6716.667
 462  6594.183
 463  6542.743
 464  6319.879
 465  6298.93
 466  6193.923
 467  6191.191
 468  6275.873
 469  6500.44
 470  6611.083
 471  6562.796
 472  6450.784
 473  5912.79
 474  6096.029
 475  5982.9
 476  5962.507
 477  6010.334
 478  6151.285
 479  6178.259
 480  6153.948
 481  6259.944
 482  6600.338
 483  6730.9
 484  6735.839
 485  6824.182
 486  6860.216
 487  6613.05
 488  6547.483
 489  6505.354
 490  6869.695
 491  6914.263
 492  6915.174
 493  6756.287
 494  6489.862
 495  6330.408
 496  6655.823
 497  6904.572
 498  6888.062
 499  6696.782
 500  6694.361
 501  6784.632
 502  6634.937
 503  6618.754
 504  6659.879
 505  6474.367
 506  6625.033
 507  6803.433
 508  6655.847
 509  6313.298
 510  5879.389
 511  6367.095
 512  6544.236
 513  6662.218
 514  6530.92
 515  6507.398
 516  6379.544
 517  6391.719
 518  6705.281
 519  6732.258
 520  6751.181
 521  6826.734
 522  6935.098
 523  6580.403
 524  6328.711
 525  6387.806
 526  6608.925
 527  6880.954
 528  7209.049
 529  7039.007
 530  6606.032
 531  6340.564
 532  6559.773
 533  6792.188
 534  6658.192
 535  6546.011
 536  6368.39
 537  6172.532
 538  6139.005
 539  6610.99
 540  6943.461
 541  6735.217
 542  6383.937
 543  6242.923
 544  6348.939
 545  6389.632
 546  6591.527
 547  6849.608
 548  6727.095
 549  6474.748
 550  6646.821
 551  6377.492
 552  6239.907
 553  5794.151
 554  6019.95
 555  6149.211
 556  6408.696
 557  6592.077
 558  6559.065
 559  6419.323
 560  6730.723
 561  6805.067
 562  6813.715
 563  6799.642
 564  6633.312
 565  6605.592
 566  6455.51
 567  6235.684
 568  6569.962
 569  6783.625
 570  6749.877
 571  6631.19
 572  6223.899
 573  6224.368
 574  6192.163
 575  6348.709
 576  6401.493
 577  6299.856
 578  6500.057
 579  6684.658
 580  6216.906
 581  6118.831
 582  6287.51
 583  6566.747
 584  6933.281
 585  7044.708
 586  6992.926
 587  6649.491
 588  6507.742
 589  6696.709
 590  6707.373
 591  6526.966
 592  6741.844
 593  6983.142
 594  7171.475
 595  7045.145
 596  6884.47
 597  6827.412
 598  6923.664
 599  6952.793
 600  6970.587
 601  6552.981
 602  6255.856
 603  6636.217
 604  7339.489
 605  7486.157
 606  7273.715
 607  6794.888
 608  6769.408
 609  6259.512
 610  6126.25
 611  6020.634
 612  6301.269
 613  6328.573
 614  6505.843
 615  6530.998
 616  6715.852
 617  6550.912
 618  6628.2
 619  6751.429
 620  7046.336
 621  7230.583
 622  7160.444
 623  6988.688
 624  6808.973
 625  7251.952
 626  7438.314
 627  7599.924
 628  7764.305
 629  7860.336
 630  8113.846
 631  7915.621
 632  7503.868
 633  7388.653
 634  7318.738
 635  7355.957
 636  6989.791
 637  6509.35
 638  6445.445
 639  6778.043
 640  6853.303
 641  7199.253
 642  7082.996
 643  7057.396
 644  6950.221
 645  6913.688
 646  7273.092
 647  7324.837
 648  7010.221
 649  7179.952
 650  7070.675
 651  7228.039
 652  7207.333
 653  6718.98
 654  6879.741
 655  6711.36
 656  6904.881
 657  7130.206
 658  6927.58
 659  6887.29
 660  6732.97
 661  6791.94
 662  6838.583
 663  6797.449
 664  6748.215
 665  6732.244
 666  6439.335
 667  6434.229
 668  6434.131
 669  6399.797
 670  6532.733
 671  6711.924
 672  6678.723
 673  6618.081
 674  6378.834
 675  6562.11
 676  6684.875
 677  6528.602
 678  6434.102
 679  6298.429
 680  6138.707
 681  6254.646
 682  6531.714
 683  6989.89
 684  7024.223
 685  7089.879
 686  6976.496
 687  7076.101
 688  7054.354
 689  7055.054
 690  6789.145
 691  6652.734
 692  6868.922
 693  6997.377
 694  6899.493
 695  6822.713
 696  6626.048
 697  6632.11
 698  6627.079
 699  6708.134
 700  6923.761
 701  7088.109
 702  7175.257
 703  7265.485
 704  7085.674
 705  6890.265
 706  6687.278
 707  6528.704
 708  6537.627
 709  6595.387
 710  6663.877
 711  6881.052
 712  6847.193
 713  6866.032
 714  7085.746
 715  6832.984
 716  6944.019
 717  6632.169
 718  6898.061
 719  6880.241
 720  6972.793
 721  7136.385
 722  7250.208
 723  7067.831
 724  6818.751
 725  6609.465
 726  6616.41
 727  6639.98
 728  6725.479
 729  6627.015
 730  6549.202
 731  6230.323
 732  6540.934
 733  6382.814
 734  6369.426
 735  6495.394
 736  6479.417
 737  6691.339
 738  6723.478
 739  6749.165
 740  6789.211
 741  6804.052
 742  6835.635
 743  7225.061
 744  7181.095
 745  7352.363
 746  7011.382
 747  7040.29
 748  7098.912
 749  7306.447
 750  7210.061
 751  7203.324
 752  6874.282
 753  6908.757
 754  6847.641
 755  6566.222
 756  6969.421
 757  7191.967
 758  7424.688
 759  7202.17
 760  6892.395
 761  6983.253
 762  7020.482
 763  6861.373
 764  6571.183
 765  6210.392
 766  6257.927
 767  6331.385
 768  6583.497
 769  6830.791
 770  7037.352
 771  7148.643
 772  7249.728
 773  6934.106
 774  6791.622
 775  6955.713
 776  7215.085
 777  7010.321
 778  6844.317
 779  6810.712
 780  6583.174
 781  6300.024
 782  6166.947
 783  6181.799
 784  6461.017
 785  6402.989
 786  6876.398
 787  7131.764
 788  7332.102
 789  7241.9
 790  7170.589
 791  7076.517
 792  6926.141
 793  6684.067
 794  6765.852
 795  7041.038
 796  7397.057
 797  7645.667
 798  7408.677
 799  7349.739
 800  7329.964
 801  7003.763
 802  6894.913
 803  6940.258
 804  6902.427
 805  6793.534
 806  6786.108
 807  6971.712
 808  7024.052
 809  6669.334
 810  6518.983
 811  6425.429
 812  6403.207
 813  6633.563
 814  6770.732
 815  7052.052
 816  6920.055
 817  6636.874
 818  6837.42
 819  6945.023
 820  7035.858
 821  7108.334
 822  6866.476
 823  6777.768
 824  6740.616
 825  6936.322
 826  7236.216
 827  7287.489
 828  7335.07
 829  7199.81
 830  6756.391
 831  6804.917
 832  6843.378
 833  6811.265
 834  6760.71
 835  6566.151
 836  6601.06
 837  6785.044
 838  6794.211
 839  6925.396
 840  6847.587
 841  7038.747
 842  7400.719
 843  7524.553
 844  7220.813
 845  6939.671
 846  6806.143
 847  6618.938
 848  6313.809
 849  6343.809
 850  6515.819
 851  6526.41
 852  6292.882
 853  6493.636
 854  7044.252
 855  7246.574
 856  7335.977
 857  7506.146
 858  7953.318
 859  7699.388
 860  7381.499
 861  7246.915
 862  7432.611
 863  7171.411
 864  7182.523
 865  7173.655
 866  7058.109
 867  6706.004
 868  6332.072
 869  6472.067
 870  6609.019
 871  6803.157
 872  7027.736
 873  6866.912
 874  6629.476
 875  6649.969
 876  6567.695
 877  6596.972
 878  6876.503
 879  7036.777
 880  7197.368
 881  6733.076
 882  6597.191
 883  6714.594
 884  6899.31
 885  7400.816
 886  7617.253
 887  7445.564
 888  6852.236
 889  6605.221
 890  6741.119
 891  7022.349
 892  7180.742
 893  6982.042
 894  7095.836
 895  7065.751
 896  7386.791
 897  7388.517
 898  7441.163
 899  7481.454
 900  7430.453
 901  7602.025
 902  7588.09
 903  7494.553
 904  7644.511
 905  7617.568
 906  7185.244
 907  7181.114
 908  7192.334
 909  7412.026
 910  7163.014
 911  6984.37
 912  6881.91
 913  6942.165
 914  7143.302
 915  7493.031
 916  7241.716
 917  6766.921
 918  6643.719
 919  6762.878
 920  7200.349
 921  7174.033
 922  7112.409
 923  7087.31
 924  6753.758
 925  6559.324
 926  6388.573
 927  6760.967
 928  7288.389
 929  7524.746
 930  7528.324
 931  7271.882
 932  6823.226
 933  6790.066
 934  6816.738
 935  6811.054
 936  6912.226
 937  6732.095
 938  6459.201
 939  6135.055
 940  6679.936
 941  7067.935
 942  7574.009
 943  7622.03
 944  7497.321
 945  6918.583
 946  6771.246
 947  7057.735
 948  7413.643
 949  7432.312
 950  7336.338
 951  6893.468
 952  6558.826
 953  6285.124
 954  6535.082
 955  6852.109
 956  7285.888
 957  7399.992
 958  7365.134
 959  7365.263
 960  7462.259
 961  7532.331
 962  6998.79
 963  6925.885
 964  6775.238
 965  6914.329
 966  6835.064
 967  6576.271
 968  6511.521
 969  6585.207
 970  6649.044
 971  6964.604
 972  7383.831
 973  7394.497
 974  7462.843
 975  7336.149
 976  7421.843
 977  7275.832
 978  7274.44
 979  7144.527
 980  6926.323
 981  6715.083
 982  7041.732
 983  7091.682
 984  6991.532
 985  7249.798
 986  7320.182
 987  7434.43
 988  6980.446
 989  6687.566
 990  6674.769
 991  6896.068
 992  6799.68
 993  6686.893
 994  6490.721
 995  6549.773
 996  6805.491
 997  7094.832
 998  7415.251
 999  7361.158
1000  7237.154
1001  7409.11
1002  6961.098
1003  6502.176
1004  6531.28
1005  6863.631
1006  7055.247
1007  6981.237
1008  6978.866
1009  7156.67
1010  6794.089
1011  6704.765
1012  6484.706
1013  6370.931
1014  6733.109
1015  6802.576
1016  6772.845
1017  6727.878
1018  6655.808
1019  6993.634
1020  7014.163
1021  7113.337
1022  7033.255
1023  7118.815
