# Input file       =  1195086376.112684_cleaned.dat
# Candidate        =  PSR_0332+5434
# Telescope        =  AR
# Epoch_topo       =  58076.018461952364
# Epoch_bary       =  N/A
# T_sample         =  0.002
# Data Folded      =  7340032
# Data Avg         =  6.67489546982585 
# Data StdDev      =  48.4191425932378 
# Profile Bins     =  1024
# Profile Avg      =  47845.513698474  
# Profile StdDev   =  4099.36031989383 
# Reduced chi-sqr  =  0.380
# Prob(Noise)      <  1   (~0.0 sigma)
# P_topo (ms)      =  714.513639188262  +/- 7.3e-05
# P'_topo (s/s)    =  -0                +/- 3.85e-11
# P''_topo (s/s^2) =  0                 +/- 1.7e-14
# P_bary (ms)      =  N/A
# P'_bary (s/s)    =  N/A
# P''_bary (s/s^2) =  N/A
# P_orb (s)        =  N/A
# asin(i)/c (s)    =  N/A
# eccentricity     =  N/A
# w (rad)          =  N/A
# T_peri           =  N/A
######################################################
   0  48255.29
   1  49396.72
   2  49208.36
   3  49039.05
   4  45796.78
   5  46319.71
   6  46443.97
   7  46586.91
   8  47899.78
   9  48355.86
  10  48709.12
  11  48126.15
  12  47927.16
  13  48618.55
  14  48133.22
  15  46830.7
  16  47287.73
  17  47174.93
  18  47635.67
  19  47881.58
  20  47110.77
  21  47390.54
  22  46588.85
  23  45564.28
  24  45840.1
  25  45941.56
  26  47424.84
  27  48427.27
  28  48732.34
  29  49423.03
  30  48045.98
  31  47066
  32  46806.4
  33  46791.39
  34  48235.87
  35  48447.32
  36  48205.89
  37  48581.06
  38  47921.87
  39  46963.92
  40  46634.84
  41  45863.12
  42  47259.64
  43  46998.54
  44  46167.78
  45  44933.61
  46  44090.85
  47  44803.95
  48  46653.43
  49  46296.34
  50  46651.2
  51  46083.76
  52  45619.36
  53  44917.48
  54  45007.13
  55  46016.93
  56  45934.65
  57  46015.62
  58  46840.34
  59  47114.79
  60  46962.69
  61  46491.7
  62  46362.99
  63  45834.22
  64  46216.16
  65  45961.3
  66  46194.47
  67  45410.15
  68  46274
  69  45476.69
  70  47080.78
  71  47139.18
  72  47265.84
  73  46597.98
  74  46483.38
  75  47050.36
  76  47547.52
  77  46237.18
  78  46510.19
  79  45842.66
  80  46943.11
  81  47243.49
  82  45964.91
  83  46526.74
  84  47336.49
  85  48072.81
  86  49485.59
  87  50227.69
  88  49570.45
  89  47663.12
  90  44389.49
  91  44753.58
  92  46378.8
  93  47973.02
  94  48587.15
  95  48926.92
  96  48598.27
  97  49457.27
  98  47384.08
  99  47408.85
 100  45914.52
 101  45349.47
 102  46338.91
 103  45989.89
 104  46764.41
 105  49336.78
 106  48572.75
 107  48941.96
 108  47432.06
 109  47152.21
 110  46688.62
 111  46055.58
 112  47007.95
 113  47485.49
 114  46424.84
 115  47063.59
 116  47232.65
 117  46966.59
 118  47198.53
 119  46557.36
 120  46323.17
 121  46039.62
 122  46754.9
 123  47157.55
 124  48598.04
 125  47945.27
 126  49365.81
 127  48808.38
 128  49811.65
 129  49130.89
 130  48979.44
 131  49317.12
 132  47996.05
 133  47230.43
 134  47782.44
 135  47081.29
 136  47052.54
 137  46916.35
 138  47652.3
 139  46814.59
 140  47157.26
 141  47249.39
 142  47471.04
 143  47106.21
 144  48018.59
 145  48149.95
 146  48642.64
 147  47670.71
 148  47339.01
 149  45576.43
 150  47462.38
 151  48579.76
 152  49368.11
 153  47759.18
 154  47436.2
 155  47575.75
 156  47429.12
 157  46898.72
 158  47023.89
 159  47059.26
 160  46743.43
 161  46865.12
 162  48152.07
 163  46749.21
 164  46644.46
 165  46742.82
 166  46835.85
 167  47995.73
 168  45615
 169  47256.65
 170  46110.86
 171  47226.75
 172  48724.98
 173  49378.94
 174  48473.54
 175  48220.78
 176  46281.87
 177  47260.23
 178  46434.5
 179  47839.67
 180  48736.8
 181  48776
 182  47653.65
 183  47676.3
 184  47669.66
 185  47912.38
 186  47263.27
 187  46109.04
 188  46889.68
 189  45994.64
 190  46724.18
 191  47544.42
 192  46823.4
 193  46782.73
 194  47319.57
 195  47362.52
 196  47561.51
 197  45821.19
 198  45904.78
 199  45908.83
 200  46093.19
 201  48799.82
 202  48722.94
 203  49059.01
 204  48424.58
 205  47974.74
 206  48402.67
 207  49128.05
 208  48860.56
 209  48434.48
 210  48577.87
 211  47702.04
 212  47852.65
 213  46620.07
 214  47453.05
 215  48069.12
 216  47178.58
 217  47576.45
 218  47356.64
 219  48326.9
 220  48741.42
 221  47990.99
 222  48948.51
 223  48313.61
 224  49192.82
 225  49173.49
 226  48788.12
 227  48490.66
 228  48999.59
 229  50303.52
 230  50135.58
 231  49452.7
 232  48927.95
 233  49148.56
 234  49010.9
 235  48665.22
 236  48431.66
 237  48303.29
 238  48725.01
 239  48165.65
 240  49501.17
 241  49094.33
 242  48483.19
 243  47350.82
 244  47080.86
 245  48293.01
 246  47684.8
 247  47514.04
 248  47295.09
 249  47846.58
 250  49644.32
 251  50295.67
 252  48959.29
 253  48555.21
 254  47108.26
 255  48447.29
 256  49479.07
 257  49902.36
 258  50228.29
 259  48977.32
 260  47352.88
 261  47523.27
 262  46982.77
 263  48068.45
 264  47565.08
 265  49085.89
 266  50043.38
 267  49440.36
 268  48078.53
 269  47849.81
 270  46137.98
 271  47419.92
 272  48336.08
 273  48736.63
 274  48653.48
 275  47121.24
 276  46757.03
 277  47360.42
 278  47658.95
 279  48682.3
 280  49253.96
 281  49645.39
 282  48864.06
 283  46421.78
 284  44503.77
 285  45381.2
 286  46431.36
 287  49348.81
 288  49133.2
 289  47992.52
 290  48561.54
 291  48477.3
 292  48656.83
 293  48465.06
 294  50016.93
 295  50641.75
 296  48924.69
 297  46766.93
 298  48111.5
 299  48689.21
 300  49262.33
 301  48245.79
 302  48628.44
 303  48654.34
 304  47093.46
 305  47321.31
 306  48236.68
 307  48418.17
 308  47525.09
 309  46531.53
 310  46797.69
 311  46835.79
 312  47780.58
 313  48720.28
 314  49654.25
 315  50387.7
 316  50571.12
 317  49773.96
 318  50097.35
 319  50702.45
 320  50658.88
 321  49144.3
 322  49180.12
 323  49309.23
 324  49527.65
 325  48724.81
 326  47352.41
 327  46931.67
 328  46856.41
 329  48120.1
 330  48295.76
 331  48655.19
 332  46754.87
 333  46812.32
 334  47523.57
 335  47608.79
 336  48672.86
 337  48645.1
 338  48994.51
 339  47588.2
 340  45249.3
 341  46117.89
 342  46537.01
 343  46401.62
 344  46783
 345  48424.8
 346  49302.22
 347  48980.61
 348  48451.48
 349  49109.75
 350  48873.61
 351  48885.62
 352  49168.04
 353  48661.38
 354  48028.71
 355  49043.33
 356  47621.17
 357  47516.3
 358  47167.1
 359  47834.98
 360  48697.52
 361  48417.74
 362  48495.61
 363  50132.25
 364  49353.08
 365  49498.27
 366  46959.08
 367  46297.89
 368  45469.65
 369  44288.58
 370  44094.01
 371  46148.33
 372  47416.87
 373  49975.45
 374  49740.05
 375  48985.61
 376  48542.27
 377  48330.18
 378  48895.32
 379  48415.01
 380  48117.64
 381  49115.79
 382  49174.64
 383  49126.45
 384  48919.54
 385  47832.54
 386  46851.27
 387  45983.69
 388  46305.03
 389  47690.47
 390  47813.85
 391  48970.75
 392  50691.69
 393  49670.37
 394  49166.63
 395  47853.43
 396  48599.44
 397  48000.14
 398  47675.98
 399  47764.33
 400  48167.73
 401  48669.16
 402  48359.66
 403  47182.52
 404  47109.58
 405  46964.58
 406  46610.98
 407  44997
 408  46112.5
 409  47525.38
 410  48746.51
 411  48607.06
 412  48302.84
 413  48231.64
 414  47934.29
 415  48498.15
 416  48188.3
 417  49146.98
 418  48742.5
 419  47190.41
 420  46806.66
 421  46382.95
 422  47429.6
 423  47632.14
 424  47826.34
 425  49213.97
 426  47990.21
 427  47619.21
 428  46872.89
 429  45747.8
 430  45654.82
 431  46046.02
 432  48109.51
 433  50486.25
 434  49323.75
 435  48373.66
 436  45964.83
 437  45513.86
 438  46872.62
 439  48236.07
 440  49348.57
 441  49092.01
 442  48888.28
 443  48853.15
 444  48651.21
 445  47240.32
 446  47365.63
 447  47429.81
 448  48222.12
 449  48271.48
 450  45787.75
 451  47068.48
 452  47538.92
 453  47566.85
 454  46769.46
 455  44119.61
 456  44210.94
 457  45775.23
 458  47082.62
 459  48022.41
 460  46763.27
 461  47378.3
 462  47855.05
 463  47403.58
 464  47630.75
 465  47214.57
 466  47446.07
 467  47007.55
 468  47208.55
 469  46737.67
 470  47841.68
 471  47081.65
 472  47272.76
 473  46849.82
 474  47084.39
 475  47457.44
 476  48108.59
 477  49184.68
 478  50688.24
 479  49854.57
 480  50196.22
 481  48051.97
 482  47502.67
 483  47002.29
 484  46543.14
 485  44496.32
 486  44211.38
 487  44809.36
 488  46305.98
 489  47376.14
 490  47582.31
 491  47060.37
 492  46451.56
 493  46682.27
 494  46880.05
 495  48140.59
 496  49962.88
 497  49962.29
 498  48917.86
 499  47622.8
 500  47949.39
 501  48236.14
 502  49454.16
 503  50344.48
 504  48865.25
 505  48309.97
 506  48189.07
 507  47784.49
 508  46950.2
 509  45359.41
 510  45924.32
 511  46369.82
 512  46348.36
 513  45946.36
 514  46640.74
 515  47173.31
 516  48154.58
 517  48020.21
 518  47798.8
 519  47644.17
 520  46602.54
 521  46014.61
 522  46262.72
 523  46195.71
 524  47130.74
 525  47600.75
 526  48437.25
 527  49815.8
 528  47553.54
 529  48126.67
 530  48038.22
 531  49146.37
 532  49896.32
 533  49313.38
 534  49011.75
 535  49388.72
 536  48820.16
 537  50311.27
 538  48781.3
 539  48731.47
 540  47635.23
 541  46593.32
 542  45484.93
 543  46421.62
 544  46799.62
 545  49328.48
 546  49035.38
 547  48366.75
 548  47421.67
 549  46099.37
 550  46528.98
 551  47411.02
 552  48666.42
 553  48403
 554  47621.33
 555  46748.29
 556  46946.5
 557  45150.53
 558  45637.42
 559  45853.51
 560  46116
 561  45495.14
 562  45767.59
 563  47311.16
 564  48433.54
 565  49000.66
 566  49468.13
 567  48782.86
 568  47741
 569  46425.78
 570  46845.27
 571  46352
 572  47518.81
 573  48852.62
 574  49773.84
 575  49668.17
 576  48505.28
 577  47370.56
 578  46883.16
 579  46489.05
 580  47047.46
 581  47171.78
 582  48007.55
 583  48896.29
 584  49356.76
 585  47994.66
 586  47632.26
 587  47472.14
 588  47424.92
 589  47730.66
 590  46913.78
 591  46995.14
 592  47486.49
 593  47330.23
 594  48491.91
 595  48800.63
 596  48946.66
 597  49205.18
 598  48171.29
 599  48598.02
 600  47520.09
 601  47060.41
 602  48352.24
 603  48455.01
 604  48338.74
 605  47642.17
 606  47273.85
 607  48684
 608  49751.01
 609  50379.77
 610  50345.71
 611  50108.36
 612  49499.96
 613  50043.07
 614  48544.31
 615  51226.47
 616  51836.84
 617  51810.48
 618  51499.46
 619  50219.75
 620  49926
 621  49962.8
 622  49471.15
 623  50703.92
 624  49892.89
 625  49309.1
 626  48861.89
 627  47941.29
 628  48312.35
 629  47372.65
 630  47699.79
 631  50031.45
 632  50903.79
 633  49795.61
 634  49185.11
 635  48731.11
 636  48887.52
 637  47877.01
 638  48358.65
 639  49234.11
 640  49640.85
 641  48490.52
 642  47765.09
 643  47819.4
 644  48556.68
 645  48666.54
 646  47720.68
 647  47530.05
 648  47137.59
 649  47819.36
 650  49337.08
 651  49868.07
 652  50258.05
 653  49860.25
 654  50670.54
 655  50875.43
 656  49375.61
 657  48822.75
 658  48428.95
 659  49144.39
 660  49860.99
 661  49200.37
 662  50121.46
 663  48822.45
 664  48634.56
 665  48443.96
 666  49752.81
 667  50551.22
 668  50636.64
 669  49105.76
 670  49414.73
 671  47520.05
 672  47741.28
 673  49284.35
 674  52002.78
 675  52809.5
 676  51089.55
 677  50885.39
 678  52633.86
 679  51897.97
 680  51399.46
 681  49943.89
 682  49037.7
 683  49980.99
 684  48048.43
 685  47935.6
 686  45191.45
 687  44912.5
 688  47152.69
 689  48688.54
 690  48919.27
 691  48510.6
 692  47332.58
 693  47593.21
 694  49096.02
 695  50260.21
 696  50985.59
 697  48934.49
 698  48583.67
 699  49160.43
 700  48868.7
 701  48454.7
 702  46996.67
 703  47499.04
 704  49732.05
 705  50146.05
 706  48798.91
 707  47480.12
 708  46395.8
 709  48424.09
 710  49437.13
 711  48397.34
 712  47166.86
 713  45795.95
 714  46101.77
 715  47053.13
 716  47238.18
 717  48237.04
 718  47906.34
 719  47877.41
 720  48522.93
 721  46484.49
 722  45383.48
 723  44815.93
 724  47088.66
 725  49972.08
 726  50343.89
 727  49467.18
 728  49342.37
 729  49116.1
 730  48891.29
 731  47162.98
 732  46998.77
 733  46514.36
 734  47155.1
 735  46908.38
 736  47186.61
 737  46954.29
 738  48080.32
 739  48003.73
 740  47521.64
 741  46956.25
 742  46252.83
 743  46455.74
 744  46824.54
 745  47888.54
 746  47653.17
 747  47416.21
 748  48352.52
 749  47920.95
 750  46880.79
 751  45980.8
 752  46149.1
 753  47684.93
 754  48532.53
 755  50211.86
 756  49526.3
 757  48850.7
 758  48220.2
 759  47732.2
 760  46612.81
 761  45606.64
 762  45637.4
 763  46681.24
 764  46631.06
 765  46253.46
 766  47128.5
 767  47920.93
 768  48407.1
 769  49728.31
 770  49044.69
 771  48963.07
 772  48665.14
 773  49035.57
 774  50340.71
 775  49522.35
 776  48539.18
 777  48917.39
 778  48583.52
 779  49803.45
 780  48967.71
 781  49119.62
 782  49436.96
 783  48152.02
 784  46852.83
 785  47650.58
 786  46513.1
 787  46271.56
 788  46216.59
 789  45723.32
 790  46041.18
 791  45332.84
 792  45926
 793  47140.52
 794  46408.27
 795  48490
 796  48254.13
 797  48535.82
 798  48080.55
 799  47556.52
 800  46899.21
 801  46789.54
 802  46750.85
 803  47990.28
 804  46376.16
 805  45538.05
 806  46478.45
 807  45439.54
 808  45467.79
 809  44567.58
 810  46284.83
 811  47802.3
 812  48126.41
 813  47784.83
 814  48125.95
 815  48309.23
 816  49243.97
 817  48973
 818  48534.62
 819  47420.17
 820  46887.54
 821  46341.46
 822  46712.63
 823  45518.75
 824  46503.07
 825  46428.59
 826  46729.56
 827  46900.98
 828  47365.33
 829  47256.71
 830  47254.6
 831  47209.95
 832  48668.61
 833  47993.31
 834  48111.02
 835  47543.61
 836  46123.21
 837  45164.2
 838  45503.31
 839  47273.64
 840  47907.2
 841  47851.52
 842  47768.13
 843  46377.84
 844  46283.41
 845  47976.9
 846  49919.04
 847  50145.36
 848  47998.72
 849  47485.8
 850  47751.71
 851  47824.75
 852  48902.06
 853  48964.34
 854  48640.7
 855  48313.35
 856  47101.29
 857  47587.23
 858  46726.13
 859  46986.55
 860  47013.78
 861  46437.66
 862  45363.61
 863  46180.93
 864  45050.94
 865  46154.68
 866  46629.43
 867  48031.22
 868  49141.45
 869  48234.29
 870  48307.62
 871  49787.12
 872  48661.3
 873  48437.4
 874  45907.35
 875  44537.85
 876  45230.92
 877  44722.05
 878  45752.8
 879  46757
 880  47283.22
 881  49784.1
 882  48846.87
 883  48141.92
 884  48097.14
 885  47307.39
 886  47253.77
 887  47879.71
 888  49215.66
 889  50651.38
 890  49116.92
 891  48552.5
 892  47927.49
 893  47069.12
 894  47286.88
 895  47496.47
 896  48312.2
 897  48808.54
 898  48501.19
 899  50167.18
 900  51408.68
 901  50455.25
 902  51649.51
 903  51671.89
 904  51223.06
 905  50240.27
 906  49514.2
 907  48847.73
 908  49392.2
 909  50840.72
 910  51411.04
 911  49540.23
 912  48404.56
 913  47505.3
 914  47503.76
 915  46988.75
 916  47797.09
 917  49258.1
 918  49997.96
 919  50072.16
 920  48905.33
 921  49534.46
 922  49049.35
 923  48315.62
 924  47959.43
 925  48168.62
 926  48189.42
 927  48740.66
 928  49905.38
 929  49968.36
 930  48550.18
 931  48347.64
 932  48951.05
 933  49348.86
 934  47569.18
 935  47853.61
 936  48182.62
 937  47204.79
 938  45635.58
 939  45344.34
 940  45830.39
 941  47475.63
 942  46949.26
 943  47168.16
 944  46407
 945  45719.52
 946  46482.72
 947  46597.04
 948  47287.72
 949  49073.24
 950  47633.63
 951  48009.09
 952  47933.54
 953  48402.57
 954  48288.58
 955  46787.39
 956  45415.5
 957  45699.17
 958  45887.16
 959  48368.82
 960  48513.12
 961  47431.33
 962  47453.39
 963  45626.88
 964  45967.83
 965  46625.14
 966  47356.56
 967  49275.12
 968  49359.71
 969  48972.27
 970  48193.61
 971  47145.05
 972  47717.48
 973  47589.21
 974  48344.89
 975  48882.88
 976  48201.99
 977  46569.25
 978  46942.61
 979  46485.21
 980  46352.26
 981  45434.65
 982  46180.29
 983  47585.16
 984  47839.08
 985  47348.11
 986  47662.96
 987  47186.68
 988  47301.17
 989  45326.02
 990  44568.44
 991  43977.4
 992  45623.01
 993  46663.76
 994  47038.1
 995  46674.81
 996  47128.28
 997  47171.16
 998  46742.5
 999  46745.09
1000  47358.5
1001  48473.86
1002  48577.78
1003  48726.46
1004  48188.32
1005  47622.07
1006  47852.24
1007  47465.53
1008  47954.06
1009  48879.61
1010  50447.16
1011  49914.51
1012  48847.18
1013  47311.02
1014  47799.11
1015  46608.88
1016  47847
1017  48731.7
1018  48817.29
1019  48082.12
1020  46252.68
1021  47186.38
1022  48130.39
1023  48210.44
