# Input file       =  1195156967.112164_cleaned.dat
# Candidate        =  PSR_0332+5434
# Telescope        =  AR
# Epoch_topo       =  58076.835487409306
# Epoch_bary       =  N/A
# T_sample         =  0.002
# Data Folded      =  7340032
# Data Avg         =  0.0573536789368944
# Data StdDev      =  1.00014884991658 
# Profile Bins     =  512
# Profile Avg      =  822.176786173251 
# Profile StdDev   =  119.750858629243 
# Reduced chi-sqr  =  0.653
# Prob(Noise)      <  1   (~0.0 sigma)
# P_topo (ms)      =  714.514129287381  +/- 0.000346
# P'_topo (s/s)    =  -0                +/- 1.83e-10
# P''_topo (s/s^2) =  0                 +/- 8.06e-14
# P_bary (ms)      =  N/A
# P'_bary (s/s)    =  N/A
# P''_bary (s/s^2) =  N/A
# P_orb (s)        =  N/A
# asin(i)/c (s)    =  N/A
# eccentricity     =  N/A
# w (rad)          =  N/A
# T_peri           =  N/A
######################################################
   0  820.2525
   1  737.7675
   2  769.312
   3  727.4719
   4  739.9263
   5  784.4193
   6  878.6323
   7  806.3217
   8  781.5872
   9  846.5201
  10  901.1379
  11  933.2562
  12  834.7902
  13  845.1172
  14  879.2377
  15  883.7885
  16  893.5531
  17  830.6109
  18  800.5209
  19  855.9531
  20  877.0664
  21  835.154
  22  781.2279
  23  753.6157
  24  805.8386
  25  770.1826
  26  771.3777
  27  804.0701
  28  823.7859
  29  872.7841
  30  872.1087
  31  863.5354
  32  808.3627
  33  818.2697
  34  899.5632
  35  916.0353
  36  835.0862
  37  738.5969
  38  803.3584
  39  864.0837
  40  759.9419
  41  707.8986
  42  785.7027
  43  842.8983
  44  879.3435
  45  931.0995
  46  906.5783
  47  760.1578
  48  752.5394
  49  803.7903
  50  879.6158
  51  862.983
  52  915.8116
  53  879.9609
  54  765.5595
  55  905.095
  56  956.9234
  57  866.9998
  58  836.2234
  59  836.804
  60  879.8617
  61  767.4691
  62  746.2258
  63  745.2097
  64  821.9304
  65  848.1259
  66  820.0626
  67  835.7403
  68  895.7148
  69  866.3688
  70  766.4459
  71  780.5525
  72  728.1259
  73  738.4668
  74  823.7718
  75  828.3256
  76  784.3889
  77  791.8899
  78  779.5587
  79  716.9619
  80  704.9639
  81  860.0738
  82  754.8441
  83  763.605
  84  879.2259
  85  823.2816
  86  662.4999
  87  723.3934
  88  839.9764
  89  851.9614
  90  793.7919
  91  868.8301
  92  965.0911
  93  821.1278
  94  814.7126
  95  806.3746
  96  796.0208
  97  735.4044
  98  776.4506
  99  868.3798
 100  831.7426
 101  809.2543
 102  800.2018
 103  828.9133
 104  879.5606
 105  873.9004
 106  845.537
 107  710.8794
 108  670.3279
 109  664.4323
 110  701.8207
 111  733.8567
 112  709.6342
 113  731.1757
 114  731.5843
 115  655.5721
 116  661.1666
 117  787.8583
 118  820.8202
 119  705.0939
 120  708.6514
 121  729.2837
 122  724.6353
 123  691.9833
 124  698.8601
 125  654.3344
 126  708.3986
 127  700.5894
 128  747.7266
 129  621.5301
 130  740.2898
 131  802.7359
 132  708.4185
 133  704.1916
 134  765.59
 135  778.6899
 136  731.8066
 137  707.7358
 138  754.0072
 139  825.6326
 140  802.4142
 141  840.0468
 142  808.2974
 143  801.1513
 144  869.858
 145  845.7627
 146  880.0003
 147  762.5925
 148  818.0732
 149  832.5643
 150  767.4643
 151  734.4295
 152  723.204
 153  643.3042
 154  622.4935
 155  701.7336
 156  776.697
 157  752.9303
 158  734.443
 159  724.0858
 160  747.6984
 161  767.5131
 162  809.6841
 163  783.7227
 164  896.8478
 165  877.4041
 166  790.9787
 167  813.1994
 168  787.5527
 169  803.0096
 170  773.2952
 171  787.4395
 172  804.9561
 173  860.0453
 174  780.7468
 175  869.1375
 176  878.3467
 177  817.2597
 178  817.7549
 179  859.418
 180  825.0194
 181  803.8124
 182  817.028
 183  842.2678
 184  821.3088
 185  812.3304
 186  845.5194
 187  819.9228
 188  806.4677
 189  818.7689
 190  919.8909
 191  820.3754
 192  862.9484
 193  921.2912
 194  979.4277
 195  905.9679
 196  878.6871
 197  776.815
 198  761.587
 199  810.9388
 200  934.6823
 201  973.0633
 202  930.0883
 203  914.9034
 204  837.7451
 205  772.487
 206  849.9147
 207  905.2782
 208  896.7097
 209  925.899
 210  915.278
 211  765.4739
 212  773.4285
 213  773.5901
 214  749.9493
 215  860.7435
 216  824.7761
 217  762.4485
 218  772.3224
 219  826.0989
 220  828.5573
 221  792.4559
 222  832.2273
 223  833.8569
 224  868.7694
 225  800.7913
 226  694.0551
 227  792.7853
 228  854.1532
 229  836.4256
 230  765.7621
 231  814.4452
 232  808.6025
 233  844.4487
 234  862.2019
 235  939.324
 236  930.2855
 237  878.5643
 238  826.4264
 239  833.5975
 240  814.4854
 241  793.4921
 242  887.8529
 243  893.8374
 244  869.2869
 245  850.3426
 246  872.8791
 247  904.0504
 248  1007.196
 249  994.3879
 250  996.3279
 251  891.3042
 252  780.5179
 253  808.4117
 254  764.8574
 255  886.9255
 256  862.1741
 257  909.8804
 258  918.0529
 259  820.5991
 260  837.0155
 261  801.6801
 262  779.4691
 263  861.1868
 264  877.9592
 265  949.3634
 266  914.8198
 267  928.7393
 268  879.9601
 269  855.5512
 270  897.2693
 271  811.4557
 272  765.3413
 273  786.6947
 274  907.5933
 275  902.9526
 276  889.4399
 277  920.5082
 278  844.8219
 279  847.4949
 280  933.5969
 281  980.051
 282  921.2812
 283  792.0481
 284  777.2493
 285  903.4142
 286  878.8934
 287  817.6718
 288  828.9168
 289  837.6702
 290  877.1074
 291  843.148
 292  869.4604
 293  822.5737
 294  794.9666
 295  813.6269
 296  872.3876
 297  801.6899
 298  851.2016
 299  978.7774
 300  917.7826
 301  785.58
 302  785.0699
 303  745.0706
 304  801.7889
 305  819.8007
 306  826.8965
 307  771.8638
 308  808.9906
 309  848.0768
 310  885.6941
 311  794.917
 312  861.9444
 313  943.3091
 314  850.2208
 315  909.0519
 316  893.2599
 317  928.364
 318  841.7921
 319  914.2866
 320  1066.771
 321  1129.913
 322  1065.03
 323  1053.677
 324  983.5135
 325  894.3132
 326  778.0471
 327  811.0142
 328  869.9824
 329  900.8634
 330  803.218
 331  726.9718
 332  792.6468
 333  786.8144
 334  775.5223
 335  803.6806
 336  778.9473
 337  866.6934
 338  824.6064
 339  866.2507
 340  833.5616
 341  730.9417
 342  800.3154
 343  909.6038
 344  744.7009
 345  701.3891
 346  822.0637
 347  854.6003
 348  772.8779
 349  728.8911
 350  813.8177
 351  837.5326
 352  910.9402
 353  913.0829
 354  835.1871
 355  773.7134
 356  752.4395
 357  770.446
 358  716.6077
 359  807.5806
 360  896.9915
 361  811.3669
 362  777.9947
 363  831.1788
 364  891.7693
 365  802.592
 366  774.2263
 367  735.3888
 368  753.0881
 369  812.8239
 370  811.3611
 371  824.6358
 372  784.5183
 373  733.9092
 374  704.8062
 375  810.0226
 376  806.4512
 377  769.3624
 378  802.3158
 379  784.4312
 380  741.8109
 381  814.1249
 382  822.2306
 383  760.5144
 384  769.1082
 385  850.6834
 386  876.7463
 387  801.5045
 388  866.2357
 389  858.1768
 390  748.7862
 391  762.6453
 392  909.1321
 393  843.7822
 394  770.6379
 395  789.8796
 396  825.7449
 397  776.0143
 398  807.7646
 399  813.3395
 400  758.5037
 401  710.2987
 402  749.3645
 403  792.9274
 404  744.7073
 405  786.5549
 406  850.9455
 407  872.57
 408  827.4984
 409  852.8682
 410  849.8336
 411  827.1094
 412  814.6619
 413  795.5173
 414  841.5654
 415  842.1283
 416  882.374
 417  836.5848
 418  749.9127
 419  750.895
 420  777.2998
 421  823.9615
 422  861.8246
 423  859.4783
 424  787.9421
 425  782.6654
 426  791.6503
 427  762.4101
 428  859.4264
 429  883.9775
 430  831.2949
 431  884.2032
 432  846.9544
 433  800.0745
 434  707.1223
 435  801.2225
 436  829.3311
 437  833.7223
 438  816.8488
 439  823.0485
 440  802.6835
 441  883.2615
 442  955.192
 443  933.4988
 444  821.3811
 445  793.4637
 446  791.1683
 447  827.3948
 448  805.4076
 449  807.6834
 450  830.1
 451  828.3271
 452  832.3776
 453  901.5677
 454  854.2363
 455  723.1123
 456  791.0681
 457  949.5892
 458  920.0327
 459  894.968
 460  878.1658
 461  947.3437
 462  827.9107
 463  884.6448
 464  968.1158
 465  917.848
 466  912.0909
 467  860.6511
 468  864.0915
 469  933.2303
 470  914.5263
 471  995.7302
 472  899.8407
 473  759.6978
 474  754.88
 475  780.6918
 476  787.0312
 477  786.3228
 478  795.9443
 479  870.7457
 480  819.2849
 481  792.6619
 482  844.7716
 483  878.9794
 484  829.1782
 485  825.437
 486  872.1733
 487  883.0217
 488  819.8065
 489  811.1049
 490  835.1423
 491  783.3112
 492  761.6948
 493  845.2919
 494  792.5789
 495  835.7029
 496  897.0112
 497  865.7207
 498  804.1487
 499  694.7115
 500  766.1629
 501  699.0602
 502  678.7883
 503  754.2056
 504  760.1588
 505  782.4777
 506  756.3864
 507  736.228
 508  758.0455
 509  817.5703
 510  834.3954
 511  825.0852
