# Input file       =  1195588322.105109_cleaned.dat
# Candidate        =  PSR_0332+5434
# Telescope        =  AR
# Epoch_topo       =  58081.828022049871
# Epoch_bary       =  N/A
# T_sample         =  0.002
# Data Folded      =  7340032
# Data Avg         =  0.0681863657961874
# Data StdDev      =  1.00022764718781 
# Profile Bins     =  512
# Profile Avg      =  977.498952880304 
# Profile StdDev   =  119.760293265786 
# Reduced chi-sqr  =  0.729
# Prob(Noise)      <  1   (~0.0 sigma)
# P_topo (ms)      =  714.519297137513  +/- 0.000152
# P'_topo (s/s)    =  -0                +/- 8.01e-11
# P''_topo (s/s^2) =  0                 +/- 3.53e-14
# P_bary (ms)      =  N/A
# P'_bary (s/s)    =  N/A
# P''_bary (s/s^2) =  N/A
# P_orb (s)        =  N/A
# asin(i)/c (s)    =  N/A
# eccentricity     =  N/A
# w (rad)          =  N/A
# T_peri           =  N/A
######################################################
   0  1461.932
   1  1340.672
   2  1113.722
   3  1027.8
   4  1017.197
   5  1026.285
   6  952.1432
   7  932.2087
   8  858.0668
   9  881.2602
  10  925.187
  11  976.4764
  12  939.1841
  13  979.6127
  14  1085.4
  15  1025.231
  16  929.8654
  17  982.078
  18  891.6811
  19  943.5125
  20  1045.2
  21  980.0878
  22  1031.093
  23  1014.794
  24  973.7205
  25  1011.755
  26  1037.259
  27  895.3913
  28  1081.745
  29  1153.738
  30  1055.165
  31  888.777
  32  896.1935
  33  1013.415
  34  935.3411
  35  962.1506
  36  950.0079
  37  951.8728
  38  967.0964
  39  985.1822
  40  1052.812
  41  981.3772
  42  1120.157
  43  1068.398
  44  968.9296
  45  954.809
  46  1031.419
  47  979.4857
  48  968.7325
  49  1014.228
  50  995.1926
  51  889.4215
  52  911.1515
  53  965.4683
  54  946.7943
  55  979.3138
  56  1039.784
  57  1105.131
  58  1073.747
  59  964.317
  60  884.3107
  61  899.2411
  62  1017.245
  63  899.9214
  64  889.4512
  65  939.5051
  66  921.9314
  67  933.5618
  68  1028.885
  69  1104.664
  70  1045.643
  71  995.7578
  72  943.2695
  73  975.3836
  74  904.8998
  75  819.1813
  76  867.7655
  77  958.6749
  78  1011.593
  79  1023.131
  80  973.4401
  81  949.8089
  82  948.3741
  83  1042.372
  84  974.3112
  85  915.4267
  86  918.5978
  87  920.226
  88  920.4227
  89  923.9478
  90  965.4611
  91  911.0211
  92  941.6303
  93  941.549
  94  877.5303
  95  913.4846
  96  947.7814
  97  1015.274
  98  872.7278
  99  887.9809
 100  963.7723
 101  952.7595
 102  933.3471
 103  975.8033
 104  926.1886
 105  930.1154
 106  966.1653
 107  966.7861
 108  965.145
 109  981.6555
 110  991.0502
 111  948.6716
 112  960.3992
 113  882.3855
 114  955.5468
 115  969.6266
 116  958.1095
 117  980.9506
 118  893.7731
 119  930.5309
 120  924.8088
 121  949.7784
 122  971.3383
 123  1023.907
 124  1020.536
 125  1028.426
 126  1053.995
 127  991.1655
 128  1061.571
 129  960.757
 130  962.4008
 131  951.8499
 132  962.9672
 133  859.814
 134  809.5331
 135  895.9934
 136  920.3281
 137  920.509
 138  929.1914
 139  936.3276
 140  939.5129
 141  910.7096
 142  942.8893
 143  950.5936
 144  904.7863
 145  853.4464
 146  881.7255
 147  966.1281
 148  975.6349
 149  952.5776
 150  930.3589
 151  871.1439
 152  842.8265
 153  953.9316
 154  959.1432
 155  1002.259
 156  919.1812
 157  934.4717
 158  959.9479
 159  1029.684
 160  1009.727
 161  941.9013
 162  983.5844
 163  1041.285
 164  1103.264
 165  1050.753
 166  1032.909
 167  992.5162
 168  962.3444
 169  1000.635
 170  995.9592
 171  1093.465
 172  1047.73
 173  997.8005
 174  990.369
 175  994.1799
 176  849.8023
 177  861.0045
 178  1028.289
 179  1075.605
 180  1118.908
 181  989.7145
 182  1025.646
 183  1041.258
 184  1011.992
 185  1073.878
 186  1064.315
 187  1057.338
 188  1027.48
 189  977.2977
 190  942.1305
 191  906.4223
 192  933.2315
 193  1044.018
 194  1050.265
 195  1017.225
 196  1016.9
 197  969.6574
 198  932.2117
 199  940.4314
 200  1053.746
 201  1123.784
 202  1031.608
 203  1046.915
 204  1077.253
 205  1050.425
 206  976.3035
 207  930.1288
 208  1011.938
 209  1028.65
 210  1107.36
 211  1025.223
 212  1088.141
 213  1017.114
 214  1029.065
 215  953.5853
 216  961.861
 217  950.5798
 218  912.7292
 219  925.8327
 220  944.8521
 221  966.9478
 222  1014.055
 223  946.3389
 224  881.7559
 225  1035.162
 226  1096.642
 227  1013.994
 228  901.8793
 229  940.3932
 230  999.8707
 231  1050.828
 232  1056.688
 233  956.3034
 234  923.3896
 235  954.3036
 236  1016.972
 237  1039.012
 238  981.1526
 239  922.3055
 240  843.5345
 241  953.8308
 242  938.4307
 243  1005.468
 244  1040.236
 245  1004.92
 246  996.0718
 247  1002.049
 248  991.1715
 249  932.8733
 250  1049.75
 251  1093.732
 252  1014.944
 253  1123.566
 254  1004.679
 255  1031.347
 256  854.3843
 257  929.3976
 258  947.8968
 259  944.411
 260  1098.717
 261  1069.47
 262  1017.161
 263  1004.585
 264  1072.676
 265  1043.499
 266  1007.813
 267  951.2933
 268  957.3441
 269  977.9551
 270  965.1424
 271  853.7838
 272  961.2365
 273  972.9994
 274  917.7305
 275  917.5751
 276  879.5778
 277  922.4771
 278  961.0248
 279  1002.414
 280  975.4044
 281  902.3805
 282  1001.663
 283  930.0145
 284  984.6804
 285  871.4195
 286  972.486
 287  1056.617
 288  1052.967
 289  1012.671
 290  892.5683
 291  909.1434
 292  895.5989
 293  971.4362
 294  950.1771
 295  969.0593
 296  962.9156
 297  966.058
 298  981.7631
 299  871.8536
 300  978.1779
 301  1001.388
 302  1018.736
 303  1016.031
 304  949.1988
 305  878.0035
 306  903.9847
 307  1029.269
 308  1119.891
 309  992.2799
 310  891.8316
 311  973.9735
 312  935.874
 313  914.2819
 314  966.1056
 315  1017.002
 316  1042.077
 317  1006.577
 318  1004.766
 319  1037.518
 320  1020.032
 321  977.0503
 322  987.3619
 323  1090.349
 324  1041.137
 325  996.9747
 326  945.2443
 327  1020.513
 328  975.6248
 329  988.3646
 330  1054.82
 331  965.1412
 332  943.4173
 333  932.0362
 334  991.7372
 335  987.9839
 336  1081.339
 337  1103.269
 338  984.0804
 339  975.5848
 340  990.0563
 341  886.1866
 342  862.2693
 343  1014.921
 344  1041.669
 345  1026.068
 346  1057.546
 347  929.7474
 348  955.8334
 349  888.2083
 350  966.8307
 351  964.2787
 352  966.473
 353  1023.459
 354  1081.243
 355  1067.557
 356  973.7455
 357  974.5728
 358  981.3014
 359  1010.582
 360  920.5712
 361  892.5845
 362  889.7146
 363  892.5836
 364  955.8128
 365  932.6201
 366  887.1402
 367  811.5369
 368  892.2247
 369  932.2266
 370  1031.48
 371  993.5457
 372  1040.312
 373  1031.969
 374  949.0883
 375  974.0098
 376  893.6351
 377  931.5223
 378  956.0485
 379  944.4489
 380  1004.854
 381  899.3571
 382  1010.429
 383  909.9656
 384  865.4288
 385  849.4841
 386  929.0385
 387  935.9433
 388  973.3497
 389  1011.474
 390  937.5085
 391  894.2879
 392  925.5338
 393  991.6353
 394  978.2484
 395  930.2742
 396  925.5401
 397  936.8107
 398  890.9562
 399  892.0129
 400  1007.416
 401  992.4917
 402  977.4109
 403  921.9719
 404  998.2813
 405  993.464
 406  957.1291
 407  895.3726
 408  992.4828
 409  1016.937
 410  1016.779
 411  1048.764
 412  1067.213
 413  1025.034
 414  994.8372
 415  1036.184
 416  986.2994
 417  971.2956
 418  994.2931
 419  937.7219
 420  966.1823
 421  1011.892
 422  971.3822
 423  949.6072
 424  855.2856
 425  996.9179
 426  964.5671
 427  899.9232
 428  858.6929
 429  879.3058
 430  970.5095
 431  981.2194
 432  973.035
 433  873.1645
 434  850.4047
 435  767.8638
 436  915.3989
 437  853.5798
 438  794.9079
 439  824.844
 440  875.7841
 441  921.7305
 442  973.9852
 443  912.4172
 444  906.4575
 445  1005.264
 446  1063.403
 447  1084.937
 448  1016.993
 449  1017.601
 450  1117.65
 451  1125.026
 452  1070.098
 453  992.8474
 454  998.5151
 455  1030.993
 456  1020.994
 457  986.9397
 458  972.557
 459  974.628
 460  913.3151
 461  1035.628
 462  1019.984
 463  1023.104
 464  959.2162
 465  969.955
 466  1059.187
 467  923.7307
 468  972.5702
 469  1095.662
 470  1074.317
 471  944.5833
 472  861.2435
 473  863.9499
 474  945.3902
 475  1036.43
 476  988.5627
 477  949.7807
 478  973.4351
 479  1008.933
 480  1015.914
 481  944.6306
 482  945.3836
 483  950.561
 484  1001.627
 485  859.4292
 486  932.0693
 487  913.5659
 488  881.0573
 489  914.4734
 490  1005.291
 491  984.8635
 492  946.6649
 493  1066.905
 494  1018.001
 495  1035.691
 496  976.1733
 497  1053.756
 498  1009.75
 499  909.2584
 500  871.0664
 501  874.1952
 502  1025.927
 503  1088.935
 504  1081.771
 505  1064.228
 506  1111.345
 507  1059.846
 508  1178.962
 509  1249.122
 510  1287.136
 511  1366.156
