# Input file       =  1195086376.112684_cleaned.dat
# Candidate        =  PSR_0332+5434
# Telescope        =  AR
# Epoch_topo       =  58076.018461952364
# Epoch_bary       =  N/A
# T_sample         =  0.002
# Data Folded      =  7340032
# Data Avg         =  6.67489546982585 
# Data StdDev      =  48.4191425932378 
# Profile Bins     =  512
# Profile Avg      =  95691.0273969479 
# Profile StdDev   =  5797.37096144797 
# Reduced chi-sqr  =  0.396
# Prob(Noise)      <  1   (~0.0 sigma)
# P_topo (ms)      =  714.513639188262  +/- 7.77e-05
# P'_topo (s/s)    =  -0                +/- 4.1e-11
# P''_topo (s/s^2) =  0                 +/- 1.81e-14
# P_bary (ms)      =  N/A
# P'_bary (s/s)    =  N/A
# P''_bary (s/s^2) =  N/A
# P_orb (s)        =  N/A
# asin(i)/c (s)    =  N/A
# eccentricity     =  N/A
# w (rad)          =  N/A
# T_peri           =  N/A
######################################################
   0  97232.18
   1  93972.11
   2  93877.93
   3  96837.11
   4  96123.6
   5  95381.85
   6  94385.11
   7  92499.05
   8  93914.59
   9  93656.85
  10  94615.26
  11  93663.52
  12  91982.16
  13  93761.48
  14  97976.43
  15  96446.64
  16  97228.98
  17  97778.53
  18  96226.54
  19  95211.31
  20  94673.22
  21  95373.7
  22  94671.3
  23  97385.3
  24  96921.54
  25  98403.91
  26  97068.59
  27  98436.52
  28  100372.8
  29  98156.78
  30  97913.71
  31  96573.59
  32  97214.1
  33  98318.71
  34  96679.24
  35  94382.75
  36  96151.07
  37  94531.29
  38  99372.91
  39  97962.43
  40  95678.88
  41  98700.7
  42  99814.55
  43  95231.76
  44  94809.34
  45  96041.12
  46  99403.54
  47  96855.69
  48  93345.41
  49  96985.62
  50  96089.73
  51  94261.34
  52  95472.77
  53  98700.91
  54  96574.8
  55  90235.65
  56  94291.77
  57  97848.88
  58  96537.41
  59  97098.5
  60  100178
  61  96774.88
  62  96091.85
  63  97816.34
  64  97754.18
  65  94078.02
  66  96666.73
  67  94398.58
  68  94056.2
  69  95273.66
  70  99521.51
  71  100656.5
  72  100468.4
  73  100672.6
  74  97899.66
  75  99026.36
  76  94774.54
  77  94493.08
  78  96405.34
  79  94727.64
  80  94630.01
  81  96966.34
  82  97173.47
  83  91746.9
  84  93033.38
  85  93979.97
  86  98293.14
  87  97492.16
  88  98023.8
  89  97617.07
  90  97100.73
  91  95779.93
  92  94900.84
  93  96397.37
  94  97981.12
  95  99472.05
  96  94657.35
  97  90326.27
  98  89456.81
  99  95862.65
 100  99266.66
 101  96870.88
 102  97300.88
 103  97371.59
 104  97904.53
 105  97552.73
 106  93235.98
 107  93777.04
 108  95433.23
 109  100823.3
 110  97335.12
 111  97120.8
 112  95060.19
 113  96569.38
 114  96471.19
 115  94115.41
 116  92302.4
 117  92010.8
 118  97677.71
 119  96432.62
 120  96609.75
 121  96429.12
 122  97542.3
 123  92954.57
 124  94740.38
 125  96057.56
 126  96720.38
 127  93113.39
 128  91398.82
 129  96807.42
 130  98970.55
 131  92549.41
 132  93576.52
 133  98592.42
 134  97542.87
 135  97120.48
 136  93897.6
 137  96688.45
 138  92853.45
 139  95449.23
 140  91982.77
 141  89183.72
 142  94383.21
 143  94124.43
 144  95389.84
 145  94976.34
 146  94780.81
 147  93676.32
 148  95134.99
 149  93831.59
 150  94674.93
 151  95992.19
 152  100874.7
 153  98954.27
 154  95252.09
 155  91681.7
 156  88728.09
 157  92798.72
 158  95100.64
 159  93083.61
 160  93979.26
 161  99856.08
 162  97119.96
 163  95899.38
 164  98706.4
 165  98410.93
 166  96094.47
 167  93400.2
 168  91557
 169  92912.82
 170  93108.82
 171  95781.21
 172  95691.97
 173  93325.03
 174  92534.93
 175  93609.1
 176  97647.62
 177  96157.78
 178  97157.66
 179  98742.13
 180  98592.59
 181  98489.95
 182  98447.18
 183  94985.96
 184  92201.62
 185  94854.04
 186  97614.13
 187  94262.3
 188  93152.73
 189  97392.63
 190  94619.6
 191  92933.84
 192  90976.99
 193  92572.5
 194  91364.85
 195  97084.34
 196  98464.44
 197  95417.97
 198  92590.89
 199  95439.91
 200  99694.96
 201  96583.77
 202  93845.5
 203  93570.74
 204  96600.77
 205  97576.27
 206  95447.81
 207  94544.2
 208  94668.48
 209  94402.89
 210  96945.25
 211  97675.33
 212  97372.29
 213  95027.57
 214  96238.3
 215  96403.62
 216  95240.88
 217  99586.11
 218  100262.9
 219  100097.9
 220  98629.56
 221  104252.1
 222  101690.7
 223  100396.7
 224  99674.66
 225  99972.02
 226  96784.1
 227  96201.66
 228  96387.49
 229  101219.5
 230  98200.08
 231  97179.14
 232  97241.03
 233  98225.91
 234  95924.55
 235  96800.56
 236  96247.12
 237  94074.34
 238  98657.79
 239  99933.8
 240  101595.8
 241  98735.3
 242  97221.47
 243  99408.63
 244  99207.96
 245  97376.16
 246  98943.17
 247  100895.1
 248  97282.24
 249  96038.86
 250  103207.5
 251  103063.5
 252  104327.6
 253  102250
 254  98811.7
 255  97299.29
 256  90666.66
 257  94217.62
 258  97837.55
 259  95165.08
 260  98242.12
 261  100531.6
 262  97658.45
 263  97570.31
 264  95055.55
 265  98279.67
 266  97956.76
 267  93884.41
 268  98357.62
 269  93516.78
 270  92810.46
 271  95105.04
 272  95526.61
 273  96052.99
 274  90523.16
 275  95244.65
 276  99906.27
 277  98788.47
 278  96615.67
 279  94370.28
 280  93133.86
 281  94359.46
 282  95854.16
 283  95119.38
 284  92429.13
 285  94260
 286  95351.93
 287  96143.12
 288  93718.27
 289  92622.61
 290  98319.64
 291  98686.45
 292  96615.28
 293  92595.84
 294  92219.68
 295  92899.44
 296  94308.7
 297  97141.62
 298  98811.8
 299  97551.33
 300  99700.21
 301  97531.27
 302  98048.21
 303  98457.34
 304  97973.4
 305  94833.61
 306  93265.72
 307  92428.37
 308  91022.3
 309  92543.38
 310  94005.37
 311  97162.14
 312  95845.48
 313  94044.02
 314  94495.35
 315  92646.55
 316  92060.69
 317  90229.26
 318  93147.23
 319  95701.7
 320  96149.15
 321  97903.93
 322  97210.21
 323  92920.82
 324  92892.9
 325  92455.66
 326  93491.27
 327  94187.81
 328  94556.41
 329  96819.13
 330  95868.55
 331  92418.54
 332  91145.02
 333  96128.57
 334  94553.8
 335  93227.48
 336  99259.36
 337  96871.16
 338  95203.88
 339  97584.05
 340  97107.12
 341  95211.45
 342  93721.49
 343  93772.76
 344  91590.34
 345  91007.84
 346  94135.61
 347  96972.56
 348  97775.62
 349  97608.77
 350  92395.32
 351  89257.19
 352  91883.79
 353  95727.47
 354  98001.42
 355  95464.83
 356  94968.88
 357  98981.39
 358  98533.25
 359  95267.88
 360  94432.99
 361  97118.37
 362  97562.65
 363  102038.1
 364  102594
 365  102772.3
 366  98262.37
 367  99467.81
 368  101911
 369  96756.12
 370  94673.7
 371  95663.12
 372  100408.7
 373  98277.93
 374  98190.84
 375  95391.05
 376  97062.59
 377  99537.29
 378  97646.53
 379  97657.55
 380  96210.84
 381  95654.89
 382  91489.68
 383  92104.18
 384  94810.92
 385  92652.8
 386  92369.03
 387  95583.74
 388  96062.41
 389  96412.42
 390  95571.59
 391  91633.59
 392  92634.78
 393  97111.45
 394  93408.35
 395  92182.8
 396  95314.05
 397  98752.51
 398  95694.84
 399  95242.83
 400  97172.08
 401  95565.66
 402  93403.23
 403  92039.79
 404  93289.88
 405  94768.47
 406  95231.49
 407  93414.48
 408  89364.52
 409  90641.82
 410  94047.3
 411  93967.72
 412  93757.15
 413  95071.32
 414  97192.46
 415  96574.13
 416  95123.26
 417  96124.14
 418  99914.69
 419  97856.73
 420  94416.63
 421  95574.44
 422  97079.43
 423  93818.05
 424  95971.82
 425  96998.96
 426  98661
 427  93170.79
 428  92855.27
 429  95125.92
 430  97363.33
 431  96055.05
 432  95976.6
 433  94090.31
 434  95623.93
 435  94365.94
 436  93298.48
 437  90980.06
 438  95142.66
 439  97816.4
 440  96204.96
 441  93317.31
 442  96100.95
 443  96882.27
 444  95293.82
 445  93042.59
 446  93781.47
 447  92586.96
 448  87956.78
 449  92725.05
 450  92903.32
 451  91330.66
 452  90030.91
 453  91965.68
 454  93862.94
 455  93894.02
 456  92380.78
 457  91711.3
 458  92270.62
 459  91586.23
 460  93427.83
 461  93760.95
 462  93873.85
 463  94256.42
 464  92491.92
 465  93264.2
 466  93102.22
 467  94173.76
 468  99031.95
 469  98740.24
 470  89884.25
 471  93112.66
 472  96757.8
 473  98306.53
 474  95580.42
 475  92348.02
 476  91760.32
 477  94720.34
 478  97825.62
 479  95305.01
 480  92579.04
 481  94446.3
 482  93497.3
 483  94243.72
 484  93904.73
 485  92860.23
 486  93520.67
 487  95713.21
 488  97989.94
 489  98803.45
 490  98837.31
 491  95481.63
 492  95157.88
 493  93644.77
 494  95214.38
 495  93499.95
 496  94855.7
 497  95745.3
 498  96969.61
 499  93726.45
 500  94274.11
 501  98104.92
 502  94828.3
 503  94749.75
 504  93473.7
 505  94176.82
 506  94989.48
 507  93280.16
 508  93988.7
 509  93443.68
 510  93078.67
 511  97461.29
