# Input file       =  1196105373.116092_cleaned.dat
# Candidate        =  PSR_0332+5434
# Telescope        =  AR
# Epoch_topo       =  58087.812408751066
# Epoch_bary       =  N/A
# T_sample         =  0.002
# Data Folded      =  7340032
# Data Avg         =  0.141802225907408
# Data StdDev      =  4.02463375380236 
# Profile Bins     =  1024
# Profile Avg      =  1016.69282253022 
# Profile StdDev   =  340.741760981676 
# Reduced chi-sqr  =  0.578
# Prob(Noise)      <  1   (~0.0 sigma)
# P_topo (ms)      =  714.525495038232  +/- 0.000388
# P'_topo (s/s)    =  -0                +/- 2.05e-10
# P''_topo (s/s^2) =  0                 +/- 9.04e-14
# P_bary (ms)      =  N/A
# P'_bary (s/s)    =  N/A
# P''_bary (s/s^2) =  N/A
# P_orb (s)        =  N/A
# asin(i)/c (s)    =  N/A
# eccentricity     =  N/A
# w (rad)          =  N/A
# T_peri           =  N/A
######################################################
   0  937.6458
   1  999.1312
   2  905.3209
   3  910.2378
   4  910.6202
   5  946.0167
   6  984.4757
   7  986.8054
   8  985.6507
   9  934.5088
  10  902.0963
  11  869.1018
  12  848.7168
  13  776.3689
  14  711.1152
  15  675.531
  16  653.1803
  17  795.1904
  18  849.6802
  19  831.7568
  20  927.9675
  21  1072.17
  22  1120.038
  23  1001.097
  24  1034.369
  25  1019.134
  26  904.9139
  27  750.9271
  28  775.701
  29  776.9417
  30  880.0858
  31  971.3096
  32  1219.362
  33  1217.393
  34  1133.316
  35  1071.175
  36  1060.787
  37  1139.941
  38  1178.604
  39  1232.733
  40  1127.495
  41  991.3584
  42  901.7835
  43  904.4654
  44  949.4033
  45  1055.354
  46  1132.6
  47  1093.514
  48  1090.407
  49  1028.578
  50  1101.898
  51  1037.496
  52  1050.076
  53  1074.282
  54  1110.943
  55  1094.26
  56  1081.799
  57  987.1082
  58  809.9201
  59  737.3451
  60  833.6702
  61  897.5955
  62  1022.64
  63  989.2977
  64  1073.87
  65  913.4664
  66  937.3636
  67  894.5586
  68  932.3372
  69  878.0124
  70  932.0908
  71  1062.643
  72  1124.176
  73  1038.834
  74  951.0716
  75  852.5062
  76  875.6531
  77  948.9166
  78  960.2516
  79  938.2793
  80  969.3052
  81  1052.028
  82  1148.835
  83  1106.04
  84  1060.783
  85  1000.506
  86  997.6633
  87  944.4824
  88  861.6135
  89  932.3865
  90  942.6642
  91  924.7551
  92  951.4963
  93  1002.261
  94  938.8653
  95  847.2903
  96  819.4763
  97  854.6005
  98  934.8558
  99  982.0059
 100  1060.098
 101  1055.027
 102  994.3935
 103  947.0555
 104  847.3766
 105  812.1577
 106  766.2816
 107  857.0714
 108  943.4555
 109  1044.672
 110  1124.099
 111  1271.914
 112  1220.193
 113  1193.048
 114  1129.71
 115  1109.173
 116  1044.688
 117  949.8109
 118  928.8556
 119  980.063
 120  998.1868
 121  1004.451
 122  860.1112
 123  837.3192
 124  888.5088
 125  968.4988
 126  948.0057
 127  898.4492
 128  803.9978
 129  734.808
 130  824.9267
 131  946.7919
 132  986.0432
 133  804.3152
 134  740.9822
 135  769.8406
 136  763.061
 137  731.9465
 138  695.0679
 139  767.9502
 140  822.3104
 141  926.429
 142  1013.16
 143  1012.646
 144  1028.672
 145  1093.547
 146  1047.915
 147  1071.261
 148  1087.467
 149  1139.233
 150  1051.994
 151  930.0905
 152  958.5404
 153  945.0796
 154  907.5625
 155  857.084
 156  895.8516
 157  987.0513
 158  924.0422
 159  767.0536
 160  716.4117
 161  794.4603
 162  883.7729
 163  868.9733
 164  857.2603
 165  1014.409
 166  966.3177
 167  914.0249
 168  864.4305
 169  995.2209
 170  962.5275
 171  921.4514
 172  806.1892
 173  726.2302
 174  679.6517
 175  730.6317
 176  667.7838
 177  785.7215
 178  895.6348
 179  1044.92
 180  995.6224
 181  1009.254
 182  1010.859
 183  1058.323
 184  1151.945
 185  1255.397
 186  1100.195
 187  978.8531
 188  840.2984
 189  886.1422
 190  853.5172
 191  947.691
 192  992.1947
 193  1106.119
 194  1125.847
 195  1174.875
 196  1170.361
 197  1139.834
 198  1026.146
 199  933.541
 200  812.4395
 201  725.4913
 202  737.3685
 203  926.9742
 204  996.5896
 205  939.3623
 206  799.647
 207  866.7185
 208  1057.456
 209  1127.045
 210  1089.649
 211  919.8516
 212  815.7274
 213  786.4912
 214  892.1611
 215  937.5702
 216  924.4644
 217  976.9578
 218  1002.689
 219  996.0352
 220  1009.064
 221  1014.608
 222  1011.469
 223  1065.566
 224  1072.731
 225  1172.586
 226  1207.462
 227  1178.044
 228  1088.015
 229  1012.122
 230  1051.009
 231  1002.561
 232  1003.376
 233  948.1237
 234  835.9224
 235  781.5258
 236  824.9672
 237  909.6514
 238  909.0388
 239  883.3115
 240  871.3135
 241  932.1578
 242  998.2571
 243  940.9232
 244  895.3636
 245  867.8958
 246  884.7495
 247  988.3682
 248  942.1687
 249  1051.345
 250  1043.076
 251  1016.505
 252  879.5922
 253  843.8858
 254  891.171
 255  847.334
 256  978.3846
 257  1097.855
 258  1079.12
 259  922.5768
 260  858.9424
 261  1030.724
 262  1207.907
 263  1270.392
 264  1194.156
 265  1027.572
 266  944.1315
 267  903.2366
 268  940.8195
 269  1037.71
 270  1021.268
 271  1010.283
 272  1039.879
 273  1062.164
 274  1027.826
 275  967.4059
 276  900.4462
 277  916.546
 278  943.1724
 279  946.4061
 280  918.6379
 281  961.5235
 282  1027.78
 283  1031.372
 284  948.0671
 285  923.7515
 286  916.8364
 287  922.3704
 288  1064.919
 289  1174.812
 290  1285.858
 291  1200.761
 292  1146.56
 293  1038.937
 294  1029.917
 295  1140.611
 296  1210.516
 297  1155.268
 298  964.4533
 299  935.8167
 300  879.7153
 301  798.7095
 302  832.1488
 303  969.5903
 304  1080.841
 305  1106.102
 306  1110.295
 307  1089.725
 308  1075.23
 309  1072.637
 310  1140.162
 311  1134.249
 312  1037.502
 313  931.3671
 314  943.5743
 315  912.3132
 316  833.5618
 317  800.319
 318  818.4767
 319  772.1342
 320  695.5759
 321  703.2042
 322  853.4343
 323  993.2164
 324  1083.258
 325  1083.263
 326  978.2106
 327  849.2213
 328  946.3052
 329  989.7986
 330  987.6456
 331  977.4121
 332  992.0976
 333  912.7104
 334  782.475
 335  843.4256
 336  939.0732
 337  923.5355
 338  995.8536
 339  1074.471
 340  1127.371
 341  1014.542
 342  1074.069
 343  1146.697
 344  1132.544
 345  973.0376
 346  885.8135
 347  984.9277
 348  988.9154
 349  1070.949
 350  1155.904
 351  1166.448
 352  979.4308
 353  920.9733
 354  986.3635
 355  1082.198
 356  1005.201
 357  921.1229
 358  969.1943
 359  883.9671
 360  1020.627
 361  953.3057
 362  1015.56
 363  930.4567
 364  946.1568
 365  941.5818
 366  925.0219
 367  810.1073
 368  762.4915
 369  795.3126
 370  911.6643
 371  982.5758
 372  1061.079
 373  986.7785
 374  986.2297
 375  927.5115
 376  927.9637
 377  919.7542
 378  942.9276
 379  980.7047
 380  1000.622
 381  946.4245
 382  973.3005
 383  1013.968
 384  1019.321
 385  949.4189
 386  950.2292
 387  983.3189
 388  889.1452
 389  883.2245
 390  977.1935
 391  1065.719
 392  1018.396
 393  988.2325
 394  1029.247
 395  1038.716
 396  1043.427
 397  1033.155
 398  1011.095
 399  999.023
 400  995.5594
 401  1014.048
 402  1134.412
 403  1049.833
 404  1039.833
 405  918.4051
 406  1006.926
 407  1002.931
 408  1060.678
 409  1091.416
 410  1137.634
 411  1107.817
 412  1082.76
 413  999.1698
 414  1020.283
 415  1135.339
 416  1196.963
 417  1210.728
 418  1172.205
 419  1228.061
 420  1165.006
 421  1179.664
 422  1171.99
 423  1250.342
 424  1171.831
 425  1032.642
 426  944.1028
 427  871.2659
 428  816.1102
 429  755.8735
 430  765.6516
 431  911.8159
 432  954.4172
 433  1077.213
 434  1000.211
 435  1002.07
 436  1034.844
 437  1123.011
 438  1069.183
 439  979.6411
 440  972.4605
 441  1015.766
 442  1013.638
 443  986.1542
 444  1029.373
 445  1040.182
 446  1112.522
 447  1148.398
 448  1173.616
 449  1156.166
 450  1195.474
 451  1145.914
 452  1107.524
 453  1057.653
 454  1223.959
 455  1270.805
 456  1256.991
 457  1097.07
 458  928.45
 459  880.8901
 460  833.0473
 461  962.3062
 462  1076.293
 463  1169.801
 464  972.7684
 465  842.9714
 466  716.225
 467  696.2559
 468  793.3435
 469  932.338
 470  972.3376
 471  896.9977
 472  841.6122
 473  950.2838
 474  1119.257
 475  1125.944
 476  1067.35
 477  1141.417
 478  1203.617
 479  1118.83
 480  1052.771
 481  1123.695
 482  1149.575
 483  1078.485
 484  991.5869
 485  1002.6
 486  1010.186
 487  1041.686
 488  1091.977
 489  1125.274
 490  1100.25
 491  1135.22
 492  1152.446
 493  1214.574
 494  1064.552
 495  1036.247
 496  1057.416
 497  1079.107
 498  1088.09
 499  1069.107
 500  1110.234
 501  1136.167
 502  1114.982
 503  1082.635
 504  1135.699
 505  1245.765
 506  1198.587
 507  1046.391
 508  986.608
 509  1068.523
 510  1038.307
 511  971.2168
 512  941.0792
 513  985.3079
 514  889.4627
 515  810.7932
 516  846.9076
 517  971.5627
 518  1084.037
 519  1130.524
 520  1081.1
 521  1096.263
 522  1029.789
 523  1137.303
 524  1193.779
 525  1237.137
 526  1113.861
 527  1051.974
 528  1106.882
 529  1039.355
 530  1024.906
 531  933.0114
 532  1091.63
 533  1176.737
 534  1116.425
 535  946.8685
 536  969.2984
 537  1055.071
 538  1131.64
 539  1141.17
 540  1138.822
 541  1126.882
 542  1018.52
 543  1000.265
 544  1073.139
 545  1143.29
 546  1164.425
 547  1082.965
 548  1045.028
 549  1067.031
 550  1006.675
 551  985.7568
 552  976.2783
 553  966.2825
 554  961.6537
 555  987.4402
 556  987.8364
 557  941.1218
 558  1038.033
 559  1154.667
 560  1272.789
 561  1171.026
 562  1110.31
 563  1025.621
 564  1096.794
 565  1109.074
 566  1110.761
 567  1085.579
 568  1097.83
 569  1072.839
 570  999.0109
 571  942.4192
 572  1004.858
 573  991.7835
 574  1115.987
 575  1031.061
 576  1023.916
 577  966.343
 578  933.8958
 579  924.4333
 580  929.8689
 581  973.7125
 582  1040.854
 583  1008.998
 584  1014.079
 585  1142.339
 586  1279.31
 587  1339.725
 588  1161.81
 589  1071.621
 590  987.8464
 591  1095.972
 592  1133.43
 593  1338.363
 594  1350.796
 595  1215.842
 596  1046.563
 597  1021.259
 598  1182.368
 599  1253.104
 600  1214.298
 601  1108.763
 602  1058.531
 603  1043.875
 604  1111.499
 605  1090.743
 606  1179.94
 607  1060.344
 608  1116.463
 609  999.0029
 610  1039.875
 611  1159.442
 612  1237.447
 613  1224.908
 614  993.0161
 615  939.2183
 616  934.414
 617  986.2893
 618  952.9789
 619  983.3443
 620  1182.834
 621  1344.793
 622  1462.386
 623  1512.08
 624  1564.144
 625  1578.773
 626  1705.833
 627  1714.324
 628  1706.495
 629  1664.834
 630  1600.701
 631  1417.875
 632  1353.953
 633  1358.047
 634  1223.123
 635  1195.06
 636  1181.578
 637  1232.27
 638  1021.877
 639  1038.843
 640  1115.446
 641  1239.665
 642  1367.687
 643  1292.834
 644  1140.586
 645  1026.541
 646  1010.05
 647  1016.119
 648  954.9197
 649  1015.138
 650  1088.947
 651  1205.423
 652  1201.093
 653  1079.894
 654  1059.093
 655  1118.455
 656  1153.32
 657  1046.887
 658  959.4943
 659  968.6541
 660  918.5952
 661  885.2144
 662  863.2471
 663  954.6988
 664  903.9504
 665  884.4631
 666  867.1307
 667  954.232
 668  1151.161
 669  1210.349
 670  1175.255
 671  1135.096
 672  1050.84
 673  1089.253
 674  1041.727
 675  1036.056
 676  1006.979
 677  1080.927
 678  1046.9
 679  1102.555
 680  1079.721
 681  1317.775
 682  1294.364
 683  1165.188
 684  1060.929
 685  1051.72
 686  1086.109
 687  924.4957
 688  853.1113
 689  915.1873
 690  1169.915
 691  1279.487
 692  1289.734
 693  1056.748
 694  1011.464
 695  1073.566
 696  1325.806
 697  1392.49
 698  1296.68
 699  1234.671
 700  1229.15
 701  1189.282
 702  1051.823
 703  951.3653
 704  1020.182
 705  1052.704
 706  1053.047
 707  1115.897
 708  1252.564
 709  1265.29
 710  1165.884
 711  1079.696
 712  1054.279
 713  1056.165
 714  1122.643
 715  1190.512
 716  1159.568
 717  1241.31
 718  1223.532
 719  1222.833
 720  1105.93
 721  1079.21
 722  1122.868
 723  1105.801
 724  1021.291
 725  874.6898
 726  948.3889
 727  946.1117
 728  1108.339
 729  1121.51
 730  1108.234
 731  1014.522
 732  1050.75
 733  1158.34
 734  1104.211
 735  963.1799
 736  993.3845
 737  1037.414
 738  1107.966
 739  1110.434
 740  1058.148
 741  994.9688
 742  913.0558
 743  1015.503
 744  1068.037
 745  1054.925
 746  1129.799
 747  1174.735
 748  1162.629
 749  962.1481
 750  900.4049
 751  932.2334
 752  1033.812
 753  1057.061
 754  1088.239
 755  1082.874
 756  1146.03
 757  1208.833
 758  1212.219
 759  1183.109
 760  1115.892
 761  1084.615
 762  1022.27
 763  1052.22
 764  996.313
 765  1083.927
 766  988.0956
 767  1019.523
 768  874.2293
 769  906.1201
 770  840.89
 771  874.6403
 772  1008.833
 773  1054.431
 774  996.5176
 775  930.6449
 776  960.3775
 777  1025.925
 778  962.4705
 779  1024.346
 780  956.0508
 781  982.7067
 782  968.4053
 783  978.9727
 784  1014.674
 785  999.8472
 786  1073.387
 787  940.5663
 788  899.7148
 789  819.0608
 790  928.2209
 791  1003.684
 792  1067.992
 793  1056.352
 794  1059.385
 795  1037.045
 796  1097.272
 797  1064.384
 798  1076.375
 799  1008.988
 800  939.6685
 801  964.513
 802  1091.92
 803  1085.634
 804  1076.105
 805  951.4788
 806  981.1506
 807  964.5135
 808  1014.859
 809  1061.055
 810  998.9189
 811  1069.99
 812  1152.184
 813  1283.025
 814  1349.877
 815  1181.544
 816  946.311
 817  724.6075
 818  629.1081
 819  698.1392
 820  673.7381
 821  818.5079
 822  944.9167
 823  1077.402
 824  1068.688
 825  1004.744
 826  1051.116
 827  1062.111
 828  972.3206
 829  872.4612
 830  860.8503
 831  911.237
 832  978.6111
 833  997.8267
 834  985.5065
 835  858.1317
 836  891.7245
 837  1008.34
 838  1086.829
 839  1110.769
 840  1092.184
 841  1093.741
 842  1031.295
 843  1033.979
 844  1149.812
 845  1129.405
 846  993.1512
 847  973.7808
 848  1073.213
 849  1149.693
 850  1020.843
 851  1016.807
 852  999.075
 853  974.433
 854  888.1786
 855  950.7256
 856  1100.055
 857  1028.205
 858  994.67
 859  912.6763
 860  920.3781
 861  875.3239
 862  860.2422
 863  785.446
 864  684.7902
 865  537.0904
 866  651.239
 867  882.0388
 868  949.9161
 869  865.4173
 870  775.5856
 871  885.2178
 872  976.407
 873  1037.279
 874  1066.804
 875  1095.385
 876  1075.356
 877  983.6028
 878  872.2054
 879  835.2175
 880  869.7938
 881  987.6975
 882  992.8932
 883  1078.758
 884  950.7316
 885  874.2093
 886  835.1917
 887  942.4651
 888  1013.597
 889  1151.671
 890  1113.382
 891  1197.239
 892  1129.288
 893  1138.142
 894  1187.625
 895  1169.788
 896  1241.764
 897  1254.022
 898  1306.484
 899  1236.979
 900  1174.567
 901  1147.5
 902  1172.4
 903  1174.24
 904  1200.17
 905  1288.534
 906  1338.179
 907  1366.886
 908  1268.71
 909  1200.493
 910  1142.285
 911  1159.174
 912  1227.251
 913  1244.458
 914  1127.963
 915  1129.613
 916  1111.756
 917  1138.525
 918  1182.142
 919  1258.584
 920  1308.83
 921  1234.998
 922  1173.914
 923  1172.997
 924  1145.96
 925  1140.168
 926  1090.088
 927  1076.986
 928  1028.004
 929  1054.063
 930  968.7783
 931  875.7419
 932  854.8771
 933  962.0911
 934  1073.633
 935  1050.342
 936  1054.826
 937  1075.699
 938  1073.518
 939  1019.126
 940  949.1592
 941  948.7313
 942  953.3265
 943  950.3303
 944  961.9133
 945  917.944
 946  925.5898
 947  1004.378
 948  1011.187
 949  1056.685
 950  1029.841
 951  1123.088
 952  1168.656
 953  1218.856
 954  1094.329
 955  998.5943
 956  921.003
 957  916.1761
 958  884.6601
 959  921.2925
 960  920.4024
 961  968.0982
 962  1025.461
 963  1067.227
 964  1114.344
 965  1120.988
 966  1067.423
 967  1074.726
 968  1006.736
 969  913.3124
 970  858.5302
 971  842.0179
 972  902.4478
 973  927.9365
 974  988.0118
 975  913.2957
 976  915.4681
 977  972.6648
 978  1134.975
 979  1142.226
 980  1226.697
 981  1118.565
 982  1028.025
 983  827.1672
 984  793.2332
 985  749.34
 986  715.6912
 987  789.4947
 988  921.6107
 989  986.4133
 990  1032.004
 991  1022.303
 992  990.0674
 993  864.4728
 994  830.2366
 995  765.7935
 996  835.0374
 997  755.3332
 998  868.3702
 999  878.1112
1000  932.981
1001  933.8873
1002  871.5018
1003  859.6523
1004  745.8768
1005  710.2822
1006  735.9749
1007  749.3689
1008  755.9875
1009  755.0809
1010  800.0844
1011  843.7749
1012  876.3118
1013  828.6542
1014  895.0381
1015  871.1729
1016  917.9888
1017  858.7105
1018  864.2596
1019  872.8645
1020  882.4631
1021  892.21
1022  820.1263
1023  949.4885
