# Input file       =  1196794206.116471_cleaned.dat
# Candidate        =  PSR_0332+5434
# Telescope        =  AR
# Epoch_topo       =  58095.785012922119
# Epoch_bary       =  N/A
# T_sample         =  0.002
# Data Folded      =  7340032
# Data Avg         =  0.108090333871327
# Data StdDev      =  3.48601991865441 
# Profile Bins     =  512
# Profile Avg      =  1549.61441109661 
# Profile StdDev   =  417.391749730379 
# Reduced chi-sqr  =  0.736
# Prob(Noise)      <  1   (~0.0 sigma)
# P_topo (ms)      =  714.533662095796  +/- 9.75e-05
# P'_topo (s/s)    =  -0                +/- 5.15e-11
# P''_topo (s/s^2) =  0                 +/- 2.27e-14
# P_bary (ms)      =  N/A
# P'_bary (s/s)    =  N/A
# P''_bary (s/s^2) =  N/A
# P_orb (s)        =  N/A
# asin(i)/c (s)    =  N/A
# eccentricity     =  N/A
# w (rad)          =  N/A
# T_peri           =  N/A
######################################################
   0  1461.583
   1  1473.044
   2  1273.552
   3  1260.781
   4  1445.964
   5  1439.421
   6  1341.703
   7  1296.916
   8  1357.784
   9  1372.828
  10  1523.329
  11  1566.278
  12  1645.538
  13  1714.656
  14  1839.15
  15  1660.505
  16  1340.381
  17  1248.221
  18  1107.619
  19  1231.709
  20  1226.469
  21  1282.148
  22  1410.928
  23  1243.467
  24  1150.104
  25  1385.417
  26  1180.158
  27  1240.966
  28  1429.924
  29  1346.546
  30  1170.119
  31  1359.354
  32  1357.802
  33  1229.329
  34  1642.69
  35  1653.897
  36  1307.077
  37  1360.754
  38  1458.676
  39  1542.785
  40  1836.676
  41  1536.817
  42  1603.405
  43  1483.573
  44  1531.566
  45  1533.116
  46  1764.254
  47  1704.236
  48  1293.258
  49  1008.312
  50  966.9847
  51  1413.887
  52  1883.88
  53  1780.527
  54  1750.773
  55  1621.645
  56  1705.386
  57  1660.141
  58  1738.002
  59  1924.771
  60  1733.15
  61  1715.503
  62  1662.891
  63  1649.731
  64  1533.81
  65  1791.046
  66  2041.561
  67  1709.363
  68  2019.897
  69  2323.079
  70  2593.229
  71  2971.012
  72  2879.921
  73  2308.994
  74  1924.862
  75  1803.213
  76  1907.943
  77  1728.155
  78  1310.039
  79  1084.062
  80  1725.989
  81  1923.613
  82  1818.405
  83  1431.303
  84  1613.305
  85  1790.948
  86  2012.639
  87  1658.779
  88  1445.848
  89  1575.292
  90  1460.011
  91  1334.242
  92  1264.089
  93  1309.052
  94  1454.113
  95  1416.202
  96  1321.766
  97  1398.884
  98  1536.958
  99  1286.913
 100  1445.229
 101  1315.505
 102  1128.156
 103  1381.464
 104  1479.326
 105  1436.362
 106  1345.229
 107  1266.45
 108  1724.817
 109  1774.276
 110  1665.361
 111  1805.623
 112  1650.213
 113  1353.326
 114  1085.866
 115  1260.004
 116  1540.999
 117  1924.443
 118  2004.614
 119  1824.504
 120  1658.009
 121  1601.575
 122  1591.023
 123  1900.548
 124  1944.433
 125  1975.142
 126  1798.196
 127  1701.913
 128  1371.584
 129  1684.493
 130  1910.265
 131  1914.848
 132  1593.4
 133  1357.758
 134  1405.7
 135  1243.378
 136  1483.319
 137  1430.576
 138  1536.687
 139  1826.41
 140  1731.981
 141  1440.002
 142  1548.045
 143  1747.681
 144  1470.479
 145  1438.545
 146  1442.763
 147  1677.695
 148  1803.713
 149  1814.925
 150  1374.825
 151  1134.103
 152  1276.126
 153  1654.782
 154  1755.18
 155  1453.462
 156  1642.134
 157  1185.53
 158  1290.678
 159  1258.969
 160  1009.13
 161  1170.586
 162  1597.102
 163  1732.846
 164  1551.255
 165  1487.091
 166  1609.187
 167  1498.561
 168  1399.355
 169  1410.544
 170  1617.399
 171  1539.967
 172  1656.593
 173  1603.901
 174  1600.345
 175  1477.229
 176  1615.169
 177  2035.216
 178  2031.557
 179  1827.111
 180  1681.981
 181  1677.437
 182  1799.058
 183  1818.407
 184  1901.142
 185  1603.571
 186  1343.807
 187  1102.17
 188  1372.582
 189  1664.082
 190  1952.983
 191  2133.473
 192  1832.151
 193  1608.066
 194  1815.487
 195  1616.1
 196  1683.351
 197  1469.64
 198  1625.643
 199  1585.768
 200  1518.193
 201  1521.038
 202  1525.395
 203  1700.961
 204  1684.763
 205  1841.568
 206  1191.095
 207  1477.283
 208  1722.568
 209  1594.337
 210  1383.607
 211  1574.401
 212  1758.709
 213  1303.533
 214  902.7561
 215  1092.527
 216  1214.811
 217  1373.876
 218  1658.466
 219  1593.671
 220  1606.313
 221  1780.446
 222  1525.672
 223  1323.567
 224  1462.922
 225  1622.928
 226  1605.034
 227  1582.384
 228  1443.866
 229  1160.414
 230  989.6292
 231  1383.414
 232  1660.374
 233  1435.4
 234  1489.941
 235  1574.941
 236  1615.976
 237  1200.24
 238  1197.748
 239  1477.612
 240  1481.892
 241  1601.864
 242  1974.891
 243  1896.844
 244  1621.075
 245  1385.634
 246  1325.466
 247  1469.229
 248  1470.381
 249  1057.596
 250  987.2762
 251  1136.581
 252  1547.82
 253  1562.893
 254  1387.844
 255  1495.718
 256  1566.652
 257  1455.075
 258  1451.064
 259  1144.559
 260  1354.616
 261  1874.674
 262  1947.057
 263  1611.013
 264  1443.625
 265  1517.731
 266  1617.421
 267  1326.681
 268  1345.475
 269  1267.958
 270  1322.11
 271  1417.512
 272  1127.789
 273  1241.376
 274  1529.504
 275  1514.298
 276  1224.555
 277  1301.504
 278  1359.509
 279  1686.237
 280  1588.638
 281  1587.374
 282  1645.846
 283  1681.973
 284  1864.574
 285  1734.182
 286  1571.072
 287  1442.635
 288  1345.633
 289  1442.551
 290  1227.458
 291  1285.102
 292  1499.316
 293  1607.049
 294  1792.179
 295  1415.205
 296  1165.054
 297  1321.711
 298  1579.362
 299  1587.109
 300  1404.408
 301  1142.213
 302  1242.255
 303  1445.46
 304  1777.944
 305  1768.799
 306  1885.853
 307  1771.331
 308  1482.698
 309  1354.813
 310  1362.979
 311  1370.392
 312  1505.83
 313  1598.581
 314  1618.455
 315  1651.055
 316  1865.052
 317  1430.765
 318  1043.6
 319  1793.452
 320  1932.069
 321  1763.685
 322  1665.651
 323  1598.515
 324  1340.847
 325  1473.15
 326  1902.437
 327  1928.76
 328  1811.971
 329  1504.664
 330  1047.607
 331  1327.713
 332  1293.907
 333  1504.964
 334  1730.606
 335  1624.865
 336  1527.509
 337  1497.58
 338  1470.058
 339  1494.717
 340  1722.975
 341  1701.205
 342  1633.418
 343  1781.438
 344  1723.255
 345  1527.048
 346  1295.973
 347  1353.531
 348  1291.53
 349  1134.34
 350  1453.057
 351  1778.073
 352  1739.607
 353  1654.347
 354  1709.812
 355  1537.107
 356  1554.858
 357  1499.083
 358  1750.084
 359  1719.297
 360  1480.599
 361  1557.816
 362  1271.028
 363  1287.637
 364  1428.075
 365  1767.29
 366  1496.19
 367  1555.228
 368  1616.532
 369  1519.001
 370  1628.397
 371  1825.073
 372  1987.665
 373  1686.328
 374  1183.951
 375  1446.675
 376  1427.213
 377  1521.371
 378  1555.106
 379  1850.097
 380  1447.545
 381  1025.09
 382  1067.837
 383  1485.201
 384  1616.332
 385  1830.813
 386  1871.576
 387  1677.817
 388  1544.335
 389  1650.617
 390  1520.204
 391  2078.532
 392  2130.979
 393  1837.641
 394  1744.319
 395  1705.636
 396  2004.992
 397  2040.153
 398  1976.432
 399  1905.806
 400  1786.961
 401  1586.841
 402  1569.943
 403  1471.031
 404  1396.518
 405  1788.436
 406  2078.528
 407  1704.896
 408  1346.87
 409  1589.494
 410  1361.299
 411  1264.133
 412  1669.474
 413  1642.965
 414  1279.931
 415  1334.178
 416  1685.251
 417  1781.837
 418  1417.046
 419  1377.467
 420  1487.097
 421  1388.021
 422  1300.924
 423  1405.96
 424  1372.419
 425  1444.535
 426  1193.964
 427  1622.635
 428  1845.43
 429  1665.527
 430  1376.547
 431  1186.65
 432  1287.443
 433  1941.398
 434  2077.358
 435  2059.399
 436  1915.561
 437  1778.367
 438  1621.98
 439  1780.093
 440  1863.742
 441  1617.937
 442  1613.194
 443  1643.477
 444  1829.245
 445  1564.821
 446  1343.536
 447  1084.351
 448  1396.654
 449  1618.48
 450  1903.803
 451  1712.503
 452  1325.417
 453  1223.536
 454  1226.785
 455  1376.851
 456  1534.631
 457  1556.445
 458  1617.269
 459  1522.131
 460  1505.095
 461  1306.064
 462  1382.6
 463  1305.4
 464  1470.113
 465  1554.664
 466  1621.452
 467  1366.548
 468  1399.591
 469  1690.718
 470  1546.281
 471  1621.819
 472  1753.679
 473  1628.243
 474  1423.901
 475  1230.844
 476  1286.337
 477  1401.609
 478  1518.733
 479  1624.323
 480  1270.383
 481  1073.525
 482  1008.637
 483  1101.56
 484  1172.761
 485  1361.086
 486  1392.561
 487  1420.847
 488  1571.464
 489  1367.326
 490  1510.573
 491  1729.301
 492  1946.636
 493  1904.294
 494  1911.515
 495  1694.053
 496  1785.568
 497  1138.885
 498  1312.048
 499  1778.727
 500  1731.009
 501  1687.234
 502  1642.492
 503  1592.165
 504  1991.818
 505  1965.048
 506  1826.469
 507  1665.924
 508  1582.376
 509  1454.79
 510  1359.307
 511  1346.905
