# Input file       =  1196521562.110791_cleaned.dat
# Candidate        =  PSR_0332+5434
# Telescope        =  AR
# Epoch_topo       =  58092.629411004527
# Epoch_bary       =  N/A
# T_sample         =  0.002
# Data Folded      =  7208960
# Data Avg         =  0.358905581664294
# Data StdDev      =  5.32891107933312 
# Profile Bins     =  512
# Profile Avg      =  5053.29536755703 
# Profile StdDev   =  632.324196550681 
# Reduced chi-sqr  =  0.650
# Prob(Noise)      <  1   (~0.0 sigma)
# P_topo (ms)      =  714.530420499261  +/- 0.000169
# P'_topo (s/s)    =  -0                +/- 9.09e-11
# P''_topo (s/s^2) =  0                 +/- 4.09e-14
# P_bary (ms)      =  N/A
# P'_bary (s/s)    =  N/A
# P''_bary (s/s^2) =  N/A
# P_orb (s)        =  N/A
# asin(i)/c (s)    =  N/A
# eccentricity     =  N/A
# w (rad)          =  N/A
# T_peri           =  N/A
######################################################
   0  5221.148
   1  5645.307
   2  5538.705
   3  5420.803
   4  5679.077
   5  5564.367
   6  4819.313
   7  4714.031
   8  4982.089
   9  4837.508
  10  5278.068
  11  5003.744
  12  5296.49
  13  4989.014
  14  5003.541
  15  5162.414
  16  5371.185
  17  5396.773
  18  5434.298
  19  5193.333
  20  4696.507
  21  4502.325
  22  4529.583
  23  4440.235
  24  4728.91
  25  5204.366
  26  5402.729
  27  5099.591
  28  5549.724
  29  5431.122
  30  5488.849
  31  4737.889
  32  4746.536
  33  4602.207
  34  4743.696
  35  4586.615
  36  4185.872
  37  5255.976
  38  5121.206
  39  4908.693
  40  5238.859
  41  4849.279
  42  4663.68
  43  4696.942
  44  4888.748
  45  5066.095
  46  5053.409
  47  4910.819
  48  5228.021
  49  5169.805
  50  4843.547
  51  4568.025
  52  4825.415
  53  5367.166
  54  5172.562
  55  5068.974
  56  4989.749
  57  5235.206
  58  5170.861
  59  5130.518
  60  5328.063
  61  5460.792
  62  5560.002
  63  4859.581
  64  4804.16
  65  4770.293
  66  4481.827
  67  4539.542
  68  4922.036
  69  5091.26
  70  4962.881
  71  5061.935
  72  5270.676
  73  5452.083
  74  5154.119
  75  5117.889
  76  4777.931
  77  5107.027
  78  5241.468
  79  5565.421
  80  5356.224
  81  4734.926
  82  4734.553
  83  4769.021
  84  4592.205
  85  4805.031
  86  5295.52
  87  5180.425
  88  4754.908
  89  4434.301
  90  4422.855
  91  4518.949
  92  4828.879
  93  5446.806
  94  5227.021
  95  5130.781
  96  5092.532
  97  5494.026
  98  5077.587
  99  4667.451
 100  4828.61
 101  4756.77
 102  4924.951
 103  5246.457
 104  5231.797
 105  4431.272
 106  4942.142
 107  4828.567
 108  4821.596
 109  5228.43
 110  4768.313
 111  5296.727
 112  5405.326
 113  5879.796
 114  5257.775
 115  5173.849
 116  5374.705
 117  5553.042
 118  5419.78
 119  5283.003
 120  5236.694
 121  5041.48
 122  5472.973
 123  5311.199
 124  5174.825
 125  5157.243
 126  5976.265
 127  6113.859
 128  5397.622
 129  5564.664
 130  5356.434
 131  5006.722
 132  5040.37
 133  4975.058
 134  5021.637
 135  4753.758
 136  4861.744
 137  5101.844
 138  5348.32
 139  4916.011
 140  4637.958
 141  4756.516
 142  4817.958
 143  5031.621
 144  5263.94
 145  5480.595
 146  5617.451
 147  5564.97
 148  4984.914
 149  5065.885
 150  4743.714
 151  5061.269
 152  5295.363
 153  4908.603
 154  5213.408
 155  5384.699
 156  5379.173
 157  5158.806
 158  5341.881
 159  5711.026
 160  5659.19
 161  5449.564
 162  5384.084
 163  5139.785
 164  5106.253
 165  5500.888
 166  5496.931
 167  5760.515
 168  5073.75
 169  5496.539
 170  5303.984
 171  5067.286
 172  4624.083
 173  4528.707
 174  5079.205
 175  5308.597
 176  5515.477
 177  5433.419
 178  5637.513
 179  5550.376
 180  5237.366
 181  5144.183
 182  4873.253
 183  5007.847
 184  5810.254
 185  5643.026
 186  5508.351
 187  5869.555
 188  5575.779
 189  5206.851
 190  5245.532
 191  5511.518
 192  5241.869
 193  5317.96
 194  5540.97
 195  5165.146
 196  4935.557
 197  5493.432
 198  5556.466
 199  4955.154
 200  4362.431
 201  5118.417
 202  4988.08
 203  4667.923
 204  4300.095
 205  4687.546
 206  4618.593
 207  4219.694
 208  4063.141
 209  4332.503
 210  4785.066
 211  4729.629
 212  5793.826
 213  4631.225
 214  4721.185
 215  4381.331
 216  4922.186
 217  4720.585
 218  4854.934
 219  5053.342
 220  4918.461
 221  5264.351
 222  4926.634
 223  5250.039
 224  4874.438
 225  4560.816
 226  5159.75
 227  5479.981
 228  5154.831
 229  5247.248
 230  5522.531
 231  5267.277
 232  4760.159
 233  4909.748
 234  4700.192
 235  4834.252
 236  4882.799
 237  4909.182
 238  5131.827
 239  5131.959
 240  5367.092
 241  5587.814
 242  5514.671
 243  5502.978
 244  5224.088
 245  4766.218
 246  4645.999
 247  4986.539
 248  4952.261
 249  4877.298
 250  5090.644
 251  5358.806
 252  5505.995
 253  5229.603
 254  4900.137
 255  5174.101
 256  5015.066
 257  5582.328
 258  5511.931
 259  5750.334
 260  5847.215
 261  5614.094
 262  5661.163
 263  5532.862
 264  5261.677
 265  5088.866
 266  5085.521
 267  4944.184
 268  4687.882
 269  4890.363
 270  4688.389
 271  4439.927
 272  4778.364
 273  4636.28
 274  4741.593
 275  4414.823
 276  4738.067
 277  4982.459
 278  5041.532
 279  5281.43
 280  4676.533
 281  4800.425
 282  4558.466
 283  4956.035
 284  5543.448
 285  5311.336
 286  5087.972
 287  5129.003
 288  5141.684
 289  4539.648
 290  4352.082
 291  4852.072
 292  4966.819
 293  4901.576
 294  4721.638
 295  4763.615
 296  4651.794
 297  4923.296
 298  4557.031
 299  4106.687
 300  4684.402
 301  4731.748
 302  5137.736
 303  5125.028
 304  5556.958
 305  4973.652
 306  4919.186
 307  4953.921
 308  4995.143
 309  5366.367
 310  4785.194
 311  4954.612
 312  4954.351
 313  5148.436
 314  4898.33
 315  5328.216
 316  5180.592
 317  5321.576
 318  5690.919
 319  5552.995
 320  5368.537
 321  5129.539
 322  5151.233
 323  4806.342
 324  5082.542
 325  4569.403
 326  4792.949
 327  4934.094
 328  4520.762
 329  4645.347
 330  4415.788
 331  4453.724
 332  4271.22
 333  4444.317
 334  4348.576
 335  4281.038
 336  4281.175
 337  4476.542
 338  5074.315
 339  4718.611
 340  4330.25
 341  4506.979
 342  4928.315
 343  5095.791
 344  4497.144
 345  4599.927
 346  4475.126
 347  4664.049
 348  4520.713
 349  4679.111
 350  4784.633
 351  5089.911
 352  4993.191
 353  4920.549
 354  5130.425
 355  4997.359
 356  4996.727
 357  4993.864
 358  5567.697
 359  5197.698
 360  5135.299
 361  4960.267
 362  5122.664
 363  4926.742
 364  4616.649
 365  5059.331
 366  5437.927
 367  5098.186
 368  4339.493
 369  4906.351
 370  4291.872
 371  4611.227
 372  4926.341
 373  5259.495
 374  5251.638
 375  5138.606
 376  5069.345
 377  4468.606
 378  4662.961
 379  4748.042
 380  4786.706
 381  4984.307
 382  5097.629
 383  5200.493
 384  5299.717
 385  5137.417
 386  5053.539
 387  5110.115
 388  4736.895
 389  4971.977
 390  5090.332
 391  5042.379
 392  5649.882
 393  5888.729
 394  6054.666
 395  5748.424
 396  5544.418
 397  5337.925
 398  5715.754
 399  5317.254
 400  4871.453
 401  5049.153
 402  4613.623
 403  4635.19
 404  4807.773
 405  5116.155
 406  4958.036
 407  4874.024
 408  5278.774
 409  5435.631
 410  5252.119
 411  4904.899
 412  5124.396
 413  4819.319
 414  5132.275
 415  5780.544
 416  5855.696
 417  6177.857
 418  5455.202
 419  5255.167
 420  5122.011
 421  4950.764
 422  5239.575
 423  5267.778
 424  5838.397
 425  5697.671
 426  4943.612
 427  5272.354
 428  4915.002
 429  4748.283
 430  5084.647
 431  4883.539
 432  5357.783
 433  5346.552
 434  4926.776
 435  4119.722
 436  4865.402
 437  5088.363
 438  4948.976
 439  4749.004
 440  4855.666
 441  5109.001
 442  5016.428
 443  5214.042
 444  5356.401
 445  5078.833
 446  4986.914
 447  4713.538
 448  5005.184
 449  5152.064
 450  4746.377
 451  4911.438
 452  4866.103
 453  4705.607
 454  4557.389
 455  4902.186
 456  5083.665
 457  5455.486
 458  5582.308
 459  5050.918
 460  4853.576
 461  4685.142
 462  4928.903
 463  5186.7
 464  5160.44
 465  4851.046
 466  4764.856
 467  5042.83
 468  4957.345
 469  4341.337
 470  4727.534
 471  4308.345
 472  4929.294
 473  5234.941
 474  5062.839
 475  4881.941
 476  4312.984
 477  4884.046
 478  5185.545
 479  5299.892
 480  5592.155
 481  4730.168
 482  4560.776
 483  4207.764
 484  4603.912
 485  4576.204
 486  5018.684
 487  5135.945
 488  5682.916
 489  5418.043
 490  5322.185
 491  5290.019
 492  5119.385
 493  4890.894
 494  4885.061
 495  5343.151
 496  5331.881
 497  4587.249
 498  5165.978
 499  5465.762
 500  5147.817
 501  5169.029
 502  5036.729
 503  4859.951
 504  5009.98
 505  4730.675
 506  5373.061
 507  5701.73
 508  5521.29
 509  5635.727
 510  6022.75
 511  5761.232
