# Input file       =  1196206442.107451_cleaned.dat
# Candidate        =  PSR_0332+5434
# Telescope        =  AR
# Epoch_topo       =  58088.982188743648
# Epoch_bary       =  N/A
# T_sample         =  0.002
# Data Folded      =  7340032
# Data Avg         =  0.0945348793870758
# Data StdDev      =  1.00026092232174 
# Profile Bins     =  512
# Profile Avg      =  1355.23362215106 
# Profile StdDev   =  119.764277398606 
# Reduced chi-sqr  =  0.784
# Prob(Noise)      <  1   (~0.0 sigma)
# P_topo (ms)      =  714.527040133862  +/- 4.05e-05
# P'_topo (s/s)    =  -0                +/- 2.14e-11
# P''_topo (s/s^2) =  0                 +/- 9.43e-15
# P_bary (ms)      =  N/A
# P'_bary (s/s)    =  N/A
# P''_bary (s/s^2) =  N/A
# P_orb (s)        =  N/A
# asin(i)/c (s)    =  N/A
# eccentricity     =  N/A
# w (rad)          =  N/A
# T_peri           =  N/A
######################################################
   0  1583.773
   1  1464.759
   2  1460.309
   3  1364.903
   4  1293.356
   5  1361.766
   6  1395.772
   7  1423.571
   8  1287.854
   9  1386.377
  10  1387.542
  11  1339.528
  12  1326.833
  13  1259.363
  14  1305.786
  15  1294.582
  16  1316.339
  17  1465.885
  18  1311.931
  19  1244.21
  20  1349.989
  21  1523.443
  22  1553.042
  23  1471.067
  24  1404.521
  25  1385.322
  26  1315.113
  27  1316.477
  28  1349.832
  29  1251.333
  30  1320.349
  31  1416.593
  32  1364.3
  33  1383.443
  34  1345.139
  35  1352.55
  36  1331.773
  37  1325.349
  38  1336.733
  39  1386.879
  40  1280.416
  41  1301.263
  42  1355.598
  43  1381.836
  44  1358.71
  45  1310.792
  46  1314.328
  47  1461.667
  48  1428.847
  49  1332
  50  1315.104
  51  1398.203
  52  1374.507
  53  1342.526
  54  1292.656
  55  1314.929
  56  1387.186
  57  1453.716
  58  1361.882
  59  1289.216
  60  1350.08
  61  1291.462
  62  1271.931
  63  1402.046
  64  1358.662
  65  1312.355
  66  1315.694
  67  1327.628
  68  1316.033
  69  1321.796
  70  1268.464
  71  1335.262
  72  1237.489
  73  1198.234
  74  1310.638
  75  1191.815
  76  1205.935
  77  1252.485
  78  1306.476
  79  1313.939
  80  1349.618
  81  1351.341
  82  1293.125
  83  1214.751
  84  1235.5
  85  1344.726
  86  1399.792
  87  1297.659
  88  1259.792
  89  1331.37
  90  1292.718
  91  1281.084
  92  1397.58
  93  1370.756
  94  1235.474
  95  1272.181
  96  1296.732
  97  1285.698
  98  1330.72
  99  1381.05
 100  1425.79
 101  1414.043
 102  1403.974
 103  1287.145
 104  1287.616
 105  1325.517
 106  1332.138
 107  1367.232
 108  1325.924
 109  1297.796
 110  1324.15
 111  1307.488
 112  1314.179
 113  1361.166
 114  1318.896
 115  1276.467
 116  1347.341
 117  1441.083
 118  1457.545
 119  1418.894
 120  1425.18
 121  1447.355
 122  1343.167
 123  1410.478
 124  1486.64
 125  1474.605
 126  1382.334
 127  1347.896
 128  1447.886
 129  1400.262
 130  1392.016
 131  1413.722
 132  1328.847
 133  1264.863
 134  1324.214
 135  1388.505
 136  1374.838
 137  1361.14
 138  1455.319
 139  1410.986
 140  1369.948
 141  1393.219
 142  1420.936
 143  1416.091
 144  1300.013
 145  1353.157
 146  1440.369
 147  1368.318
 148  1299.713
 149  1350.172
 150  1510.882
 151  1531.853
 152  1486.533
 153  1491.032
 154  1339.548
 155  1447.203
 156  1453.255
 157  1410.079
 158  1384.696
 159  1343.975
 160  1415.029
 161  1309.266
 162  1371.971
 163  1481.887
 164  1389.112
 165  1287.424
 166  1283.804
 167  1345.416
 168  1432.415
 169  1377.918
 170  1442.167
 171  1475.128
 172  1390.604
 173  1289.48
 174  1299.128
 175  1469.691
 176  1431.275
 177  1482.317
 178  1535.581
 179  1360.927
 180  1365.982
 181  1374.208
 182  1406.187
 183  1315.799
 184  1381.377
 185  1499.113
 186  1443.809
 187  1296.445
 188  1370.52
 189  1324.335
 190  1210.802
 191  1302.001
 192  1384.614
 193  1442.601
 194  1389.848
 195  1300.32
 196  1290.263
 197  1381.993
 198  1512.775
 199  1449.762
 200  1451.452
 201  1372.78
 202  1395.67
 203  1435.483
 204  1327.56
 205  1413.454
 206  1495.189
 207  1507.723
 208  1359.142
 209  1240.228
 210  1242.755
 211  1290.436
 212  1255.778
 213  1221.391
 214  1310.058
 215  1362.271
 216  1306.57
 217  1360.9
 218  1390.561
 219  1335.185
 220  1332.976
 221  1284.29
 222  1282.453
 223  1378.987
 224  1412.714
 225  1448.114
 226  1363.743
 227  1347.954
 228  1347.772
 229  1286.55
 230  1179.939
 231  1286.753
 232  1360.432
 233  1269.475
 234  1250.309
 235  1340.066
 236  1407.901
 237  1405.817
 238  1364.997
 239  1286.925
 240  1310.708
 241  1320.808
 242  1274.859
 243  1290.629
 244  1260.807
 245  1258.19
 246  1394.612
 247  1346.089
 248  1309.651
 249  1374.847
 250  1385.585
 251  1290.078
 252  1435.191
 253  1380.904
 254  1274.767
 255  1315.555
 256  1439.593
 257  1453.142
 258  1324.569
 259  1317.615
 260  1374.772
 261  1300.153
 262  1233.473
 263  1314.154
 264  1479.753
 265  1411.846
 266  1229.938
 267  1277.186
 268  1300.704
 269  1257.893
 270  1317.418
 271  1441.734
 272  1332.971
 273  1267.313
 274  1280.157
 275  1271.487
 276  1226.379
 277  1170.903
 278  1229.749
 279  1317.717
 280  1320.048
 281  1302.681
 282  1251.737
 283  1182.43
 284  1212.873
 285  1356.936
 286  1367.507
 287  1292.795
 288  1376.261
 289  1334.847
 290  1305.361
 291  1258.38
 292  1329.338
 293  1440.387
 294  1344.904
 295  1397.881
 296  1560.803
 297  1498.321
 298  1378.76
 299  1348.691
 300  1440.28
 301  1415.335
 302  1387.554
 303  1337.151
 304  1294.322
 305  1303.91
 306  1375.257
 307  1341.413
 308  1244.692
 309  1260.275
 310  1246.483
 311  1252.354
 312  1254.784
 313  1301.828
 314  1504.684
 315  1450.957
 316  1313.128
 317  1348.265
 318  1343.666
 319  1374.537
 320  1280.061
 321  1382.188
 322  1394.897
 323  1347.178
 324  1355.337
 325  1304.553
 326  1211.012
 327  1175.399
 328  1363.996
 329  1366.207
 330  1253.305
 331  1196.73
 332  1297.744
 333  1311.166
 334  1266.145
 335  1308.039
 336  1349.952
 337  1316.161
 338  1330.828
 339  1344.384
 340  1328.445
 341  1286.127
 342  1298.526
 343  1384.751
 344  1342.404
 345  1316.435
 346  1483.245
 347  1387.264
 348  1377.65
 349  1381.147
 350  1396.16
 351  1361.675
 352  1402.717
 353  1455.437
 354  1342.047
 355  1387.372
 356  1481.746
 357  1472.262
 358  1345.836
 359  1272.675
 360  1323.362
 361  1437.118
 362  1418.635
 363  1450.085
 364  1390.759
 365  1297.218
 366  1280.058
 367  1391.549
 368  1354.008
 369  1249.596
 370  1229.418
 371  1335.51
 372  1375.431
 373  1318.047
 374  1251.154
 375  1360.418
 376  1404.407
 377  1367.733
 378  1482.906
 379  1439.83
 380  1355.208
 381  1302.637
 382  1430.303
 383  1400.864
 384  1363.201
 385  1386.74
 386  1421.268
 387  1335.661
 388  1238.756
 389  1404.776
 390  1406.812
 391  1355.266
 392  1370.969
 393  1393.769
 394  1355.835
 395  1353.776
 396  1488.794
 397  1418.463
 398  1197.918
 399  1296.757
 400  1394.579
 401  1370.106
 402  1354.374
 403  1351.355
 404  1406.869
 405  1244.112
 406  1293.351
 407  1294.925
 408  1352.771
 409  1215.95
 410  1282.985
 411  1346.172
 412  1378.764
 413  1408.744
 414  1427.477
 415  1306.118
 416  1262.305
 417  1344.262
 418  1435.862
 419  1401.209
 420  1336.077
 421  1270.176
 422  1238.127
 423  1302.397
 424  1311.113
 425  1380.812
 426  1334.121
 427  1373.949
 428  1312.726
 429  1304.855
 430  1275.841
 431  1224.741
 432  1346.82
 433  1378.78
 434  1393.57
 435  1371.351
 436  1383.564
 437  1430.525
 438  1374.709
 439  1524.248
 440  1638.627
 441  1747.248
 442  1716.038
 443  1627.845
 444  1521.422
 445  1353.38
 446  1329.964
 447  1382.09
 448  1383.693
 449  1390.27
 450  1361.509
 451  1323.672
 452  1329.527
 453  1331.209
 454  1402.142
 455  1340.273
 456  1387.002
 457  1352.474
 458  1337.915
 459  1334.741
 460  1341.939
 461  1373.589
 462  1253.748
 463  1241.572
 464  1351.763
 465  1307.71
 466  1352.912
 467  1384.099
 468  1409.552
 469  1344.061
 470  1311.903
 471  1385.876
 472  1363.181
 473  1317.546
 474  1265.848
 475  1379.703
 476  1395.295
 477  1352.873
 478  1382.632
 479  1421.411
 480  1444.042
 481  1279.64
 482  1352.181
 483  1422.358
 484  1408.598
 485  1373.353
 486  1446.132
 487  1466.189
 488  1420.131
 489  1410.653
 490  1273.677
 491  1294.091
 492  1370.695
 493  1374.681
 494  1279.263
 495  1235.581
 496  1340.72
 497  1313.189
 498  1393.135
 499  1434.154
 500  1450.042
 501  1282.688
 502  1260.672
 503  1302.63
 504  1390.143
 505  1434.985
 506  1412.585
 507  1378.374
 508  1484.052
 509  1415.69
 510  1454.981
 511  1496.489
