# Input file       =  1196090719.110027-PSRB0329-2ms-sampling-dd.dat
# Candidate        =  PSR_0332+5434
# Telescope        =  AR
# Epoch_topo       =  58087.642802199385
# Epoch_bary       =  N/A
# T_sample         =  0.002
# Data Folded      =  7208960
# Data Avg         =  4.60136074256825e-10
# Data StdDev      =  27.0591563766069 
# Profile Bins     =  512
# Profile Avg      =  -0.0374795438561933
# Profile StdDev   =  3210.81719331644 
# Reduced chi-sqr  =  0.845
# Prob(Noise)      <  0.995   (~0.0 sigma)
# P_topo (ms)      =  714.525295707568  +/- 0.000109
# P'_topo (s/s)    =  -0                +/- 5.85e-11
# P''_topo (s/s^2) =  0                 +/- 2.63e-14
# P_bary (ms)      =  N/A
# P'_bary (s/s)    =  N/A
# P''_bary (s/s^2) =  N/A
# P_orb (s)        =  N/A
# asin(i)/c (s)    =  N/A
# eccentricity     =  N/A
# w (rad)          =  N/A
# T_peri           =  N/A
######################################################
   0  -1087.79
   1  -1889.124
   2  -2031.687
   3  -782.6857
   4  457.9913
   5  637.6073
   6  -322.5395
   7  -1034.924
   8  -1368.797
   9  -1088.411
  10  455.3362
  11  407.6256
  12  1103.141
  13  -15.72521
  14  -1507.156
  15  -1143.163
  16  -353.6239
  17  357.7837
  18  1269.025
  19  3006.583
  20  2012.063
  21  924.0628
  22  -1071.719
  23  -1041.113
  24  -1259.175
  25  -333.1275
  26  663.7899
  27  399.4887
  28  -419.8587
  29  -1416.2
  30  -2069.43
  31  -2303.068
  32  -1556.847
  33  -1133.703
  34  -1299.223
  35  -1736.734
  36  -1372.518
  37  -1275.117
  38  -2200.208
  39  -1841.888
  40  -1613.132
  41  -1422.484
  42  -848.7728
  43  83.64082
  44  -49.76445
  45  -1068.579
  46  -1604.677
  47  -2209.763
  48  -2219.978
  49  -3125.579
  50  -2308.985
  51  -1326.987
  52  -2205.414
  53  -2174.165
  54  -2573.447
  55  -2546.203
  56  -3193.422
  57  -3141.836
  58  -2750.545
  59  -3397.56
  60  -3288.817
  61  -1778.652
  62  -284.0074
  63  -138.1923
  64  -1201.738
  65  -1268.109
  66  -1634.087
  67  -1533.659
  68  -982.7504
  69  -241.8217
  70  -213.0065
  71  -1715.204
  72  -1480.892
  73  -2034.759
  74  -1748.728
  75  -2171.953
  76  -1810.377
  77  -977.5865
  78  -1490.854
  79  -1855.509
  80  -1914.262
  81  -2499.465
  82  -2034.853
  83  -1255.21
  84  -1212.991
  85  -1995.165
  86  -2089.887
  87  -2679.484
  88  -2401.503
  89  -1740.082
  90  -2298.207
  91  -1483.423
  92  -1748.669
  93  -2246.028
  94  -963.1707
  95  -1494.767
  96  -2019.033
  97  -2211.411
  98  -1497.876
  99  -1633.002
 100  -1760.26
 101  -1321.999
 102  -868.9553
 103  -1906.009
 104  -1539.066
 105  -1375.646
 106  -1536.748
 107  -1476.548
 108  -968.5445
 109  -543.2581
 110  -1214.015
 111  -1466.311
 112  -1953.421
 113  -1549.306
 114  -1240.627
 115  -1085.507
 116  -952.522
 117  -1822.621
 118  -2143.283
 119  -2006.663
 120  -2085.698
 121  -2783.455
 122  -2204.954
 123  -1059.787
 124  -1376.685
 125  -2658.786
 126  -3018.522
 127  -2778.051
 128  -2547.098
 129  -1966.533
 130  -1528.099
 131  -1732.028
 132  -1263.56
 133  -1667.392
 134  -1649.626
 135  -1753.374
 136  -1069.46
 137  -1362.235
 138  -2047.288
 139  -2565.71
 140  -2367.382
 141  -1037.738
 142  -848.4409
 143  -1853.001
 144  -2088.448
 145  -3656.485
 146  -2665.894
 147  -2196.119
 148  -997.7333
 149  -1542.286
 150  -2341.882
 151  -1664.942
 152  -1469.767
 153  -2309.91
 154  -2341.118
 155  -626.3957
 156  114.4101
 157  -408.206
 158  -1419.735
 159  -763.6962
 160  -2292.902
 161  -1236.876
 162  -14.6819
 163  -955.5156
 164  -2054.416
 165  -2078.823
 166  -329.2872
 167  18.56931
 168  252.2101
 169  644.9936
 170  5.654364
 171  -466.6564
 172  -1658.786
 173  40.76836
 174  -25.11551
 175  985.0655
 176  827.2799
 177  107.3068
 178  -1188.316
 179  -1667.469
 180  -1112.746
 181  -1370.864
 182  -628.6266
 183  -703.3166
 184  -874.8248
 185  -1611.134
 186  -1474.315
 187  -1123.075
 188  -2048.958
 189  -2467.782
 190  -2413.293
 191  -1145.364
 192  -1803.235
 193  -1662.179
 194  -1560.449
 195  -533.7693
 196  -269.3279
 197  -78.92709
 198  -11.26425
 199  -1611.533
 200  -2494.672
 201  -2567.4
 202  -649.6201
 203  82.54246
 204  70.65889
 205  -183.0452
 206  -1233.199
 207  -1039.526
 208  -1137.051
 209  -644.8743
 210  -44.69856
 211  -141.3303
 212  85.05157
 213  -904.092
 214  -628.8699
 215  -161.7764
 216  415.6929
 217  229.6539
 218  -332.4026
 219  -178.1192
 220  454.0145
 221  -535.9085
 222  -777.2563
 223  410.7665
 224  1009.787
 225  -453.8329
 226  -970.5747
 227  -855.2106
 228  -553.1412
 229  -456.0235
 230  183.05
 231  829.6116
 232  -628.6389
 233  -509.7513
 234  158.5952
 235  -977.9604
 236  -840.0398
 237  -515.6719
 238  -429.6827
 239  -541.7583
 240  -905.3276
 241  237.3416
 242  -7.636121
 243  -59.58854
 244  -250.4548
 245  141.7411
 246  -237.9653
 247  -113.7928
 248  -13.70813
 249  42.35535
 250  -979.008
 251  -524.5331
 252  842.8094
 253  380.6688
 254  10.74711
 255  350.58
 256  1011.124
 257  -36.1845
 258  1298.713
 259  2977.834
 260  2696.918
 261  5665.041
 262  6703.165
 263  8611.731
 264  9296.556
 265  8387.497
 266  8477.783
 267  3988.45
 268  6832.01
 269  6371.385
 270  6868.08
 271  5043.507
 272  4776.072
 273  4165.253
 274  4094.962
 275  5095.387
 276  5407.664
 277  2898.032
 278  4049.648
 279  6161.626
 280  7713.901
 281  4800.276
 282  4495.722
 283  3496.799
 284  1372.153
 285  1015.4
 286  1852.003
 287  250.1193
 288  -666.9253
 289  -1701.518
 290  -2281.638
 291  82.50336
 292  678.34
 293  1391.664
 294  1639.882
 295  1092.526
 296  -441.9882
 297  -1225.014
 298  1067.044
 299  1603.843
 300  1601.01
 301  3276.366
 302  3839.112
 303  3085.842
 304  2079.087
 305  1635.447
 306  1132.805
 307  112.298
 308  1973.92
 309  3796.086
 310  3598.542
 311  1890.464
 312  1422.002
 313  1251.851
 314  1366.969
 315  2228.885
 316  3719.29
 317  4739.693
 318  3190.214
 319  2548.208
 320  726.1856
 321  1677.526
 322  2241.204
 323  3710.383
 324  3336.61
 325  2334.506
 326  2067.12
 327  1354.33
 328  1949.211
 329  2011.174
 330  3594.863
 331  4928.959
 332  3870.839
 333  2996.516
 334  947.6444
 335  815.6873
 336  2052.539
 337  3676.675
 338  3540.722
 339  2715.879
 340  352.315
 341  -361.4764
 342  -562.9513
 343  -681.5286
 344  264.4339
 345  546.5381
 346  -822.6491
 347  -1146.308
 348  -338.9605
 349  -147.6397
 350  31.90418
 351  -964.5845
 352  -584.3415
 353  -1655.748
 354  -2307.421
 355  -1025.089
 356  600.0472
 357  2707.905
 358  3598.27
 359  5071.58
 360  2473.602
 361  -109.7911
 362  -451.3643
 363  3958.99
 364  3838.015
 365  3259.039
 366  3566.482
 367  -169.4207
 368  -1135.312
 369  -1606.494
 370  -111.7971
 371  1122.942
 372  3075.566
 373  3540.219
 374  3222.476
 375  1378.934
 376  -427.0046
 377  578.5228
 378  1818.094
 379  3371.557
 380  3041.333
 381  2648.543
 382  1062.836
 383  -2196.078
 384  -650.2228
 385  -515.7271
 386  306.5977
 387  1551.413
 388  1574.126
 389  -119.369
 390  -2015.023
 391  -1129.636
 392  0.1746175
 393  600.9311
 394  41.72768
 395  365.7765
 396  -1269.734
 397  -1997.787
 398  -2210.386
 399  -1415.932
 400  -444.2025
 401  -278.1028
 402  1103.338
 403  64.30431
 404  -977.5824
 405  -1637.067
 406  236.7518
 407  574.3334
 408  500.2412
 409  963.4882
 410  127.0274
 411  -1502.332
 412  -2911.39
 413  -1734.452
 414  -842.8049
 415  -418.2173
 416  351.1257
 417  -280.7274
 418  -1384.571
 419  -1366.274
 420  -1038.941
 421  -2104.007
 422  -2141.75
 423  -1239.066
 424  -1595.058
 425  -2264.564
 426  -2650.65
 427  -2980.129
 428  -2573.717
 429  122.8768
 430  1422.125
 431  1675.255
 432  1332.946
 433  -1998.094
 434  -2448.24
 435  -2849.531
 436  -208.958
 437  241.3706
 438  1193.977
 439  196.938
 440  -1279.859
 441  -1429.185
 442  -901.1168
 443  1946.67
 444  2810.995
 445  3706.565
 446  631.0838
 447  -1450.345
 448  -1595.938
 449  2645.271
 450  4197.87
 451  4983.718
 452  4494.753
 453  1570.226
 454  -843.9322
 455  -2149.193
 456  -958.42
 457  903.6
 458  2702.063
 459  3276.152
 460  3161.904
 461  571.1213
 462  -2727.412
 463  -1976.561
 464  -645.575
 465  962.5638
 466  2576.478
 467  3625.447
 468  2745.632
 469  615.2554
 470  605.9605
 471  -77.17467
 472  883.4129
 473  2020.101
 474  2629.434
 475  1411.152
 476  -1149.687
 477  -2142.154
 478  -2487.774
 479  551.3525
 480  1087.483
 481  1140.83
 482  819.0292
 483  -1201.234
 484  -2191.946
 485  -1968.378
 486  774.0997
 487  1887.255
 488  2554.331
 489  2141.182
 490  -709.1157
 491  -1043.316
 492  -221.1094
 493  1166.815
 494  2069.422
 495  2313.687
 496  1199.869
 497  -724.8639
 498  -2081.706
 499  -1574.541
 500  -1509.213
 501  -12.94565
 502  505.49
 503  684.378
 504  -1115.124
 505  -2239.316
 506  -1392.57
 507  -1107.389
 508  -86.41784
 509  393.8818
 510  1008.465
 511  -94.68901
