# Input file       =  1196120284.110461_cleaned.dat
# Candidate        =  PSR_0332+5434
# Telescope        =  AR
# Epoch_topo       =  58087.984989704411
# Epoch_bary       =  N/A
# T_sample         =  0.002
# Data Folded      =  7340032
# Data Avg         =  0.0441271408173977
# Data StdDev      =  1.00009408947026 
# Profile Bins     =  512
# Profile Avg      =  632.632018525662 
# Profile StdDev   =  119.744301994732 
# Reduced chi-sqr  =  0.748
# Prob(Noise)      <  1   (~0.0 sigma)
# P_topo (ms)      =  714.5260113512    +/- 0.000403
# P'_topo (s/s)    =  -0                +/- 2.13e-10
# P''_topo (s/s^2) =  0                 +/- 9.38e-14
# P_bary (ms)      =  N/A
# P'_bary (s/s)    =  N/A
# P''_bary (s/s^2) =  N/A
# P_orb (s)        =  N/A
# asin(i)/c (s)    =  N/A
# eccentricity     =  N/A
# w (rad)          =  N/A
# T_peri           =  N/A
######################################################
   0  962.2377
   1  894.4018
   2  807.8879
   3  623.8823
   4  540.5512
   5  573.8257
   6  632.0369
   7  589.2495
   8  636.1027
   9  622.3568
  10  587.4813
  11  566.6009
  12  602.4253
  13  528.2358
  14  584.3977
  15  706.76
  16  560.322
  17  534.4666
  18  593.6635
  19  580.6404
  20  625.0639
  21  733.3755
  22  749.6053
  23  761.1899
  24  731.7754
  25  565.9429
  26  571.9299
  27  751.3851
  28  716.0612
  29  580.5838
  30  583.7237
  31  643.433
  32  628.6627
  33  635.1677
  34  677.5059
  35  652.271
  36  623.61
  37  616.129
  38  660.1832
  39  732.9496
  40  716.6917
  41  710.905
  42  608.0233
  43  493.5483
  44  566.8731
  45  566.3876
  46  576.4443
  47  569.3955
  48  598.8146
  49  690.4326
  50  642.5377
  51  565.6536
  52  576.9489
  53  605.9623
  54  649.4783
  55  613.9915
  56  643.4661
  57  514.6793
  58  497.7086
  59  571.7201
  60  687.944
  61  523.5912
  62  545.3392
  63  601.1348
  64  619.299
  65  646.8245
  66  647.0967
  67  688.1257
  68  751.3619
  69  701.4238
  70  695.9974
  71  689.9702
  72  613.9056
  73  668.8469
  74  669.4329
  75  682.0245
  76  664.3744
  77  727.9755
  78  706.0662
  79  595.0574
  80  682.9231
  81  624.0641
  82  572.5033
  83  595.5909
  84  677.0272
  85  699.9775
  86  640.6532
  87  591.918
  88  578.4674
  89  628.369
  90  651.0859
  91  636.143
  92  607.7113
  93  557.7278
  94  607.8378
  95  616.262
  96  650.694
  97  652.9882
  98  634.6879
  99  586.0429
 100  530.7614
 101  584.7989
 102  606.8446
 103  584.0053
 104  533.1033
 105  632.0284
 106  585.6024
 107  549.76
 108  693.3525
 109  681.9424
 110  636.297
 111  557.8129
 112  585.8483
 113  596.6932
 114  564.235
 115  615.6146
 116  762.4479
 117  734.6596
 118  593.3564
 119  502.8568
 120  468.1004
 121  533.4005
 122  510.6792
 123  580.8619
 124  651.0095
 125  604.3961
 126  639.8463
 127  549.501
 128  582.0038
 129  518.328
 130  560.7254
 131  544.5762
 132  625.4229
 133  582.1373
 134  516.9996
 135  479.4683
 136  523.3488
 137  664.5297
 138  735.0804
 139  682.6493
 140  732.2691
 141  623.2709
 142  539.7753
 143  579.7679
 144  550.2009
 145  617.1251
 146  557.5754
 147  552.3028
 148  577.2988
 149  696.3496
 150  628.6212
 151  534.1066
 152  591.2975
 153  703.84
 154  583.1824
 155  545.812
 156  626.1968
 157  623.5523
 158  710.002
 159  665.8328
 160  608.3334
 161  615.7261
 162  630.559
 163  609.6128
 164  661.9007
 165  698.2975
 166  708.32
 167  679.3157
 168  604.1285
 169  674.1506
 170  648.9286
 171  592.9521
 172  615.4044
 173  801.778
 174  861.4728
 175  781.584
 176  665.6371
 177  628.4201
 178  639.3121
 179  631.8123
 180  687.4849
 181  666.868
 182  629.6098
 183  613.7391
 184  580.5001
 185  548.6588
 186  507.6351
 187  337.6923
 188  469.9389
 189  582.5714
 190  521.4592
 191  468.2277
 192  629.7078
 193  672.5387
 194  622.5456
 195  556.2262
 196  513.539
 197  724.5123
 198  575.2101
 199  559.2842
 200  583.6729
 201  581.3481
 202  656.9626
 203  651.4072
 204  681.8046
 205  625.5538
 206  610.5502
 207  590.6135
 208  710.1533
 209  631.7037
 210  699.3193
 211  548.1671
 212  574.1945
 213  617.5912
 214  527.8706
 215  592.85
 216  660.4781
 217  705.0881
 218  612.6137
 219  520.0662
 220  534.5794
 221  544.5359
 222  575.6537
 223  547.564
 224  619.2896
 225  613.5672
 226  644.6315
 227  643.0707
 228  569.3648
 229  483.5551
 230  481.9459
 231  611.6448
 232  629.3375
 233  681.2332
 234  732.5595
 235  671.8583
 236  612.4182
 237  587.1589
 238  625.575
 239  661.0688
 240  655.6116
 241  680.1421
 242  788.391
 243  668.6984
 244  576.0104
 245  632.8868
 246  632.2317
 247  529.6909
 248  633.6076
 249  688.0762
 250  681.0366
 251  674.698
 252  644.801
 253  646.0853
 254  732.6411
 255  733.1866
 256  714.9169
 257  663.2004
 258  662.043
 259  732.2856
 260  693.1539
 261  644.8497
 262  634.8275
 263  764.3042
 264  644.3587
 265  574.0649
 266  574.5093
 267  623.3917
 268  690.3386
 269  678.8156
 270  682.2349
 271  685.1525
 272  611.5687
 273  616.2224
 274  621.4134
 275  640.1209
 276  746.8719
 277  752.5093
 278  607.4875
 279  542.8353
 280  681.7617
 281  706.4695
 282  684.9401
 283  735.2952
 284  675.233
 285  602.5821
 286  573.5543
 287  531.3398
 288  523.8925
 289  675.3829
 290  619.6186
 291  554.7885
 292  590.3896
 293  675.801
 294  695.6507
 295  614.0317
 296  588.7288
 297  669.4891
 298  647.617
 299  528.652
 300  589.7787
 301  666.7001
 302  698.759
 303  643.2291
 304  588.8099
 305  549.6601
 306  612.696
 307  686.7912
 308  619.6821
 309  509.6599
 310  583.7089
 311  639.3097
 312  740.8256
 313  754.4999
 314  636.6385
 315  634.2306
 316  743.6829
 317  784.9369
 318  671.8831
 319  656.9958
 320  693.377
 321  663.6063
 322  666.1889
 323  581.7978
 324  501.9449
 325  455.6052
 326  656.8846
 327  645.8361
 328  635.0078
 329  678.44
 330  666.2803
 331  729.9474
 332  749.3995
 333  648.8091
 334  662.7598
 335  683.4564
 336  648.4819
 337  535.0284
 338  577.8455
 339  692.0065
 340  710.8945
 341  684.7012
 342  667.9368
 343  580.3842
 344  494.0345
 345  587.421
 346  732.4972
 347  621.8695
 348  600.6919
 349  717.1811
 350  708.5997
 351  603.7236
 352  607.3976
 353  693.8653
 354  715.3358
 355  673.8452
 356  684.8797
 357  691.6531
 358  538.2637
 359  480.2727
 360  495.5987
 361  487.6423
 362  523.9628
 363  666.0497
 364  672.2083
 365  618.9241
 366  598.2581
 367  628.1807
 368  606.0477
 369  546.4857
 370  549.0743
 371  601.4451
 372  623.1088
 373  626.0212
 374  653.6995
 375  591.917
 376  642.0189
 377  687.8265
 378  663.649
 379  571.018
 380  548.3765
 381  598.6721
 382  532.5342
 383  534.2432
 384  613.6196
 385  663.732
 386  711.8541
 387  689.8701
 388  704.1973
 389  718.0969
 390  556.2272
 391  482.4699
 392  650.3087
 393  638
 394  568.8413
 395  673.8212
 396  771.0174
 397  661.9321
 398  612.0301
 399  702.9026
 400  742.3013
 401  796.2131
 402  676.1586
 403  628.4979
 404  700.5069
 405  623.3932
 406  510.1501
 407  621.296
 408  677.5339
 409  597.5183
 410  518.5843
 411  578.5244
 412  671.7032
 413  688.0446
 414  630.3764
 415  585.6063
 416  509.9334
 417  623.0369
 418  636.3857
 419  581.6604
 420  538.3667
 421  702.014
 422  753.8679
 423  609.4206
 424  710.2674
 425  820.4511
 426  771.1849
 427  638.1785
 428  632.6095
 429  662.2368
 430  604.2326
 431  648.8175
 432  608.9479
 433  658.7153
 434  705.5143
 435  672.6483
 436  706.5135
 437  632.3196
 438  622.8463
 439  638.8383
 440  672.8992
 441  636.4621
 442  558.3433
 443  613.7428
 444  536.5261
 445  620.2263
 446  699.347
 447  578.1049
 448  658.6448
 449  667.5012
 450  741.6572
 451  681.4481
 452  680.7269
 453  677.2195
 454  632.0699
 455  566.9931
 456  642.473
 457  797.1694
 458  705.2717
 459  574.4465
 460  617.9108
 461  673.0946
 462  633.8564
 463  606.0054
 464  570.2955
 465  598.6448
 466  645.7698
 467  615.8748
 468  589.1372
 469  630.608
 470  600.0649
 471  609.7685
 472  734.2639
 473  567.9195
 474  576.4944
 475  621.5307
 476  702.569
 477  565.3132
 478  622.2321
 479  665.2239
 480  668.5084
 481  623.0659
 482  559.7679
 483  545.5364
 484  689.2383
 485  696.5775
 486  656.3495
 487  499.827
 488  596.5024
 489  643.6022
 490  743.3781
 491  782.679
 492  673.7748
 493  620.2922
 494  600.2559
 495  639.8563
 496  637.9497
 497  746.3474
 498  722.2189
 499  641.4984
 500  607.9494
 501  598.5601
 502  506.5078
 503  566.2942
 504  756.1879
 505  871.6934
 506  643.03
 507  674.2501
 508  724.6636
 509  784.7073
 510  863.9166
 511  990.4538
