# Input file       =  1196779532.114438_cleaned.dat
# Candidate        =  PSR_0332+5434
# Telescope        =  AR
# Epoch_topo       =  58095.615174935629
# Epoch_bary       =  N/A
# T_sample         =  0.002
# Data Folded      =  7208960
# Data Avg         =  0.0420884097263354
# Data StdDev      =  1.00001098436857 
# Profile Bins     =  512
# Profile Avg      =  592.59784156232  
# Profile StdDev   =  118.660479189652 
# Reduced chi-sqr  =  1.096
# Prob(Noise)      <  0.066   (~1.5 sigma)
# P_topo (ms)      =  714.533477455941  +/- 4.19e-05
# P'_topo (s/s)    =  -0                +/- 2.25e-11
# P''_topo (s/s^2) =  0                 +/- 1.01e-14
# P_bary (ms)      =  N/A
# P'_bary (s/s)    =  N/A
# P''_bary (s/s^2) =  N/A
# P_orb (s)        =  N/A
# asin(i)/c (s)    =  N/A
# eccentricity     =  N/A
# w (rad)          =  N/A
# T_peri           =  N/A
######################################################
   0  593.0444
   1  542.5582
   2  464.285
   3  585.9855
   4  748.947
   5  686.431
   6  659.4097
   7  599.6974
   8  573.4075
   9  569.2827
  10  511.1959
  11  586.5317
  12  609.8407
  13  660.47
  14  758.5991
  15  741.0177
  16  632.822
  17  627.0058
  18  613.3323
  19  504.2798
  20  573.6921
  21  698.2247
  22  655.23
  23  564.183
  24  531.2914
  25  429.6561
  26  400.3387
  27  499.4759
  28  618.6583
  29  690.3586
  30  687.774
  31  498.2595
  32  546.1892
  33  566.1446
  34  572.837
  35  599.5104
  36  683.9176
  37  682.7421
  38  551.584
  39  666.7001
  40  603.6292
  41  510.1461
  42  457.5395
  43  467.9384
  44  429.6186
  45  657.0787
  46  587.1229
  47  516.4399
  48  458.8355
  49  476.391
  50  670.4446
  51  645.8854
  52  762.339
  53  717.6022
  54  626.9365
  55  585.8379
  56  617.9171
  57  652.6628
  58  515.5659
  59  525.9089
  60  662.439
  61  710.7802
  62  818.4443
  63  685.8712
  64  555.7225
  65  543.8457
  66  547.4539
  67  545.9533
  68  582.6339
  69  579.3229
  70  689.809
  71  658.2156
  72  566.2906
  73  591.8844
  74  555.9053
  75  607.9467
  76  547.9023
  77  590.9705
  78  702.5817
  79  605.067
  80  686.9545
  81  514.5738
  82  475.5952
  83  618.0072
  84  706.2861
  85  534.4871
  86  641.067
  87  728.2828
  88  700.0628
  89  538.2139
  90  593.1285
  91  514.53
  92  490.1273
  93  485.5702
  94  638.6393
  95  563.249
  96  523.3702
  97  599.0623
  98  578.1044
  99  536.6286
 100  512.3107
 101  557.5831
 102  726.3644
 103  834.0718
 104  663.9354
 105  581.099
 106  552.325
 107  451.1519
 108  502.9133
 109  566.397
 110  700.1798
 111  689.7779
 112  615.7015
 113  641.0569
 114  520.3206
 115  527.0028
 116  589.9767
 117  726.7545
 118  657.614
 119  583.5355
 120  528.0383
 121  594.9401
 122  438.5612
 123  427.6922
 124  480.9238
 125  597.4011
 126  682.504
 127  559.0589
 128  526.5931
 129  617.8372
 130  465.4754
 131  478.3824
 132  578.1946
 133  571.9415
 134  551.7412
 135  665.6213
 136  751.7097
 137  612.8354
 138  548.7081
 139  620.8674
 140  603.395
 141  547.3545
 142  552.0499
 143  675.9402
 144  741.1594
 145  716.5189
 146  661.567
 147  597.6684
 148  440.8651
 149  381.5811
 150  469.7743
 151  598.1862
 152  646.1068
 153  600.8394
 154  583.5136
 155  384.1117
 156  453.8059
 157  491.9175
 158  445.546
 159  484.2216
 160  535.0022
 161  621.7735
 162  634.1515
 163  627.6052
 164  537.9144
 165  440.195
 166  598.5079
 167  548.9189
 168  560.6818
 169  663.9227
 170  748.8544
 171  659.8804
 172  533.8004
 173  380.7073
 174  477.3769
 175  506.0718
 176  544.7583
 177  587.8779
 178  701.7765
 179  614.3575
 180  664.8028
 181  610.09
 182  544.6447
 183  543.824
 184  572.8193
 185  690.3854
 186  669.5634
 187  596.028
 188  463.5935
 189  493.2011
 190  522.2469
 191  640.7989
 192  534.1671
 193  637.7391
 194  704.0673
 195  570.0115
 196  546.45
 197  401.5774
 198  565.1077
 199  548.6594
 200  557.6995
 201  729.695
 202  767.0674
 203  764.5557
 204  617.4007
 205  387.2306
 206  443.8547
 207  488.2858
 208  505.4705
 209  545.2604
 210  715.5039
 211  726.6046
 212  644.5074
 213  710.6287
 214  633.0832
 215  594.6138
 216  500.9397
 217  539.343
 218  676.9688
 219  653.0159
 220  694.9909
 221  662.7984
 222  557.8249
 223  550.5031
 224  592.0098
 225  559.275
 226  488.558
 227  556.4712
 228  641.4811
 229  453.1936
 230  381.7895
 231  442.0133
 232  405.3237
 233  462.4597
 234  717.5679
 235  793.7681
 236  618.5866
 237  521.9319
 238  481.9991
 239  564.4668
 240  577.7274
 241  562.0769
 242  536.1619
 243  519.4813
 244  616.4186
 245  609.8755
 246  668.2303
 247  519.1131
 248  500.5767
 249  504.7865
 250  472.5349
 251  561.5266
 252  639.4229
 253  533.3027
 254  405.0596
 255  415.5094
 256  350.8712
 257  479.0861
 258  601.8412
 259  545.744
 260  546.2169
 261  580.853
 262  569.5912
 263  615.3305
 264  568.79
 265  658.5329
 266  647.7629
 267  669.1493
 268  635.9438
 269  566.5532
 270  615.4598
 271  569.5504
 272  459.6672
 273  586.3987
 274  582.3947
 275  512.1829
 276  476.1669
 277  593.8066
 278  607.1836
 279  619.3739
 280  484.0795
 281  667.4321
 282  591.5229
 283  488.7707
 284  577.702
 285  741.0017
 286  586.1391
 287  566.9256
 288  514.5781
 289  477.0856
 290  560.7406
 291  746.5142
 292  797.8194
 293  683.3957
 294  716.9037
 295  625.4687
 296  576.6689
 297  613.5421
 298  645.0195
 299  625.8633
 300  575.8816
 301  699.82
 302  695.2806
 303  613.6411
 304  618.9766
 305  534.256
 306  446.5333
 307  697.6241
 308  829.7341
 309  715.0634
 310  694.0137
 311  688.6923
 312  678.8179
 313  775.6021
 314  902.778
 315  854.1567
 316  820.2347
 317  963.001
 318  813.16
 319  633.5686
 320  463.2282
 321  590.3187
 322  555.7416
 323  622.7391
 324  607.1412
 325  642.4717
 326  598.8375
 327  517.5438
 328  586.6304
 329  445.3446
 330  488.816
 331  440.3729
 332  559.9517
 333  687.4741
 334  695.5478
 335  612.9538
 336  524.7767
 337  455.7976
 338  445.8694
 339  555.815
 340  612.6194
 341  623.2322
 342  575.7285
 343  645.7674
 344  542.4907
 345  448.0499
 346  644.3516
 347  606.4062
 348  600.3725
 349  609.5508
 350  599.4204
 351  598.7713
 352  621.8171
 353  520.1545
 354  514.4474
 355  486.7258
 356  453.9956
 357  535.4662
 358  622.7357
 359  495.614
 360  521.8176
 361  576.2192
 362  558.5336
 363  581.4086
 364  534.3058
 365  497.3511
 366  401.4993
 367  630.7958
 368  617.1421
 369  595.3339
 370  652.2345
 371  569.8359
 372  485.1656
 373  597.9603
 374  733.9919
 375  670.6901
 376  738.3664
 377  668.0053
 378  559.2998
 379  625.0553
 380  586.5775
 381  591.1393
 382  563.7813
 383  635.0529
 384  597.4303
 385  635.4809
 386  660.6353
 387  602.6299
 388  614.694
 389  546.3425
 390  646.0229
 391  609.5026
 392  672.4544
 393  584.8979
 394  516.8181
 395  634.7438
 396  612.3914
 397  584.7225
 398  658.189
 399  655.5225
 400  621.639
 401  624.9565
 402  597.7493
 403  663.2342
 404  665.4242
 405  637.1142
 406  606.4536
 407  720.7187
 408  660.8453
 409  648.1264
 410  620.9249
 411  532.3741
 412  566.2781
 413  600.3749
 414  513.3052
 415  640.7778
 416  706.4789
 417  595.3962
 418  524.9778
 419  569.7252
 420  614.0698
 421  666.8904
 422  614.5929
 423  566.6215
 424  646.1453
 425  620.2485
 426  699.0522
 427  599.1729
 428  602.6481
 429  666.4877
 430  599.3248
 431  460.4868
 432  400.9886
 433  529.4277
 434  639.6313
 435  764.5122
 436  722.3767
 437  538.8796
 438  438.7451
 439  565.8271
 440  541.261
 441  606.9866
 442  702.886
 443  572.3259
 444  492.9893
 445  602.8655
 446  635.2833
 447  658.788
 448  637.0778
 449  553.5382
 450  619.5014
 451  689.4382
 452  538.8311
 453  535.9511
 454  511.7174
 455  519.165
 456  619.4768
 457  569.7273
 458  697.2254
 459  762.2084
 460  736.2069
 461  617.3359
 462  511.7447
 463  499.614
 464  628.6146
 465  612.2198
 466  712.9559
 467  683.4562
 468  638.4954
 469  419.0515
 470  422.3996
 471  583.5717
 472  569.5733
 473  651.5681
 474  602.9125
 475  649.984
 476  669.0341
 477  668.1066
 478  641.3222
 479  493.2293
 480  588.1335
 481  679.4247
 482  683.279
 483  697.0991
 484  651.5115
 485  526.6464
 486  622.5086
 487  523.8243
 488  532.7507
 489  623.2235
 490  540.7589
 491  683.6953
 492  720.9688
 493  600.2189
 494  468.1211
 495  489.2115
 496  435.9657
 497  472.5586
 498  596.4565
 499  664.071
 500  576.3432
 501  492.9698
 502  595.3671
 503  567.6856
 504  470.0515
 505  663.4916
 506  655.6141
 507  692.1585
 508  789.3533
 509  752.011
 510  619.7238
 511  612.2536
