# Input file       =  1196191533.12459_cleaned.dat
# Candidate        =  PSR_0332+5434
# Telescope        =  AR
# Epoch_topo       =  58088.809631071643
# Epoch_bary       =  N/A
# T_sample         =  0.002
# Data Folded      =  7340032
# Data Avg         =  0.253704817638209
# Data StdDev      =  4.60125939982871 
# Profile Bins     =  1024
# Profile Avg      =  1818.75150414154 
# Profile StdDev   =  389.561218868643 
# Reduced chi-sqr  =  0.599
# Prob(Noise)      <  1   (~0.0 sigma)
# P_topo (ms)      =  714.526522901503  +/- 7.43e-05
# P'_topo (s/s)    =  -0                +/- 3.92e-11
# P''_topo (s/s^2) =  0                 +/- 1.73e-14
# P_bary (ms)      =  N/A
# P'_bary (s/s)    =  N/A
# P''_bary (s/s^2) =  N/A
# P_orb (s)        =  N/A
# asin(i)/c (s)    =  N/A
# eccentricity     =  N/A
# w (rad)          =  N/A
# T_peri           =  N/A
######################################################
   0  2065.039
   1  2124.396
   2  2231.316
   3  2112.264
   4  2013.007
   5  1959.491
   6  1821.568
   7  1635.361
   8  1631.602
   9  1617.632
  10  1616.081
  11  1777.74
  12  1858.919
  13  1941.708
  14  1852.349
  15  1829.91
  16  1895.552
  17  1875.469
  18  1985.016
  19  1911.083
  20  1915.79
  21  1745.694
  22  1660.048
  23  1621.052
  24  1628.803
  25  1624.087
  26  1801.506
  27  1840.345
  28  1830.1
  29  1816.204
  30  1929.868
  31  1947.759
  32  1868.522
  33  1681.683
  34  1604.192
  35  1619.852
  36  1651.84
  37  1628.734
  38  1614.9
  39  1658.406
  40  1753.267
  41  1785.772
  42  1843.129
  43  1943.753
  44  1998.755
  45  2088.67
  46  2014.764
  47  1907.425
  48  1739.598
  49  1649.628
  50  1707.562
  51  1723.627
  52  1817.38
  53  1743.864
  54  1797.624
  55  1699.529
  56  1860.578
  57  1935.325
  58  2061.253
  59  2039.155
  60  2064.26
  61  2010.306
  62  2042.561
  63  1963.2
  64  2037.023
  65  1889.254
  66  1857.904
  67  1949.149
  68  2002.676
  69  1901.736
  70  1855.45
  71  2000.026
  72  2071.053
  73  1977.352
  74  1892
  75  1990.546
  76  2005.378
  77  2101.314
  78  1879.525
  79  1766.934
  80  1734.416
  81  1796.514
  82  1727.543
  83  1788.466
  84  1748.827
  85  1716.531
  86  1693.016
  87  1728.976
  88  1825.279
  89  1749.857
  90  1652.29
  91  1669.243
  92  1632.336
  93  1772.052
  94  1871.409
  95  1875.426
  96  1879.374
  97  1813.729
  98  1824.286
  99  1839.017
 100  1775.697
 101  1787.779
 102  1767.486
 103  1754.243
 104  1838.946
 105  1838.703
 106  1850.297
 107  1859.538
 108  1829.513
 109  1833.406
 110  1757.611
 111  1692.801
 112  1673.787
 113  1793.468
 114  1908.254
 115  2030.42
 116  2007.375
 117  2027.526
 118  1888.129
 119  1772.01
 120  1708.759
 121  1758.597
 122  1730.974
 123  1700.365
 124  1674.656
 125  1518.671
 126  1501.273
 127  1458.733
 128  1701.272
 129  1828.86
 130  1909.693
 131  1865.56
 132  1789.863
 133  1653.976
 134  1563.506
 135  1539.322
 136  1608.318
 137  1549.116
 138  1537.163
 139  1507.833
 140  1484.725
 141  1506.782
 142  1542.359
 143  1739.679
 144  1808.206
 145  1928.016
 146  1895.616
 147  1854.775
 148  1740.256
 149  1762.391
 150  1723.546
 151  1610.285
 152  1486.688
 153  1578.384
 154  1626.245
 155  1677.986
 156  1654.928
 157  1575.738
 158  1652.856
 159  1749.309
 160  1861.269
 161  1885.68
 162  1833.976
 163  1804.025
 164  1799.305
 165  1723.083
 166  1657.86
 167  1468.661
 168  1473.193
 169  1584.523
 170  1722.836
 171  1740.629
 172  1696.616
 173  1914.852
 174  1958.018
 175  1929.492
 176  1778.305
 177  1795.424
 178  1757.933
 179  1755.351
 180  1828.145
 181  1811.559
 182  1802.129
 183  1633.804
 184  1514.364
 185  1561.954
 186  1707.813
 187  1813.142
 188  1768.831
 189  1753.636
 190  1878.221
 191  1938.8
 192  1922.531
 193  1847.335
 194  1830.176
 195  1748.605
 196  1672.843
 197  1572.091
 198  1650.229
 199  1645.701
 200  1637.482
 201  1749.914
 202  1804.092
 203  1849.704
 204  1869.937
 205  1779.096
 206  1570.262
 207  1452.709
 208  1363.794
 209  1453.49
 210  1576.265
 211  1714.915
 212  1741.125
 213  1656.762
 214  1662.637
 215  1571.962
 216  1493.257
 217  1497.038
 218  1700.167
 219  1773.382
 220  1839.29
 221  1770.423
 222  1851.701
 223  1803.328
 224  1821.229
 225  1600.011
 226  1597.62
 227  1619.111
 228  1833.131
 229  1829.774
 230  1898.381
 231  1899.11
 232  1867.057
 233  1869.056
 234  1862.836
 235  1757.055
 236  1664.146
 237  1622.875
 238  1664.731
 239  1644.45
 240  1609.774
 241  1602.065
 242  1490.453
 243  1625.463
 244  1844.574
 245  1891.66
 246  1824.785
 247  1826.922
 248  1859.003
 249  1729.087
 250  1638.411
 251  1625.879
 252  1702.196
 253  1667.228
 254  1714.906
 255  1771.614
 256  1746.957
 257  1791.34
 258  1702.002
 259  1609.916
 260  1579.251
 261  1692.481
 262  1824.661
 263  1782.553
 264  1798.734
 265  1863.603
 266  1869.648
 267  1808.914
 268  1688.426
 269  1775.873
 270  1797.409
 271  1846.634
 272  1898.534
 273  1923.894
 274  2027.838
 275  1992.766
 276  1959.379
 277  1852.463
 278  1713.272
 279  1773.835
 280  1758.539
 281  1705.488
 282  1597.689
 283  1568.421
 284  1574.244
 285  1621.778
 286  1616.388
 287  1716.565
 288  1705.394
 289  1651.815
 290  1597.387
 291  1707.311
 292  1769.518
 293  1848.465
 294  1730.28
 295  1566.399
 296  1380.014
 297  1391.04
 298  1473.954
 299  1506.456
 300  1503.731
 301  1571.595
 302  1562.72
 303  1520.459
 304  1588.109
 305  1708.376
 306  1872.739
 307  1959.032
 308  1930.741
 309  1850.783
 310  1655.041
 311  1583.993
 312  1551.501
 313  1666.729
 314  1691.941
 315  1728.162
 316  1835.503
 317  1874.359
 318  1877.044
 319  1784.413
 320  1732.433
 321  1696.744
 322  1764.37
 323  1921.402
 324  1953.808
 325  2077.165
 326  2048.728
 327  1987.354
 328  1831.039
 329  1905.177
 330  1930.74
 331  1931.53
 332  1866.241
 333  2002.306
 334  2104.275
 335  2060.755
 336  1798.759
 337  1689.291
 338  1655.046
 339  1729.698
 340  1713
 341  1811.402
 342  1920.484
 343  1936.479
 344  1960.925
 345  1908.751
 346  2004.611
 347  2064.895
 348  1990.52
 349  1938.503
 350  1821.344
 351  1751.992
 352  1751.801
 353  1832.223
 354  1862.71
 355  1729.049
 356  1685.762
 357  1903.078
 358  2026.444
 359  2124.778
 360  2055.017
 361  2064.332
 362  2048.275
 363  1999.657
 364  2047.342
 365  2010.415
 366  1995.813
 367  1918.191
 368  1800.761
 369  1660.776
 370  1627.818
 371  1769.29
 372  1905.589
 373  1933.454
 374  1976.198
 375  1884.062
 376  1822.523
 377  1800.97
 378  1861.133
 379  1952.948
 380  1980.256
 381  2153.166
 382  2103.626
 383  2079.017
 384  1978.149
 385  1949.183
 386  1786.002
 387  1819.582
 388  1847.905
 389  2005.705
 390  2020.653
 391  2146.188
 392  2195.682
 393  2082.333
 394  2052.547
 395  1969.748
 396  1961.028
 397  1738.634
 398  1720.499
 399  1680.94
 400  1761.253
 401  1820.407
 402  2016.599
 403  2045.091
 404  1948.401
 405  1801.094
 406  1778.493
 407  1653.289
 408  1573.362
 409  1553.61
 410  1681.962
 411  1811.125
 412  1850.707
 413  1889.359
 414  1813.009
 415  1828.136
 416  1875.409
 417  1944.302
 418  2025.509
 419  2096.361
 420  2024.511
 421  2058.823
 422  1921.635
 423  1943.868
 424  1897.93
 425  1888.544
 426  1698.83
 427  1670.545
 428  1716.89
 429  1813.407
 430  1869.411
 431  1955.156
 432  2002.408
 433  1919.334
 434  1826.913
 435  1920.467
 436  1985.839
 437  1987.312
 438  1933.562
 439  1848.915
 440  1793.457
 441  1768.214
 442  1800.803
 443  1819.139
 444  1823.198
 445  1814.714
 446  1800.012
 447  1764.192
 448  1792.362
 449  1850.698
 450  1821.617
 451  1858.416
 452  1736.179
 453  1699.229
 454  1640.063
 455  1565.864
 456  1552.551
 457  1573.299
 458  1678.516
 459  1766.222
 460  1812.625
 461  1786.802
 462  1730.676
 463  1534.19
 464  1553.864
 465  1543.263
 466  1741.932
 467  1760.452
 468  1769.537
 469  1764.184
 470  1755.603
 471  1782.348
 472  1750.916
 473  1648.453
 474  1658.116
 475  1689.344
 476  1756.474
 477  1831.326
 478  1986.22
 479  1994.139
 480  1881.535
 481  1751.939
 482  1778.8
 483  1902.63
 484  1920.797
 485  1747.557
 486  1568.682
 487  1563.075
 488  1747.926
 489  1834.472
 490  1873.318
 491  1781.709
 492  1731.85
 493  1783.735
 494  1937.462
 495  1935.733
 496  1882.044
 497  1861.86
 498  1807.653
 499  1871.661
 500  1874.69
 501  1878.208
 502  1877.001
 503  1787.013
 504  1825.469
 505  1911.359
 506  1968.093
 507  2055.643
 508  2027.414
 509  2074.84
 510  2083.841
 511  1908.903
 512  1823.13
 513  1717.596
 514  1755.121
 515  1893.276
 516  2039.747
 517  2164.237
 518  2230.921
 519  2146.208
 520  2069.275
 521  2048.063
 522  1956.424
 523  1930.307
 524  2092.769
 525  2151.91
 526  2195.106
 527  2084.081
 528  1939.457
 529  1805.646
 530  1843.385
 531  1979.001
 532  2041.179
 533  1992.096
 534  2017.801
 535  2062.551
 536  2072.411
 537  2057.698
 538  1961.503
 539  1952.686
 540  1842.739
 541  1555.824
 542  1563.46
 543  1697.291
 544  1850.822
 545  1862.74
 546  1791.275
 547  1861.061
 548  2018.87
 549  2108.01
 550  2100
 551  1945.203
 552  1787.224
 553  1787.118
 554  1768.93
 555  1776.954
 556  1712.82
 557  1661.222
 558  1658.706
 559  1531.992
 560  1362.374
 561  1254.431
 562  1627.812
 563  1880.348
 564  2072.718
 565  2014.369
 566  2012.037
 567  1931.779
 568  1752.387
 569  1628.83
 570  1585.746
 571  1523.622
 572  1557.75
 573  1555.096
 574  1787.49
 575  1851.569
 576  1773.312
 577  1594.024
 578  1620.198
 579  1797.701
 580  2042.271
 581  2094.523
 582  2099.149
 583  2067.267
 584  2001.316
 585  1861.866
 586  1717.663
 587  1697.063
 588  1710.954
 589  1745.451
 590  1838.551
 591  1910.484
 592  1842.724
 593  1927.281
 594  2063.355
 595  2201.969
 596  2110.645
 597  1949.811
 598  1856.274
 599  1814.083
 600  1886.223
 601  1905.31
 602  1962.728
 603  1944.478
 604  1959.743
 605  1980.94
 606  1932.825
 607  1878.289
 608  1782.945
 609  1688.931
 610  1652.064
 611  1585.999
 612  1662.649
 613  1714.583
 614  1832.84
 615  1807.248
 616  1808.762
 617  1801.961
 618  1811.683
 619  1821.949
 620  1884.835
 621  2044.577
 622  2126.795
 623  2269.168
 624  2341.428
 625  2323.471
 626  2253.769
 627  2178.906
 628  2153.219
 629  2174.736
 630  2133.832
 631  2204.73
 632  2137.111
 633  2070.064
 634  2014.266
 635  2020.497
 636  2066.452
 637  2106.741
 638  1975.416
 639  1890.226
 640  1846.602
 641  1967.933
 642  1882.505
 643  1910.045
 644  1892.128
 645  1877.448
 646  1671.25
 647  1561.489
 648  1639.28
 649  1719.375
 650  1786.482
 651  1780.888
 652  1883.826
 653  1949.601
 654  1873.182
 655  1909.227
 656  1818.112
 657  1782.981
 658  1678.719
 659  1728.055
 660  1825.662
 661  1909.689
 662  1880.951
 663  1811.921
 664  1762.249
 665  1809.382
 666  1825.131
 667  1925.458
 668  1982.142
 669  2146.699
 670  2112.486
 671  2015.897
 672  1883.356
 673  1839.307
 674  1916.302
 675  1938.028
 676  1952.007
 677  1971.477
 678  2044.877
 679  2078.413
 680  1969.229
 681  2003.548
 682  2107.837
 683  2151.525
 684  2002.701
 685  1936.89
 686  1960.899
 687  2152.589
 688  2278.843
 689  2288.738
 690  2267.575
 691  2168.379
 692  2102.275
 693  2074.254
 694  1905.849
 695  1759.39
 696  1779.068
 697  1872.83
 698  2054.837
 699  1995.96
 700  2075.816
 701  2034.748
 702  1978.022
 703  1804.884
 704  1679.479
 705  1626.413
 706  1755.122
 707  1851.007
 708  1894.083
 709  1897.989
 710  1893.462
 711  1850.749
 712  1750.615
 713  1721.651
 714  1737.463
 715  1779.385
 716  1767.719
 717  1807.5
 718  1832.646
 719  1862.557
 720  1851.888
 721  1912.15
 722  1907.242
 723  1822.493
 724  1859.948
 725  1951.52
 726  1991.511
 727  1902.632
 728  1820.086
 729  1756.272
 730  1699.482
 731  1822.31
 732  1794.61
 733  1832.403
 734  1697.265
 735  1735.935
 736  1801.088
 737  1939.923
 738  2098.228
 739  2018.755
 740  1967.677
 741  1786.291
 742  1614.356
 743  1551.814
 744  1570.193
 745  1608.955
 746  1749.037
 747  1831.201
 748  1784.613
 749  1714.125
 750  1711.777
 751  1755.927
 752  1696.44
 753  1626.075
 754  1762.035
 755  1934.239
 756  1883.835
 757  1880.87
 758  1705.089
 759  1620.366
 760  1402.136
 761  1415.069
 762  1553.1
 763  1602.349
 764  1593.179
 765  1543.226
 766  1577.779
 767  1610.558
 768  1606.547
 769  1500.527
 770  1350.467
 771  1439.925
 772  1507.483
 773  1621.864
 774  1630.581
 775  1596.088
 776  1685.17
 777  1594.573
 778  1479.229
 779  1559.201
 780  1715.026
 781  1851.329
 782  1810.204
 783  1693.033
 784  1822.69
 785  1776.255
 786  1749.81
 787  1607.483
 788  1551.871
 789  1670.062
 790  1802.752
 791  1835.475
 792  1625.708
 793  1556.063
 794  1670.598
 795  1916.066
 796  1944.028
 797  2013.567
 798  1962.467
 799  1986.18
 800  1788.493
 801  1855.384
 802  1790.044
 803  1954.073
 804  1896.879
 805  1965.544
 806  1771.482
 807  1696.478
 808  1675.949
 809  1808.818
 810  1846.541
 811  1856.063
 812  1864.465
 813  1865.495
 814  1805.064
 815  1751.48
 816  1741.575
 817  1728.948
 818  1736.37
 819  1789.396
 820  1923.295
 821  1845.191
 822  1780.135
 823  1716.232
 824  1864.546
 825  1913.087
 826  1976.66
 827  1936.387
 828  1822.376
 829  1724.19
 830  1687.201
 831  1757.002
 832  1796.439
 833  1929.087
 834  2009.156
 835  1997.015
 836  1884.558
 837  1864.01
 838  1969.463
 839  2062.407
 840  2067.421
 841  2010.963
 842  1967.116
 843  1971.323
 844  1967.015
 845  1971.098
 846  1918.631
 847  1789.719
 848  1698.591
 849  1837.548
 850  1857.243
 851  1939.402
 852  1923.88
 853  2001.223
 854  2188.909
 855  2065.363
 856  2056.996
 857  1954.697
 858  2031.106
 859  2079.084
 860  1983.415
 861  1924.986
 862  1885.815
 863  1878.819
 864  1853.283
 865  1910.268
 866  2054.206
 867  2161.904
 868  2050.682
 869  1929.058
 870  1768.922
 871  1801.171
 872  1895.227
 873  1839.614
 874  1699.338
 875  1667.721
 876  1851.565
 877  1785.416
 878  1699.898
 879  1536.12
 880  1602.434
 881  1695.455
 882  1703.803
 883  1671.66
 884  1717.58
 885  1786.515
 886  1725.521
 887  1574.593
 888  1440.052
 889  1432.266
 890  1527.678
 891  1654.085
 892  1730.722
 893  1682.065
 894  1509.392
 895  1437.547
 896  1421.236
 897  1609.287
 898  1685.302
 899  1785.38
 900  1761.156
 901  1836.101
 902  1818.746
 903  1796.242
 904  1596.995
 905  1579.781
 906  1656.81
 907  1668.611
 908  1698.272
 909  1681.076
 910  1606.008
 911  1674.19
 912  1707.643
 913  1960.508
 914  1872.778
 915  1848.233
 916  1890.467
 917  1929.417
 918  1906.31
 919  1842.518
 920  1791.709
 921  1757.88
 922  1832.42
 923  1890.621
 924  1918.624
 925  1900.542
 926  1953.562
 927  2030.391
 928  2020.647
 929  2075.108
 930  2097.048
 931  1979.597
 932  1845.329
 933  1734.734
 934  1704.456
 935  1620.589
 936  1597.053
 937  1740.958
 938  1805.724
 939  1772
 940  1777.497
 941  1822.606
 942  1785.253
 943  1750.275
 944  1656.439
 945  1723.222
 946  1712.767
 947  1887.191
 948  1893.747
 949  1782.813
 950  1682.355
 951  1676.4
 952  1763.793
 953  1720.461
 954  1726.389
 955  1907.41
 956  2054.896
 957  2072.891
 958  1841.027
 959  1713.05
 960  1689.726
 961  1773.615
 962  1829.507
 963  1838.701
 964  1862.263
 965  1913.055
 966  1962.489
 967  2008.823
 968  1999.04
 969  1966.803
 970  1896.376
 971  1854.296
 972  1864.169
 973  2083.219
 974  2092.407
 975  2087.576
 976  1941.223
 977  1779.237
 978  1574.53
 979  1507.895
 980  1705.673
 981  1926.038
 982  1908.138
 983  1959.263
 984  2023.603
 985  2115.509
 986  1946.055
 987  1875.343
 988  1832.537
 989  1836.106
 990  1716.359
 991  1559.727
 992  1552.173
 993  1555.702
 994  1689.92
 995  1820.515
 996  1877.252
 997  1889.292
 998  1692.91
 999  1710.936
1000  1632.743
1001  1713.337
1002  1836.061
1003  1839.999
1004  1816.604
1005  1801.719
1006  1767.529
1007  1692.511
1008  1663.343
1009  1781.76
1010  1885.701
1011  1960.27
1012  1944.962
1013  1866.375
1014  1675.655
1015  1565.937
1016  1635.343
1017  1716.509
1018  1756.568
1019  1807.101
1020  2006.045
1021  2183.197
1022  2137.27
1023  2013.638
