# Input file       =  1196004548.112581_cleaned.dat
# Candidate        =  PSR_0332+5434
# Telescope        =  AR
# Epoch_topo       =  58086.645452691911
# Epoch_bary       =  N/A
# T_sample         =  0.002
# Data Folded      =  7208960
# Data Avg         =  5.22958083853272 
# Data StdDev      =  41.9005221249381 
# Profile Bins     =  512
# Profile Avg      =  73632.4902386658 
# Profile StdDev   =  4971.88142066374 
# Reduced chi-sqr  =  0.569
# Prob(Noise)      <  1   (~0.0 sigma)
# P_topo (ms)      =  714.524265592087  +/- 0.00052
# P'_topo (s/s)    =  -0                +/- 2.79e-10
# P''_topo (s/s^2) =  0                 +/- 1.26e-13
# P_bary (ms)      =  N/A
# P'_bary (s/s)    =  N/A
# P''_bary (s/s^2) =  N/A
# P_orb (s)        =  N/A
# asin(i)/c (s)    =  N/A
# eccentricity     =  N/A
# w (rad)          =  N/A
# T_peri           =  N/A
######################################################
   0  76729.97
   1  77823.79
   2  75728.22
   3  71736.12
   4  73312.98
   5  70831.81
   6  69490.15
   7  71796.74
   8  72831.73
   9  74789.16
  10  73551.81
  11  73352.88
  12  70363.65
  13  73110.86
  14  74503.05
  15  71065.1
  16  68049.86
  17  70055.21
  18  73880.09
  19  71410.83
  20  71706.25
  21  70278.63
  22  71795.75
  23  69077.95
  24  71171.69
  25  73188.25
  26  74443.2
  27  76413.71
  28  67320.86
  29  68235.38
  30  75644.34
  31  73385.17
  32  72156.14
  33  70700.08
  34  68848.65
  35  69834.73
  36  70080.91
  37  71786.54
  38  72793.51
  39  71978.2
  40  72677.65
  41  77525.09
  42  73090.86
  43  71223.14
  44  73107.2
  45  75500.23
  46  74523.97
  47  70672.84
  48  75786.87
  49  77341.36
  50  74800.59
  51  73646.83
  52  72716.03
  53  70120.84
  54  67715.05
  55  69124.88
  56  72581.24
  57  72766.55
  58  68681.91
  59  69675.12
  60  71549.84
  61  70419.55
  62  77155.08
  63  80277.36
  64  73703.79
  65  74435.64
  66  77179.55
  67  75504.79
  68  70953.7
  69  75348.04
  70  76635.13
  71  75271.34
  72  73880.1
  73  72207.11
  74  75088.27
  75  74624.23
  76  76543.75
  77  76887.48
  78  76457.05
  79  80582.43
  80  78898.41
  81  78499.3
  82  81031.9
  83  79572.97
  84  76798.98
  85  71181.66
  86  67280.1
  87  69639.28
  88  70198.06
  89  69832.59
  90  68782.08
  91  72699
  92  75354.03
  93  75937.04
  94  75553.88
  95  73031.49
  96  72925.89
  97  75067.82
  98  77745.84
  99  77353.95
 100  71834.45
 101  70333.45
 102  71559.85
 103  73067.84
 104  73066.73
 105  71290.22
 106  74922.16
 107  76399.73
 108  78906.94
 109  81445.14
 110  78299.23
 111  77014.96
 112  81741.13
 113  81831.77
 114  77244.3
 115  74874.59
 116  75939.23
 117  72477.7
 118  71130.8
 119  70148.77
 120  71649.27
 121  71829.41
 122  74616.08
 123  71556.64
 124  73707.2
 125  69277.59
 126  70015.59
 127  72200.78
 128  72154.44
 129  72802.77
 130  74519.55
 131  76773.09
 132  73395.18
 133  72675.39
 134  75262.88
 135  77057.78
 136  77686.35
 137  76756.89
 138  72917.77
 139  71905.27
 140  74077.71
 141  72606.85
 142  75640.32
 143  75832.32
 144  74471.67
 145  72120.02
 146  73080.4
 147  73672.45
 148  70489.26
 149  70288.9
 150  70636.78
 151  71245.96
 152  74214.9
 153  77123.89
 154  75150.62
 155  71355.45
 156  73876.17
 157  74894.52
 158  71602.88
 159  72970.59
 160  74062.71
 161  70856.36
 162  71694.81
 163  75354.19
 164  78008.25
 165  78035.07
 166  76242.11
 167  74009.27
 168  72775.7
 169  72870.95
 170  71653.38
 171  72676.98
 172  75197.33
 173  74261.69
 174  78928.6
 175  75453.32
 176  76579.12
 177  75682.8
 178  72728.98
 179  72767.11
 180  74123.77
 181  74084.52
 182  72365.17
 183  73507.7
 184  74886.91
 185  78937.45
 186  78528.12
 187  75991.15
 188  72144.7
 189  70600.63
 190  72704.46
 191  72985.09
 192  74477.48
 193  73773.4
 194  77201.51
 195  76665.6
 196  78205.45
 197  76265.09
 198  76620.37
 199  70068.17
 200  69655.11
 201  70041.92
 202  73371.57
 203  74693.27
 204  75100.81
 205  75508.3
 206  78470.95
 207  77128.4
 208  77557.89
 209  75076.57
 210  77703.69
 211  73601.88
 212  76775.88
 213  81032.75
 214  76581.62
 215  76167.34
 216  74762.45
 217  76032.95
 218  75343.51
 219  74459.55
 220  73774.52
 221  76410.01
 222  74898.84
 223  72984.88
 224  71420.27
 225  70269
 226  71221.28
 227  71432.99
 228  73701.42
 229  72846.72
 230  71337.57
 231  72114.22
 232  72376.88
 233  76276.09
 234  75446.02
 235  75350.69
 236  72549.23
 237  73954.44
 238  73985.76
 239  72714.06
 240  73513.17
 241  78019.96
 242  78226.18
 243  74792.3
 244  70716.1
 245  65864.76
 246  67571.84
 247  72904.1
 248  72634.71
 249  70051.59
 250  71477.23
 251  73166.1
 252  73290.61
 253  73393.1
 254  68581.92
 255  70543.94
 256  72472.69
 257  69572.56
 258  71366.59
 259  75178.22
 260  76404.5
 261  74957.91
 262  72546.05
 263  72250.58
 264  73886.05
 265  73298.63
 266  72877.34
 267  74966.28
 268  73664.09
 269  77098.79
 270  74699.12
 271  75564.8
 272  71895.9
 273  69027.88
 274  70903
 275  71010.81
 276  72149.81
 277  71746.34
 278  72783.41
 279  71470.17
 280  75769.53
 281  77435.87
 282  70745.49
 283  72638.73
 284  73145.59
 285  76485.15
 286  74153.03
 287  74924.16
 288  73085.84
 289  70707.93
 290  70466.6
 291  68585.34
 292  73262.68
 293  73301.73
 294  75927.3
 295  74126.45
 296  74609.48
 297  76372.13
 298  78779.84
 299  75837.31
 300  70515.3
 301  70672.96
 302  74115.32
 303  74335.88
 304  73129.13
 305  76511.94
 306  78988.38
 307  75760.36
 308  72905.46
 309  73526.55
 310  74953.36
 311  73922.41
 312  75919.2
 313  76491.88
 314  76354.26
 315  75479.91
 316  74148.54
 317  77587.64
 318  77682.93
 319  76816.8
 320  75845.95
 321  75165.03
 322  73132.01
 323  71043.52
 324  71603.58
 325  73815.82
 326  74592.98
 327  77904.16
 328  77870.92
 329  72713.24
 330  75624.64
 331  75360.95
 332  73881.12
 333  73237.31
 334  72676.23
 335  75082.3
 336  72275.16
 337  73128.72
 338  72682.23
 339  69278.72
 340  70810.33
 341  73346.56
 342  75871.36
 343  73201.33
 344  71816.72
 345  70398.34
 346  73805.71
 347  70557.13
 348  67808.36
 349  71815.86
 350  76797.63
 351  78671.2
 352  76504.95
 353  75459.98
 354  73799.22
 355  73722.1
 356  68007.45
 357  66612.56
 358  72642.13
 359  72992.97
 360  73698.38
 361  72652.09
 362  76653.2
 363  74532.92
 364  73538.28
 365  71768.34
 366  74272.59
 367  74868.38
 368  73002.85
 369  70823.85
 370  72476.79
 371  74693.76
 372  71342.77
 373  67943.27
 374  70218.84
 375  72903.95
 376  72486.53
 377  75126.49
 378  74999.35
 379  71039.14
 380  72661.38
 381  73682.93
 382  72425.42
 383  68877.59
 384  70525.38
 385  69154.91
 386  68815.53
 387  71361.47
 388  70119.12
 389  69525.19
 390  68969.23
 391  70051.76
 392  72114.62
 393  68736.75
 394  69388.72
 395  70830.73
 396  69613.91
 397  67323.97
 398  71624.73
 399  73854.21
 400  75060.81
 401  75113.15
 402  74525.41
 403  73726.04
 404  71812.38
 405  73821.09
 406  76115.36
 407  73903.23
 408  71763.58
 409  72118.34
 410  74603.64
 411  74093.01
 412  74100.3
 413  79104.1
 414  79060.8
 415  74842.95
 416  73706.28
 417  74561.59
 418  72630.96
 419  70464.27
 420  68564.76
 421  74859.66
 422  74545.41
 423  75356.61
 424  76912.36
 425  75693.34
 426  73451.7
 427  76528.59
 428  76187.2
 429  70831.21
 430  71737.95
 431  72853.24
 432  74923.1
 433  72806.09
 434  74926.6
 435  74280.09
 436  72444.78
 437  73203.01
 438  74922.95
 439  73220.62
 440  72206.02
 441  76869.6
 442  74038.24
 443  70274.35
 444  72918.74
 445  75111.82
 446  75994.71
 447  72557.44
 448  74947.03
 449  74142.77
 450  74853.48
 451  73010.75
 452  77636.16
 453  78734.9
 454  73654.68
 455  76372.65
 456  77062.78
 457  79527.03
 458  75726.34
 459  75705.13
 460  73402.56
 461  71178.5
 462  71537.22
 463  68579.43
 464  72641.55
 465  71422.49
 466  74743.06
 467  72243.79
 468  69726.95
 469  72602.53
 470  73818.41
 471  73044.4
 472  71164.02
 473  74777.2
 474  73484.07
 475  72296.72
 476  73181.86
 477  76327.8
 478  78385.16
 479  74616.09
 480  74146.09
 481  76184.36
 482  77855.61
 483  73710.95
 484  76351.05
 485  73130.96
 486  73456.09
 487  75608.41
 488  77419.31
 489  79365.24
 490  71904.36
 491  73500.49
 492  72694.34
 493  72275.95
 494  70722.2
 495  71274.79
 496  72090.54
 497  71742.58
 498  72580.54
 499  73090.59
 500  72746.5
 501  69364.34
 502  72196.05
 503  78698.39
 504  74947.66
 505  75240.53
 506  75389.81
 507  74328.09
 508  72286.12
 509  72892.04
 510  72051.95
 511  73352.6
