# Input file       =  1196090719.110027_cleaned.dat
# Candidate        =  PSR_0332+5434
# Telescope        =  AR
# Epoch_topo       =  58087.642802199385
# Epoch_bary       =  N/A
# T_sample         =  0.002
# Data Folded      =  7208960
# Data Avg         =  0.05685087459551 
# Data StdDev      =  1.00023102909578 
# Profile Bins     =  512
# Profile Avg      =  800.435826120735 
# Profile StdDev   =  118.68658951562  
# Reduced chi-sqr  =  0.850
# Prob(Noise)      <  0.994   (~0.0 sigma)
# P_topo (ms)      =  714.525294518421  +/- 0.000293
# P'_topo (s/s)    =  -0                +/- 1.57e-10
# P''_topo (s/s^2) =  0                 +/- 7.07e-14
# P_bary (ms)      =  N/A
# P'_bary (s/s)    =  N/A
# P''_bary (s/s^2) =  N/A
# P_orb (s)        =  N/A
# asin(i)/c (s)    =  N/A
# eccentricity     =  N/A
# w (rad)          =  N/A
# T_peri           =  N/A
######################################################
   0  1060.601
   1  1048.046
   2  903.8131
   3  734.9258
   4  663.4743
   5  747.3785
   6  723.9699
   7  627.2554
   8  650.5707
   9  661.121
  10  642.9818
  11  567.9812
  12  669.4241
  13  643.8958
  14  653.5861
  15  729.2842
  16  763.1742
  17  675.4007
  18  603.5981
  19  673.289
  20  804.968
  21  741.9546
  22  666.2027
  23  737.1097
  24  735.8461
  25  722.1141
  26  700.3066
  27  738.7612
  28  707.2548
  29  612.0815
  30  735.3851
  31  688.4877
  32  644.5568
  33  627.7437
  34  744.1778
  35  818.6923
  36  708.2875
  37  803.9104
  38  842.0546
  39  772.1072
  40  700.2132
  41  748.682
  42  774.6106
  43  726.7371
  44  659.3843
  45  756.7719
  46  810.6027
  47  868.851
  48  789.3148
  49  788.0201
  50  796.0078
  51  882.0403
  52  952.2982
  53  904.4923
  54  890.4165
  55  785.0471
  56  800.8407
  57  761.4204
  58  753.7252
  59  831.0765
  60  848.8887
  61  921.3824
  62  886.7593
  63  892.0982
  64  810.0064
  65  923.5953
  66  912.7222
  67  934.7778
  68  839.5371
  69  740.9389
  70  752.2962
  71  822.6367
  72  872.9034
  73  818.5161
  74  654.0685
  75  713.6835
  76  803.6733
  77  750.0179
  78  813.89
  79  690.1169
  80  736.8983
  81  811.6268
  82  824.4986
  83  835.2421
  84  817.6322
  85  787.7736
  86  725.8519
  87  693.6702
  88  719.6907
  89  792.598
  90  760.013
  91  645.3894
  92  724.5745
  93  862.2515
  94  831.0987
  95  788.5831
  96  879.1215
  97  797.5425
  98  748.7396
  99  794.3626
 100  773.4281
 101  727.7578
 102  778.4622
 103  752.9292
 104  745.0082
 105  959.7448
 106  961.3638
 107  899.188
 108  835.2944
 109  887.8441
 110  982.5379
 111  897.2217
 112  933.2563
 113  873.9207
 114  801.0503
 115  810.0623
 116  812.8579
 117  896.8795
 118  909.0341
 119  885.7369
 120  910.7435
 121  935.024
 122  977.1766
 123  1011.657
 124  902.2397
 125  844.541
 126  849.1379
 127  858.4315
 128  842.8856
 129  751.5782
 130  692.0092
 131  717.9285
 132  831.145
 133  820.862
 134  771.141
 135  745.6975
 136  802.2038
 137  734.0305
 138  741.4305
 139  809.337
 140  856.5743
 141  756.8758
 142  736.499
 143  825.6788
 144  733.1517
 145  735.3389
 146  861.5426
 147  796.8178
 148  816.5012
 149  874.6513
 150  906.5848
 151  786.8743
 152  922.6914
 153  913.3495
 154  677.2719
 155  661.9704
 156  740.0688
 157  760.4257
 158  684.5973
 159  752.1232
 160  705.6362
 161  642.6555
 162  806.063
 163  833.5032
 164  764.6545
 165  725.0362
 166  812.7198
 167  677.4126
 168  728.2256
 169  750.9753
 170  816.4525
 171  752.5861
 172  696.3287
 173  757.5537
 174  713.9841
 175  726.0058
 176  752.5237
 177  863.7353
 178  730.6954
 179  798.0256
 180  676.4313
 181  636.8353
 182  695.9471
 183  626.1259
 184  774.796
 185  772.7626
 186  769.5223
 187  757.6984
 188  767.228
 189  731.4565
 190  685.4448
 191  850.3877
 192  858.9706
 193  853.2968
 194  861.9827
 195  773.4061
 196  757.6876
 197  722.3241
 198  733.7582
 199  797.5251
 200  813.6937
 201  860.2049
 202  895.5942
 203  891.4808
 204  872.8539
 205  838.8715
 206  777.7358
 207  764.3207
 208  707.5702
 209  753.1509
 210  745.2614
 211  667.1501
 212  655.1378
 213  790.5312
 214  836.2358
 215  753.2507
 216  774.6488
 217  762.4361
 218  850.201
 219  841.5786
 220  849.5089
 221  752.6146
 222  778.1776
 223  719.2388
 224  831.2131
 225  848.1155
 226  776.0633
 227  870.0904
 228  794.2085
 229  902.2772
 230  763.9915
 231  807.912
 232  741.2975
 233  650.8232
 234  808.611
 235  680.4362
 236  692.3384
 237  722.5496
 238  750.0537
 239  796.5389
 240  752.9009
 241  775.4108
 242  785.162
 243  853.806
 244  743.511
 245  836.5528
 246  772.3481
 247  632.4529
 248  679.9364
 249  763.0031
 250  754.4616
 251  722.937
 252  783.7637
 253  746.5347
 254  740.8864
 255  757.6752
 256  781.852
 257  770.1341
 258  755.3155
 259  783.7531
 260  772.4324
 261  856.3688
 262  807.7361
 263  854.7545
 264  827.3603
 265  861.8334
 266  873.6794
 267  796.4617
 268  807.1761
 269  745.9838
 270  860.4568
 271  834.6598
 272  807.8961
 273  735.7251
 274  814.9603
 275  777.5848
 276  771.4479
 277  854.3573
 278  850.356
 279  782.3138
 280  715.8769
 281  805.1261
 282  846.0862
 283  786.3253
 284  913.7797
 285  840.4323
 286  778.5426
 287  735.1859
 288  869.9703
 289  812.6323
 290  847.6165
 291  933.9034
 292  833.9316
 293  700.1619
 294  635.1777
 295  713.3355
 296  798.8325
 297  815.369
 298  802.8959
 299  748.3253
 300  743.1652
 301  770.4764
 302  706.3525
 303  754.1998
 304  641.7001
 305  643.5106
 306  746.3745
 307  706.8259
 308  727.6699
 309  773.0641
 310  815.1216
 311  812.4863
 312  760.0054
 313  753.6591
 314  737.946
 315  826.2185
 316  787.2644
 317  735.7979
 318  756.7473
 319  712.8591
 320  726.8862
 321  650.7183
 322  712.3889
 323  788.2657
 324  872.7465
 325  782.8562
 326  707.16
 327  796.3242
 328  833.186
 329  901.1459
 330  712.1927
 331  762.1765
 332  752.4236
 333  786.1209
 334  849.1162
 335  890.2531
 336  888.3452
 337  815.4391
 338  781.0152
 339  838.9586
 340  763.3093
 341  708.3846
 342  803.7038
 343  827.6818
 344  784.2555
 345  896.4575
 346  911.0365
 347  914.2737
 348  844.2841
 349  921.7789
 350  886.87
 351  756.9469
 352  815.6659
 353  864.3477
 354  936.2394
 355  932.9484
 356  959.4333
 357  817.8691
 358  877.6877
 359  974.1851
 360  950.2026
 361  954.0353
 362  885.264
 363  869.215
 364  812.6588
 365  798.5697
 366  782.6905
 367  888.8477
 368  869.7672
 369  810.1411
 370  723.2441
 371  728.4974
 372  789.5338
 373  843.3574
 374  858.3845
 375  892.6401
 376  811.1821
 377  922.3256
 378  821.9075
 379  693.4388
 380  762.6243
 381  854.3797
 382  828.6205
 383  840.705
 384  823.7089
 385  800.6398
 386  742.1174
 387  811.9965
 388  775.0033
 389  793.6267
 390  665.7488
 391  700.3972
 392  735.4514
 393  791.1155
 394  844.0958
 395  875.112
 396  773.884
 397  796.1664
 398  832.3199
 399  858.3209
 400  808.1055
 401  822.4672
 402  843.7181
 403  704.1848
 404  846.5184
 405  762.1843
 406  770.1111
 407  830.4521
 408  797.5355
 409  857.3062
 410  935.2929
 411  964.4719
 412  898.0591
 413  914.6457
 414  841.0233
 415  842.4945
 416  914.584
 417  874.2462
 418  774.1907
 419  757.7576
 420  875.9083
 421  861.0045
 422  860.6517
 423  795.5357
 424  812.5381
 425  827.8951
 426  814.7874
 427  777.4534
 428  831.6824
 429  808.6046
 430  741.9398
 431  765.707
 432  816.4464
 433  793.9112
 434  725.0746
 435  765.085
 436  800.8564
 437  811.9305
 438  818.1064
 439  740.9902
 440  763.0549
 441  835.5653
 442  864.7387
 443  773.7026
 444  774.6699
 445  768.1035
 446  660.3815
 447  711.5736
 448  779.6252
 449  839.754
 450  801.9185
 451  763.3002
 452  814.1834
 453  978.8174
 454  933.0494
 455  934.162
 456  936.9157
 457  872.9398
 458  791.7659
 459  796.5164
 460  946.0341
 461  926.9071
 462  888.2366
 463  869.6408
 464  827.843
 465  942.6351
 466  834.6199
 467  793.8661
 468  854.358
 469  905.981
 470  918.3413
 471  863.0906
 472  836.3338
 473  759.7579
 474  824.2736
 475  757.3715
 476  777.6302
 477  741.2391
 478  868.5357
 479  880.0846
 480  881.001
 481  912.6772
 482  867.7258
 483  793.2478
 484  789.5743
 485  744.566
 486  772.6107
 487  839.0486
 488  873.2686
 489  924.9623
 490  978.6772
 491  910.4295
 492  837.8574
 493  835.6996
 494  879.4389
 495  854.4079
 496  859.8989
 497  898.8602
 498  836.6167
 499  838.0014
 500  738.7725
 501  808.9523
 502  841.2905
 503  896.2715
 504  931.0102
 505  884.2115
 506  846.8515
 507  900.6819
 508  892.1763
 509  818.6172
 510  923.4156
 511  1032.748
