# Input file       =  1196263036.115612_cleaned.dat
# Candidate        =  PSR_0332+5434
# Telescope        =  AR
# Epoch_topo       =  58089.637211986250
# Epoch_bary       =  N/A
# T_sample         =  0.002
# Data Folded      =  7208960
# Data Avg         =  1.44030455346219 
# Data StdDev      =  12.5491920090658 
# Profile Bins     =  1024
# Profile Avg      =  10139.7351431557 
# Profile StdDev   =  1052.93628931955 
# Reduced chi-sqr  =  0.498
# Prob(Noise)      <  1   (~0.0 sigma)
# P_topo (ms)      =  714.527350530303  +/- 2.11e-05
# P'_topo (s/s)    =  -0                +/- 1.13e-11
# P''_topo (s/s^2) =  0                 +/- 5.09e-15
# P_bary (ms)      =  N/A
# P'_bary (s/s)    =  N/A
# P''_bary (s/s^2) =  N/A
# P_orb (s)        =  N/A
# asin(i)/c (s)    =  N/A
# eccentricity     =  N/A
# w (rad)          =  N/A
# T_peri           =  N/A
######################################################
   0  9872.972
   1  10052.13
   2  9893.977
   3  10237.46
   4  10667.32
   5  10572.86
   6  10182.45
   7  9757.842
   8  9973.715
   9  10519.41
  10  10743.48
  11  10745.76
  12  10417.94
  13  10122.08
  14  10420.47
  15  10094.49
  16  10011.74
  17  9974.921
  18  10031.83
  19  10115.34
  20  9825.829
  21  9607.034
  22  9780.43
  23  10299.32
  24  10557.85
  25  10481.52
  26  10251.74
  27  10380.33
  28  9967.017
  29  9616.07
  30  9712.515
  31  9868.249
  32  10103.06
  33  10129.91
  34  9973.996
  35  9711.986
  36  9387.779
  37  9506.754
  38  9804.263
  39  10191.5
  40  10485.54
  41  10232.81
  42  9906.102
  43  9750.595
  44  10064.37
  45  10017.02
  46  10088.86
  47  10539.58
  48  10475.7
  49  10256.93
  50  9802.451
  51  9878.832
  52  10006.81
  53  10325.51
  54  10277.38
  55  10186.96
  56  9668.326
  57  9538.711
  58  9772.704
  59  10153.27
  60  10652.12
  61  10577.16
  62  10541.56
  63  10130.1
  64  9569.78
  65  9329.293
  66  9421.808
  67  9808.375
  68  10496.68
  69  10514.1
  70  10095.49
  71  9856.648
  72  9982.314
  73  10076.51
  74  9977.839
  75  9981.799
  76  10515.03
  77  10494.4
  78  10185.78
  79  9843.507
  80  9586.707
  81  9965.288
  82  10160.44
  83  9910.86
  84  10051.54
  85  9774.97
  86  9610.461
  87  9394.046
  88  9681.764
  89  10420.68
  90  10803.35
  91  10853.6
  92  10845.65
  93  10429.53
  94  10012.92
  95  9730.613
  96  9595.968
  97  10098.46
  98  10065.42
  99  9840.635
 100  9822.168
 101  9485.912
 102  9464.144
 103  9798.839
 104  10156.13
 105  10805.18
 106  10534.26
 107  10407.71
 108  10244.66
 109  10236.12
 110  10295.9
 111  10221.73
 112  10553.12
 113  10600.26
 114  10129.63
 115  9673.611
 116  9752.062
 117  10420.92
 118  10713.15
 119  10937.36
 120  10778.42
 121  10435.58
 122  10094.75
 123  10051.76
 124  10113.64
 125  10329.55
 126  10630.64
 127  10735.79
 128  10214.46
 129  9954.177
 130  10023.56
 131  10379.7
 132  10508.17
 133  10881.66
 134  11012.09
 135  10767.04
 136  10359.08
 137  10194.29
 138  10215.28
 139  10166.59
 140  10129.22
 141  10236.44
 142  9807.385
 143  9318.797
 144  9386.254
 145  9816.962
 146  10605.26
 147  10966.34
 148  10743.31
 149  10235.22
 150  9383.218
 151  9488.107
 152  9660.812
 153  9774.135
 154  10217.3
 155  10566.15
 156  10499.25
 157  10315.38
 158  10022.36
 159  10051.53
 160  10015.15
 161  10093.09
 162  10514.28
 163  10141.72
 164  10061.94
 165  10072.51
 166  10109.83
 167  10069.32
 168  9942.575
 169  9717.688
 170  10199.76
 171  10050.2
 172  10031.47
 173  9875.33
 174  9995.454
 175  10318.78
 176  10171.97
 177  10007.65
 178  9988.647
 179  9492.32
 180  9495.682
 181  9844.624
 182  10234.34
 183  10413.37
 184  10310.88
 185  9809.479
 186  9852.994
 187  9955.033
 188  10356.63
 189  10186.28
 190  9982.75
 191  10149.65
 192  9649.688
 193  9065.03
 194  9036.468
 195  9686.7
 196  10174
 197  10375.71
 198  10577.1
 199  10319.31
 200  9938.66
 201  9490.691
 202  9883.43
 203  10338.76
 204  10371.72
 205  10573.35
 206  10504.8
 207  10037.31
 208  9434.432
 209  9344.51
 210  9662.667
 211  10034.53
 212  10344.76
 213  10466.76
 214  10183.84
 215  9575.179
 216  9792.515
 217  10013.31
 218  10048.8
 219  10063.56
 220  10085.17
 221  9816.031
 222  9298.513
 223  9136.537
 224  9849.104
 225  10339.87
 226  10590.24
 227  10639.04
 228  10365.03
 229  10115.4
 230  9952.88
 231  9883.083
 232  9856.06
 233  9748.145
 234  9841.777
 235  9661.511
 236  9150.262
 237  8968.542
 238  9517.641
 239  9717.47
 240  10349.06
 241  10435.89
 242  10601.53
 243  10177.46
 244  9855.22
 245  10283.17
 246  10580.52
 247  10458.14
 248  10685.52
 249  10720.84
 250  10441.56
 251  9971.218
 252  9548.59
 253  9855.979
 254  10280.98
 255  10193.58
 256  10630.83
 257  10107.95
 258  10318.67
 259  10472.1
 260  10820.05
 261  10883.26
 262  10619.13
 263  10796.28
 264  10895.28
 265  10408.03
 266  10176.37
 267  10387.83
 268  11006.03
 269  11131.55
 270  11052.92
 271  10325.33
 272  10024.25
 273  10006.79
 274  10218.75
 275  10872.92
 276  10589.29
 277  10430.7
 278  9892.878
 279  9537.277
 280  9729.083
 281  9985.341
 282  10393.14
 283  10696.48
 284  10634.07
 285  10433.31
 286  9999.119
 287  9780.339
 288  9952.651
 289  10500.21
 290  10694.22
 291  10437.18
 292  10148.59
 293  9857.716
 294  9677.198
 295  9592.795
 296  9803.239
 297  10143.41
 298  10072.11
 299  10089.92
 300  9911.097
 301  10083.64
 302  10010.41
 303  10043.63
 304  10070.28
 305  10506.88
 306  10415.43
 307  10065.57
 308  9757.093
 309  9524.585
 310  9916.52
 311  9936.89
 312  9996.987
 313  10075.43
 314  9998.714
 315  9946.071
 316  9602.88
 317  9370.062
 318  9808.07
 319  10162.45
 320  10328.65
 321  10366.47
 322  10103.12
 323  9822.417
 324  9993.695
 325  9888.419
 326  10354.21
 327  10103.83
 328  10116.69
 329  10283.83
 330  10053.45
 331  10194.01
 332  10402.05
 333  10278.73
 334  10175.4
 335  9744.671
 336  9510.08
 337  9320.647
 338  9350.607
 339  10026.18
 340  10255.81
 341  10349.34
 342  10481.92
 343  10328.73
 344  9952.309
 345  9985.977
 346  10090.49
 347  10372.04
 348  10325.37
 349  10276.09
 350  10400.41
 351  10169.77
 352  10037.44
 353  10335.76
 354  10414.19
 355  10650.86
 356  10155.54
 357  9768.246
 358  9745.358
 359  9830.825
 360  10039.35
 361  10426.71
 362  10592.4
 363  10489.19
 364  10024.31
 365  9784.604
 366  9884.563
 367  10240.14
 368  10487.84
 369  10404.89
 370  10097.92
 371  10075.47
 372  9972.469
 373  10028.13
 374  10088.87
 375  10250.03
 376  10431.99
 377  10540.57
 378  10757.71
 379  10577.07
 380  10687.49
 381  10603.11
 382  10691.53
 383  10602.08
 384  10341.05
 385  10073.18
 386  9922.28
 387  9952.803
 388  9889.498
 389  9848.699
 390  9962.21
 391  10457.18
 392  10359.42
 393  10269.33
 394  10087.32
 395  9990.492
 396  10274.94
 397  10709.65
 398  11220.13
 399  11470.02
 400  11169.25
 401  10914.58
 402  10692.64
 403  10508.7
 404  11080.49
 405  11158
 406  11206.06
 407  11007.73
 408  10636.83
 409  10511.14
 410  10274.99
 411  10519.21
 412  10621.13
 413  10182.93
 414  9764.893
 415  9704.724
 416  9593.554
 417  9912.766
 418  10487.05
 419  10693.59
 420  11032.92
 421  10714.22
 422  10582.16
 423  10042.26
 424  9454.23
 425  9906.292
 426  10061.73
 427  9692.571
 428  9546.798
 429  9350.623
 430  9625.138
 431  9783.877
 432  9985.484
 433  10418.68
 434  10323.67
 435  10240.45
 436  10411.17
 437  10250.14
 438  10145.89
 439  10535.9
 440  10863.46
 441  10783.97
 442  10273.05
 443  9779.673
 444  10048.01
 445  9760.932
 446  9817.971
 447  9862.142
 448  9954.788
 449  9992.685
 450  9866.001
 451  10051.28
 452  10060.7
 453  9920.535
 454  10188.81
 455  10463.17
 456  10571.08
 457  10096.13
 458  9780.182
 459  9357.139
 460  9313.387
 461  9481.724
 462  9913.254
 463  10130.7
 464  10107.37
 465  9810.96
 466  9618.888
 467  9734.018
 468  10257.31
 469  10732.04
 470  10792.18
 471  10405.96
 472  10208.48
 473  9874.261
 474  9731.536
 475  9926.255
 476  10173.28
 477  10633.04
 478  10377.7
 479  10059.2
 480  9929.1
 481  9815.734
 482  9836.125
 483  9818.428
 484  9512.249
 485  9879.72
 486  9768.61
 487  10167.23
 488  10167.26
 489  10079.47
 490  10636.97
 491  10819.11
 492  10761.55
 493  10594.31
 494  10325.94
 495  10232.75
 496  10083.37
 497  10197.69
 498  10921.09
 499  10618.49
 500  10099.44
 501  9953.454
 502  10046.47
 503  9866.443
 504  9509.854
 505  9256.19
 506  9485.409
 507  9521.034
 508  9780.784
 509  9752.612
 510  9596.349
 511  10197.11
 512  10529.53
 513  10345.26
 514  10506.1
 515  10211.66
 516  10262.24
 517  10058.49
 518  10168.14
 519  10499
 520  10538
 521  10268.84
 522  10125.48
 523  9966.341
 524  10286.08
 525  10494.53
 526  10770.19
 527  10854.25
 528  10300.73
 529  9669.173
 530  9841.054
 531  9894.733
 532  9911.941
 533  9884.505
 534  10141.23
 535  10396.63
 536  10309.68
 537  10339.94
 538  10112.26
 539  10330.11
 540  10276.79
 541  10391.6
 542  10182.3
 543  9894.635
 544  9703.82
 545  9418.097
 546  9881.129
 547  10425.24
 548  10807.83
 549  10882.41
 550  10771.01
 551  10652.34
 552  10442.95
 553  10218.98
 554  10424.79
 555  11209.96
 556  11482.93
 557  10995.06
 558  10366.98
 559  10066.47
 560  10172.72
 561  10259.62
 562  10201.97
 563  10268.29
 564  10346.63
 565  10701
 566  10235.82
 567  9625.822
 568  9825.062
 569  10305.89
 570  10605.9
 571  10680.61
 572  10086.71
 573  9700.225
 574  9425.507
 575  9703.535
 576  10140.47
 577  10395.89
 578  10470.88
 579  10348.07
 580  10160.41
 581  10245.36
 582  10530.17
 583  10676.12
 584  11056.08
 585  10861.05
 586  10412.26
 587  9815.281
 588  9686.152
 589  10006.87
 590  10139.48
 591  10054.53
 592  10524.11
 593  10372.98
 594  10019.51
 595  9931.19
 596  10021
 597  10492.33
 598  10708.35
 599  10788.97
 600  11069.38
 601  10482.79
 602  10594.77
 603  10435.21
 604  10447.87
 605  10342.08
 606  10454.48
 607  10365.29
 608  10573.31
 609  10610.45
 610  10883.24
 611  10904.02
 612  10901.52
 613  11052.37
 614  10876.51
 615  10250.22
 616  9950.232
 617  9629.418
 618  9938.55
 619  10243.93
 620  10846.61
 621  11178.27
 622  10887.97
 623  10248.6
 624  10286.46
 625  10612.37
 626  10861.27
 627  10931.67
 628  10847.33
 629  10620.81
 630  9939.937
 631  9667.248
 632  9571.087
 633  9816.538
 634  10113.02
 635  10287.52
 636  10429.07
 637  10152.92
 638  10237.37
 639  10219.64
 640  10412.3
 641  10765.44
 642  10679.01
 643  10279.18
 644  9758.902
 645  9589.515
 646  9978.662
 647  10122.51
 648  10406.75
 649  10858.21
 650  10695.57
 651  10629.29
 652  10526.22
 653  10557.98
 654  10864.56
 655  10834.68
 656  10593.97
 657  10475.11
 658  9853.116
 659  9599.109
 660  9622.411
 661  9960.431
 662  10582.15
 663  10536.23
 664  10391.03
 665  10068.97
 666  9510.557
 667  9728.109
 668  10026.86
 669  10266.16
 670  10685.56
 671  10572.95
 672  10351.2
 673  9893.11
 674  9646.649
 675  10096.46
 676  10182.36
 677  9880.395
 678  9996.752
 679  10119.58
 680  10230.4
 681  10156.98
 682  9908.958
 683  10279.82
 684  10413.38
 685  10316.72
 686  10359.4
 687  9706.968
 688  9626.913
 689  9890.271
 690  9906.283
 691  10345.37
 692  10454.73
 693  10288.09
 694  9889.104
 695  9549.195
 696  9636.849
 697  9620.148
 698  9482.988
 699  9769.324
 700  9886.305
 701  9272.995
 702  9318.604
 703  9639.522
 704  10152.33
 705  10596.65
 706  10113.66
 707  10257.31
 708  9888.57
 709  9934.838
 710  10050.09
 711  10425.69
 712  10831.01
 713  10759.61
 714  10585.45
 715  10256.43
 716  9834.858
 717  9604.393
 718  9808.85
 719  10265.67
 720  10257.7
 721  10467.43
 722  10355.52
 723  10173.31
 724  9921.855
 725  10177.14
 726  10270.54
 727  10434.72
 728  10235.61
 729  9964.297
 730  9646.322
 731  9617.666
 732  9960.613
 733  9990.717
 734  9532.28
 735  9655.245
 736  9499.967
 737  9299.086
 738  9026.686
 739  9181.38
 740  9944.621
 741  10312.89
 742  10498.74
 743  10876.75
 744  10536.98
 745  10088.99
 746  9820.537
 747  9993.047
 748  10216.77
 749  10049.74
 750  10218.86
 751  10266.32
 752  9507.307
 753  9020.625
 754  9235.872
 755  9612.104
 756  10113.4
 757  10142.52
 758  9853.047
 759  9896.92
 760  9759.007
 761  10120.92
 762  10018.09
 763  9878.442
 764  10340.17
 765  10161.22
 766  10085.67
 767  9832.894
 768  10169.77
 769  10741.64
 770  10840.33
 771  10665.02
 772  10670.41
 773  10270.21
 774  10035.13
 775  10336.88
 776  10578.97
 777  10708.55
 778  10575.2
 779  10162.72
 780  9684.145
 781  9315.004
 782  9573.078
 783  9864.547
 784  9636.053
 785  9660.932
 786  9700.718
 787  9294.957
 788  9233.895
 789  9393.217
 790  9761.805
 791  10138.94
 792  10214.08
 793  10413.22
 794  10192.28
 795  10001.77
 796  9828.51
 797  10017.3
 798  10306.78
 799  10311.24
 800  10278.34
 801  10337.9
 802  10231.6
 803  9870.89
 804  10043.42
 805  10404.12
 806  10369.56
 807  10457.48
 808  10340.23
 809  10245.53
 810  10258.35
 811  10273.32
 812  10452.88
 813  10287.46
 814  9841.823
 815  9382.689
 816  9346.462
 817  9416.502
 818  10022.76
 819  10460.73
 820  10509.12
 821  10583.44
 822  9909.618
 823  9518.271
 824  9101.393
 825  9323.912
 826  10002.39
 827  10332.75
 828  10370.79
 829  10447
 830  10090.73
 831  9937.298
 832  9990.079
 833  10210.01
 834  10721.54
 835  10478.44
 836  10320.87
 837  10296.41
 838  10136.07
 839  10402.29
 840  10640.97
 841  10591.31
 842  10435.39
 843  10008.88
 844  9529.714
 845  9174.802
 846  8955.521
 847  9521.824
 848  10134.65
 849  10274.85
 850  10845.8
 851  10478.77
 852  10182.63
 853  10141.3
 854  10163.39
 855  10623.24
 856  10752.03
 857  10830.46
 858  10992.37
 859  10663.88
 860  10434.97
 861  10589.02
 862  10644.7
 863  10690.74
 864  10303.74
 865  10278.06
 866  10667.75
 867  10422.09
 868  10346.89
 869  10369.55
 870  10325.21
 871  10237.04
 872  9901.761
 873  9772.721
 874  9486.375
 875  9898.261
 876  10383.59
 877  10603.71
 878  10155.85
 879  9898.002
 880  9728.862
 881  9359.903
 882  9018.394
 883  9344.23
 884  9829.654
 885  10423.17
 886  10176.68
 887  10033.09
 888  9536.052
 889  9216.669
 890  9628.729
 891  10021.35
 892  10134.25
 893  9660.166
 894  9544.487
 895  9594.202
 896  9713.557
 897  9786.601
 898  10179.77
 899  10698.08
 900  10450.38
 901  10383.45
 902  10179.6
 903  10185.07
 904  10314.91
 905  10493.34
 906  10467.77
 907  10341.5
 908  10039.24
 909  10210.64
 910  9781.631
 911  9722.201
 912  9944.729
 913  10285.94
 914  10553.3
 915  10724.07
 916  10377.46
 917  9734.271
 918  9518.041
 919  10003.88
 920  10403.21
 921  10339.21
 922  10204.73
 923  10317.83
 924  10032.62
 925  9646.664
 926  9847.945
 927  9744.496
 928  10308.91
 929  9943.057
 930  9926.429
 931  9906.067
 932  9861.827
 933  10066.17
 934  10234.88
 935  10347.91
 936  10784.84
 937  10286.71
 938  10032.64
 939  9484.503
 940  9628.115
 941  10160.44
 942  10418.64
 943  10238.58
 944  10707.21
 945  10450.06
 946  9895.324
 947  9676.168
 948  9990.007
 949  10621.96
 950  10259.48
 951  10143.65
 952  10013.12
 953  9861.459
 954  9654.816
 955  10039.86
 956  10294.16
 957  10533.46
 958  10193.72
 959  9832.246
 960  9961.526
 961  9897.132
 962  9857.703
 963  9797.193
 964  9892.867
 965  10158.34
 966  10120.89
 967  10055.02
 968  9921.144
 969  9958.962
 970  10226.56
 971  10164.1
 972  9576.984
 973  8920.824
 974  8655.001
 975  9167.316
 976  9753.649
 977  10028.43
 978  9931.919
 979  10015.42
 980  9864.955
 981  9514.384
 982  9826.983
 983  10080.29
 984  10259.79
 985  10459.42
 986  10214.6
 987  9945.486
 988  9248.111
 989  9152.621
 990  9433.234
 991  9714.483
 992  10148.84
 993  10170.98
 994  10122.64
 995  10088.99
 996  10194.16
 997  10161.97
 998  10251.37
 999  10477.77
1000  10218.8
1001  10102
1002  9771.627
1003  10038.21
1004  9847.037
1005  9689.263
1006  10480.37
1007  10515.09
1008  10574.73
1009  10387.67
1010  10179.97
1011  10292
1012  10226.15
1013  10423.26
1014  10785.63
1015  10402.02
1016  10064.95
1017  9945.494
1018  9965.559
1019  10147.98
1020  10085.54
1021  10101.31
1022  10102.95
1023  10018.53
