# Input file       =  1196378798.121901_cleaned.dat
# Candidate        =  PSR_0332+5434
# Telescope        =  AR
# Epoch_topo       =  58090.977050022004
# Epoch_bary       =  N/A
# T_sample         =  0.002
# Data Folded      =  7340032
# Data Avg         =  0.132777390277104
# Data StdDev      =  4.92943722806543 
# Profile Bins     =  512
# Profile Avg      =  1903.4670377515  
# Profile StdDev   =  590.216486944943 
# Reduced chi-sqr  =  0.550
# Prob(Noise)      <  1   (~0.0 sigma)
# P_topo (ms)      =  714.529091480522  +/- 0.000871
# P'_topo (s/s)    =  -0                +/- 4.6e-10
# P''_topo (s/s^2) =  0                 +/- 2.03e-13
# P_bary (ms)      =  N/A
# P'_bary (s/s)    =  N/A
# P''_bary (s/s^2) =  N/A
# P_orb (s)        =  N/A
# asin(i)/c (s)    =  N/A
# eccentricity     =  N/A
# w (rad)          =  N/A
# T_peri           =  N/A
######################################################
   0  2089.685
   1  1994.838
   2  2023.97
   3  2068.497
   4  1595.267
   5  1953.467
   6  1876.501
   7  1964.891
   8  1917.48
   9  1377.362
  10  1753.505
  11  2096.703
  12  2221.101
  13  1859.069
  14  1630.908
  15  2173.717
  16  1870.5
  17  1702.016
  18  1763.235
  19  1721.257
  20  1639.465
  21  1871.595
  22  2001.808
  23  2081.55
  24  1725.36
  25  1575.921
  26  1978.947
  27  2397.439
  28  1732.664
  29  1808.804
  30  1797.212
  31  1677.665
  32  1903.01
  33  1665.628
  34  1717.445
  35  1615.959
  36  2286.486
  37  2473.053
  38  2075.137
  39  2074.214
  40  2126.694
  41  2081.322
  42  1900.457
  43  2111.927
  44  1996.188
  45  2004.502
  46  2115.295
  47  2330.17
  48  1720.819
  49  1461.872
  50  2081.945
  51  2232.598
  52  2354.047
  53  1825.965
  54  2360.567
  55  2311.897
  56  1915.88
  57  1594.918
  58  1779.889
  59  2396.209
  60  2086.083
  61  2167.108
  62  2467.072
  63  2326.014
  64  1955.028
  65  2105.091
  66  2351.987
  67  2153.007
  68  2017.699
  69  2096.743
  70  2036.872
  71  1804.13
  72  2039.285
  73  1933.883
  74  2017.471
  75  2169.592
  76  2003.817
  77  2023.214
  78  1673.033
  79  1615.601
  80  1567.317
  81  1804.749
  82  1892.408
  83  1733.969
  84  1613.417
  85  1502.583
  86  1450.826
  87  1954.278
  88  1839.089
  89  2168.618
  90  1964.336
  91  1698.407
  92  1724.19
  93  1522.316
  94  1978.491
  95  2034.724
  96  1981.628
  97  2111.905
  98  2249.343
  99  2202.843
 100  2129.205
 101  2223.156
 102  1812.635
 103  1560.867
 104  1620.968
 105  1504.315
 106  1400.331
 107  1464.026
 108  1837.819
 109  2248.592
 110  2287.195
 111  2364.232
 112  2381.893
 113  2079.433
 114  1795.139
 115  2118.09
 116  1984.607
 117  2340.501
 118  2344.212
 119  2117.766
 120  2010.22
 121  2353.102
 122  2393.492
 123  2153.082
 124  2277.938
 125  2359.017
 126  2364.297
 127  2140.332
 128  2018.467
 129  1857.53
 130  2078.475
 131  2300.98
 132  1898.321
 133  1746.906
 134  2231.332
 135  2255.067
 136  2304.94
 137  2761.399
 138  3080.461
 139  2943.175
 140  2407.138
 141  2127.81
 142  1839.077
 143  1826.396
 144  1761.131
 145  1927.797
 146  2202.278
 147  2306.05
 148  1864.403
 149  1222.086
 150  1581.327
 151  2043.193
 152  1385.178
 153  1703.935
 154  2212.231
 155  2144.729
 156  2085.674
 157  1711.297
 158  1693.572
 159  1494.747
 160  1132.22
 161  1021.785
 162  1439.539
 163  2160.231
 164  1498.115
 165  1281.581
 166  1712.543
 167  1641.828
 168  1674.427
 169  1369.49
 170  1577.733
 171  1864.354
 172  1623.57
 173  1743.536
 174  1771.702
 175  1689.348
 176  1641.641
 177  1988.678
 178  1816.876
 179  2018.6
 180  2103.399
 181  2043.381
 182  1944.912
 183  1873.096
 184  1975.147
 185  1932.101
 186  2009.064
 187  2382.103
 188  2214.077
 189  2079.23
 190  2270.182
 191  2225.793
 192  1983.057
 193  1919.526
 194  1882.846
 195  1780.234
 196  1893.563
 197  1950.238
 198  1963.945
 199  1807.325
 200  1596.867
 201  1413.624
 202  1396.566
 203  1396.367
 204  1257.516
 205  1692.486
 206  2005.78
 207  2252.511
 208  1768.56
 209  1049.99
 210  1443.887
 211  1530.726
 212  1519.755
 213  1796.067
 214  2085.423
 215  1922.38
 216  1472.14
 217  1571.279
 218  1388.095
 219  1489.229
 220  1560.979
 221  1862.206
 222  1896.459
 223  1893.568
 224  1890.302
 225  1933.975
 226  2152.545
 227  2099.844
 228  1842.312
 229  1812.355
 230  1943.386
 231  2237.782
 232  1971.805
 233  1659.488
 234  2026.24
 235  2186.313
 236  2137.322
 237  2465.477
 238  2593.823
 239  2450.696
 240  2559.904
 241  2452.479
 242  2421.206
 243  2099.365
 244  1871.499
 245  2061.256
 246  1940.857
 247  2053.075
 248  2075.727
 249  2295.3
 250  2055.685
 251  1886.701
 252  1544.631
 253  1539.782
 254  1587.638
 255  1535.151
 256  1748.167
 257  1931.438
 258  1888.983
 259  1741.158
 260  1875.812
 261  1931.635
 262  1864.732
 263  2146.395
 264  2262.557
 265  2148.829
 266  2094.965
 267  2562.78
 268  2085.712
 269  2006.361
 270  1730.28
 271  1951.648
 272  1797.272
 273  1508.572
 274  1453.974
 275  1429.118
 276  1956.393
 277  1793.498
 278  1748.508
 279  2050.321
 280  2172.391
 281  2278.889
 282  2038.829
 283  1932.314
 284  1879.701
 285  1986.11
 286  1768.541
 287  2113.164
 288  1729.188
 289  1698.133
 290  1710.696
 291  2215.821
 292  1881.173
 293  1799.9
 294  1657.232
 295  2060.028
 296  1858.878
 297  1758.476
 298  1974.078
 299  2421.109
 300  2339.579
 301  2208.22
 302  2172.866
 303  2027.801
 304  1836.25
 305  1472.501
 306  1487.453
 307  1862.099
 308  1727.945
 309  1889.454
 310  2022.139
 311  1699.624
 312  1699.702
 313  1455.864
 314  1103.553
 315  1399.629
 316  1634.269
 317  1683.043
 318  1901.059
 319  2152.993
 320  2030.973
 321  1943.509
 322  1937.142
 323  2132.092
 324  1762.537
 325  1985.726
 326  2117.749
 327  2092.605
 328  1784.228
 329  1719.005
 330  2067.995
 331  1788.226
 332  1574.596
 333  1710.891
 334  1845.076
 335  1705.061
 336  1784.57
 337  1424.871
 338  1302.693
 339  1357.947
 340  1728.839
 341  1528.522
 342  1563.759
 343  1850.085
 344  1932.735
 345  1566.183
 346  1175.139
 347  1257.473
 348  1492.77
 349  1763.42
 350  1714.287
 351  1279.063
 352  1529.466
 353  1531.648
 354  1227.913
 355  1075.448
 356  1563.583
 357  1415.894
 358  1364.37
 359  1298.875
 360  1706.161
 361  1881.254
 362  1735.637
 363  1931.024
 364  1585.321
 365  1451.639
 366  1755.188
 367  2084.451
 368  1592.706
 369  1828.793
 370  1509.871
 371  1709.907
 372  1860.851
 373  1538.936
 374  1789.248
 375  1893.696
 376  1775.197
 377  2124.482
 378  2063.403
 379  2059.207
 380  1735.203
 381  1809.632
 382  1984.579
 383  1889.793
 384  1608.218
 385  1789.033
 386  1901.716
 387  1547.314
 388  1710.348
 389  1849.494
 390  1302.637
 391  1313.733
 392  1914.675
 393  2186.786
 394  2065.917
 395  2243.995
 396  1678.938
 397  1360.779
 398  1714.64
 399  2076.819
 400  1643.689
 401  1350.971
 402  1832.135
 403  1576.804
 404  1483.818
 405  1572.983
 406  1410.302
 407  1220.862
 408  1281.081
 409  1728.587
 410  1774.344
 411  1409.443
 412  1642.936
 413  1485.85
 414  1443.221
 415  1916.061
 416  2421.312
 417  1939.381
 418  2137.034
 419  2072.031
 420  1780.538
 421  1535.524
 422  2077.459
 423  1961.868
 424  2081.36
 425  1881.798
 426  1861.639
 427  1861.285
 428  1711.121
 429  1955.697
 430  2384.76
 431  2217.515
 432  2229.428
 433  2027.322
 434  2599.614
 435  2206.812
 436  1570.021
 437  1422.399
 438  1849.859
 439  1783.713
 440  1366.019
 441  1355.71
 442  1483.533
 443  1786.774
 444  1873.461
 445  1886.921
 446  1807.964
 447  1536.154
 448  1908.283
 449  2119.865
 450  2379.16
 451  2340.125
 452  2646.165
 453  2329.468
 454  1677.261
 455  1594.779
 456  2068.191
 457  1498.811
 458  2013.783
 459  2080.141
 460  1972.254
 461  1602.583
 462  1387.602
 463  1837.614
 464  1872.604
 465  1922.215
 466  2303.888
 467  2195.457
 468  1659.334
 469  2018.255
 470  2067.427
 471  2311.436
 472  2308.308
 473  2170.3
 474  2326.085
 475  2252.113
 476  2254.129
 477  2058.757
 478  2306.784
 479  1810.427
 480  2134.491
 481  2373.199
 482  2179.456
 483  2373.945
 484  2314.207
 485  2326.634
 486  2138.969
 487  1856.047
 488  1971.938
 489  2237.517
 490  2202.026
 491  2200.448
 492  2267.167
 493  2069.732
 494  2242.503
 495  2462.884
 496  2310.778
 497  2273.037
 498  2228.639
 499  2044.171
 500  1861.544
 501  2194.719
 502  2340.623
 503  2162.727
 504  2284.54
 505  2276.014
 506  2169.576
 507  2544.6
 508  2645.865
 509  2266.5
 510  2150.593
 511  2103.718
