# Input file       =  1196004548.112581_cleaned.dat
# Candidate        =  PSR_0332+5434
# Telescope        =  AR
# Epoch_topo       =  58086.645452691911
# Epoch_bary       =  N/A
# T_sample         =  0.002
# Data Folded      =  7208960
# Data Avg         =  0.129735145230255
# Data StdDev      =  1.00061983618526 
# Profile Bins     =  512
# Profile Avg      =  1826.668591552   
# Profile StdDev   =  118.7327250444   
# Reduced chi-sqr  =  0.810
# Prob(Noise)      <  0.999   (~0.0 sigma)
# P_topo (ms)      =  714.524264441179  +/- 0.000411
# P'_topo (s/s)    =  -0                +/- 2.21e-10
# P''_topo (s/s^2) =  0                 +/- 9.93e-14
# P_bary (ms)      =  N/A
# P'_bary (s/s)    =  N/A
# P''_bary (s/s^2) =  N/A
# P_orb (s)        =  N/A
# asin(i)/c (s)    =  N/A
# eccentricity     =  N/A
# w (rad)          =  N/A
# T_peri           =  N/A
######################################################
   0  2084.401
   1  2034.376
   2  2029.302
   3  1982.15
   4  1923.046
   5  1782.672
   6  1890.626
   7  1831.137
   8  1828.976
   9  1774.51
  10  1753.687
  11  1903.762
  12  1912.367
  13  1918.24
  14  1935.108
  15  1790.168
  16  1780.304
  17  1810.435
  18  1830.842
  19  1857.944
  20  1828.554
  21  1792.883
  22  1810.87
  23  1774.843
  24  1753.961
  25  1681.137
  26  1829.505
  27  1801.408
  28  1827.745
  29  1826.588
  30  1754.377
  31  1794.838
  32  1814.582
  33  1804.803
  34  1838.424
  35  1929.417
  36  1890.654
  37  1837.902
  38  1832.65
  39  1788.849
  40  1816.14
  41  1849.751
  42  1791.917
  43  1773.205
  44  1818.359
  45  1857.984
  46  1859.145
  47  1847.633
  48  1857.367
  49  1848.341
  50  1859.926
  51  1833.091
  52  1856.325
  53  1855.565
  54  1820.636
  55  1679.669
  56  1752.571
  57  1805.598
  58  1726.593
  59  1725.992
  60  1795.149
  61  1941.663
  62  1829.213
  63  1765.78
  64  1812.808
  65  1730.587
  66  1790.241
  67  1830.43
  68  1722.37
  69  1730.854
  70  1712.989
  71  1730.155
  72  1788.051
  73  1803.189
  74  1837.126
  75  1813.329
  76  1792.086
  77  1827.753
  78  1823.799
  79  1766.458
  80  1815.73
  81  1787.098
  82  1778.004
  83  1784.753
  84  1818.428
  85  1880.361
  86  1858.456
  87  1814.475
  88  1802.63
  89  1713.033
  90  1720.024
  91  1805.983
  92  1891.13
  93  1800.027
  94  1763.487
  95  1789.215
  96  1861.131
  97  1782.61
  98  1837.813
  99  1939.872
 100  2058.43
 101  1974.528
 102  1933.108
 103  1878.472
 104  1728.562
 105  1664.652
 106  1664.836
 107  1818.797
 108  1823.94
 109  1871.69
 110  1992.933
 111  1737.618
 112  1848.53
 113  1883.43
 114  1817.136
 115  1798.291
 116  1786.802
 117  1790.656
 118  1714.529
 119  1839.947
 120  1834.707
 121  1813.358
 122  1817.807
 123  1778.329
 124  1842.426
 125  1751.304
 126  1772.196
 127  1703.312
 128  1693.844
 129  1728.786
 130  1826.759
 131  1820.665
 132  1795.264
 133  1760.984
 134  1841.126
 135  1860.476
 136  1753.544
 137  1806.989
 138  1918.078
 139  1862.618
 140  1942.733
 141  1970.484
 142  1952.758
 143  1947.286
 144  1917.664
 145  1850.773
 146  1687.38
 147  1696.67
 148  1773.618
 149  1750.227
 150  1774.427
 151  1817.604
 152  1828.359
 153  1855.066
 154  1671.156
 155  1680.159
 156  1791.915
 157  1793.605
 158  1789.573
 159  1851.598
 160  1799.07
 161  1683.969
 162  1771.379
 163  1928.97
 164  1929.468
 165  1968.804
 166  1997.526
 167  1978.083
 168  1834.953
 169  1782.073
 170  1840.702
 171  1792.549
 172  1870.516
 173  1766.455
 174  1898.802
 175  1835.328
 176  1729.035
 177  1795.769
 178  1827.734
 179  1879.298
 180  1821.534
 181  1798.592
 182  1741.337
 183  1684.403
 184  1735.991
 185  1688.274
 186  1728.073
 187  1762.581
 188  1877.849
 189  1806.345
 190  1748.086
 191  1792.358
 192  1861.094
 193  1847.439
 194  1829.684
 195  1819.291
 196  1841.268
 197  1791.867
 198  1916.064
 199  1942.05
 200  1919.593
 201  1832.475
 202  1757.077
 203  1793.594
 204  1820.303
 205  1841.496
 206  1935.515
 207  1926.69
 208  1915.41
 209  1841.335
 210  1819.342
 211  1781.589
 212  1809.31
 213  1816.782
 214  1790.725
 215  1817.495
 216  1786.142
 217  1822.731
 218  1758.457
 219  1799.635
 220  1735.31
 221  1679.334
 222  1741.798
 223  1754.276
 224  1875.116
 225  1818.323
 226  1631.514
 227  1691.271
 228  1780.83
 229  1667.733
 230  1642.238
 231  1609.258
 232  1709.073
 233  1737.436
 234  1848.529
 235  1928.402
 236  1802.096
 237  1840.851
 238  1858.297
 239  1867.881
 240  1733.239
 241  1735.377
 242  1774.664
 243  1799.049
 244  1800.84
 245  1753.422
 246  1890.332
 247  1862.937
 248  1879.467
 249  1825.94
 250  1891.676
 251  1847.199
 252  1741.277
 253  1818.259
 254  1756.828
 255  1865.986
 256  1890.635
 257  1913.887
 258  1834.296
 259  1807.041
 260  1952.977
 261  1817.781
 262  1819.519
 263  1948.193
 264  1955.964
 265  1840.014
 266  1791.871
 267  1922.941
 268  1918.368
 269  1773.368
 270  1842.455
 271  1841.528
 272  1909.663
 273  1854.871
 274  1858.305
 275  1807.939
 276  1877.841
 277  1962.94
 278  2009.785
 279  1964.443
 280  1917.616
 281  1825.195
 282  1871.31
 283  1728.428
 284  1707.424
 285  1762.903
 286  1812.223
 287  1840.336
 288  1718.847
 289  1821.167
 290  1839.461
 291  1881.31
 292  1818.841
 293  1806.625
 294  1863.107
 295  1845.714
 296  1879.019
 297  1752.968
 298  1671.918
 299  1718.844
 300  1798.806
 301  1806.368
 302  1690.775
 303  1748.331
 304  1865.341
 305  1919.326
 306  1938.385
 307  1956.203
 308  1867.49
 309  1887.977
 310  2017.343
 311  2053.651
 312  1946.162
 313  1855.277
 314  1898.343
 315  1828.161
 316  1824.886
 317  1766.912
 318  1795.435
 319  1830.018
 320  1865.47
 321  1852.21
 322  1836.228
 323  1852.036
 324  1822.29
 325  1824.168
 326  1753.384
 327  1761.855
 328  1855.483
 329  1830.745
 330  1802.133
 331  1798.364
 332  1815.942
 333  1803.923
 334  1862.128
 335  1929.75
 336  1797.586
 337  1782.703
 338  1845.795
 339  1753.626
 340  1789.623
 341  1904.803
 342  1935.052
 343  1817.165
 344  1910.323
 345  1853.966
 346  1730.118
 347  1760.424
 348  1738.348
 349  1712.964
 350  1745.677
 351  1854.707
 352  1810.521
 353  1841.249
 354  1832.69
 355  1810.737
 356  1750.671
 357  1753.745
 358  1734.606
 359  1713.998
 360  1743.592
 361  1819.929
 362  1910.459
 363  1857.871
 364  1844.122
 365  1830.828
 366  1871.502
 367  1841.033
 368  1807.011
 369  1857.59
 370  1866.683
 371  1812.144
 372  1867.871
 373  1852.265
 374  1929.177
 375  1923.547
 376  1854.037
 377  1825.071
 378  1925.425
 379  1932.585
 380  1876.997
 381  1858.344
 382  1940.739
 383  1835.821
 384  1775.564
 385  1713.182
 386  1720.867
 387  1810.196
 388  1802.148
 389  1851.84
 390  1751.47
 391  1789.562
 392  1818.61
 393  1817.502
 394  1811.872
 395  1753.228
 396  1819.936
 397  1696.816
 398  1713.932
 399  1808.701
 400  1862.991
 401  1820.159
 402  1802.075
 403  1844.555
 404  1860.219
 405  1922.589
 406  1912.547
 407  1862.57
 408  1826.21
 409  1825.689
 410  1857.476
 411  1875.971
 412  1921.86
 413  1927.485
 414  1843.678
 415  1813.811
 416  1927.12
 417  1980.877
 418  1989.014
 419  1963.263
 420  1871.868
 421  1795.328
 422  1854.658
 423  1805.229
 424  1726.326
 425  1795.175
 426  1798.896
 427  1765.241
 428  1815.816
 429  1821.241
 430  1846.509
 431  1893.66
 432  1887.984
 433  1879.496
 434  1848.934
 435  1889.104
 436  1885.034
 437  1880.697
 438  1877.358
 439  1893.532
 440  1872.774
 441  1815.115
 442  1721.44
 443  1724.938
 444  1745.304
 445  1800.029
 446  1689.275
 447  1708.546
 448  1747.83
 449  1761.397
 450  1843.05
 451  1705.954
 452  1661.4
 453  1759.868
 454  1823.628
 455  1763.427
 456  1800.832
 457  1795.806
 458  1826.965
 459  1806.423
 460  1784.008
 461  1774.281
 462  1765.002
 463  1797.266
 464  1862.015
 465  1869.333
 466  1811.936
 467  1770.504
 468  1746.756
 469  1745.273
 470  1781.969
 471  1797.612
 472  1863.645
 473  1819.234
 474  1727.803
 475  1775.412
 476  1777.135
 477  1758.819
 478  1829.136
 479  1831.466
 480  1769.733
 481  1781.329
 482  1868.814
 483  1923.51
 484  1897.366
 485  2019.935
 486  1873.951
 487  1761.54
 488  1749.863
 489  1780.104
 490  1922.303
 491  1927.501
 492  1864.794
 493  1819.012
 494  1791.214
 495  1754.176
 496  1841.966
 497  1866.266
 498  1818.098
 499  1860.283
 500  1872.775
 501  1841.6
 502  1886.768
 503  1994.756
 504  1966.661
 505  1942.026
 506  2006.426
 507  2012.42
 508  1905.339
 509  1980.682
 510  2107.023
 511  2157.812
