# Input file       =  1196551142.114409_cleaned.dat
# Candidate        =  PSR_0332+5434
# Telescope        =  AR
# Epoch_topo       =  58092.971772157514
# Epoch_bary       =  N/A
# T_sample         =  0.002
# Data Folded      =  7340032
# Data Avg         =  0.114089569818004
# Data StdDev      =  4.02101894843161 
# Profile Bins     =  512
# Profile Avg      =  1635.6014794597  
# Profile StdDev   =  481.448808024228 
# Reduced chi-sqr  =  0.507
# Prob(Noise)      <  1   (~0.0 sigma)
# P_topo (ms)      =  714.53113623139   +/- 0.000682
# P'_topo (s/s)    =  -0                +/- 3.6e-10
# P''_topo (s/s^2) =  0                 +/- 1.59e-13
# P_bary (ms)      =  N/A
# P'_bary (s/s)    =  N/A
# P''_bary (s/s^2) =  N/A
# P_orb (s)        =  N/A
# asin(i)/c (s)    =  N/A
# eccentricity     =  N/A
# w (rad)          =  N/A
# T_peri           =  N/A
######################################################
   0  1720.511
   1  1345.549
   2  1329.791
   3  1396.133
   4  1908.649
   5  1632.279
   6  1674.267
   7  1503.494
   8  1439.587
   9  1315.274
  10  1840.019
  11  1890.263
  12  1531.884
  13  1537.263
  14  1943.009
  15  1983.262
  16  1826.112
  17  1656.38
  18  1579.855
  19  1348.604
  20  1499.705
  21  1513.236
  22  1683.015
  23  1654.776
  24  1556.923
  25  1686.719
  26  1300.825
  27  1108.315
  28  1166.584
  29  1262.095
  30  1320.918
  31  1049.655
  32  1329.827
  33  1511.056
  34  1509.812
  35  1537.879
  36  1736.697
  37  1594.759
  38  1474.19
  39  1716.227
  40  1920.101
  41  1427.301
  42  1393.628
  43  1814.28
  44  1879.353
  45  1720.36
  46  1591.345
  47  1609.2
  48  1461.854
  49  1890.384
  50  2101.374
  51  2066.165
  52  1404.669
  53  1227.89
  54  1375.786
  55  1479.559
  56  1407.523
  57  1461.132
  58  1369.604
  59  1314.34
  60  1367.512
  61  1668.927
  62  1597.813
  63  2038.799
  64  1670.374
  65  1404.519
  66  1461.487
  67  1949.528
  68  1794.339
  69  1604.051
  70  1645.959
  71  1642.641
  72  1746.515
  73  1542.859
  74  1891.763
  75  1807.692
  76  1498.083
  77  1701.509
  78  1860.969
  79  2032.828
  80  1754.329
  81  1870.127
  82  1641.634
  83  1597.147
  84  1484.889
  85  2015.692
  86  1622.29
  87  1288.141
  88  1493.553
  89  1650.646
  90  1996.23
  91  1758.977
  92  1851.519
  93  1686.25
  94  1712.862
  95  1868.578
  96  1760.076
  97  1798.427
  98  1464.771
  99  1704.501
 100  2195.375
 101  1864.395
 102  1544.104
 103  1291.004
 104  1536.99
 105  2001.612
 106  1784.593
 107  1623.707
 108  1337.673
 109  1647.296
 110  1935.926
 111  1966.567
 112  1919.364
 113  1779.476
 114  1478.948
 115  1177.182
 116  1231.294
 117  1559.326
 118  2079.744
 119  1943.17
 120  1590.409
 121  1526.314
 122  1263.464
 123  1325.752
 124  1343.948
 125  1344.17
 126  1177.285
 127  1414.532
 128  1428.306
 129  1288.809
 130  1714.619
 131  1898.355
 132  1906.865
 133  1665.943
 134  1545.455
 135  1433.392
 136  1631.418
 137  1778.486
 138  1633.772
 139  1756.746
 140  1656.568
 141  1844.567
 142  1883.592
 143  1657.781
 144  1278.984
 145  974.1467
 146  1064.143
 147  1272.608
 148  1622.768
 149  1431.944
 150  1201.748
 151  1145.027
 152  1227.26
 153  1102.915
 154  1785.095
 155  1661.236
 156  1487.883
 157  1371.937
 158  1423.188
 159  1314.821
 160  1723.682
 161  2174.804
 162  2054.383
 163  1898.249
 164  1801.39
 165  2012.245
 166  1952.609
 167  1936.89
 168  2182.648
 169  2011.546
 170  1846.667
 171  1837.535
 172  1602.369
 173  1389.649
 174  1391.576
 175  1550.963
 176  1871.62
 177  1893.35
 178  1880.049
 179  1769.519
 180  1904.331
 181  1595.418
 182  1560.369
 183  1765.55
 184  1771.65
 185  1867.687
 186  1472.563
 187  1738.092
 188  1856.849
 189  1703.38
 190  1656.111
 191  1542.692
 192  1806.927
 193  1938.549
 194  1657.333
 195  1616.025
 196  1616.856
 197  1618.498
 198  1587.793
 199  1528.67
 200  1829.312
 201  1374.133
 202  1039.992
 203  1481.883
 204  1460.442
 205  1082.249
 206  1194.397
 207  940.8914
 208  1393.241
 209  1485.835
 210  1844.677
 211  1552.038
 212  1305.869
 213  1441.69
 214  1768.439
 215  1851.264
 216  1636.705
 217  1509.485
 218  1625.349
 219  1230.442
 220  1406.192
 221  1552.026
 222  1640.49
 223  1881.734
 224  1721.866
 225  1516.654
 226  1545.558
 227  1577.686
 228  1666.512
 229  1665.87
 230  1924.051
 231  1781.69
 232  1481.726
 233  1745.113
 234  2058.152
 235  1942.13
 236  1685.54
 237  1387.888
 238  1312.148
 239  1410.927
 240  1445.368
 241  1885.035
 242  2206.604
 243  2019.824
 244  1838.138
 245  1727.594
 246  1629.798
 247  1555.491
 248  1689.553
 249  1561.642
 250  1899.863
 251  2042.05
 252  1927.479
 253  1568.279
 254  1775.369
 255  1882.241
 256  1918.122
 257  2048.641
 258  1557.324
 259  1483.884
 260  1522.773
 261  1586.86
 262  1807.831
 263  1856.69
 264  1946.411
 265  1577.011
 266  1554.371
 267  1472.735
 268  1668.734
 269  1792.451
 270  1611.792
 271  1361.658
 272  1470.893
 273  1475.32
 274  1593.493
 275  1918.378
 276  1636.224
 277  1640.447
 278  1910.068
 279  1610.154
 280  1796.172
 281  1653.276
 282  1872.903
 283  1850.243
 284  1548.208
 285  1803.282
 286  1758.367
 287  1725.235
 288  1965.66
 289  2028.459
 290  2005.546
 291  2005.873
 292  2015.919
 293  1765.517
 294  1472.001
 295  1234.089
 296  1368.417
 297  1377.743
 298  1501.508
 299  1335.092
 300  1310.652
 301  1140.996
 302  1178.291
 303  1714.439
 304  1525.494
 305  1771.301
 306  1619.433
 307  1949.409
 308  1833.078
 309  1625.358
 310  1735.539
 311  2214.721
 312  2086.227
 313  2158.363
 314  2214.496
 315  1931.101
 316  1849.205
 317  1576.471
 318  1872.548
 319  1771.672
 320  1513.248
 321  1409.462
 322  1357.146
 323  1180.253
 324  1280.864
 325  1433.611
 326  1974.765
 327  2066.179
 328  2016.451
 329  1655.096
 330  1384.517
 331  1283.421
 332  1346.439
 333  1563.819
 334  1651.585
 335  1732.988
 336  1608.019
 337  1654.429
 338  1667.193
 339  1540.48
 340  1513.578
 341  1386.044
 342  1353.626
 343  1832.793
 344  1477.42
 345  1364.352
 346  1346.203
 347  1412.274
 348  1549.172
 349  1744.142
 350  1789.303
 351  1629.128
 352  1406.832
 353  1909.473
 354  2123.461
 355  2048.966
 356  2095.863
 357  1846.045
 358  2163.235
 359  2131.866
 360  2058.061
 361  2019.946
 362  1683.564
 363  1923.38
 364  1809.577
 365  1841.88
 366  1787.982
 367  1769.674
 368  1563.317
 369  1770.381
 370  2057.656
 371  1691.454
 372  1584.621
 373  1592.723
 374  1560.74
 375  1619.26
 376  1943.525
 377  1932.601
 378  2136.396
 379  2012.418
 380  1491.019
 381  1426.961
 382  1833.483
 383  1961.729
 384  2115.448
 385  2065.701
 386  2125.061
 387  2158.801
 388  1904.75
 389  1465.772
 390  1482.117
 391  1847.157
 392  1589.71
 393  1450.217
 394  1780.738
 395  1666.501
 396  1701.976
 397  1627.044
 398  1913.074
 399  1524.93
 400  1416.375
 401  1522.283
 402  1624.379
 403  1548.063
 404  1739.043
 405  1538.849
 406  1226.673
 407  1463.322
 408  1384.914
 409  1173.426
 410  1073.296
 411  1439.781
 412  1545.112
 413  1246.332
 414  1603.368
 415  1779.652
 416  1602.189
 417  1423.948
 418  1475.717
 419  1657.842
 420  1540.908
 421  1309.534
 422  1395.114
 423  1582.751
 424  1512.598
 425  1396.764
 426  1704.593
 427  1781.948
 428  1380.111
 429  1345.738
 430  1466.846
 431  1572.696
 432  1620.33
 433  1388.271
 434  1230.311
 435  1364.027
 436  1629.246
 437  1341.284
 438  1498.637
 439  1575.049
 440  1531.084
 441  1520.059
 442  1806.371
 443  1880.478
 444  1795.255
 445  1969.999
 446  1906.919
 447  1830.572
 448  1561.415
 449  1406.068
 450  2012.323
 451  1853.24
 452  1635.7
 453  1485.833
 454  1653.265
 455  1549.87
 456  1567.052
 457  1797.256
 458  1523.329
 459  1737.951
 460  1939.733
 461  1924.734
 462  1843.441
 463  1766.435
 464  1322.366
 465  1569.74
 466  1912.871
 467  2028.078
 468  2039.841
 469  1602.471
 470  1694.978
 471  1606.446
 472  1684.859
 473  1544.488
 474  1476.511
 475  1760.618
 476  1674.869
 477  1610.572
 478  1497.922
 479  1711.463
 480  1602.205
 481  1281.028
 482  1560.008
 483  1579.896
 484  1353.662
 485  1206.731
 486  1715.872
 487  1765.574
 488  1395.214
 489  1737.565
 490  1973.231
 491  1696.676
 492  1568.043
 493  1617.354
 494  1940.847
 495  1805.267
 496  1678.783
 497  1388.988
 498  1389.605
 499  1402.658
 500  1582.17
 501  1482.228
 502  1211.744
 503  1332.639
 504  1257.569
 505  1386.936
 506  1130.33
 507  1287.69
 508  1549.692
 509  1393.537
 510  1413.189
 511  1615.82
