# Input file       =  1196722911.118757_cleaned.dat
# Candidate        =  PSR_0332+5434
# Telescope        =  AR
# Epoch_topo       =  58094.959839337469
# Epoch_bary       =  N/A
# T_sample         =  0.002
# Data Folded      =  7340032
# Data Avg         =  0.115467819383152
# Data StdDev      =  3.43032292950382 
# Profile Bins     =  512
# Profile Avg      =  1655.50566862744 
# Profile StdDev   =  410.722980102336 
# Reduced chi-sqr  =  0.664
# Prob(Noise)      <  1   (~0.0 sigma)
# P_topo (ms)      =  714.533153377017  +/- 0.00256
# P'_topo (s/s)    =  -0                +/- 1.35e-09
# P''_topo (s/s^2) =  0                 +/- 5.96e-13
# P_bary (ms)      =  N/A
# P'_bary (s/s)    =  N/A
# P''_bary (s/s^2) =  N/A
# P_orb (s)        =  N/A
# asin(i)/c (s)    =  N/A
# eccentricity     =  N/A
# w (rad)          =  N/A
# T_peri           =  N/A
######################################################
   0  1640.756
   1  1626.27
   2  1580.456
   3  1875.455
   4  1757.473
   5  1428.079
   6  1603.89
   7  2042.709
   8  2034.477
   9  1838.164
  10  1666.538
  11  1650.459
  12  1501.181
  13  1729.565
  14  2003.356
  15  2056.96
  16  1291.587
  17  1075.197
  18  1356.225
  19  1579.983
  20  1692.202
  21  1645.142
  22  1636.757
  23  1516.835
  24  2002.289
  25  1697.756
  26  1744.411
  27  1564.38
  28  1549.046
  29  996.6604
  30  1048.172
  31  1814.605
  32  2200.335
  33  1833.857
  34  1575.072
  35  1370.805
  36  1679.342
  37  1645.115
  38  1968.687
  39  1773.155
  40  1537.702
  41  1552.373
  42  1511.686
  43  1808.343
  44  1890.477
  45  2014.853
  46  2052.509
  47  1926.059
  48  1725.694
  49  1840.21
  50  1911.498
  51  1651.804
  52  1423.412
  53  1692.014
  54  1706.149
  55  1771.353
  56  1573.705
  57  1371.411
  58  1653.866
  59  1654.009
  60  1647.95
  61  1967.578
  62  1920.964
  63  1613.94
  64  1485.187
  65  1717.767
  66  1614.138
  67  1599.015
  68  1768.507
  69  1460.073
  70  1549.688
  71  1565.766
  72  1404.302
  73  1629.52
  74  1736.713
  75  2095.461
  76  1953.528
  77  1858.334
  78  1589.865
  79  1643.84
  80  1835.511
  81  1764.058
  82  1475.363
  83  1619.476
  84  1832.178
  85  1675.148
  86  1574.986
  87  1447.251
  88  1478.962
  89  1783.205
  90  1745.957
  91  1506.617
  92  1771.342
  93  1739.737
  94  1858.797
  95  1975.745
  96  1882.428
  97  1622.937
  98  1494.061
  99  1512.282
 100  1765.642
 101  1852.475
 102  1968.039
 103  1611.134
 104  1630.738
 105  1426.414
 106  1429.994
 107  1525.573
 108  1560.959
 109  1664.899
 110  1670.741
 111  1540.675
 112  1681.613
 113  1808.506
 114  1448.354
 115  1543.405
 116  1703.944
 117  1976.318
 118  2072.029
 119  1681.776
 120  1809.571
 121  1881.05
 122  1908.173
 123  1678.231
 124  1739.127
 125  1513.107
 126  1424.605
 127  1690.872
 128  1868.077
 129  1465.347
 130  1545.267
 131  1897.036
 132  1651.929
 133  1562.048
 134  1290.193
 135  1440.46
 136  1669.272
 137  1737.693
 138  1767.638
 139  1660.421
 140  1952.664
 141  1803.477
 142  1666.081
 143  1817.905
 144  1641.677
 145  1611.63
 146  1771.673
 147  1822.887
 148  1791.772
 149  1419.723
 150  1495.845
 151  1350.573
 152  1381.693
 153  1681.18
 154  1839.819
 155  2100.667
 156  1747.669
 157  2013.852
 158  1695.693
 159  1535.18
 160  1538.811
 161  1808.382
 162  1679.612
 163  1556.358
 164  1399.689
 165  1350.307
 166  1304.284
 167  1632.581
 168  1625.403
 169  1754.293
 170  2064.438
 171  1799.069
 172  1379.553
 173  1461.153
 174  1856.761
 175  1878.783
 176  1690.495
 177  1507.823
 178  1286.985
 179  1444.985
 180  1690.639
 181  1800.165
 182  1579.192
 183  1352.354
 184  1669.643
 185  1594.651
 186  1466.611
 187  1348.161
 188  1273.792
 189  1522.236
 190  1710.051
 191  1255.293
 192  1838.305
 193  1607.828
 194  1381.22
 195  1490.39
 196  1719.979
 197  1789.224
 198  2023.523
 199  1523.872
 200  1601.283
 201  1934.931
 202  2008.503
 203  1914.619
 204  1706.382
 205  1365.728
 206  1429.361
 207  1383.579
 208  1669.413
 209  1654.689
 210  1616.867
 211  1430.702
 212  1086.868
 213  1361.867
 214  1667.309
 215  1484.176
 216  1255.078
 217  1206.696
 218  1186.882
 219  1780.778
 220  1495.371
 221  1709.924
 222  1693.258
 223  1391.375
 224  1168.193
 225  1404.388
 226  1682.543
 227  1580.717
 228  1385.356
 229  1464.423
 230  1091.179
 231  1684.049
 232  1621.351
 233  1470.685
 234  1877.001
 235  1914.614
 236  1638.045
 237  1720.361
 238  1571.467
 239  1824.32
 240  1452.127
 241  1309.293
 242  1383.542
 243  1652.904
 244  1540.892
 245  1466.454
 246  1550.876
 247  1864.876
 248  1622.521
 249  1728.761
 250  2025.593
 251  1841.135
 252  1614.634
 253  1692.243
 254  1485.852
 255  1358.688
 256  1511.339
 257  1771.729
 258  2369.793
 259  2327.315
 260  2341.876
 261  2862.755
 262  2771.287
 263  2466.708
 264  2388.343
 265  2107.353
 266  2054.965
 267  1952.882
 268  1479.475
 269  1426.426
 270  1650.828
 271  2041.006
 272  1838.555
 273  1407.498
 274  1534.645
 275  1769.374
 276  1864.383
 277  1900.164
 278  1607.851
 279  1405.556
 280  1470.941
 281  1713.658
 282  1618.384
 283  1331.178
 284  1466.041
 285  1786.266
 286  1014.247
 287  1014.897
 288  1207.063
 289  1729.715
 290  1665.924
 291  1962.711
 292  1870.243
 293  1584.6
 294  1194.097
 295  1315.848
 296  1787.906
 297  1546.101
 298  1281.678
 299  1311.87
 300  1668.447
 301  1606.167
 302  1495.067
 303  1742.295
 304  1567.307
 305  1596.464
 306  1487.542
 307  1435.613
 308  1475.235
 309  1725.253
 310  1615.23
 311  1748.233
 312  1730.391
 313  1443.862
 314  1445.128
 315  1687.553
 316  1718.801
 317  1484.171
 318  1611.231
 319  1575.303
 320  1593.596
 321  1733.971
 322  1508.983
 323  1577.036
 324  1895.5
 325  2051.539
 326  1769.311
 327  1486.407
 328  1571.012
 329  1786.657
 330  1727.92
 331  1998.623
 332  1982.514
 333  1958.555
 334  1621.905
 335  1350.697
 336  1396.94
 337  1510.143
 338  1702.875
 339  1886.429
 340  1802.998
 341  1540.185
 342  1628.351
 343  1648.341
 344  1446.542
 345  1307.141
 346  1372.511
 347  1658.575
 348  1455.551
 349  1382.629
 350  1523.117
 351  1727.198
 352  1660.258
 353  1456.774
 354  1476.548
 355  1626.853
 356  1719.199
 357  1615.902
 358  1424.984
 359  1286.305
 360  1510.266
 361  1924.857
 362  1912.829
 363  1406.108
 364  1512.001
 365  1292.059
 366  1482.278
 367  1797.754
 368  1680.987
 369  1494.882
 370  1403.733
 371  1501.425
 372  1611.354
 373  1480.511
 374  1870.883
 375  1880.935
 376  1785.153
 377  1812.86
 378  1701.459
 379  1713.482
 380  1951.769
 381  1884.318
 382  1768.321
 383  1589.968
 384  1470.779
 385  1572.689
 386  1366.384
 387  1439.906
 388  1382.72
 389  1432.265
 390  1488.344
 391  1312.434
 392  1282.715
 393  1199.515
 394  1712.007
 395  1606.589
 396  1398.207
 397  1679.245
 398  1510.342
 399  1732.954
 400  1568.486
 401  1314.647
 402  1312.696
 403  1420.055
 404  1524.873
 405  1678.186
 406  1757.409
 407  1738.784
 408  1329.23
 409  1504.36
 410  1602.523
 411  1601.27
 412  1760.392
 413  1682.847
 414  1898.95
 415  1576.924
 416  1384.35
 417  1495.188
 418  1748.589
 419  1969.68
 420  1998.076
 421  1847.845
 422  1667.759
 423  1413.902
 424  1775.137
 425  1946.648
 426  1951.009
 427  1584.439
 428  1908.335
 429  1789.87
 430  1731.725
 431  1656.982
 432  1491.109
 433  1818.306
 434  1964.382
 435  1995.857
 436  1951.095
 437  2056.906
 438  2264.781
 439  1842.712
 440  1841.982
 441  1986.524
 442  1817.057
 443  1744.591
 444  1580.403
 445  1191.926
 446  1324.699
 447  1576.723
 448  2135.495
 449  2245.763
 450  1732.388
 451  1854.851
 452  2019.233
 453  1793.478
 454  1775.793
 455  1501.106
 456  1473.751
 457  1937.802
 458  1771.125
 459  1506.322
 460  1827.5
 461  2072.046
 462  1634.985
 463  1775.642
 464  1857.553
 465  1659.194
 466  1588.877
 467  1810.93
 468  1588.042
 469  1749.473
 470  2060.301
 471  1752.185
 472  1327.653
 473  1622.322
 474  1845.839
 475  1683.528
 476  1761.103
 477  1641.461
 478  1419.371
 479  1349.998
 480  1270.515
 481  1425.915
 482  1682.632
 483  1799.637
 484  1923.53
 485  1935.738
 486  2042.14
 487  1979.74
 488  1778.169
 489  1475.943
 490  1408.99
 491  1218.525
 492  1478.243
 493  1934.75
 494  1871.1
 495  1831.234
 496  1870.466
 497  1551.021
 498  1505.217
 499  1384.283
 500  1249.874
 501  1270.028
 502  1460.082
 503  1568.822
 504  1817.22
 505  1917.415
 506  2045.236
 507  1521.363
 508  1833.331
 509  1420.823
 510  1537.98
 511  1963.654
