# Input file       =  1196722911.118757_cleaned.dat
# Candidate        =  PSR_0332+5434
# Telescope        =  AR
# Epoch_topo       =  58094.959839337469
# Epoch_bary       =  N/A
# T_sample         =  0.002
# Data Folded      =  7340032
# Data Avg         =  0.115467819383152
# Data StdDev      =  3.43032292950382 
# Profile Bins     =  512
# Profile Avg      =  1655.50566860552 
# Profile StdDev   =  410.722980102336 
# Reduced chi-sqr  =  0.664
# Prob(Noise)      <  1   (~0.0 sigma)
# P_topo (ms)      =  714.533153305114  +/- 0.00256
# P'_topo (s/s)    =  -0                +/- 1.35e-09
# P''_topo (s/s^2) =  0                 +/- 5.96e-13
# P_bary (ms)      =  N/A
# P'_bary (s/s)    =  N/A
# P''_bary (s/s^2) =  N/A
# P_orb (s)        =  N/A
# asin(i)/c (s)    =  N/A
# eccentricity     =  N/A
# w (rad)          =  N/A
# T_peri           =  N/A
######################################################
   0  1984.864
   1  1626.227
   2  1817.266
   3  1823.305
   4  1641.784
   5  1638.757
   6  1806.776
   7  1521.985
   8  1852.525
   9  2030.936
  10  1682.561
  11  1309.929
  12  1713.367
  13  1834.229
  14  1662.996
  15  1783.972
  16  1546.415
  17  1446.443
  18  1305.297
  19  1299.788
  20  1476.652
  21  1729.719
  22  1788.057
  23  1951.09
  24  1941.162
  25  2045.937
  26  1946.857
  27  1712.276
  28  1479.361
  29  1330.608
  30  1264.713
  31  1550.334
  32  1956.615
  33  1817.6
  34  1900.449
  35  1801.914
  36  1536.292
  37  1504.43
  38  1364.818
  39  1212.612
  40  1306.614
  41  1461.251
  42  1640.53
  43  1821.936
  44  1997.898
  45  1940.532
  46  1527.215
  47  1813.714
  48  1353.123
  49  1667.396
  50  1971.146
  51  1582.748
  52  1610.444
  53  1612.411
  54  1918.138
  55  1675.939
  56  1396.971
  57  1727.051
  58  2060.828
  59  2045.113
  60  1754.669
  61  1664.195
  62  1619.703
  63  1530.805
  64  1772.078
  65  2045.565
  66  1954.568
  67  1162.774
  68  1145.043
  69  1404.512
  70  1608.718
  71  1694.03
  72  1629.294
  73  1580.354
  74  1620.475
  75  2004.219
  76  1635.707
  77  1733.689
  78  1562.434
  79  1474.454
  80  934.549
  81  1166.88
  82  2000.73
  83  2119.989
  84  1778.491
  85  1496.123
  86  1423.329
  87  1684.558
  88  1696.286
  89  1980.847
  90  1692.324
  91  1567.178
  92  1520.826
  93  1580.833
  94  1790.533
  95  1937.841
  96  2041.787
  97  2074.232
  98  1838.276
  99  1763.991
 100  1824.501
 101  1909.118
 102  1523.622
 103  1500.722
 104  1742.931
 105  1665.636
 106  1799.092
 107  1467.933
 108  1450.113
 109  1637.693
 110  1672.481
 111  1682.304
 112  1996.654
 113  1869.59
 114  1555.931
 115  1539.325
 116  1705.198
 117  1605.058
 118  1591.639
 119  1783.244
 120  1387.535
 121  1618.312
 122  1502.364
 123  1458.444
 124  1627.87
 125  1832.453
 126  2134.347
 127  1893.709
 128  1850.349
 129  1476.546
 130  1721.122
 131  1846.714
 132  1693.022
 133  1485.37
 134  1674.1
 135  1844.558
 136  1644.974
 137  1548.197
 138  1450.643
 139  1498.149
 140  1844.191
 141  1650.592
 142  1557.779
 143  1771.613
 144  1764.947
 145  1886.652
 146  1973.513
 147  1838.67
 148  1556.548
 149  1510.438
 150  1554.464
 151  1804.18
 152  1890.899
 153  1914.261
 154  1566.95
 155  1627.239
 156  1365.443
 157  1469.146
 158  1510.719
 159  1603.938
 160  1681.228
 161  1650.628
 162  1518.44
 163  1755.724
 164  1757.727
 165  1402.007
 166  1591.483
 167  1766.057
 168  2016.806
 169  1993.294
 170  1664.603
 171  1853.925
 172  1902.955
 173  1870.621
 174  1643.242
 175  1756.66
 176  1453.624
 177  1470.467
 178  1721.68
 179  1825.132
 180  1415.457
 181  1653.592
 182  1874.365
 183  1629.167
 184  1507.911
 185  1258.845
 186  1534.282
 187  1662.29
 188  1789.597
 189  1696.209
 190  1751.042
 191  1925.734
 192  1773.832
 193  1675.08
 194  1784.808
 195  1638.728
 196  1627.829
 197  1816.867
 198  1815.351
 199  1715.256
 200  1402.088
 201  1494.552
 202  1307.38
 203  1458.423
 204  1699.47
 205  1946.889
 206  2030.591
 207  1768.446
 208  1997.058
 209  1646.03
 210  1498.046
 211  1603.116
 212  1819.484
 213  1648.021
 214  1531.616
 215  1338.774
 216  1363.111
 217  1341.078
 218  1683.171
 219  1599.196
 220  1859.008
 221  2009.295
 222  1752.346
 223  1316.958
 224  1584.998
 225  1843.803
 226  1884.969
 227  1616.738
 228  1488.305
 229  1265.664
 230  1506.953
 231  1717.673
 232  1818.094
 233  1474.787
 234  1417.717
 235  1690.563
 236  1554.398
 237  1455.959
 238  1331.891
 239  1267.403
 240  1615.972
 241  1591.546
 242  1326.365
 243  1887.357
 244  1518.342
 245  1386.249
 246  1532.227
 247  1742.917
 248  1835.814
 249  1976.109
 250  1462.717
 251  1686.236
 252  1969.038
 253  1993.961
 254  1899.487
 255  1615.469
 256  1366.314
 257  1430.394
 258  1433.816
 259  1657.272
 260  1664.019
 261  1574.488
 262  1414.448
 263  1006.372
 264  1497.309
 265  1623.494
 266  1435.149
 267  1291.879
 268  1131.847
 269  1357.804
 270  1735
 271  1500.811
 272  1710.855
 273  1687.45
 274  1274.154
 275  1220.705
 276  1420.434
 277  1748.202
 278  1477.658
 279  1461.778
 280  1347.667
 281  1165.685
 282  1780.141
 283  1514.04
 284  1535.123
 285  1926.766
 286  1881.514
 287  1615.734
 288  1720.284
 289  1598.818
 290  1813.875
 291  1360.656
 292  1299.003
 293  1453.862
 294  1646.976
 295  1536.76
 296  1451.324
 297  1622.984
 298  1850.058
 299  1602.09
 300  1761.142
 301  2106.098
 302  1719.55
 303  1672.964
 304  1625.71
 305  1468.429
 306  1346.396
 307  1552.154
 308  1903.684
 309  2427.588
 310  2277.659
 311  2438.751
 312  2922.656
 313  2643.102
 314  2486.319
 315  2318.385
 316  2089.758
 317  2052.01
 318  1871.271
 319  1416.652
 320  1460.776
 321  1752.54
 322  2058.538
 323  1715.095
 324  1394.176
 325  1589.342
 326  1798.716
 327  1887.61
 328  1851.543
 329  1552.382
 330  1422.325
 331  1504.839
 332  1729.594
 333  1544.346
 334  1296.404
 335  1597.393
 336  1666.092
 337  937.0858
 338  1048.421
 339  1315
 340  1740.976
 341  1710.036
 342  1973.086
 343  1822.313
 344  1505.846
 345  1135.73
 346  1473.804
 347  1769.649
 348  1477.02
 349  1248.844
 350  1379.474
 351  1690.973
 352  1561.792
 353  1550.828
 354  1744.208
 355  1552.278
 356  1577.36
 357  1514.858
 358  1379.179
 359  1521.264
 360  1728.472
 361  1588.227
 362  1823.275
 363  1650.284
 364  1433.546
 365  1471.532
 366  1746.863
 367  1658.065
 368  1489.99
 369  1628.955
 370  1542.857
 371  1645.52
 372  1722.31
 373  1440.381
 374  1674.628
 375  1923.693
 376  2051.358
 377  1664.461
 378  1478.904
 379  1611.01
 380  1789.897
 381  1786.042
 382  2012.572
 383  1984.084
 384  1908.381
 385  1547.663
 386  1352.689
 387  1396.834
 388  1537.758
 389  1751.18
 390  1901.556
 391  1758.235
 392  1514.283
 393  1672.518
 394  1605.034
 395  1414.83
 396  1286.569
 397  1458.181
 398  1621.596
 399  1451.955
 400  1370.557
 401  1590.499
 402  1715.675
 403  1652.933
 404  1427.301
 405  1459.801
 406  1691.401
 407  1665.981
 408  1650.495
 409  1330.913
 410  1314.314
 411  1597.443
 412  1991.23
 413  1833.047
 414  1338.988
 415  1528.271
 416  1239.475
 417  1592.129
 418  1808.788
 419  1638.719
 420  1466.726
 421  1395.742
 422  1570.905
 423  1556.348
 424  1533.102
 425  1899.379
 426  1881.711
 427  1757.061
 428  1822.476
 429  1658.949
 430  1764.162
 431  1951.363
 432  1869.429
 433  1763.46
 434  1521.72
 435  1528.407
 436  1507.47
 437  1418.201
 438  1388.653
 439  1391.245
 440  1438.739
 441  1488.419
 442  1285.264
 443  1237.939
 444  1307.167
 445  1730.323
 446  1556.736
 447  1415.225
 448  1711.824
 449  1503.219
 450  1776.17
 451  1462.194
 452  1287.581
 453  1347.857
 454  1440.952
 455  1574.362
 456  1659.557
 457  1772.435
 458  1689.022
 459  1295.311
 460  1571.973
 461  1580.025
 462  1656.49
 463  1746.307
 464  1714.526
 465  1886.426
 466  1488.464
 467  1404.552
 468  1508.602
 469  1840.653
 470  1959.726
 471  2012.289
 472  1760.246
 473  1666.75
 474  1407.968
 475  1865.801
 476  1965.903
 477  1879.541
 478  1594.569
 479  1941.683
 480  1733.215
 481  1732.013
 482  1619.689
 483  1509.288
 484  1888.743
 485  1958.719
 486  2029.889
 487  1925.952
 488  2121.051
 489  2236.362
 490  1751.456
 491  1929.076
 492  1958.477
 493  1768.684
 494  1747.819
 495  1462.427
 496  1187.026
 497  1371.445
 498  1698.069
 499  2198.998
 500  2195.093
 501  1625.783
 502  1977.954
 503  1945.59
 504  1819.211
 505  1730.926
 506  1437.92
 507  1558.308
 508  1975.88
 509  1684.951
 510  1502.346
 511  1947.114
