# Input file       =  1196464943.112988_cleaned.dat
# Candidate        =  PSR_0332+5434
# Telescope        =  AR
# Epoch_topo       =  58091.974098529950
# Epoch_bary       =  N/A
# T_sample         =  0.002
# Data Folded      =  7340032
# Data Avg         =  0.230383419067948
# Data StdDev      =  4.55025731028311 
# Profile Bins     =  1024
# Profile Avg      =  1651.41017731503 
# Profile StdDev   =  385.243175819609 
# Reduced chi-sqr  =  0.493
# Prob(Noise)      <  1   (~0.0 sigma)
# P_topo (ms)      =  714.530113517101  +/- 0.00105
# P'_topo (s/s)    =  -0                +/- 5.54e-10
# P''_topo (s/s^2) =  0                 +/- 2.45e-13
# P_bary (ms)      =  N/A
# P'_bary (s/s)    =  N/A
# P''_bary (s/s^2) =  N/A
# P_orb (s)        =  N/A
# asin(i)/c (s)    =  N/A
# eccentricity     =  N/A
# w (rad)          =  N/A
# T_peri           =  N/A
######################################################
   0  1577.4
   1  1597.426
   2  1560.221
   3  1577.225
   4  1646.45
   5  1659.414
   6  1574.997
   7  1545.035
   8  1565.825
   9  1586.545
  10  1725.533
  11  1842.635
  12  1782.913
  13  1836.8
  14  1854.062
  15  1837.709
  16  1675.834
  17  1365.151
  18  1420.465
  19  1450.078
  20  1536.349
  21  1415.104
  22  1380.939
  23  1474.638
  24  1610.042
  25  1672.097
  26  1659.873
  27  1697.855
  28  1700.78
  29  1772.731
  30  1724.227
  31  1629.997
  32  1588.198
  33  1569.395
  34  1733.251
  35  1846.954
  36  1730.926
  37  1705.791
  38  1608.455
  39  1685.248
  40  1736.716
  41  1694.428
  42  1742.637
  43  1829.225
  44  1867.703
  45  1810.23
  46  1632.36
  47  1675.53
  48  1692.387
  49  1705.237
  50  1760.373
  51  1654.435
  52  1542.977
  53  1566.977
  54  1675.827
  55  1790.942
  56  1752.926
  57  1732.923
  58  1788.255
  59  1684.169
  60  1605.698
  61  1573.785
  62  1627.791
  63  1601.702
  64  1603.863
  65  1613.319
  66  1627.687
  67  1671.9
  68  1870.836
  69  2026.104
  70  2007.014
  71  1829.421
  72  1720.696
  73  1573.372
  74  1416.51
  75  1479.436
  76  1623.784
  77  1690.124
  78  1685.232
  79  1742
  80  1680.334
  81  1562.521
  82  1500.393
  83  1761.733
  84  1771.627
  85  1670.609
  86  1557.597
  87  1678.018
  88  1705.326
  89  1708.086
  90  1678.329
  91  1674.852
  92  1467.334
  93  1502.186
  94  1564.636
  95  1681.662
  96  1670.265
  97  1592.114
  98  1604.799
  99  1568.391
 100  1601.778
 101  1713.827
 102  1685.797
 103  1628.704
 104  1712.384
 105  1801.864
 106  1662.84
 107  1723.251
 108  1909.055
 109  2022.246
 110  1856.521
 111  1658.041
 112  1646.642
 113  1690.636
 114  1881.131
 115  1991.96
 116  1806.564
 117  1536.075
 118  1505.008
 119  1573.714
 120  1621.014
 121  1634.28
 122  1650.617
 123  1713.666
 124  1640.486
 125  1697.262
 126  1757.765
 127  1793.103
 128  1880.521
 129  1987.753
 130  1982.599
 131  1854.294
 132  1710.707
 133  1662.123
 134  1661.308
 135  1509.455
 136  1512.69
 137  1637.133
 138  1695.918
 139  1737.692
 140  1706.472
 141  1722.279
 142  1703.552
 143  1728.469
 144  1830.918
 145  1870.48
 146  1701.426
 147  1620.281
 148  1513.158
 149  1350.98
 150  1282.049
 151  1522.324
 152  1796.017
 153  1955.998
 154  1791.546
 155  1799.224
 156  1733.282
 157  1636.596
 158  1568.039
 159  1546.108
 160  1583.73
 161  1692.003
 162  1776.297
 163  1835.632
 164  1888.476
 165  1829.053
 166  1848.74
 167  1736.329
 168  1717.711
 169  1722.091
 170  1663.183
 171  1642.284
 172  1570.882
 173  1604.457
 174  1540.438
 175  1571.513
 176  1581.612
 177  1614.636
 178  1551.397
 179  1573.201
 180  1694.185
 181  1629.884
 182  1520.961
 183  1460.284
 184  1592.239
 185  1620.141
 186  1616.644
 187  1597.208
 188  1617.369
 189  1613.865
 190  1599.769
 191  1625.632
 192  1723.947
 193  1900.316
 194  2007.549
 195  1879.755
 196  1681.696
 197  1572.144
 198  1689.688
 199  1695.058
 200  1666.566
 201  1728.615
 202  1860.065
 203  1968.782
 204  1977.433
 205  1872.571
 206  1881.916
 207  1882.841
 208  1904.019
 209  1932.538
 210  1872.75
 211  1741.194
 212  1633.229
 213  1553.004
 214  1455.582
 215  1452.507
 216  1491.354
 217  1631.131
 218  1575.029
 219  1570.731
 220  1692.505
 221  1663.456
 222  1693.361
 223  1632.145
 224  1555.127
 225  1378.369
 226  1388.325
 227  1455.772
 228  1612.64
 229  1601.757
 230  1643.669
 231  1647.86
 232  1613.162
 233  1746.562
 234  1677.572
 235  1604.2
 236  1620.544
 237  1707.07
 238  1735.452
 239  1716.909
 240  1708.946
 241  1711.041
 242  1615.678
 243  1587.598
 244  1510.51
 245  1380.385
 246  1409.631
 247  1537.944
 248  1701.249
 249  1761.766
 250  1705.167
 251  1781.465
 252  1776.06
 253  1773.194
 254  1653.891
 255  1702.566
 256  1623.768
 257  1567.807
 258  1601.182
 259  1712.971
 260  1699.189
 261  1594.314
 262  1552.356
 263  1702.695
 264  1648.714
 265  1707.383
 266  1818.341
 267  1829.13
 268  1823.38
 269  1717.3
 270  1735.317
 271  1631.708
 272  1649.012
 273  1776.934
 274  1804.113
 275  1647.622
 276  1638.284
 277  1686.632
 278  1662.53
 279  1719.521
 280  1731.936
 281  1729.15
 282  1483.28
 283  1416.297
 284  1637.513
 285  1787.63
 286  1799.797
 287  1780.734
 288  1737.406
 289  1668.28
 290  1601.292
 291  1529.256
 292  1519.055
 293  1607.664
 294  1734.403
 295  1773.682
 296  1551.859
 297  1337.174
 298  1375.581
 299  1443.47
 300  1654.174
 301  1765.622
 302  1771.053
 303  1719.762
 304  1626.686
 305  1636.542
 306  1702.239
 307  1820.244
 308  2027.362
 309  2038.698
 310  1895.566
 311  1766.928
 312  1760.147
 313  1690.165
 314  1611.088
 315  1652.129
 316  1914.843
 317  1998.997
 318  1780.194
 319  1801.215
 320  1792.176
 321  1843.293
 322  1742.528
 323  1883.662
 324  1863.335
 325  1662.124
 326  1418.359
 327  1550.185
 328  1580.759
 329  1537.555
 330  1695.218
 331  1940.392
 332  2039.304
 333  1994.712
 334  1977.246
 335  1925.658
 336  1792.018
 337  1820.215
 338  1882.802
 339  1639.976
 340  1423.294
 341  1332.925
 342  1300.073
 343  1357.127
 344  1423.038
 345  1522.421
 346  1407.006
 347  1400.84
 348  1591.775
 349  1840.802
 350  1852.339
 351  1828.788
 352  1751.467
 353  1733.785
 354  1598.778
 355  1487.758
 356  1274.524
 357  1319.285
 358  1328.369
 359  1397.045
 360  1454.223
 361  1420.831
 362  1436.444
 363  1436.152
 364  1418.003
 365  1504.16
 366  1582.718
 367  1598.63
 368  1497.246
 369  1614
 370  1765.864
 371  1818.863
 372  1670.209
 373  1728.67
 374  1767.573
 375  1786.104
 376  1821.571
 377  1679.565
 378  1531.353
 379  1449.043
 380  1509.986
 381  1528.442
 382  1455.277
 383  1469.219
 384  1630.864
 385  1652.911
 386  1586.081
 387  1607.143
 388  1598.761
 389  1643.808
 390  1594.044
 391  1564.144
 392  1575.781
 393  1523.5
 394  1679.571
 395  1684.973
 396  1566.293
 397  1446.01
 398  1455.021
 399  1489.925
 400  1486.366
 401  1530.593
 402  1673.697
 403  1686.009
 404  1587.579
 405  1438.74
 406  1483.774
 407  1537.555
 408  1737.493
 409  1761.01
 410  1747.268
 411  1597.822
 412  1549.27
 413  1508.964
 414  1537.289
 415  1559.736
 416  1710.05
 417  1650.367
 418  1494.717
 419  1352.679
 420  1405.495
 421  1503.155
 422  1530.214
 423  1564.549
 424  1555.125
 425  1524.775
 426  1526.941
 427  1643.564
 428  1728.742
 429  1812.734
 430  1804.195
 431  1688.804
 432  1645.551
 433  1589.317
 434  1399.58
 435  1276.461
 436  1209.786
 437  1321.463
 438  1445.523
 439  1539.683
 440  1623.757
 441  1525.188
 442  1559.055
 443  1623.354
 444  1657.678
 445  1718.668
 446  1587.836
 447  1543.606
 448  1527.412
 449  1509.022
 450  1415.538
 451  1480.923
 452  1556.705
 453  1746.523
 454  1757.874
 455  1715.326
 456  1744.871
 457  1685.811
 458  1709.804
 459  1798.018
 460  1785.514
 461  1663.84
 462  1632.495
 463  1610.224
 464  1562.785
 465  1398.49
 466  1591.797
 467  1713.84
 468  1712.395
 469  1538.137
 470  1471.129
 471  1522.975
 472  1643.955
 473  1694.184
 474  1692.308
 475  1641.891
 476  1602.431
 477  1576.366
 478  1706.14
 479  1667.715
 480  1731.474
 481  1621.279
 482  1556.53
 483  1562.093
 484  1503.332
 485  1516.636
 486  1559.275
 487  1735.195
 488  1821.131
 489  1798.272
 490  1637.473
 491  1625.333
 492  1593.382
 493  1671.825
 494  1616.811
 495  1681.998
 496  1638.278
 497  1652.936
 498  1547.432
 499  1587.822
 500  1622.993
 501  1659.625
 502  1624.987
 503  1410.922
 504  1308.902
 505  1343.773
 506  1393.809
 507  1477.292
 508  1554.444
 509  1712
 510  1678.681
 511  1516.016
 512  1310.261
 513  1362.218
 514  1407.611
 515  1531.706
 516  1690.306
 517  1835.951
 518  1799.416
 519  1646.413
 520  1694.785
 521  1793.532
 522  1767.898
 523  1705.917
 524  1811.073
 525  1678.324
 526  1708.797
 527  1642.063
 528  1602.226
 529  1562.62
 530  1450.903
 531  1561.958
 532  1402.284
 533  1429.591
 534  1566.527
 535  1672.893
 536  1654.834
 537  1605.645
 538  1692.547
 539  1646.201
 540  1634.678
 541  1571.355
 542  1698.2
 543  1579.234
 544  1544.046
 545  1457.207
 546  1460.541
 547  1427.337
 548  1483.086
 549  1384.211
 550  1376.016
 551  1462.255
 552  1609.442
 553  1677.082
 554  1594.466
 555  1504.533
 556  1436.47
 557  1298.005
 558  1364.477
 559  1441.339
 560  1515.687
 561  1458.352
 562  1442.745
 563  1539.777
 564  1592.971
 565  1648.823
 566  1678.271
 567  1741.503
 568  1683.858
 569  1713.833
 570  1561.444
 571  1540.296
 572  1503.125
 573  1574.072
 574  1609.81
 575  1541.135
 576  1481.242
 577  1620.815
 578  1546.474
 579  1395.141
 580  1365.823
 581  1526.107
 582  1617.951
 583  1662.569
 584  1619.274
 585  1622.978
 586  1561.005
 587  1620.108
 588  1682.958
 589  1650.937
 590  1530.327
 591  1536.657
 592  1490.03
 593  1603.883
 594  1652.227
 595  1853.557
 596  1975.193
 597  2013.557
 598  1946.584
 599  1986.985
 600  1940.804
 601  1963.321
 602  1926.805
 603  1849.7
 604  1773.352
 605  1662.075
 606  1659.382
 607  1748.88
 608  1714.952
 609  1785.723
 610  1840.662
 611  1823.53
 612  1824.26
 613  1732.876
 614  1779.704
 615  1755.95
 616  1779.604
 617  1773.062
 618  1642.876
 619  1667.792
 620  1732.385
 621  1945.355
 622  2106.104
 623  2205.603
 624  2150.355
 625  2109.023
 626  2117.863
 627  2056.148
 628  1919.271
 629  1878.609
 630  1741.867
 631  1830.371
 632  1905.369
 633  1932.017
 634  1817.305
 635  1580.115
 636  1506.853
 637  1555.812
 638  1826.672
 639  1820.833
 640  1563.439
 641  1287.966
 642  1331.512
 643  1417.362
 644  1532.608
 645  1523.379
 646  1491.614
 647  1435.563
 648  1468.459
 649  1468.268
 650  1653.942
 651  1738.846
 652  1807.898
 653  1740.87
 654  1632.225
 655  1546.601
 656  1639.534
 657  1675.385
 658  1677.64
 659  1643.844
 660  1703.764
 661  1641.703
 662  1521.854
 663  1565.289
 664  1660.01
 665  1738.252
 666  1778.447
 667  1723.18
 668  1633.027
 669  1518.72
 670  1467.97
 671  1430.205
 672  1438.678
 673  1350.957
 674  1370.283
 675  1461.028
 676  1504.373
 677  1429.651
 678  1343.379
 679  1514.726
 680  1661.722
 681  1710.959
 682  1675.044
 683  1714.682
 684  1701.29
 685  1716.84
 686  1649.065
 687  1692.983
 688  1695.356
 689  1650.79
 690  1722.215
 691  1729.982
 692  1712.037
 693  1654.179
 694  1595.267
 695  1642.734
 696  1657.343
 697  1527.452
 698  1466.772
 699  1543.992
 700  1627.045
 701  1702.212
 702  1495.63
 703  1521.483
 704  1449.101
 705  1426.056
 706  1511.14
 707  1618.62
 708  1649.126
 709  1656.402
 710  1749.367
 711  1789.756
 712  1693.586
 713  1474.225
 714  1511.342
 715  1561.969
 716  1533.346
 717  1536.629
 718  1482.412
 719  1484.191
 720  1475.127
 721  1606.813
 722  1687.264
 723  1667.185
 724  1642.777
 725  1740.144
 726  1735.275
 727  1675.923
 728  1671.928
 729  1642.904
 730  1657.748
 731  1479.359
 732  1405.705
 733  1359.188
 734  1421.722
 735  1494.164
 736  1578.318
 737  1605.068
 738  1708.347
 739  1704.791
 740  1812.346
 741  1696.919
 742  1657.912
 743  1563.176
 744  1598.761
 745  1514.524
 746  1522.003
 747  1549.873
 748  1628.922
 749  1687.286
 750  1639.192
 751  1664.959
 752  1663.681
 753  1710.149
 754  1736.802
 755  1617.54
 756  1619.085
 757  1718.023
 758  1803.551
 759  1866.72
 760  1866.856
 761  1987.389
 762  1874.405
 763  1924.872
 764  1891.912
 765  1836.893
 766  1687.924
 767  1644.69
 768  1700.703
 769  1605.417
 770  1584.366
 771  1713.85
 772  1617.884
 773  1571.059
 774  1513.32
 775  1522.687
 776  1318.984
 777  1328.012
 778  1458.048
 779  1683.222
 780  1747.46
 781  1862.311
 782  1824.39
 783  1797.245
 784  1757.182
 785  1741.318
 786  1792.409
 787  1728.57
 788  1822.863
 789  1861.074
 790  1824.581
 791  1697.036
 792  1648.983
 793  1697.551
 794  1592.072
 795  1489.184
 796  1365.239
 797  1445.865
 798  1546.674
 799  1626.248
 800  1592.388
 801  1499.332
 802  1488.54
 803  1502.861
 804  1502.913
 805  1501.015
 806  1588.368
 807  1763.319
 808  1872.184
 809  1858.363
 810  1696.865
 811  1491.916
 812  1372.533
 813  1387.281
 814  1466.95
 815  1496.575
 816  1524.168
 817  1663.627
 818  1713.147
 819  1649.746
 820  1591.486
 821  1602.607
 822  1629.777
 823  1698.956
 824  1753.087
 825  1663.47
 826  1548.066
 827  1525.087
 828  1583.603
 829  1542.38
 830  1524.956
 831  1615.436
 832  1773.083
 833  1792.156
 834  1745.236
 835  1748.533
 836  1721.863
 837  1633.824
 838  1690.464
 839  1764.034
 840  1739.56
 841  1630.761
 842  1485.748
 843  1438.317
 844  1343.824
 845  1361.052
 846  1593.637
 847  1795.694
 848  1842.3
 849  1681.658
 850  1680.026
 851  1774.266
 852  1986.797
 853  2085.19
 854  1873.596
 855  1638.074
 856  1643.12
 857  1717.367
 858  1605.075
 859  1396.66
 860  1535.086
 861  1707.322
 862  1760.268
 863  1711.817
 864  1735.051
 865  1791.009
 866  1668.105
 867  1549.347
 868  1531.319
 869  1500.134
 870  1639.398
 871  1680.865
 872  1711.771
 873  1697.694
 874  1852.751
 875  1944.027
 876  1955.282
 877  1749.074
 878  1719.149
 879  1625.392
 880  1584.426
 881  1580.5
 882  1576.345
 883  1471.706
 884  1481.963
 885  1602.361
 886  1756.358
 887  1751.471
 888  1773.706
 889  1758.637
 890  1631.795
 891  1578.889
 892  1652.893
 893  1566.704
 894  1630.497
 895  1628.275
 896  1754.99
 897  1693.94
 898  1591.52
 899  1490.76
 900  1508.357
 901  1417.619
 902  1457.455
 903  1672.742
 904  1683.31
 905  1648.935
 906  1589.312
 907  1718.004
 908  1893.031
 909  1987.444
 910  2018.047
 911  1891.797
 912  1900.14
 913  1958.978
 914  1959.874
 915  1762.822
 916  1767.051
 917  1764.516
 918  2052.909
 919  2012.575
 920  1850.229
 921  1731.628
 922  1661.457
 923  1615.813
 924  1660.094
 925  1830.146
 926  1782.472
 927  1709.475
 928  1641.922
 929  1796.408
 930  1672.001
 931  1619.175
 932  1649.594
 933  1787.056
 934  1827.554
 935  1758.994
 936  1701.896
 937  1708.911
 938  1829.544
 939  1874.745
 940  1842.658
 941  1685.425
 942  1719.704
 943  1710.661
 944  1597.359
 945  1682.346
 946  1881.319
 947  1811.754
 948  1647.802
 949  1570.327
 950  1595.956
 951  1584.969
 952  1628.251
 953  1831.194
 954  1961.814
 955  1801.515
 956  1557.185
 957  1450.189
 958  1476.321
 959  1505.289
 960  1543.621
 961  1598.17
 962  1619.257
 963  1470.263
 964  1488.732
 965  1598.631
 966  1613.08
 967  1585.36
 968  1539.186
 969  1505.084
 970  1509.922
 971  1413.671
 972  1434.906
 973  1480.399
 974  1648.223
 975  1738.797
 976  1613.052
 977  1554.421
 978  1695.177
 979  1970.113
 980  1961.41
 981  1832.921
 982  1642.164
 983  1647.632
 984  1580.198
 985  1602.901
 986  1590.851
 987  1590.237
 988  1584.443
 989  1759.068
 990  1698.094
 991  1715.407
 992  1575.806
 993  1676.812
 994  1727.814
 995  1722.085
 996  1847.355
 997  1894.883
 998  1806.15
 999  1744.315
1000  1732.107
1001  1614.465
1002  1499.546
1003  1557.288
1004  1726.371
1005  1777.573
1006  1776.789
1007  1808.834
1008  1786.51
1009  1671.499
1010  1625.485
1011  1601.025
1012  1557.696
1013  1615.207
1014  1510.65
1015  1550.074
1016  1474.413
1017  1647.338
1018  1805.873
1019  1802.479
1020  1720.52
1021  1692.612
1022  1645.697
1023  1596.892
