# Input file       =  1196693364.105924_cleaned.dat
# Candidate        =  PSR_0332+5434
# Telescope        =  AR
# Epoch_topo       =  58094.617860022270
# Epoch_bary       =  N/A
# T_sample         =  0.002
# Data Folded      =  7208960
# Data Avg         =  0.90696037208598 
# Data StdDev      =  7.68485512709268 
# Profile Bins     =  1024
# Profile Avg      =  6385.00039622299 
# Profile StdDev   =  644.795524336044 
# Reduced chi-sqr  =  0.870
# Prob(Noise)      <  0.999   (~0.0 sigma)
# P_topo (ms)      =  714.532460214948  +/- 4.06e-05
# P'_topo (s/s)    =  -0                +/- 2.18e-11
# P''_topo (s/s^2) =  0                 +/- 9.81e-15
# P_bary (ms)      =  N/A
# P'_bary (s/s)    =  N/A
# P''_bary (s/s^2) =  N/A
# P_orb (s)        =  N/A
# asin(i)/c (s)    =  N/A
# eccentricity     =  N/A
# w (rad)          =  N/A
# T_peri           =  N/A
######################################################
   0  5976.394
   1  6181.215
   2  6570.667
   3  6821.79
   4  7013.054
   5  6816.04
   6  6698.516
   7  6644.993
   8  6638.812
   9  6439.479
  10  6549.606
  11  6518.348
  12  6481.125
  13  6340.05
  14  6100.657
  15  5898.985
  16  5811.4
  17  6217.544
  18  6474.987
  19  6534.873
  20  6600.421
  21  6518.301
  22  6398.682
  23  6529.9
  24  6599.773
  25  6952.322
  26  6943.257
  27  6499.357
  28  6171.195
  29  5922.031
  30  6067.425
  31  6595.013
  32  6623.061
  33  6571.39
  34  6497.61
  35  6477.09
  36  6579.526
  37  6613.649
  38  6788.064
  39  6860.733
  40  6571.157
  41  6513.126
  42  6581.195
  43  6473.274
  44  6506.889
  45  6509.665
  46  6469.552
  47  6693.771
  48  6271.45
  49  6324.793
  50  6065.104
  51  5993.933
  52  6173.094
  53  6507.59
  54  6699.6
  55  6561.532
  56  6246.887
  57  6423.316
  58  6307.302
  59  6296.089
  60  6332.803
  61  6371.243
  62  6389.064
  63  6582.476
  64  6457.646
  65  6247.449
  66  6229.86
  67  6581.608
  68  6986.41
  69  6937.478
  70  6887.865
  71  6782.59
  72  6554.938
  73  6442.034
  74  6475.723
  75  6467.356
  76  6434.892
  77  6349.397
  78  6379.782
  79  6162.886
  80  6160.023
  81  6083.511
  82  5982.575
  83  6072.164
  84  6294.913
  85  6509.631
  86  6224.997
  87  5923.703
  88  6006.289
  89  5946.121
  90  5974.323
  91  5935.059
  92  5842.17
  93  5688.833
  94  5300.928
  95  5552.712
  96  5839.385
  97  5777.703
  98  5932.49
  99  6096.133
 100  6011.823
 101  5978.694
 102  5968.873
 103  6331.749
 104  6407.616
 105  6349.5
 106  6338.961
 107  6329.302
 108  6246.894
 109  6469.091
 110  6246.588
 111  5974.478
 112  5754.111
 113  5566.866
 114  5527.213
 115  5465
 116  5617.344
 117  6177.563
 118  6436.45
 119  6595.146
 120  6628.48
 121  6346.36
 122  6466.686
 123  6158.183
 124  6165.629
 125  6283.341
 126  6126.924
 127  6188.999
 128  5926.543
 129  5794.111
 130  5770.478
 131  5900.806
 132  6212.691
 133  6687.106
 134  6892.955
 135  7111.789
 136  7157.121
 137  7421.357
 138  7691.962
 139  7536.809
 140  7121.958
 141  6804.685
 142  6429.878
 143  6478.905
 144  6429.862
 145  6176.127
 146  5929.969
 147  5853.524
 148  6156.813
 149  6394.148
 150  6386.938
 151  6279.567
 152  6228.439
 153  6188.013
 154  6257.845
 155  6146.5
 156  6054.747
 157  6282.679
 158  6405.237
 159  6631.502
 160  6199.233
 161  6037.091
 162  5893.88
 163  6195.95
 164  6415.369
 165  6568.739
 166  6486.356
 167  6442.898
 168  6547.301
 169  6597.247
 170  6636.558
 171  6469.255
 172  6502.576
 173  6506.433
 174  6712.716
 175  6616.19
 176  6531.417
 177  6439.578
 178  6265.128
 179  6275.851
 180  6055.29
 181  6022.493
 182  5982.001
 183  6038.446
 184  6185.102
 185  6103.333
 186  6045.793
 187  6142.895
 188  6094.737
 189  6146.642
 190  6514.906
 191  6617.796
 192  6314.746
 193  5834.7
 194  5893.954
 195  6291.451
 196  6285.775
 197  6350.553
 198  6557.49
 199  6455.816
 200  6613.429
 201  6688.971
 202  6738.906
 203  6762.157
 204  6673.399
 205  6727.206
 206  6686.131
 207  6445.586
 208  6509.429
 209  6411.564
 210  6500.741
 211  6486.257
 212  6339.784
 213  6202.771
 214  6054.977
 215  5933.837
 216  6253.25
 217  6318.941
 218  6262.57
 219  6489.382
 220  6272.609
 221  6311.664
 222  6249.239
 223  6625.018
 224  6632.751
 225  6530.876
 226  6297.553
 227  6258.527
 228  6185.848
 229  6161.663
 230  6020.099
 231  6156.803
 232  6346.932
 233  6525.456
 234  6510.831
 235  6703.002
 236  6703.681
 237  6678.228
 238  6866.253
 239  6835.852
 240  6950.768
 241  6745.252
 242  6491.134
 243  6363.576
 244  6198.302
 245  6310.243
 246  6232.755
 247  6414.729
 248  6460.708
 249  6440.238
 250  6479.696
 251  6513.522
 252  6331.263
 253  6340.948
 254  6651.116
 255  6863.552
 256  6708.679
 257  6330.064
 258  6208.005
 259  6020.234
 260  6265.55
 261  6214.954
 262  6215.442
 263  6059.256
 264  6038.282
 265  6223.768
 266  6372.683
 267  6555.121
 268  7093.057
 269  7235.067
 270  7256.827
 271  6940.642
 272  6729.887
 273  6669.233
 274  6378.625
 275  6400.634
 276  6288.461
 277  6020.693
 278  5919.346
 279  5825.621
 280  5816.68
 281  5965.958
 282  6120.828
 283  6547.548
 284  6735.38
 285  6377.178
 286  6328.489
 287  6207.037
 288  6222.087
 289  6127.101
 290  5965.333
 291  6032.418
 292  5940.219
 293  5746.035
 294  5701.803
 295  5756.53
 296  6065.438
 297  6498.155
 298  6565.527
 299  6572.817
 300  6603.413
 301  6513.432
 302  6792.736
 303  6710.088
 304  6824.292
 305  6796.887
 306  6545.469
 307  6388.839
 308  6193.128
 309  6159.471
 310  6245.895
 311  6138.1
 312  6104.223
 313  6069.941
 314  5718.154
 315  5817.752
 316  5872.435
 317  6084.221
 318  6284.826
 319  6444.435
 320  6581.533
 321  6511.223
 322  6467.506
 323  6385.495
 324  6467.668
 325  6460.29
 326  6480.355
 327  6307.831
 328  6385.452
 329  6419.11
 330  6531.836
 331  6450.208
 332  6446.015
 333  6410.659
 334  6609.234
 335  6841.11
 336  6928.103
 337  6609.209
 338  6551.414
 339  6812.59
 340  6897.188
 341  6795.022
 342  6391.618
 343  6343.572
 344  6363.833
 345  6311.672
 346  6306.045
 347  6237.019
 348  6469.368
 349  6409.499
 350  6251.464
 351  6376.433
 352  6526.498
 353  6585.873
 354  6592.485
 355  6595.229
 356  6746.521
 357  6600.539
 358  6376.332
 359  6236.042
 360  6034.377
 361  5985.96
 362  6298.494
 363  6320.582
 364  6427.854
 365  6254.371
 366  6417.56
 367  6639.068
 368  6566.44
 369  6894.905
 370  7298.37
 371  7014.564
 372  6541.682
 373  6257.898
 374  6271.977
 375  6429.994
 376  6288.975
 377  6325.762
 378  6150.229
 379  5851.737
 380  5772.569
 381  5632.16
 382  5760.183
 383  6266.115
 384  6468.247
 385  6420.156
 386  6386.122
 387  6138.956
 388  6355.243
 389  6216.223
 390  6190.044
 391  6191.39
 392  5891.556
 393  5962.96
 394  5829.231
 395  6121.825
 396  6257.252
 397  6246.34
 398  6344.373
 399  6468.043
 400  6620.806
 401  6714.657
 402  6537.542
 403  6377.949
 404  6525.434
 405  6590.82
 406  6715.75
 407  6376.515
 408  6368.795
 409  6280.259
 410  6341.265
 411  6151.898
 412  6084.25
 413  5934.654
 414  5721.688
 415  5595.951
 416  5775.379
 417  6032.097
 418  6145.894
 419  6030.569
 420  6240.873
 421  6231.897
 422  6008.051
 423  5588.771
 424  5582.553
 425  5857.019
 426  6094.866
 427  6128.187
 428  6191.68
 429  6196.753
 430  6188.08
 431  6338.667
 432  6484.036
 433  6528.404
 434  6777.531
 435  6832.004
 436  6632.849
 437  6472.58
 438  6570.629
 439  6687.807
 440  6810.692
 441  6549.197
 442  6518.052
 443  6421.227
 444  6313.532
 445  6366.522
 446  6163.563
 447  6209.574
 448  6411.513
 449  6556.092
 450  6724.358
 451  6548.413
 452  6257.511
 453  6265.769
 454  6027.442
 455  5924.402
 456  6144.457
 457  6068.261
 458  6231.871
 459  6220.172
 460  6307.53
 461  6586.278
 462  6649.017
 463  6902.25
 464  6843.046
 465  6697.828
 466  6807.168
 467  6908.597
 468  6850.23
 469  7081.868
 470  6810.669
 471  6791.702
 472  6514.883
 473  6340.961
 474  6289.498
 475  6030.754
 476  6201.162
 477  6441.769
 478  6431.776
 479  6119.179
 480  5925.779
 481  5955.013
 482  6296.905
 483  6576.124
 484  6779.298
 485  6673.693
 486  6149.535
 487  6072.658
 488  5852.21
 489  5902.618
 490  5967.776
 491  6243.741
 492  6115.333
 493  6101.589
 494  5919.595
 495  6150.676
 496  6365.423
 497  6714.387
 498  6995.062
 499  7033.451
 500  6873.525
 501  6735.892
 502  6668.387
 503  6565.17
 504  6685.966
 505  6583.102
 506  6467.124
 507  6198.898
 508  6168.304
 509  6156.76
 510  6051.815
 511  6117.509
 512  6128.473
 513  6053.46
 514  6034.269
 515  6091.977
 516  6083.313
 517  6158.252
 518  6589.411
 519  6520.083
 520  6480.896
 521  6246.044
 522  6354.13
 523  6372.908
 524  6293.045
 525  6426.332
 526  6778.225
 527  6631.338
 528  6819.763
 529  6922.999
 530  6886.512
 531  6863.321
 532  6815.297
 533  6970.062
 534  7014.063
 535  6877.563
 536  7019.882
 537  6783.176
 538  6475.28
 539  6456.74
 540  6375.699
 541  6433.625
 542  6577.955
 543  6338.419
 544  6214.801
 545  5887.52
 546  5977.157
 547  6271.367
 548  6070.692
 549  6336.255
 550  6219.271
 551  6243.246
 552  6326.105
 553  6156.048
 554  6308.831
 555  6564.707
 556  6623.914
 557  6553.074
 558  6367.289
 559  6185.634
 560  6309.943
 561  6415.901
 562  6703.248
 563  7128.854
 564  7312.341
 565  7109.222
 566  6802.786
 567  6652.885
 568  7039.848
 569  7123.742
 570  6890.478
 571  6598.878
 572  6343.484
 573  6326.751
 574  6266.57
 575  6037.514
 576  6198.216
 577  6304.222
 578  6483.691
 579  6479.38
 580  6326.177
 581  6231.42
 582  6317.656
 583  6393.809
 584  6632.192
 585  6744.435
 586  6599.299
 587  6480.349
 588  6218.311
 589  6331.364
 590  6273.493
 591  6160.258
 592  6055.73
 593  6198.96
 594  6253.443
 595  6192.548
 596  6407.701
 597  6601.38
 598  6798.021
 599  6692.68
 600  6679.322
 601  6515.522
 602  6392.909
 603  6276.007
 604  6686.168
 605  6426.973
 606  6447.518
 607  6284.589
 608  6123.442
 609  6012.378
 610  5993.224
 611  6416.234
 612  6603.036
 613  6349.122
 614  6428.567
 615  6415.156
 616  6401.129
 617  6313.519
 618  6157.494
 619  6670.65
 620  6938.271
 621  6546.849
 622  6437.867
 623  6382.628
 624  6501.614
 625  6599.977
 626  6762.175
 627  6972.818
 628  6966.626
 629  6954.684
 630  6952.818
 631  6712.447
 632  6692.851
 633  7001.655
 634  6966.688
 635  6963.86
 636  6765.433
 637  6589.729
 638  6419.775
 639  6320.976
 640  6325.808
 641  6361.446
 642  5999.09
 643  6108.838
 644  6170.511
 645  6051.447
 646  6188.95
 647  6667.851
 648  6959.638
 649  7003.499
 650  6704.886
 651  6643.563
 652  6421.55
 653  6284.247
 654  6432.35
 655  6456.024
 656  6184.828
 657  5849.886
 658  5540.369
 659  5713.666
 660  5892.821
 661  6315.519
 662  6533.841
 663  6662.276
 664  6643.222
 665  6688.19
 666  6521.123
 667  6527.776
 668  6707.76
 669  6998.983
 670  7018.898
 671  6924.419
 672  6484.891
 673  6243.034
 674  6390.579
 675  6462.05
 676  6361.728
 677  6177.079
 678  6198.56
 679  6449.827
 680  6589.912
 681  6814.694
 682  6870.984
 683  6738.876
 684  6876.832
 685  6573.864
 686  6433.434
 687  6341.571
 688  6380.511
 689  6358.931
 690  6427.716
 691  6449.042
 692  6486.198
 693  6295.024
 694  6138.973
 695  6278.692
 696  6307.461
 697  6717.049
 698  7089.508
 699  7097.826
 700  7061.261
 701  6756.645
 702  6813.083
 703  6809.185
 704  6440.689
 705  6387.552
 706  6205.253
 707  6095.227
 708  6012.837
 709  6048.125
 710  6086.375
 711  6184.465
 712  6168.434
 713  6500.37
 714  6332.749
 715  6075.731
 716  5958.693
 717  6221.83
 718  6262.353
 719  6418.617
 720  6330.231
 721  6317.72
 722  6261.469
 723  6218.854
 724  6422.776
 725  6359.345
 726  6524.628
 727  6820.802
 728  6693.261
 729  6480.577
 730  6404.562
 731  6421.615
 732  6558.137
 733  6626.2
 734  6892.521
 735  7298.702
 736  6946.149
 737  6642
 738  6204.573
 739  6266.824
 740  6610.452
 741  6636.166
 742  6283.007
 743  5783.91
 744  5717.888
 745  6057.052
 746  6446.709
 747  6494.294
 748  6726.199
 749  6712.118
 750  6663.42
 751  6332.662
 752  6082.094
 753  6237.641
 754  6267.123
 755  6699.198
 756  6768.143
 757  6682.007
 758  6428.889
 759  6417.956
 760  6445.516
 761  6443.05
 762  6947.085
 763  7248.231
 764  7199.479
 765  6983.274
 766  6690.654
 767  6712.234
 768  6788.939
 769  7033.629
 770  7095.475
 771  6644.286
 772  6318.505
 773  6164.642
 774  6105.158
 775  6095.346
 776  6213.606
 777  6322.759
 778  6505.984
 779  6200.662
 780  6090.746
 781  6009.697
 782  6060.005
 783  6235.416
 784  6545.332
 785  6567.951
 786  6351.812
 787  6012.65
 788  5895.363
 789  6197.155
 790  6223.403
 791  6448.023
 792  6548.358
 793  6503.204
 794  6749.682
 795  6890.152
 796  6940.619
 797  6958.222
 798  6966.801
 799  7060.544
 800  6913.955
 801  6554.163
 802  6630.382
 803  6452.748
 804  6431.744
 805  6700.895
 806  6476.65
 807  6372.545
 808  5944.449
 809  6057.781
 810  6073.742
 811  5916.292
 812  6093.05
 813  6410.408
 814  6398.672
 815  6501.649
 816  6542.275
 817  6678.068
 818  6604.077
 819  6479.609
 820  6372.108
 821  6422.858
 822  6324.49
 823  6315.652
 824  6213.719
 825  6142.853
 826  6306.339
 827  6435.753
 828  6674.438
 829  6948.333
 830  7179.993
 831  7309.658
 832  6973.644
 833  6769.765
 834  6810.261
 835  6609.947
 836  6552.139
 837  6385.741
 838  6228.496
 839  5952.316
 840  5822.106
 841  5789.028
 842  5947.987
 843  6079.249
 844  5982.012
 845  5910.672
 846  6093.623
 847  6360.253
 848  6585.321
 849  6508.02
 850  6464.779
 851  6317.448
 852  6083.292
 853  5842.053
 854  5777.991
 855  5822.218
 856  6039.534
 857  6020.721
 858  5897.755
 859  5822.783
 860  5946.711
 861  6205.303
 862  6610.46
 863  6837.379
 864  7082.842
 865  6953.95
 866  6711.297
 867  6589.812
 868  6334.043
 869  6482.201
 870  6567.358
 871  6666.14
 872  6543.865
 873  6038.778
 874  5921.14
 875  6187.553
 876  6257.501
 877  6509.53
 878  6763.554
 879  6733.092
 880  6492.534
 881  6194.731
 882  6348.613
 883  6793.912
 884  6613.672
 885  6659.084
 886  6463.18
 887  6276.845
 888  6130.634
 889  5884.454
 890  6040.181
 891  6167.404
 892  6155.833
 893  6340.466
 894  6239.375
 895  6355.22
 896  6618.582
 897  6830.77
 898  6960.812
 899  6989.002
 900  6886.237
 901  6740.294
 902  6428.394
 903  6302.422
 904  6290.612
 905  6018.923
 906  5952.181
 907  6354.706
 908  6357.455
 909  6031.875
 910  5786.582
 911  6093.021
 912  6516.048
 913  6459.399
 914  6200.974
 915  6099.484
 916  5819.104
 917  5783.432
 918  5730.475
 919  5928.315
 920  5990.53
 921  6107.649
 922  6035.981
 923  5952.869
 924  5961.381
 925  6280.73
 926  6506.875
 927  6641.412
 928  6868.977
 929  6849.691
 930  6748.12
 931  6594.363
 932  6427.131
 933  6603.099
 934  6576.411
 935  6667.1
 936  6277.993
 937  6110.264
 938  6261.961
 939  6184.635
 940  6191.626
 941  6207.513
 942  6398.168
 943  6307.098
 944  5828.714
 945  5592.95
 946  5820.127
 947  5970.197
 948  6411.943
 949  6153.575
 950  6273.896
 951  6180.479
 952  6204.743
 953  6109.839
 954  5870.137
 955  6131.68
 956  6484.7
 957  6404.35
 958  6313.547
 959  6202.862
 960  6294.476
 961  6436.8
 962  6369.017
 963  6673.099
 964  6797.392
 965  6582.614
 966  6420.018
 967  6432.816
 968  6440.586
 969  6600.577
 970  6370.304
 971  6289.726
 972  6055.15
 973  5814.883
 974  5914.055
 975  6074.771
 976  6138.962
 977  6577.336
 978  6566.205
 979  6803.773
 980  6687.249
 981  6425.795
 982  6357.091
 983  6297.833
 984  6581.678
 985  6761.5
 986  6417.193
 987  6265.081
 988  5889.335
 989  5668.291
 990  6010.628
 991  6355.516
 992  6651.089
 993  6766.876
 994  6738.045
 995  6745.175
 996  6671.568
 997  6548.422
 998  6669.537
 999  6506.722
1000  6389.186
1001  6186.189
1002  5867.972
1003  5771.451
1004  5610.864
1005  5772.354
1006  5940.654
1007  6086.586
1008  5777.475
1009  5779.078
1010  5834.435
1011  6204.179
1012  6516.369
1013  6599.586
1014  6463.458
1015  6207.984
1016  6250.048
1017  6285.208
1018  6023.485
1019  5844.611
1020  5936.084
1021  6090.269
1022  6032.379
1023  5961.114
