# Input file       =  1196880352.139073_cleaned.dat
# Candidate        =  PSR_0332+5434
# Telescope        =  AR
# Epoch_topo       =  58096.782073368900
# Epoch_bary       =  N/A
# T_sample         =  0.002
# Data Folded      =  7340032
# Data Avg         =  0.130538880473718
# Data StdDev      =  3.80878955009476 
# Profile Bins     =  512
# Profile Avg      =  1872.35317572286 
# Profile StdDev   =  456.037937752942 
# Reduced chi-sqr  =  0.531
# Prob(Noise)      <  1   (~0.0 sigma)
# P_topo (ms)      =  714.534676649354  +/- 0.00128
# P'_topo (s/s)    =  -0                +/- 6.74e-10
# P''_topo (s/s^2) =  0                 +/- 2.98e-13
# P_bary (ms)      =  N/A
# P'_bary (s/s)    =  N/A
# P''_bary (s/s^2) =  N/A
# P_orb (s)        =  N/A
# asin(i)/c (s)    =  N/A
# eccentricity     =  N/A
# w (rad)          =  N/A
# T_peri           =  N/A
######################################################
   0  1812.446
   1  1794.582
   2  1884.787
   3  2037.508
   4  2255.743
   5  2042.557
   6  2111.624
   7  1807.357
   8  2170.257
   9  1919.241
  10  1959.814
  11  2419.582
  12  1959.267
  13  2170.092
  14  1848.516
  15  1753.296
  16  1684.9
  17  1833.557
  18  1973.069
  19  1926.781
  20  1889.094
  21  1935.385
  22  2030.846
  23  1917.153
  24  1963.762
  25  1713.023
  26  1982.936
  27  1947.718
  28  1839.958
  29  1869.379
  30  1943.872
  31  1851.671
  32  1826.508
  33  1700.918
  34  1690.401
  35  1818.387
  36  1832.465
  37  1815.461
  38  1900.918
  39  1693.486
  40  1878.467
  41  1711.292
  42  1645.871
  43  1860.135
  44  1746.409
  45  1596.133
  46  1830.376
  47  2048.209
  48  1566.936
  49  1892.119
  50  2009.485
  51  1748.27
  52  1762.364
  53  1804.943
  54  1670.767
  55  1721.412
  56  1860.644
  57  1841.038
  58  1660.241
  59  1669.217
  60  1423.833
  61  1435.393
  62  1562.211
  63  1550.445
  64  1772.694
  65  1950.423
  66  2047.658
  67  1692.193
  68  1384.717
  69  1289.827
  70  1390.062
  71  1792
  72  1963.465
  73  1772.219
  74  1800.497
  75  1875.756
  76  1976.648
  77  1844.856
  78  1668.85
  79  1604.206
  80  1608.78
  81  1788.761
  82  1634.466
  83  1618.743
  84  1660.704
  85  1696.283
  86  1846.4
  87  1938.257
  88  1691.402
  89  1605.521
  90  1488.388
  91  1410.31
  92  1236.398
  93  1600.729
  94  1710.733
  95  1574.285
  96  2064.64
  97  2029.894
  98  1943.274
  99  1977.717
 100  1675.445
 101  1737.74
 102  1586.263
 103  2078.885
 104  2409.999
 105  2105.398
 106  2113.829
 107  2154.21
 108  2025.039
 109  2061.288
 110  2238.027
 111  2212.008
 112  1994.656
 113  1933.014
 114  1815.983
 115  2099.58
 116  2136.445
 117  1724.744
 118  1684.617
 119  2050.762
 120  2174.225
 121  1792.003
 122  1739.085
 123  1888.151
 124  1837.785
 125  1814.155
 126  1713.395
 127  1802.092
 128  1783.758
 129  1858.619
 130  2015.441
 131  1877.595
 132  1992.84
 133  1422.796
 134  1433.105
 135  1666.648
 136  1749.14
 137  1517.837
 138  1672.555
 139  1691.112
 140  1895.879
 141  1573.11
 142  1338.771
 143  1562.593
 144  1770.379
 145  1413.047
 146  1794.383
 147  1825.778
 148  1832.351
 149  1370.6
 150  1393.246
 151  1638.981
 152  1702.451
 153  1840.42
 154  1796.295
 155  1707.349
 156  1543.04
 157  1404.175
 158  1410.703
 159  1667.628
 160  1672.028
 161  1636.505
 162  1828.901
 163  1869.256
 164  1963.631
 165  1884.626
 166  1815.347
 167  1677.815
 168  1690.294
 169  1804.44
 170  1729.727
 171  1893.059
 172  2072.268
 173  2194.336
 174  1889.175
 175  1943.037
 176  1930.266
 177  1724.332
 178  1416.72
 179  1469.292
 180  1683.086
 181  1787.859
 182  1641.962
 183  1652.929
 184  1496.267
 185  1894.576
 186  2131.719
 187  2027.654
 188  1695.483
 189  1741.894
 190  1738.306
 191  1573.665
 192  1836.489
 193  1812.548
 194  1748.256
 195  1503.995
 196  1553.388
 197  1824.57
 198  1432.913
 199  1336.4
 200  2106.497
 201  1881.332
 202  1437.14
 203  1351.068
 204  1542.17
 205  1888.434
 206  1808.409
 207  1734.762
 208  1535.016
 209  1624.756
 210  2173.661
 211  1796.906
 212  1583.519
 213  1509.985
 214  1468.664
 215  1864.399
 216  1970.577
 217  2046.73
 218  1948.051
 219  1615.823
 220  1574.737
 221  1700.493
 222  1694.593
 223  1554.176
 224  2013.877
 225  2451.892
 226  2463.008
 227  2240.9
 228  1953.032
 229  2246.799
 230  1976.657
 231  1911.344
 232  1702.63
 233  2089.081
 234  2277.75
 235  2225.179
 236  2041.436
 237  1852.64
 238  1500.515
 239  1552.557
 240  1639.094
 241  1722.096
 242  1872.486
 243  2143.27
 244  1863.619
 245  1615.498
 246  1845.557
 247  1889.959
 248  2126.195
 249  2134.45
 250  1926.831
 251  1857.255
 252  2005.169
 253  2029.609
 254  2114.895
 255  1772.124
 256  1823.969
 257  1912.089
 258  1618.39
 259  1904.597
 260  2041.116
 261  2022.737
 262  1860.58
 263  1644.824
 264  1669.692
 265  1708.247
 266  1787.716
 267  2200.388
 268  2098.961
 269  1807.466
 270  1623.764
 271  1902.51
 272  2084.095
 273  2002.446
 274  2283.74
 275  2024.425
 276  1823.546
 277  1632.265
 278  1882.599
 279  2324.456
 280  2132.498
 281  2003.882
 282  2209.283
 283  1960.949
 284  1852.455
 285  2197.665
 286  2063.561
 287  1742.989
 288  1473.5
 289  1410.329
 290  1428.406
 291  2022.766
 292  2278.114
 293  1943.703
 294  1700.278
 295  2040.912
 296  1951.309
 297  1724.79
 298  2251.169
 299  2212.02
 300  2014.035
 301  1802.008
 302  1926.538
 303  1633.696
 304  1688.451
 305  1946.757
 306  1953.153
 307  2071.004
 308  1923.348
 309  1867.855
 310  1923.387
 311  2107.413
 312  2198.64
 313  1795.143
 314  1751.814
 315  2012.097
 316  2167.24
 317  2043.015
 318  1785.744
 319  1633.918
 320  1654.858
 321  1739.045
 322  1765.554
 323  1773.787
 324  1937.257
 325  2094.931
 326  1727.57
 327  1609.417
 328  1411.201
 329  1550.009
 330  1916.503
 331  1957.139
 332  1627.824
 333  1592.835
 334  1808.075
 335  1669.454
 336  1618.666
 337  1817.34
 338  1656.216
 339  1752.82
 340  1974.392
 341  2005.927
 342  1952.77
 343  1733.144
 344  1826.948
 345  1935.752
 346  2213.251
 347  1969.318
 348  2122.936
 349  1813.335
 350  1740.171
 351  2021.974
 352  2296.538
 353  2493.512
 354  2810.776
 355  2762.309
 356  3025.406
 357  2828.098
 358  2671.843
 359  1930.834
 360  1803.453
 361  1765.998
 362  1781.688
 363  1940.387
 364  1973.452
 365  1862.785
 366  1896.949
 367  2090.169
 368  1863.395
 369  1931.898
 370  1741.884
 371  1712.276
 372  1851.317
 373  1513.934
 374  1765.596
 375  1737.08
 376  1829.274
 377  2095.786
 378  2139.693
 379  1882.67
 380  1806.179
 381  2044.342
 382  2215.073
 383  1922.619
 384  2062.707
 385  1751.029
 386  2046.37
 387  2112.638
 388  2011.156
 389  2085.802
 390  2062.854
 391  2138.459
 392  2298.958
 393  1946.292
 394  1872.194
 395  2010.913
 396  1918.155
 397  1680.706
 398  1899.096
 399  2239.667
 400  2096
 401  1781.971
 402  1696.965
 403  1737.047
 404  2261.693
 405  2314.289
 406  2369.188
 407  2305.124
 408  2144.454
 409  1813.406
 410  2026.458
 411  2270.131
 412  1845.982
 413  1786.388
 414  2218.233
 415  2131.158
 416  2030.862
 417  1714.03
 418  1896.591
 419  1820.202
 420  1780.94
 421  1413.505
 422  1961.287
 423  2249.789
 424  2098.094
 425  1811.11
 426  1676.742
 427  1881.296
 428  2093.083
 429  1593.672
 430  1757.042
 431  1901.245
 432  2235.198
 433  2365.995
 434  2107.749
 435  1950.852
 436  1933.393
 437  1853.699
 438  2012.436
 439  1906.364
 440  1723.385
 441  1783.568
 442  1673.808
 443  1715.761
 444  1801.742
 445  1886.306
 446  2068.962
 447  2094.336
 448  2003.687
 449  2254.704
 450  2345.993
 451  2105.71
 452  2173.519
 453  2259.945
 454  2118.519
 455  2032.628
 456  2018.568
 457  2243.807
 458  1956.582
 459  2009.702
 460  2127.109
 461  2045.618
 462  1876.448
 463  1594.691
 464  1563.666
 465  1539.655
 466  1891.176
 467  1736.677
 468  1568.734
 469  1986.133
 470  1705.422
 471  1646.679
 472  1795.366
 473  1943.154
 474  2118.36
 475  1976.592
 476  1785.241
 477  1722.709
 478  1897.09
 479  1696.996
 480  1936.865
 481  2018.068
 482  1858.149
 483  1982.01
 484  2116.419
 485  1900.31
 486  1695.027
 487  1827.083
 488  1666.49
 489  1823.326
 490  1778.484
 491  1659.461
 492  2137.435
 493  2070.591
 494  1995.403
 495  1995.914
 496  2007.005
 497  2052.307
 498  2020.115
 499  2014.615
 500  2170.71
 501  2124.936
 502  1997.718
 503  1844.07
 504  2061.404
 505  2062.845
 506  2027.969
 507  1903.386
 508  1904.102
 509  1714.222
 510  1838.432
 511  2036.415
