# Input file       =  1196450039.108316_cleaned.dat
# Candidate        =  PSR_0332+5434
# Telescope        =  AR
# Epoch_topo       =  58091.801598475882
# Epoch_bary       =  N/A
# T_sample         =  0.002
# Data Folded      =  7340032
# Data Avg         =  0.108746633219388
# Data StdDev      =  1.00031016332132 
# Profile Bins     =  512
# Profile Avg      =  1559.02414932567 
# Profile StdDev   =  119.770173173001 
# Reduced chi-sqr  =  0.797
# Prob(Noise)      <  1   (~0.0 sigma)
# P_topo (ms)      =  714.529595842762  +/- 2.58e-05
# P'_topo (s/s)    =  -0                +/- 1.36e-11
# P''_topo (s/s^2) =  0                 +/- 6.01e-15
# P_bary (ms)      =  N/A
# P'_bary (s/s)    =  N/A
# P''_bary (s/s^2) =  N/A
# P_orb (s)        =  N/A
# asin(i)/c (s)    =  N/A
# eccentricity     =  N/A
# w (rad)          =  N/A
# T_peri           =  N/A
######################################################
   0  1842.131
   1  1796.983
   2  1884.156
   3  1683.264
   4  1588.571
   5  1663.507
   6  1655.468
   7  1567.165
   8  1527.38
   9  1699.722
  10  1595.699
  11  1641.668
  12  1628.585
  13  1637.032
  14  1519.821
  15  1484.463
  16  1672.919
  17  1723.838
  18  1608.444
  19  1573.354
  20  1587.235
  21  1593.351
  22  1493.642
  23  1559.965
  24  1592.325
  25  1549.552
  26  1530.018
  27  1581.296
  28  1560.948
  29  1534.699
  30  1594.561
  31  1588.598
  32  1570.488
  33  1490.519
  34  1550.723
  35  1608.895
  36  1600.445
  37  1514.617
  38  1645.564
  39  1624.51
  40  1514.037
  41  1535.725
  42  1500.275
  43  1490.611
  44  1571.331
  45  1616.903
  46  1617.879
  47  1624.449
  48  1603.649
  49  1448.25
  50  1433.967
  51  1560.629
  52  1641.003
  53  1656.606
  54  1576.162
  55  1550.29
  56  1633.829
  57  1553.419
  58  1455.33
  59  1533.551
  60  1614.257
  61  1493.019
  62  1546.871
  63  1657.393
  64  1601.326
  65  1427.417
  66  1520.977
  67  1733.743
  68  1688.346
  69  1643.255
  70  1706.673
  71  1614.474
  72  1542.123
  73  1572.288
  74  1662.176
  75  1619.578
  76  1652.458
  77  1678.603
  78  1570.979
  79  1528.752
  80  1656.729
  81  1728.696
  82  1595.951
  83  1542.266
  84  1567.185
  85  1520.008
  86  1464.297
  87  1523.411
  88  1561.507
  89  1574.977
  90  1504.185
  91  1598.672
  92  1597.415
  93  1540.546
  94  1524.197
  95  1623.019
  96  1670.859
  97  1652.567
  98  1669.539
  99  1587.714
 100  1557.158
 101  1554.765
 102  1573.212
 103  1639.429
 104  1587.19
 105  1633.319
 106  1642.477
 107  1467.903
 108  1366.09
 109  1446.774
 110  1574.659
 111  1514.58
 112  1472.284
 113  1601.459
 114  1536.49
 115  1412.973
 116  1479.911
 117  1573.333
 118  1618.744
 119  1528.011
 120  1571.927
 121  1519.96
 122  1406.376
 123  1518.997
 124  1598.423
 125  1541.609
 126  1397.687
 127  1462.052
 128  1533.196
 129  1521.597
 130  1550.565
 131  1613.12
 132  1557.865
 133  1485.959
 134  1585.106
 135  1600.856
 136  1535.485
 137  1501.246
 138  1591.831
 139  1552.049
 140  1525.628
 141  1570.306
 142  1629.32
 143  1644.695
 144  1641.538
 145  1626.815
 146  1635.075
 147  1604.95
 148  1630.431
 149  1613.018
 150  1545.808
 151  1581.678
 152  1650.051
 153  1628.409
 154  1602.268
 155  1591.901
 156  1650.488
 157  1652.208
 158  1588.118
 159  1635.611
 160  1590.095
 161  1530.312
 162  1495.083
 163  1543.049
 164  1482.512
 165  1591.824
 166  1606.342
 167  1684.374
 168  1602.472
 169  1597.952
 170  1648.594
 171  1596.023
 172  1575.307
 173  1684.987
 174  1685.636
 175  1604.649
 176  1560.334
 177  1611.837
 178  1594.399
 179  1514.281
 180  1536.163
 181  1670.979
 182  1713.394
 183  1584.748
 184  1524.73
 185  1579.771
 186  1597.743
 187  1606.989
 188  1659.261
 189  1610.157
 190  1460.252
 191  1468.75
 192  1637.151
 193  1592.566
 194  1480.962
 195  1548.358
 196  1581.383
 197  1598.5
 198  1654.051
 199  1615.015
 200  1491.08
 201  1465.791
 202  1604.796
 203  1574.595
 204  1588.135
 205  1606.253
 206  1613.844
 207  1475.667
 208  1430.82
 209  1499.664
 210  1534.938
 211  1481.724
 212  1467.131
 213  1568.075
 214  1573.419
 215  1528.561
 216  1539.956
 217  1513.636
 218  1555.42
 219  1512.074
 220  1576.177
 221  1543.087
 222  1482.548
 223  1463.302
 224  1591.011
 225  1649.074
 226  1582.144
 227  1562.888
 228  1605.682
 229  1641.817
 230  1582.656
 231  1610.362
 232  1631.698
 233  1643.298
 234  1602.014
 235  1653.145
 236  1488.301
 237  1416.821
 238  1548.394
 239  1679.277
 240  1512.196
 241  1553.652
 242  1586.273
 243  1581.351
 244  1504.265
 245  1457.147
 246  1517.1
 247  1500.302
 248  1568.97
 249  1704.634
 250  1655.312
 251  1405.956
 252  1418.816
 253  1636.155
 254  1599.22
 255  1590.208
 256  1570.06
 257  1541.204
 258  1436.342
 259  1444.621
 260  1624.809
 261  1644.234
 262  1532.495
 263  1550.125
 264  1510.273
 265  1482.138
 266  1500.303
 267  1654.179
 268  1605.613
 269  1513.683
 270  1446.321
 271  1569.283
 272  1467.313
 273  1426.126
 274  1565.311
 275  1604.259
 276  1533.613
 277  1491.974
 278  1545.812
 279  1479.073
 280  1486.876
 281  1572.318
 282  1638.731
 283  1618.948
 284  1637.181
 285  1628.499
 286  1564.468
 287  1475.502
 288  1477.826
 289  1496.641
 290  1559.11
 291  1554.156
 292  1609.941
 293  1485.617
 294  1472.743
 295  1457.354
 296  1550.054
 297  1456.521
 298  1506.574
 299  1547.594
 300  1568.238
 301  1526.419
 302  1551.833
 303  1534.665
 304  1528.599
 305  1508.497
 306  1631.993
 307  1604.939
 308  1542.582
 309  1489.14
 310  1535.221
 311  1489.995
 312  1462.555
 313  1503.852
 314  1534.294
 315  1501.462
 316  1463.714
 317  1526.529
 318  1601.86
 319  1538.922
 320  1617.147
 321  1580.813
 322  1424.553
 323  1400.523
 324  1564.971
 325  1597.293
 326  1541.626
 327  1546.954
 328  1647.589
 329  1617.975
 330  1503.496
 331  1484.361
 332  1513.698
 333  1519.753
 334  1597.009
 335  1612.098
 336  1571.089
 337  1501.448
 338  1433.831
 339  1518.087
 340  1506.299
 341  1581.684
 342  1628.152
 343  1580.373
 344  1557.866
 345  1618.909
 346  1660.337
 347  1514.205
 348  1562.295
 349  1628.985
 350  1563.079
 351  1491.349
 352  1503.09
 353  1682.105
 354  1602.917
 355  1607.793
 356  1544.654
 357  1538.524
 358  1550.244
 359  1632.295
 360  1555.965
 361  1455.186
 362  1470.73
 363  1570.594
 364  1650.1
 365  1499.042
 366  1467.685
 367  1528.315
 368  1461.028
 369  1565.198
 370  1571.185
 371  1559.307
 372  1515.394
 373  1476.151
 374  1539.397
 375  1554.293
 376  1559.569
 377  1625.698
 378  1781.027
 379  1650.529
 380  1536.63
 381  1588.524
 382  1675.02
 383  1595.05
 384  1620.609
 385  1609.676
 386  1587.343
 387  1517.338
 388  1632.743
 389  1755.206
 390  1619.85
 391  1474.448
 392  1536.673
 393  1567.351
 394  1529.341
 395  1453.527
 396  1554.261
 397  1601.169
 398  1573.357
 399  1607.117
 400  1548.115
 401  1439.191
 402  1446.951
 403  1490.675
 404  1453.351
 405  1415.083
 406  1486.099
 407  1531.436
 408  1416.824
 409  1350.292
 410  1450.667
 411  1402.48
 412  1301.948
 413  1360.143
 414  1415.423
 415  1557.034
 416  1610.212
 417  1690.549
 418  1595.236
 419  1490.214
 420  1547.652
 421  1658.588
 422  1623.667
 423  1483.244
 424  1480.848
 425  1616.756
 426  1567.488
 427  1516.746
 428  1540.925
 429  1538.996
 430  1428.466
 431  1416.193
 432  1543.017
 433  1460.92
 434  1601.231
 435  1651.056
 436  1619.74
 437  1551.203
 438  1488.578
 439  1627.617
 440  1497.253
 441  1548.654
 442  1580.47
 443  1553.262
 444  1540.023
 445  1601.457
 446  1636.051
 447  1556.799
 448  1518.477
 449  1589.198
 450  1687.719
 451  1530.292
 452  1518.797
 453  1583.601
 454  1516.915
 455  1437.302
 456  1380.098
 457  1500.323
 458  1467.452
 459  1410.068
 460  1546.978
 461  1621.631
 462  1509.833
 463  1532.041
 464  1622.277
 465  1587.943
 466  1476.18
 467  1487.117
 468  1532.237
 469  1487.405
 470  1461.63
 471  1527.526
 472  1637.51
 473  1627.336
 474  1578.28
 475  1531.364
 476  1424.18
 477  1430.775
 478  1563.547
 479  1638.668
 480  1534.962
 481  1470.707
 482  1520.291
 483  1515.101
 484  1495.824
 485  1591.69
 486  1518.838
 487  1505.538
 488  1501.964
 489  1580.871
 490  1526.15
 491  1539.006
 492  1538.517
 493  1530.62
 494  1421.336
 495  1430.799
 496  1532.196
 497  1549.592
 498  1419.396
 499  1564.572
 500  1586.081
 501  1560.485
 502  1439.296
 503  1476.63
 504  1451.694
 505  1489.111
 506  1686.989
 507  1753.783
 508  1639.327
 509  1630.848
 510  1787.01
 511  1886.13
