# Input file       =  1196435398.113372_cleaned.dat
# Candidate        =  PSR_0332+5434
# Telescope        =  AR
# Epoch_topo       =  58091.632142515882
# Epoch_bary       =  N/A
# T_sample         =  0.002
# Data Folded      =  7208960
# Data Avg         =  0.549157490345269
# Data StdDev      =  6.70053028016113 
# Profile Bins     =  512
# Profile Avg      =  7731.72591843525 
# Profile StdDev   =  795.079400423514 
# Reduced chi-sqr  =  0.560
# Prob(Noise)      <  1   (~0.0 sigma)
# P_topo (ms)      =  714.529398824906  +/- 0.000153
# P'_topo (s/s)    =  -0                +/- 8.2e-11
# P''_topo (s/s^2) =  0                 +/- 3.69e-14
# P_bary (ms)      =  N/A
# P'_bary (s/s)    =  N/A
# P''_bary (s/s^2) =  N/A
# P_orb (s)        =  N/A
# asin(i)/c (s)    =  N/A
# eccentricity     =  N/A
# w (rad)          =  N/A
# T_peri           =  N/A
######################################################
   0  7962.918
   1  7951.063
   2  8066.952
   3  7875.351
   4  7598.017
   5  7748.462
   6  7853.604
   7  7610.509
   8  7197.729
   9  7664.735
  10  7786.651
  11  7947.187
  12  7339.206
  13  6648.63
  14  6855.672
  15  6972.682
  16  7131.294
  17  7775.904
  18  8391.976
  19  8484.422
  20  7885.81
  21  7745.894
  22  7483.594
  23  7572.484
  24  7822.583
  25  8050.873
  26  8148.154
  27  7943.743
  28  8102.253
  29  7868.171
  30  8135.876
  31  7641.678
  32  7577.499
  33  7824.326
  34  7638.192
  35  7593.617
  36  7591.603
  37  7591.998
  38  7662.975
  39  7622.515
  40  7906.325
  41  7845.626
  42  7901.558
  43  7785.811
  44  8386.265
  45  7943.707
  46  7963.498
  47  7894.471
  48  7872.066
  49  8345.562
  50  7630.716
  51  7899.044
  52  7736.064
  53  8006.562
  54  8183.776
  55  8254.851
  56  7941.391
  57  7806.675
  58  7613.193
  59  7958.56
  60  8125.829
  61  8246.112
  62  8121.299
  63  7873.353
  64  7650.506
  65  7534.499
  66  7365.989
  67  7632.495
  68  7837.049
  69  8309.587
  70  7900.869
  71  8049.757
  72  8196.068
  73  7333.021
  74  7326.389
  75  7351.128
  76  8443.685
  77  8017.594
  78  7262.812
  79  7229.666
  80  7431.276
  81  6951.777
  82  6374.512
  83  7212.913
  84  7126.977
  85  7754.048
  86  7345.205
  87  7190.064
  88  7097.454
  89  7628.089
  90  7697.831
  91  8074.1
  92  8681.03
  93  8479.31
  94  8136.672
  95  7585.035
  96  7722.842
  97  8188.969
  98  8092.277
  99  7654.396
 100  7744.685
 101  8010.67
 102  7227.267
 103  7568.269
 104  8136.232
 105  7959.769
 106  7484.482
 107  6788.193
 108  7232.139
 109  7104.402
 110  7333.417
 111  7524.019
 112  7573.527
 113  7238.545
 114  7310.731
 115  7616.497
 116  7434.506
 117  7067.349
 118  7717.938
 119  8110.156
 120  7849.414
 121  7288.032
 122  7136.256
 123  7146.722
 124  6716.427
 125  7003.728
 126  7820.139
 127  7668.544
 128  7749.969
 129  7295.498
 130  7489.628
 131  7393.575
 132  7233.013
 133  7406.302
 134  7280.972
 135  7823.948
 136  7754.416
 137  7677.783
 138  8055.517
 139  7970.462
 140  7694.96
 141  7156.65
 142  7478.815
 143  7747.006
 144  7343.237
 145  7584.574
 146  7511.832
 147  7095.091
 148  6683.731
 149  6685.368
 150  7178.92
 151  7364.49
 152  7559.428
 153  7869.374
 154  8200.245
 155  8087.341
 156  7749.104
 157  7464.236
 158  7654.67
 159  8308.469
 160  8635.324
 161  7968.468
 162  7835.018
 163  7386.869
 164  7985.458
 165  7830.264
 166  7799.059
 167  8016.361
 168  7584.694
 169  7870.538
 170  7632.509
 171  8291.555
 172  7854.942
 173  8106.222
 174  7534.874
 175  7469.273
 176  7855.526
 177  8080.902
 178  8344.941
 179  8500.343
 180  8104.329
 181  7371.953
 182  7312.44
 183  7372.698
 184  7515.501
 185  7931.083
 186  8382.492
 187  8332.849
 188  7442.733
 189  7312.158
 190  7461.403
 191  7927.844
 192  8138.741
 193  7872.534
 194  7609.531
 195  7277.732
 196  8158.274
 197  7725.888
 198  7841.052
 199  8019.548
 200  7886.069
 201  8058.939
 202  7847.46
 203  7938.925
 204  6989.937
 205  6964.459
 206  7407.24
 207  7873.889
 208  7958.077
 209  7735.896
 210  8034.063
 211  7978.232
 212  8353.608
 213  7786.961
 214  7680.707
 215  7222.981
 216  7403.604
 217  7671.029
 218  8388.034
 219  8818.592
 220  8951.428
 221  8015.115
 222  7722.815
 223  7681.982
 224  8102.13
 225  7664.773
 226  8065.383
 227  8158.814
 228  8031.26
 229  7696.278
 230  7639.182
 231  7639.243
 232  7840.147
 233  8294.127
 234  8402.733
 235  8279.361
 236  7585.132
 237  7287.543
 238  7604.771
 239  8109.268
 240  8352.314
 241  8210.137
 242  7863.917
 243  7756.028
 244  7400.836
 245  6987.726
 246  7120.813
 247  7417.714
 248  7416.273
 249  7377.797
 250  7229.493
 251  7421.016
 252  7467.812
 253  7300.048
 254  7721.064
 255  7627.615
 256  7014.931
 257  6964.36
 258  7446.007
 259  8031.573
 260  7709.642
 261  7764.408
 262  7902.734
 263  7711.843
 264  7535.485
 265  7514.008
 266  7574.134
 267  7862.245
 268  7939.019
 269  8143.421
 270  8368.854
 271  8215.423
 272  7817.995
 273  7361.47
 274  7957.457
 275  7897.61
 276  7545.013
 277  8152.896
 278  7803.758
 279  8136.373
 280  8090.285
 281  7975.849
 282  7933.378
 283  7707.327
 284  8193.954
 285  7997.359
 286  7921.387
 287  7919.653
 288  7728.423
 289  7741.75
 290  6868.716
 291  7513.328
 292  7540.107
 293  7622.442
 294  7522.993
 295  8042.932
 296  7649.12
 297  6903.788
 298  6950.167
 299  7089.631
 300  7863.896
 301  7441.666
 302  7613.569
 303  7207.287
 304  7121.91
 305  7513.764
 306  7499.484
 307  7543.01
 308  7675.771
 309  7897.048
 310  8249.373
 311  8448.375
 312  8663.497
 313  9186.349
 314  8982.197
 315  8390.435
 316  8529.243
 317  8611.761
 318  8235.366
 319  8129.127
 320  8170.296
 321  8205.479
 322  8138.414
 323  8398.924
 324  8038.163
 325  7797.01
 326  7172.19
 327  7031.603
 328  7857.592
 329  7988.58
 330  7617.731
 331  7358.143
 332  7415.007
 333  7306.187
 334  7676.367
 335  7663.938
 336  7451.021
 337  8623.429
 338  8191.909
 339  8474.895
 340  8572.345
 341  8549.317
 342  8205.916
 343  8209.633
 344  8054.65
 345  8016.332
 346  7381.877
 347  7509.548
 348  7764.593
 349  8083.904
 350  7866.038
 351  7943.579
 352  7715.985
 353  8098.534
 354  7999.739
 355  7688.197
 356  7889.91
 357  8004.455
 358  7871.586
 359  7995.758
 360  8241.504
 361  7320.925
 362  7602.428
 363  7231.311
 364  7693.457
 365  8148.174
 366  7984.471
 367  7972.415
 368  8298.126
 369  8711.062
 370  8260.189
 371  8217.324
 372  8331.008
 373  8779.736
 374  8371.201
 375  7976.374
 376  7833.364
 377  7841.258
 378  8003.71
 379  7981.03
 380  8066.86
 381  7875.095
 382  7692.124
 383  7555.902
 384  7551.376
 385  7575.242
 386  8110.61
 387  7916.167
 388  8407.616
 389  7526.131
 390  7616.897
 391  8201.209
 392  8654.975
 393  8446.936
 394  7989.202
 395  8107.968
 396  7679.626
 397  7913.253
 398  7739.136
 399  7627.016
 400  7516.108
 401  8138.784
 402  8274.168
 403  8215.468
 404  8011.76
 405  6818.186
 406  6901.246
 407  7186.631
 408  7155.996
 409  7466.798
 410  7383.55
 411  7589.901
 412  8061.179
 413  8316.071
 414  7838.606
 415  7492.43
 416  7601.803
 417  7890.39
 418  7990.146
 419  7014.372
 420  7400.288
 421  6885.021
 422  7523.087
 423  8095.979
 424  7795.201
 425  7459.062
 426  7438.228
 427  7495.075
 428  7392.176
 429  7807.025
 430  7409.72
 431  7570.639
 432  6935.196
 433  6842.944
 434  7068.928
 435  7043.127
 436  7763.768
 437  7211.008
 438  6936.297
 439  7316.36
 440  7195.182
 441  7101.17
 442  7365.624
 443  7176.144
 444  7494.063
 445  7776.439
 446  7605.881
 447  7550.21
 448  7211.712
 449  7496.125
 450  7382.66
 451  7033.466
 452  7782.56
 453  7852.313
 454  8148.45
 455  7591.693
 456  7782.798
 457  7202.543
 458  6489.419
 459  7111.652
 460  7029.028
 461  7290.566
 462  7702.575
 463  7503.299
 464  7266.424
 465  7096.604
 466  7294.46
 467  7205.98
 468  7772.725
 469  7617.624
 470  7731.193
 471  7271.728
 472  7372.308
 473  7667.643
 474  7868.424
 475  8057.291
 476  7960.189
 477  7714.694
 478  7958.035
 479  7640.632
 480  7552.091
 481  8249.187
 482  8557.922
 483  8431.407
 484  8528.917
 485  8542.985
 486  8347.709
 487  8327.339
 488  8131.222
 489  7768.982
 490  7661.407
 491  7751.57
 492  7926.469
 493  7156.678
 494  7509.697
 495  7807.484
 496  7371.535
 497  7437.687
 498  7652.642
 499  7534.187
 500  7359.957
 501  7191.119
 502  7237.286
 503  7827.467
 504  7937.188
 505  7798.267
 506  7407.317
 507  7028.897
 508  6861.495
 509  7561.951
 510  8425.928
 511  8027.474
