# Input file       =  1196363886.122779_cleaned.dat
# Candidate        =  PSR_0332+5434
# Telescope        =  AR
# Epoch_topo       =  58090.804457439568
# Epoch_bary       =  N/A
# T_sample         =  0.002
# Data Folded      =  7340032
# Data Avg         =  0.0302178008928294
# Data StdDev      =  0.999997203804812
# Profile Bins     =  512
# Profile Avg      =  433.16759455258  
# Profile StdDev   =  119.732701579826 
# Reduced chi-sqr  =  0.926
# Prob(Noise)      <  0.884   (~0.0 sigma)
# P_topo (ms)      =  714.528574643304  +/- 0.000213
# P'_topo (s/s)    =  -0                +/- 1.13e-10
# P''_topo (s/s^2) =  0                 +/- 4.97e-14
# P_bary (ms)      =  N/A
# P'_bary (s/s)    =  N/A
# P''_bary (s/s^2) =  N/A
# P_orb (s)        =  N/A
# asin(i)/c (s)    =  N/A
# eccentricity     =  N/A
# w (rad)          =  N/A
# T_peri           =  N/A
######################################################
   0  368.3712
   1  448.8634
   2  474.9588
   3  382.8997
   4  253.4265
   5  297.2634
   6  373.8927
   7  420.0915
   8  281.5919
   9  340.6917
  10  352.8519
  11  410.2707
  12  398.0217
  13  407.5137
  14  374.817
  15  396.3834
  16  436.6424
  17  390.7485
  18  357.685
  19  413.391
  20  361.6728
  21  364.1187
  22  338.4366
  23  350.2982
  24  333.1266
  25  358.8978
  26  367.8416
  27  364.5293
  28  380.0147
  29  361.8954
  30  465.7758
  31  400.1132
  32  344.2688
  33  361.9746
  34  273.4425
  35  362.5463
  36  419.5332
  37  485.1312
  38  436.3925
  39  355.0417
  40  361.7425
  41  371.5632
  42  386.1665
  43  262.32
  44  353.371
  45  359.3153
  46  391.3888
  47  285.646
  48  218.5217
  49  419.8516
  50  459.5973
  51  432.7494
  52  455.6751
  53  460.8307
  54  390.654
  55  390.2071
  56  426.0547
  57  471.886
  58  504.123
  59  347.9392
  60  416.635
  61  313.8781
  62  306.1491
  63  434.9193
  64  416.4397
  65  367.1209
  66  514.5997
  67  473.5161
  68  453.6979
  69  304.1444
  70  277.4902
  71  294.0601
  72  355.5567
  73  358.6839
  74  425.4534
  75  480.071
  76  494.8757
  77  353.1237
  78  356.8432
  79  337.3794
  80  401.3331
  81  377.8008
  82  411.8892
  83  359.6377
  84  384.253
  85  463.0005
  86  450.2011
  87  400.2292
  88  443.5236
  89  443.9081
  90  493.6237
  91  498.4269
  92  550.1101
  93  402.558
  94  427.9673
  95  529.9489
  96  487.9132
  97  406.7132
  98  467.3479
  99  635.8102
 100  578.7228
 101  584.3353
 102  511.3581
 103  415.7978
 104  337.6795
 105  461.2611
 106  480.7063
 107  459.5506
 108  417.6195
 109  248.4277
 110  359.7308
 111  457.0737
 112  444.0833
 113  410.765
 114  428.5273
 115  398.5337
 116  387.5058
 117  394.2785
 118  458.6114
 119  429.1614
 120  362.5538
 121  371.0035
 122  349.5222
 123  408.5038
 124  362.1234
 125  430.7946
 126  441.3343
 127  385.7914
 128  460.8235
 129  473.3405
 130  424.0027
 131  367.6962
 132  469.1123
 133  550.4111
 134  419.5571
 135  429.6473
 136  497.6797
 137  555.9317
 138  528.5527
 139  436.4877
 140  371.6475
 141  404.6643
 142  427.7552
 143  356.6734
 144  353.3506
 145  426.0671
 146  549.9397
 147  447.5575
 148  446.8197
 149  475.4912
 150  387.7142
 151  473.8003
 152  446.0849
 153  490.8456
 154  438.2464
 155  568.5292
 156  481.7892
 157  475.9754
 158  445.6324
 159  444.091
 160  502.0965
 161  551.235
 162  542.6902
 163  486.594
 164  474.1251
 165  387.5514
 166  398.329
 167  554.4077
 168  524.5388
 169  400.6512
 170  373.8046
 171  402.5941
 172  336.5366
 173  481.1909
 174  594.8321
 175  606.5203
 176  432.3357
 177  458.4452
 178  507.5615
 179  547.0153
 180  500.8041
 181  477.3502
 182  463.3572
 183  431.2592
 184  353.9963
 185  429.7841
 186  408.0427
 187  378.7432
 188  281.9382
 189  332.3268
 190  372.7516
 191  311.0613
 192  440.4706
 193  510.3808
 194  363.9148
 195  338.6028
 196  401.4782
 197  498.3036
 198  448.6616
 199  321.1805
 200  344.3805
 201  298.603
 202  369.6352
 203  336.1631
 204  257.3182
 205  240.7661
 206  231.8819
 207  405.5176
 208  426.8355
 209  470.3359
 210  430.0406
 211  400.5585
 212  515.2598
 213  584.9517
 214  609.4521
 215  620.483
 216  581.7202
 217  470.0282
 218  516.5645
 219  468.9167
 220  394.679
 221  541.5132
 222  543.5746
 223  474.8786
 224  422.3084
 225  469.5872
 226  432.8873
 227  398.2529
 228  567.2689
 229  635.572
 230  577.1862
 231  641.2235
 232  566.6371
 233  469.4345
 234  371.8293
 235  398.3701
 236  425.2035
 237  353.6599
 238  376.6155
 239  375.7042
 240  358.378
 241  468.8674
 242  408.0854
 243  377.204
 244  363.2209
 245  392.1671
 246  348.0439
 247  448.6966
 248  544.8858
 249  551.0851
 250  491.4659
 251  465.7751
 252  417.8573
 253  436.0952
 254  564.205
 255  605.1445
 256  519.6044
 257  476.8765
 258  460.0558
 259  478.1422
 260  425.3714
 261  506.0356
 262  379.9644
 263  336.8854
 264  353.8079
 265  457.3275
 266  470.4948
 267  462.7552
 268  393.1115
 269  409.9985
 270  446.9706
 271  466.2
 272  364.6198
 273  439.0819
 274  321.0735
 275  339.4473
 276  419.0685
 277  360.5314
 278  236.7061
 279  346.532
 280  322.2229
 281  343.1461
 282  431.9002
 283  419.4941
 284  419.1498
 285  545.7111
 286  507.9764
 287  496.9132
 288  512.2225
 289  452.513
 290  461.8885
 291  460.5801
 292  508.2648
 293  429.1249
 294  421.5225
 295  425.4118
 296  446.8338
 297  455.1788
 298  392.258
 299  419.9327
 300  377.8365
 301  429.2665
 302  386.7482
 303  499.6279
 304  474.4514
 305  469.431
 306  469.1153
 307  480.9067
 308  489.8268
 309  530.0692
 310  501.9375
 311  380.6452
 312  421.3462
 313  414.7337
 314  491.5533
 315  328.1395
 316  372.0904
 317  507.0002
 318  459.9256
 319  433.0606
 320  431.9705
 321  352.2566
 322  385.7444
 323  397.1167
 324  493.323
 325  435.7918
 326  479.4893
 327  433.7578
 328  489.7916
 329  470.4372
 330  462.7669
 331  487.269
 332  448.2555
 333  424.6609
 334  495.3875
 335  433.6213
 336  425.2482
 337  383.5238
 338  507.8929
 339  556.0044
 340  432.8342
 341  461.1829
 342  487.4048
 343  509.7404
 344  431.3144
 345  528.0107
 346  481.5487
 347  444.2783
 348  524.0259
 349  487.8468
 350  499.2842
 351  458.9414
 352  418.3105
 353  435.9017
 354  419.9369
 355  427.1548
 356  476.5255
 357  472.5574
 358  412.3349
 359  390.5212
 360  472.1475
 361  485.7143
 362  515.4255
 363  590.9127
 364  547.4585
 365  541.2439
 366  462.2542
 367  489.6191
 368  421.0324
 369  366.4701
 370  466.6261
 371  558.5692
 372  454.0275
 373  504.2452
 374  549.0253
 375  516.471
 376  364.0338
 377  448.7023
 378  405.0307
 379  437.6891
 380  465.2278
 381  592.8984
 382  539.2818
 383  497.6884
 384  567.8417
 385  501.5062
 386  531.3392
 387  457.4837
 388  465.9689
 389  453.1608
 390  473.9259
 391  432.9644
 392  414.1238
 393  420.4396
 394  322.4515
 395  295.0403
 396  409.7147
 397  497.2418
 398  513.4258
 399  535.3835
 400  446.8082
 401  463.5738
 402  425.7029
 403  414.5758
 404  415.7054
 405  363.8717
 406  376.6118
 407  405.6238
 408  327.4109
 409  221.0957
 410  231.6632
 411  334.2418
 412  258.0512
 413  173.9558
 414  292.3061
 415  418.5728
 416  400.0017
 417  371.932
 418  366.9698
 419  319.8021
 420  437.3303
 421  363.4355
 422  419.6618
 423  435.8467
 424  376.4876
 425  481.6561
 426  553.709
 427  486.7924
 428  363.3287
 429  243.2549
 430  266.5152
 431  359.8445
 432  348.6503
 433  272.2661
 434  379.1033
 435  427.5441
 436  408.0093
 437  509.7572
 438  629.4685
 439  525.2937
 440  426.872
 441  509.5293
 442  508.615
 443  468.5686
 444  366.2073
 445  352.7939
 446  483.1949
 447  394.2296
 448  416.2972
 449  353.8908
 450  380.222
 451  424.8078
 452  365.6801
 453  423.1355
 454  504.8782
 455  553.6461
 456  644.7709
 457  585.1343
 458  522.8148
 459  484.6364
 460  505.9362
 461  484.9787
 462  408.0201
 463  376.9077
 464  365.1928
 465  409.7083
 466  432.2201
 467  367.1818
 468  415.1886
 469  454.4721
 470  453.1497
 471  398.8007
 472  428.5226
 473  413.7563
 474  546.8712
 475  533.7705
 476  392.0858
 477  393.9196
 478  381.3727
 479  373.3046
 480  290.7433
 481  399.5511
 482  578.2101
 483  514.1705
 484  451.8183
 485  329.2888
 486  451.3499
 487  536.6215
 488  425.0646
 489  473.8427
 490  556.5499
 491  583.245
 492  659.9031
 493  783.7628
 494  621.4765
 495  608.6159
 496  811.6676
 497  715.9413
 498  529.8714
 499  462.6853
 500  423.735
 501  306.4635
 502  308.4298
 503  429.3024
 504  450.8061
 505  278.129
 506  359.7825
 507  458.8094
 508  367.8184
 509  305.2393
 510  335.7313
 511  341.4987
