# Input file       =  1196277675.112092_cleaned.dat
# Candidate        =  PSR_0332+5434
# Telescope        =  AR
# Epoch_topo       =  58089.806644815879
# Epoch_bary       =  N/A
# T_sample         =  0.002
# Data Folded      =  7340032
# Data Avg         =  0.0347156437555209
# Data StdDev      =  1.00008312228455 
# Profile Bins     =  512
# Profile Avg      =  497.686926872712 
# Profile StdDev   =  119.742988860286 
# Reduced chi-sqr  =  0.791
# Prob(Noise)      <  1   (~0.0 sigma)
# P_topo (ms)      =  714.527548701641  +/- 0.000483
# P'_topo (s/s)    =  -0                +/- 2.55e-10
# P''_topo (s/s^2) =  0                 +/- 1.13e-13
# P_bary (ms)      =  N/A
# P'_bary (s/s)    =  N/A
# P''_bary (s/s^2) =  N/A
# P_orb (s)        =  N/A
# asin(i)/c (s)    =  N/A
# eccentricity     =  N/A
# w (rad)          =  N/A
# T_peri           =  N/A
######################################################
   0  540.783
   1  685.2356
   2  634.8288
   3  532.7863
   4  591.679
   5  532.9348
   6  491.3224
   7  533.5792
   8  529.4028
   9  454.6258
  10  379.5779
  11  540.7576
  12  521.7515
  13  515.3702
  14  344.3121
  15  342.2999
  16  418.2718
  17  528.8959
  18  491.8866
  19  461.4829
  20  352.8152
  21  382.6934
  22  435.4852
  23  439.6987
  24  534.1792
  25  466.3234
  26  466.1813
  27  538.5986
  28  505.6009
  29  528.3069
  30  446.5432
  31  410.4808
  32  414.1094
  33  514.5807
  34  449.1129
  35  429.7764
  36  484.3545
  37  455.739
  38  407.6243
  39  344.7273
  40  430.0504
  41  572.3361
  42  581.7921
  43  514.3817
  44  551.8532
  45  524.0666
  46  583.3892
  47  460.7745
  48  545.505
  49  554.8458
  50  594.3936
  51  661.0895
  52  520.2335
  53  485.9683
  54  423.6471
  55  337.3477
  56  373.7864
  57  424.9692
  58  573.7969
  59  552.923
  60  490.3488
  61  578.6142
  62  565.0631
  63  521.4116
  64  526.5717
  65  465.5367
  66  498.4803
  67  562.9474
  68  576.8167
  69  526.1858
  70  521.7836
  71  480.5325
  72  440.7357
  73  405.0634
  74  375.1948
  75  286.2931
  76  432.1115
  77  387.6913
  78  428.9153
  79  412.3109
  80  479.162
  81  526.3203
  82  487.8488
  83  476.5623
  84  439.0333
  85  343.5067
  86  436.412
  87  528.938
  88  515.1214
  89  514.7924
  90  519.334
  91  584.2842
  92  518.3209
  93  427.451
  94  424.8812
  95  495.9076
  96  464.563
  97  568.2282
  98  561.2523
  99  565.7098
 100  519.8416
 101  528.5305
 102  538.1829
 103  437.6596
 104  571.3059
 105  568.7286
 106  599.9163
 107  573.2128
 108  530.5209
 109  542.981
 110  594.4467
 111  542.8324
 112  552.7223
 113  398.0359
 114  512.4568
 115  555.1035
 116  612.891
 117  545.6583
 118  499.666
 119  454.7468
 120  372.5084
 121  368.8181
 122  378.1162
 123  415.3851
 124  488.6224
 125  492.364
 126  546.2145
 127  458.8553
 128  413.538
 129  463.558
 130  512.3228
 131  544.5502
 132  684.1753
 133  563.2508
 134  429.9459
 135  373.3163
 136  415.3042
 137  375.1337
 138  354.2081
 139  386.7675
 140  433.9456
 141  492.8722
 142  586.7327
 143  558.547
 144  512.3312
 145  422.0728
 146  355.0402
 147  333.2137
 148  333.2261
 149  469.8253
 150  497.8317
 151  352.8423
 152  371.6101
 153  393.6999
 154  486.4896
 155  518.4874
 156  531.9984
 157  448.4609
 158  459.6805
 159  441.7701
 160  523.1996
 161  524.7516
 162  481.507
 163  350.018
 164  344.9301
 165  522.4857
 166  518.6832
 167  531.5468
 168  600.4313
 169  608.4476
 170  468.1556
 171  500.0302
 172  462.7004
 173  483.5146
 174  461.509
 175  503.7149
 176  519.5734
 177  536.7607
 178  480.1832
 179  498.3847
 180  558.6805
 181  497.3935
 182  547.06
 183  487.8971
 184  591.9385
 185  473.3014
 186  482.8553
 187  573.6927
 188  474.5897
 189  340.822
 190  442.4787
 191  560.9686
 192  530.2292
 193  546.7284
 194  473.4485
 195  462.0643
 196  500.8891
 197  606.1599
 198  667.4637
 199  737.6273
 200  722.9709
 201  761.6769
 202  743.5496
 203  851.6719
 204  801.0789
 205  664.8184
 206  608.855
 207  503.7136
 208  480.7947
 209  474.9947
 210  431.8565
 211  429.6775
 212  528.1353
 213  513.6898
 214  484.8842
 215  431.877
 216  462.4671
 217  464.5123
 218  432.2595
 219  510.1375
 220  590.7139
 221  550.109
 222  410.1988
 223  482.8766
 224  443.0233
 225  585.6038
 226  574.029
 227  493.9169
 228  456.4887
 229  504.2238
 230  551.7556
 231  548.771
 232  625.8597
 233  598.9964
 234  423.1864
 235  471.5763
 236  544.4535
 237  606.6887
 238  512.5496
 239  510.473
 240  572.9799
 241  637.5634
 242  578.2054
 243  584.9559
 244  519.8486
 245  595.7493
 246  510.2775
 247  556.9561
 248  541.7952
 249  526.5352
 250  415.314
 251  377.6687
 252  449.0124
 253  512.7692
 254  554.9282
 255  557.8332
 256  622.79
 257  485.0444
 258  410.8887
 259  358.1656
 260  442.929
 261  479.4582
 262  512.8473
 263  402.5894
 264  420.9016
 265  533.1009
 266  529.0051
 267  554.8046
 268  545.7391
 269  474.0777
 270  605.1527
 271  515.5403
 272  450.0974
 273  371.8577
 274  402.7992
 275  466.6709
 276  561.7493
 277  614.3524
 278  532.7024
 279  473.0173
 280  458.3541
 281  458.3286
 282  441.0157
 283  417.61
 284  480.6918
 285  505.9972
 286  520.4709
 287  657.5715
 288  626.5751
 289  610.2118
 290  462.2206
 291  510.6389
 292  576.3524
 293  583.718
 294  457.1281
 295  532.4451
 296  546.9682
 297  434.2766
 298  461.3505
 299  550.8874
 300  529.819
 301  445.1386
 302  392.5136
 303  440.9328
 304  533.587
 305  502.9585
 306  592.6451
 307  576.668
 308  484.1813
 309  475.7156
 310  388.5927
 311  492.8574
 312  496.643
 313  442.4051
 314  493.2247
 315  502.8218
 316  375.587
 317  480.177
 318  527.0562
 319  406.4106
 320  552.9918
 321  525.627
 322  520.6423
 323  546.3567
 324  545.9161
 325  457.8612
 326  582.4894
 327  674.1117
 328  655.0735
 329  553.2751
 330  495.9392
 331  512.9814
 332  538.5173
 333  546.495
 334  479.9603
 335  406.5562
 336  549.1725
 337  494.3428
 338  467.2457
 339  471.6644
 340  448.716
 341  459.5722
 342  410.6146
 343  423.5201
 344  497.7543
 345  498.913
 346  606.5388
 347  545.7171
 348  569.9888
 349  508.7467
 350  447.5048
 351  498.261
 352  482.4182
 353  541.2445
 354  636.3085
 355  672.244
 356  597.1558
 357  475.7574
 358  396.5175
 359  446.0488
 360  466.3974
 361  461.7662
 362  524.2837
 363  549.6163
 364  494.3856
 365  507.9569
 366  573.2817
 367  530.2341
 368  435.7285
 369  540.689
 370  651.666
 371  641.9974
 372  527.356
 373  470.0305
 374  553.8694
 375  530.7277
 376  681.176
 377  598.8835
 378  412.2602
 379  426.5169
 380  504.7878
 381  419.9529
 382  420.7652
 383  418.6604
 384  506.4049
 385  515.7404
 386  545.5142
 387  506.7466
 388  456.0715
 389  496.4626
 390  537.2987
 391  431.3342
 392  330.3253
 393  487.5775
 394  434.2268
 395  402.9366
 396  462.5365
 397  391.2643
 398  398.2719
 399  459.2272
 400  560.3358
 401  513.2493
 402  413.0504
 403  543.1935
 404  451.7402
 405  448.4249
 406  492.129
 407  513.6061
 408  543.3931
 409  509.7391
 410  546.2478
 411  511.1765
 412  501.1788
 413  447.1732
 414  404.1171
 415  509.9065
 416  562.9662
 417  539.4557
 418  509.8354
 419  432.8656
 420  458.4193
 421  482.5425
 422  407.4882
 423  470.3672
 424  490.9385
 425  462.4263
 426  458.4398
 427  495.3219
 428  580.7333
 429  504.669
 430  514.964
 431  473.7884
 432  388.7597
 433  420.4204
 434  549.259
 435  441.3178
 436  434.2547
 437  378.5045
 438  358.7216
 439  438.6562
 440  461.6603
 441  472.8338
 442  483.364
 443  428.3452
 444  429.8384
 445  417.7199
 446  451.672
 447  508.0414
 448  567.3521
 449  452.9395
 450  345.6438
 451  333.7821
 452  386.165
 453  413.2693
 454  486.2595
 455  546.8702
 456  501.1554
 457  483.4896
 458  477.0585
 459  410.7254
 460  497.8455
 461  499.6359
 462  492.2056
 463  552.0803
 464  543.0724
 465  460.3411
 466  385.9862
 467  494.21
 468  517.4606
 469  421.5015
 470  351.3253
 471  489.6815
 472  540.4821
 473  541.6107
 474  574.1588
 475  579.5273
 476  550.8231
 477  568.0804
 478  599.0757
 479  645.4631
 480  579.0214
 481  548.9132
 482  560.6309
 483  593.9721
 484  550.7506
 485  552.5878
 486  486.1228
 487  504.1644
 488  498.9832
 489  523.3586
 490  456.8417
 491  503.173
 492  476.5606
 493  412.489
 494  365.7189
 495  453.7927
 496  516.9404
 497  582.4918
 498  400.9077
 499  412.9628
 500  594.4497
 501  540.1578
 502  440.9422
 503  426.1964
 504  623.8732
 505  622.6966
 506  515.4059
 507  485.8288
 508  443.696
 509  459.4614
 510  445.688
 511  444.1811
