# Input file       =  1196536233.113593_cleaned.dat
# Candidate        =  PSR_0332+5434
# Telescope        =  AR
# Epoch_topo       =  58092.799214277700
# Epoch_bary       =  N/A
# T_sample         =  0.002
# Data Folded      =  7340032
# Data Avg         =  0.140352740358919
# Data StdDev      =  3.87266431790741 
# Profile Bins     =  1024
# Profile Avg      =  1006.05073947325 
# Profile StdDev   =  327.875414285331 
# Reduced chi-sqr  =  0.560
# Prob(Noise)      <  1   (~0.0 sigma)
# P_topo (ms)      =  714.530619536311  +/- 0.000927
# P'_topo (s/s)    =  -0                +/- 4.89e-10
# P''_topo (s/s^2) =  0                 +/- 2.16e-13
# P_bary (ms)      =  N/A
# P'_bary (s/s)    =  N/A
# P''_bary (s/s^2) =  N/A
# P_orb (s)        =  N/A
# asin(i)/c (s)    =  N/A
# eccentricity     =  N/A
# w (rad)          =  N/A
# T_peri           =  N/A
######################################################
   0  1012.435
   1  1071.242
   2  1123.137
   3  1061.433
   4  1119.831
   5  1051.296
   6  1059.326
   7  1016.611
   8  1050.893
   9  1015.334
  10  1014.307
  11  1039.465
  12  1013.446
  13  947.0997
  14  967.6348
  15  1065.013
  16  1063.502
  17  1057.775
  18  1066.243
  19  1021.763
  20  899.1139
  21  864.2809
  22  775.8519
  23  740.2022
  24  726.7455
  25  872.6845
  26  869.6188
  27  751.8794
  28  841.2796
  29  878.6785
  30  885.5426
  31  787.1362
  32  891.4465
  33  970.7316
  34  1117.212
  35  1117.286
  36  1011.094
  37  842.2597
  38  766.7677
  39  715.6884
  40  748.8649
  41  802.2604
  42  931.3121
  43  901.0136
  44  844.6369
  45  812.5485
  46  921.8329
  47  919.7882
  48  953.1359
  49  877.1379
  50  867.0187
  51  842.8412
  52  925.512
  53  975.4492
  54  774.9415
  55  688.4464
  56  757.4956
  57  883.7772
  58  899.6796
  59  905.1184
  60  949.4835
  61  928.5632
  62  880.2972
  63  917.8972
  64  999.1556
  65  1149.804
  66  1158.646
  67  1228.081
  68  1228.594
  69  1198.883
  70  1015.269
  71  900.1002
  72  941.8182
  73  1044.623
  74  1061.802
  75  1262.313
  76  1366.135
  77  1287.925
  78  1123.366
  79  1099.261
  80  1112.014
  81  1117.561
  82  1140.185
  83  1133.926
  84  1122.418
  85  1050.683
  86  1025.008
  87  1032.649
  88  1009.214
  89  1136.774
  90  1151.489
  91  1186.801
  92  1066.774
  93  1039.123
  94  1009.777
  95  1018.692
  96  982.7713
  97  1031.384
  98  1070.975
  99  1078.663
 100  1069.212
 101  1026.984
 102  1104.852
 103  1151.045
 104  1160.089
 105  1139.348
 106  1038.846
 107  1049.615
 108  979.4676
 109  1105.36
 110  1244.308
 111  1379.41
 112  1265.643
 113  1160.097
 114  1159.113
 115  1166.315
 116  1030.267
 117  956.8574
 118  868.4024
 119  951.6176
 120  933.7822
 121  1001.121
 122  992.7944
 123  969.6032
 124  966.2047
 125  919.6857
 126  924.9387
 127  963.9856
 128  1089.333
 129  1094.6
 130  1142.237
 131  1103.812
 132  1012.172
 133  861.8019
 134  913.4868
 135  1133.168
 136  1154.535
 137  1086.796
 138  1044.587
 139  1041.743
 140  1021.826
 141  1079.397
 142  1061.693
 143  1090.576
 144  956.3237
 145  880.8767
 146  813.4166
 147  897.4988
 148  994.8945
 149  996.6741
 150  1006.533
 151  924.7363
 152  997.8049
 153  924.0795
 154  963.9374
 155  978.4802
 156  1020.178
 157  1061.5
 158  1080.656
 159  1086.475
 160  1057.805
 161  986.5867
 162  1074.225
 163  1092.658
 164  1077.401
 165  920.7968
 166  897.9738
 167  835.0963
 168  882.383
 169  959.9
 170  1104.693
 171  1048.444
 172  952.828
 173  853.3533
 174  755.421
 175  793.2721
 176  906.1787
 177  994.4357
 178  984.4094
 179  977.822
 180  1038.433
 181  1019.153
 182  1046.571
 183  989.4233
 184  1065.946
 185  982.4409
 186  920.7477
 187  878.8372
 188  901.6166
 189  964.9475
 190  991.3804
 191  1018.338
 192  956.8859
 193  962.7369
 194  961.9536
 195  1014.396
 196  1106.228
 197  1078.037
 198  940.4061
 199  842.9666
 200  861.3145
 201  862.6531
 202  824.0371
 203  894.4753
 204  900.3198
 205  845.3189
 206  805.5172
 207  889.3986
 208  850.9164
 209  822.0099
 210  801.6204
 211  871.0964
 212  789.8734
 213  731.4971
 214  873.5258
 215  1014.708
 216  1068.341
 217  1039.13
 218  987.7385
 219  1001.931
 220  897.5986
 221  784.8414
 222  691.283
 223  818.7737
 224  973.3228
 225  940.7594
 226  836.8219
 227  751.9611
 228  786.007
 229  886.0657
 230  898.1418
 231  860.5554
 232  748.5678
 233  809.1696
 234  853.1096
 235  847.3767
 236  847.9254
 237  710.494
 238  636.2592
 239  493.831
 240  499.4765
 241  550.3361
 242  729.9706
 243  783.058
 244  753.5162
 245  652.5295
 246  712.0918
 247  819.8248
 248  907.817
 249  841.4132
 250  712.3235
 251  689.5215
 252  659.1566
 253  692.386
 254  573.2015
 255  584.4011
 256  571.012
 257  700.8742
 258  841.3246
 259  897.0807
 260  946.9258
 261  957.9854
 262  967.8066
 263  903.1717
 264  808.213
 265  753.1504
 266  803.0518
 267  842.7039
 268  884.137
 269  892.3267
 270  833.6792
 271  791.9293
 272  789.3994
 273  869.4614
 274  891.9908
 275  818.2792
 276  742.1559
 277  667.9118
 278  610.7564
 279  663.4211
 280  734.0769
 281  837.9833
 282  854.091
 283  932.0234
 284  993.3467
 285  973.7034
 286  858.6754
 287  765.6663
 288  821.1122
 289  972.0604
 290  1064.361
 291  1110.392
 292  1207.621
 293  1273.403
 294  1123.965
 295  949.4907
 296  927.5098
 297  1077.735
 298  1030.745
 299  969.9495
 300  966.7153
 301  1062.197
 302  1081.088
 303  1046.013
 304  1019.219
 305  972.7557
 306  948.2805
 307  1033.986
 308  1067.267
 309  1049.961
 310  1016.051
 311  1151.817
 312  1236.759
 313  1238.547
 314  1175.599
 315  1120.492
 316  1088.093
 317  1025.075
 318  1048.303
 319  1028.42
 320  949.7124
 321  979.9926
 322  1054.984
 323  1116.369
 324  1090.315
 325  1052.231
 326  1081.118
 327  1062.801
 328  1138.743
 329  1123.9
 330  1135.551
 331  1165.044
 332  1188.601
 333  1159.616
 334  1158.293
 335  1168.523
 336  1134.062
 337  1110.003
 338  1061.42
 339  1137.667
 340  1125.403
 341  1079.673
 342  1067.16
 343  1117.824
 344  1126.544
 345  1015.924
 346  969.0818
 347  940.9064
 348  901.9408
 349  929.0327
 350  862.9553
 351  877.3115
 352  893.0256
 353  1036.919
 354  1141.069
 355  1102.159
 356  1142.464
 357  1103.953
 358  1069.858
 359  1011.919
 360  1088.942
 361  1155.836
 362  1112.733
 363  1017.163
 364  1037.791
 365  1056.915
 366  1006.498
 367  974.2651
 368  1053.874
 369  1120.254
 370  1125.671
 371  1064.591
 372  1044.538
 373  1044.06
 374  1125.582
 375  1295.543
 376  1323.127
 377  1235.843
 378  1156.576
 379  1112.036
 380  1110.367
 381  1067.331
 382  1033.722
 383  1053.563
 384  1118.535
 385  1156.933
 386  1027.827
 387  886.67
 388  913.8356
 389  1018.035
 390  1090.051
 391  1059.934
 392  993.3254
 393  916.5764
 394  896.954
 395  836.1334
 396  750.9276
 397  787.4946
 398  821.6016
 399  854.3193
 400  776.2677
 401  834.4428
 402  874.1295
 403  880.2445
 404  903.3617
 405  932.6416
 406  988.0715
 407  1047.695
 408  1103.997
 409  1117.224
 410  958.5409
 411  854.9726
 412  853.09
 413  936.9626
 414  958.8339
 415  881.5193
 416  759.2808
 417  722.4922
 418  813.6249
 419  929.152
 420  954.1245
 421  1013.382
 422  1086.833
 423  1085.987
 424  1121.699
 425  1124.377
 426  1008.062
 427  897.425
 428  856.7893
 429  954.782
 430  906.5734
 431  840.7838
 432  758.7285
 433  944.4888
 434  1085.427
 435  1227.401
 436  1208.959
 437  1034.573
 438  873.9879
 439  921.9242
 440  1051.051
 441  1035.336
 442  952.5361
 443  878.0453
 444  920.8001
 445  880.772
 446  965.6618
 447  1109.251
 448  1124.677
 449  1120.797
 450  982.0373
 451  974.7803
 452  844.4052
 453  865.5557
 454  1012.527
 455  1032.487
 456  934.7689
 457  826.0846
 458  721.6068
 459  646.5879
 460  640.1115
 461  879.6183
 462  1088.336
 463  1112.745
 464  1051.613
 465  974.6249
 466  925.6121
 467  928.0747
 468  865.1491
 469  920.1069
 470  875.6985
 471  838.9851
 472  817.4832
 473  807.6873
 474  894.0976
 475  916.0267
 476  967.1186
 477  1025.388
 478  1167.502
 479  1208.33
 480  1236.706
 481  1109.585
 482  1044.417
 483  1095.659
 484  1072.043
 485  1070.04
 486  914.661
 487  926.0563
 488  911.0397
 489  898.4686
 490  846.8483
 491  891.9374
 492  998.7441
 493  978.29
 494  1003.873
 495  931.1519
 496  971.5319
 497  1021.961
 498  999.7114
 499  1021.465
 500  968.4231
 501  1008.029
 502  872.6536
 503  776.2937
 504  864.2568
 505  978.0571
 506  1128.579
 507  1153.341
 508  1160.919
 509  1110.903
 510  1076.101
 511  992.8474
 512  989.6009
 513  963.9896
 514  914.2227
 515  836.5415
 516  860.936
 517  953.3508
 518  1077.009
 519  1245.454
 520  1301.498
 521  1246.833
 522  1309.408
 523  1257.849
 524  1209.144
 525  1076.471
 526  1039.577
 527  1019.764
 528  940.0228
 529  815.038
 530  769.0079
 531  773.7456
 532  902.212
 533  932.3719
 534  1071.897
 535  1105.139
 536  1051.398
 537  946.4881
 538  906.9418
 539  947.3713
 540  934.7443
 541  927.8173
 542  888.4193
 543  805.5246
 544  800.5981
 545  802.1296
 546  848.3226
 547  894.106
 548  997.8729
 549  1118
 550  1117.624
 551  1053.891
 552  955.5422
 553  940.2382
 554  919.8545
 555  1012.858
 556  1002.708
 557  1039.917
 558  904.6537
 559  913.7194
 560  1018.698
 561  1198.442
 562  1309.02
 563  1213.149
 564  1123.147
 565  1131.724
 566  1159.665
 567  1191.587
 568  1049.686
 569  953.8688
 570  964.5339
 571  1076.841
 572  1115.475
 573  1138.021
 574  1084.776
 575  1098.168
 576  1062.578
 577  1064.196
 578  961.2708
 579  918.0194
 580  918.1743
 581  1036.466
 582  1142.977
 583  1086.132
 584  1030.481
 585  949.7087
 586  1065.332
 587  1160.206
 588  1151.243
 589  1099.112
 590  1064.746
 591  1038.612
 592  1034.494
 593  976.4624
 594  1008.135
 595  1028.536
 596  1062.801
 597  1083.374
 598  1148.013
 599  1162.072
 600  1153.704
 601  1151.874
 602  1097.759
 603  1064.083
 604  1009.8
 605  977.0681
 606  873.9924
 607  926.1537
 608  1035.8
 609  1075.387
 610  1021.861
 611  999.7933
 612  931.5593
 613  987.9658
 614  1087.965
 615  1137.764
 616  1152.924
 617  1159.943
 618  1129.216
 619  1155.209
 620  1186.187
 621  1274.653
 622  1265.022
 623  1152.604
 624  1146.2
 625  1234.959
 626  1350.245
 627  1416.247
 628  1344.984
 629  1128.048
 630  1000.065
 631  1032.979
 632  1150.431
 633  1142.472
 634  1124.75
 635  1131.238
 636  1077.22
 637  909.8708
 638  958.4896
 639  906.2828
 640  1014.781
 641  898.8231
 642  946.7112
 643  929.6247
 644  961.2013
 645  994.9344
 646  988.3124
 647  1069.722
 648  1064.437
 649  1074.645
 650  953.2165
 651  880.5327
 652  916.0822
 653  974.0183
 654  1026.099
 655  901.9579
 656  771.447
 657  709.3414
 658  741.8101
 659  788.3496
 660  854.6748
 661  876.9416
 662  808.9221
 663  787.8976
 664  915.0098
 665  1116.349
 666  1125.682
 667  1128.371
 668  1061.586
 669  990.1562
 670  887.6911
 671  940.5276
 672  999.0715
 673  1009.536
 674  838.4513
 675  876.7538
 676  862.5942
 677  997.7423
 678  977.7322
 679  1092.091
 680  1122.818
 681  1128.938
 682  1082.522
 683  1075.071
 684  1035.443
 685  958.1599
 686  863.6279
 687  838.9046
 688  945.7957
 689  1120.786
 690  1266.99
 691  1267.507
 692  1176.45
 693  1080.685
 694  1019.68
 695  1114.16
 696  1261.244
 697  1372.085
 698  1280.122
 699  1210.542
 700  1163.733
 701  1128.291
 702  1208.946
 703  1258.95
 704  1231.751
 705  1158.671
 706  1170.151
 707  1244.449
 708  1198.475
 709  1122.674
 710  1034.682
 711  1036.093
 712  1061.923
 713  1125.23
 714  1213.192
 715  1252.784
 716  1273.023
 717  1117.897
 718  1113.621
 719  1073.996
 720  1021.463
 721  1020.079
 722  1076.283
 723  1103.804
 724  1052.228
 725  1143.169
 726  1136.736
 727  1198.718
 728  1134.866
 729  1178.335
 730  1054.843
 731  972.322
 732  1085.904
 733  1165.916
 734  1217.106
 735  1250.355
 736  1249.594
 737  1221.724
 738  1216.782
 739  1212.239
 740  1171.158
 741  1031.613
 742  1006.131
 743  1030.524
 744  1032.184
 745  988.56
 746  1074.108
 747  1085.782
 748  1032.083
 749  988.122
 750  1065.97
 751  1130.772
 752  1126.908
 753  1143.467
 754  1017.828
 755  936.2573
 756  1018.408
 757  1166.832
 758  1191.131
 759  1090.039
 760  1079.472
 761  1078.981
 762  1069.397
 763  1023.02
 764  990.9759
 765  1017.008
 766  1065.558
 767  1100.429
 768  966.0153
 769  919.6507
 770  904.0192
 771  918.8281
 772  896.6279
 773  919.8593
 774  958.7563
 775  1010.38
 776  1014.854
 777  1051.359
 778  1079.047
 779  1180.227
 780  1168.547
 781  1095.985
 782  1067.777
 783  1089.596
 784  1054.203
 785  1023.158
 786  969.6348
 787  924.5592
 788  912.0861
 789  981.2527
 790  1004.162
 791  943.5974
 792  1069.677
 793  1243.177
 794  1351.814
 795  1266.604
 796  1181.355
 797  1072.144
 798  1162.309
 799  1125.954
 800  1061.798
 801  937.4032
 802  849.5135
 803  764.3955
 804  780.9398
 805  870.0026
 806  1013.909
 807  1112.806
 808  1265.974
 809  1187.074
 810  1117.43
 811  939.2168
 812  896.3717
 813  852.4345
 814  911.6736
 815  916.7604
 816  836.9456
 817  875.5909
 818  944.5315
 819  1129.081
 820  1165.026
 821  1067.122
 822  982.7798
 823  956.9519
 824  998.8674
 825  1071.597
 826  1191.649
 827  1200.916
 828  1007.842
 829  884.616
 830  864.4936
 831  789.0622
 832  811.2924
 833  959.127
 834  1206.937
 835  1191.56
 836  1092.893
 837  1059.684
 838  1044.997
 839  1047.265
 840  1056.852
 841  996.251
 842  1034.58
 843  984.1289
 844  1095.864
 845  1031.173
 846  979.3387
 847  931.9803
 848  982.5183
 849  1038.904
 850  1038.731
 851  1017.282
 852  1065.059
 853  936.2508
 854  957.222
 855  1001.603
 856  1148.902
 857  1069.714
 858  1069.944
 859  1134.683
 860  1090.682
 861  1023.379
 862  931.8847
 863  888.7393
 864  856.8098
 865  801.868
 866  848.6372
 867  972.0985
 868  1093.912
 869  1151.902
 870  1044.52
 871  953.3091
 872  943.7923
 873  1088.169
 874  1190.05
 875  1233.35
 876  1141.687
 877  1093.395
 878  985.5176
 879  892.4879
 880  915.3804
 881  1007.081
 882  1123.226
 883  1086.236
 884  930.3447
 885  913.7272
 886  896.9391
 887  1005.746
 888  972.3209
 889  1096.393
 890  1032.555
 891  1017.843
 892  979.2506
 893  1042.016
 894  1139.823
 895  1197.898
 896  1187.288
 897  1171.44
 898  1022.825
 899  930.951
 900  796.7002
 901  786.6453
 902  854.65
 903  948.1736
 904  1109.999
 905  1168.009
 906  1093.448
 907  934.5787
 908  934.0806
 909  1039.635
 910  1090.642
 911  1049.842
 912  1098.696
 913  1190.244
 914  1154.852
 915  1076.611
 916  1035.791
 917  953.1097
 918  900.8638
 919  860.5135
 920  1008.199
 921  1076.845
 922  1097.687
 923  1065.609
 924  1114.556
 925  1178.295
 926  1205.365
 927  1175.485
 928  1171.606
 929  1102.387
 930  1024.052
 931  958.8261
 932  972.6724
 933  1009.76
 934  1083.075
 935  1257.717
 936  1364.983
 937  1380.766
 938  1320.158
 939  1183.784
 940  1168.554
 941  1121.603
 942  1134.577
 943  1039.554
 944  935.59
 945  933.7431
 946  999.5432
 947  1036.639
 948  1017.082
 949  998.3749
 950  1052.518
 951  1031.84
 952  1017.576
 953  966.7338
 954  948.9033
 955  979.4167
 956  1007.355
 957  1008.402
 958  1074.36
 959  1062.692
 960  933.2653
 961  833.4175
 962  940.8951
 963  979.7015
 964  1002.92
 965  935.4573
 966  1011.018
 967  1029.922
 968  1174.21
 969  1231.347
 970  1135.296
 971  999.6187
 972  938.7219
 973  1019.449
 974  1128.122
 975  1094.384
 976  1049.853
 977  972.534
 978  1045.705
 979  1063.634
 980  1025.211
 981  1018.377
 982  1008.744
 983  1048.723
 984  1007.695
 985  951.7524
 986  1069.929
 987  1098.417
 988  1226.972
 989  1069.31
 990  1092.019
 991  1075.734
 992  1152.298
 993  1096.464
 994  1021.832
 995  1053.979
 996  1153.339
 997  1192.321
 998  1125.915
 999  1008.672
1000  1021.194
1001  1038.653
1002  1085.631
1003  997.5352
1004  972.416
1005  900.7181
1006  1033.938
1007  1017.199
1008  889.2246
1009  821.5117
1010  914.7472
1011  1004.317
1012  911.0581
1013  835.8623
1014  877.0123
1015  930.3405
1016  1013.829
1017  1021.781
1018  1014.522
1019  976.5715
1020  889.3741
1021  892.4511
1022  871.0837
1023  976.9445
