# Input file       =  1196895256.11244_cleaned.dat
# Candidate        =  PSR_0332+5434
# Telescope        =  AR
# Epoch_topo       =  58096.954573060648
# Epoch_bary       =  N/A
# T_sample         =  0.002
# Data Folded      =  7340032
# Data Avg         =  0.0478417906880629
# Data StdDev      =  1.00018126208563 
# Profile Bins     =  512
# Profile Avg      =  685.929230226047 
# Profile StdDev   =  119.754739436658 
# Reduced chi-sqr  =  0.828
# Prob(Noise)      <  0.998   (~0.0 sigma)
# P_topo (ms)      =  714.535185599239  +/- 0.000308
# P'_topo (s/s)    =  -0                +/- 1.62e-10
# P''_topo (s/s^2) =  0                 +/- 7.16e-14
# P_bary (ms)      =  N/A
# P'_bary (s/s)    =  N/A
# P''_bary (s/s^2) =  N/A
# P_orb (s)        =  N/A
# asin(i)/c (s)    =  N/A
# eccentricity     =  N/A
# w (rad)          =  N/A
# T_peri           =  N/A
######################################################
   0  655.1896
   1  641.651
   2  647.2941
   3  741.4551
   4  819.1978
   5  817.3224
   6  864.3621
   7  902.0934
   8  650.1663
   9  682.8768
  10  713.7953
  11  734.7841
  12  790.0457
  13  685.5824
  14  737.2802
  15  734.553
  16  774.7739
  17  758.6862
  18  720.6735
  19  733.3853
  20  701.4097
  21  641.9177
  22  613.5742
  23  683.8428
  24  755.6675
  25  712.5469
  26  655.848
  27  562.0628
  28  532.5043
  29  466.266
  30  624.6283
  31  746.2775
  32  756.8653
  33  679.3765
  34  677.4729
  35  651.9214
  36  658.2565
  37  688.2817
  38  619.6777
  39  612.9236
  40  639.6166
  41  643.0341
  42  597.6792
  43  649.3589
  44  694.9122
  45  650.871
  46  778.1238
  47  724.1691
  48  678.8814
  49  723.2518
  50  650.7804
  51  661.1144
  52  632.3885
  53  718.5491
  54  685.1223
  55  758.3284
  56  587.2818
  57  558.8023
  58  577.3346
  59  592.4105
  60  555.2199
  61  635.4653
  62  679.4
  63  612.5416
  64  684.991
  65  721.7266
  66  810.9034
  67  664.918
  68  680.0813
  69  700.9615
  70  796.4028
  71  802.0559
  72  699.4284
  73  639.6187
  74  733.365
  75  784.0907
  76  758.434
  77  657.2474
  78  671.5948
  79  686.7969
  80  713.4186
  81  591.9267
  82  626.8707
  83  653.6558
  84  659.7679
  85  749.1579
  86  635.8445
  87  573.0322
  88  596.4407
  89  649.1441
  90  740.4763
  91  744.0025
  92  783.5296
  93  785.5048
  94  706.1185
  95  715.5022
  96  769.6026
  97  791.2656
  98  704.6365
  99  717.9553
 100  757.2307
 101  714.6089
 102  658.3344
 103  652.3591
 104  632.6513
 105  763.4769
 106  815.5457
 107  765.0143
 108  648.3375
 109  711.1474
 110  711.9
 111  603.2634
 112  689.6122
 113  672.2211
 114  723.0084
 115  729.1199
 116  665.3514
 117  627.8192
 118  647.6875
 119  700.278
 120  583.9753
 121  591.2399
 122  712.2057
 123  716.9828
 124  751.6243
 125  806.4703
 126  767.0148
 127  682.2506
 128  693.8125
 129  719.7586
 130  657.4385
 131  738.4428
 132  891.3198
 133  866.8671
 134  792.4436
 135  755.7999
 136  643.3033
 137  610.3073
 138  598.0048
 139  625.334
 140  640.8846
 141  687.5895
 142  677.8303
 143  584.9779
 144  608.7685
 145  634.8817
 146  561.3913
 147  641.6932
 148  745.3156
 149  605.4509
 150  753.1573
 151  707.7792
 152  772.5933
 153  751.3542
 154  664.424
 155  712.2938
 156  725.1307
 157  702.5763
 158  681.5828
 159  746.3135
 160  704.2175
 161  729.7727
 162  712.1873
 163  596.6875
 164  601.2337
 165  740.7728
 166  650.2562
 167  634.4506
 168  669.1403
 169  658.8925
 170  721.0583
 171  692.9885
 172  680.4868
 173  636.0635
 174  624.1556
 175  626.0451
 176  658.4738
 177  697.1486
 178  713.4497
 179  615.0237
 180  626.3476
 181  604.8875
 182  511.355
 183  577.821
 184  757.3806
 185  718.4154
 186  670.8709
 187  694.2984
 188  680.1788
 189  733.1801
 190  761.5223
 191  630.7546
 192  683.2344
 193  693.6751
 194  657.8254
 195  623.5532
 196  562.9234
 197  579.764
 198  618.9602
 199  648.5535
 200  715.3939
 201  687.3846
 202  747.1505
 203  751.3853
 204  790.1071
 205  832.0773
 206  810.7356
 207  863.6797
 208  942.6722
 209  983.198
 210  1066.061
 211  1064.656
 212  929.8176
 213  789.8699
 214  710.9059
 215  756.5726
 216  725.788
 217  696.7976
 218  763.9949
 219  786.6308
 220  796.3433
 221  575.1079
 222  532.8299
 223  749.9175
 224  789.5112
 225  768.2894
 226  742.1395
 227  747.7192
 228  633.137
 229  584.0978
 230  581.1945
 231  680.2618
 232  727.4855
 233  778.7146
 234  769.5074
 235  746.1033
 236  805.5662
 237  696.6017
 238  674.0956
 239  789.8297
 240  706.1154
 241  669.0972
 242  559.254
 243  454.4317
 244  633.7808
 245  608.9697
 246  639.8469
 247  678.1733
 248  597.0143
 249  706.3307
 250  739.9464
 251  636.874
 252  700.8243
 253  782.5512
 254  790.0898
 255  658.478
 256  667.332
 257  658.1348
 258  684.6133
 259  632.6333
 260  564.9606
 261  651.1853
 262  704.8754
 263  692.5921
 264  873.0961
 265  834.4086
 266  593.0848
 267  583.6196
 268  576.7603
 269  513.2452
 270  565.4662
 271  681.5101
 272  652.2882
 273  630.0234
 274  636.9438
 275  781.2524
 276  717.0204
 277  640.6368
 278  751.6039
 279  739.652
 280  740.1027
 281  752.7533
 282  704.5477
 283  710.197
 284  701.1761
 285  644.1906
 286  756.0266
 287  808.1869
 288  746.9261
 289  690.2621
 290  662.5414
 291  725.4603
 292  670.0327
 293  573.2441
 294  649.1682
 295  777.9879
 296  751.0191
 297  738.3348
 298  662.9712
 299  637.5261
 300  699.2028
 301  636.9351
 302  783.7261
 303  805.2653
 304  713.4941
 305  662.9634
 306  588.9083
 307  577.8345
 308  624.0276
 309  697.7489
 310  706.1996
 311  608.532
 312  696.6208
 313  747.7512
 314  628.4186
 315  686.1725
 316  657.9059
 317  648.5435
 318  734.6796
 319  724.1664
 320  652.6315
 321  535.7884
 322  571.5111
 323  630.5052
 324  659.1966
 325  717.451
 326  677.3962
 327  712.0627
 328  743.8626
 329  705.4824
 330  650.5562
 331  753.921
 332  735.6264
 333  688.363
 334  706.44
 335  674.7728
 336  734.9779
 337  746.5287
 338  729.6098
 339  695.4498
 340  763.7888
 341  814.3217
 342  750.5135
 343  679.0739
 344  654.2781
 345  685.33
 346  767.5084
 347  792.1228
 348  755.7991
 349  757.0897
 350  709.1683
 351  753.0552
 352  730.8477
 353  771.4922
 354  752.3513
 355  772.4268
 356  631.4559
 357  564.4868
 358  710.8295
 359  657.7736
 360  622.1283
 361  553.7308
 362  571.399
 363  629.3405
 364  590.0441
 365  592.6945
 366  635.4169
 367  638.482
 368  640.3814
 369  619.107
 370  605.4879
 371  585.4272
 372  648.007
 373  738.7098
 374  672.1375
 375  685.8785
 376  661.35
 377  695.6694
 378  683.6516
 379  687.6158
 380  613.5487
 381  542.3441
 382  678.0802
 383  744.1201
 384  716.8877
 385  617.6115
 386  573.8558
 387  616.0193
 388  552.7974
 389  544.4485
 390  541.0886
 391  667.3162
 392  700.0123
 393  665.1045
 394  573.5952
 395  670.1428
 396  632.8307
 397  689.1862
 398  727.4365
 399  768.9928
 400  739.2725
 401  590.5283
 402  623.7429
 403  605.3218
 404  619.3504
 405  576.4979
 406  597.8682
 407  607.6766
 408  610.9521
 409  529.21
 410  454.2711
 411  501.8603
 412  625.1449
 413  734.7521
 414  709.3284
 415  576.5288
 416  616.6322
 417  611.5944
 418  630.751
 419  548.1906
 420  633.3414
 421  656.2995
 422  607.9335
 423  656.2081
 424  611.0243
 425  546.4041
 426  509.41
 427  665.7101
 428  765.8762
 429  699.2797
 430  630.6458
 431  602.2048
 432  727.9702
 433  654.6418
 434  620.5085
 435  652.9576
 436  540.3904
 437  546.425
 438  679.091
 439  682.413
 440  656.6373
 441  698.2878
 442  695.4874
 443  738.2179
 444  575.8746
 445  668.3159
 446  627.0456
 447  563.4789
 448  660.1331
 449  735.2552
 450  760.9924
 451  716.7266
 452  765.7632
 453  721.4842
 454  657.2994
 455  759.418
 456  847.4456
 457  738.272
 458  634.1165
 459  631.4744
 460  683.2868
 461  723.5876
 462  657.7079
 463  745.2645
 464  758.9879
 465  682.245
 466  734.6141
 467  835.9711
 468  765.6811
 469  747.1846
 470  644.3474
 471  644.6113
 472  704.3556
 473  755.9256
 474  763.9368
 475  657.9799
 476  605.3387
 477  651.8397
 478  663.8574
 479  661.942
 480  653.5291
 481  637.7272
 482  721.162
 483  744.0292
 484  682.4807
 485  653.3047
 486  698.2966
 487  766.3018
 488  688.6427
 489  708.8625
 490  684.0233
 491  691.0125
 492  752.1288
 493  673.3654
 494  763.189
 495  860.2464
 496  776.5353
 497  752.3384
 498  705.6549
 499  677.0817
 500  684.5571
 501  595.7543
 502  709.72
 503  750.6356
 504  671.0847
 505  667.9945
 506  812.6487
 507  669.0603
 508  639.098
 509  807.8522
 510  726.837
 511  711.1337
