# Input file       =  1196435398.113372_cleaned.dat
# Candidate        =  PSR_0332+5434
# Telescope        =  AR
# Epoch_topo       =  58091.632142515882
# Epoch_bary       =  N/A
# T_sample         =  0.002
# Data Folded      =  7208960
# Data Avg         =  0.0665225875690467
# Data StdDev      =  1.0002666863272  
# Profile Bins     =  512
# Profile Avg      =  936.579623728953 
# Profile StdDev   =  118.690820573312 
# Reduced chi-sqr  =  0.816
# Prob(Noise)      <  0.999   (~0.0 sigma)
# P_topo (ms)      =  714.529397434227  +/- 0.000197
# P'_topo (s/s)    =  -0                +/- 1.06e-10
# P''_topo (s/s^2) =  0                 +/- 4.76e-14
# P_bary (ms)      =  N/A
# P'_bary (s/s)    =  N/A
# P''_bary (s/s^2) =  N/A
# P_orb (s)        =  N/A
# asin(i)/c (s)    =  N/A
# eccentricity     =  N/A
# w (rad)          =  N/A
# T_peri           =  N/A
######################################################
   0  1235.509
   1  1133.942
   2  1081.478
   3  1083.078
   4  1101.6
   5  1024.867
   6  1027.507
   7  993.9684
   8  983.0615
   9  985.4447
  10  993.011
  11  1010.89
  12  919.3801
  13  883.9479
  14  954.8406
  15  1001.634
  16  895.7226
  17  965.4932
  18  922.1583
  19  936.1736
  20  894.2213
  21  1013.151
  22  992.5974
  23  1141.853
  24  1174.287
  25  1086.947
  26  1108.699
  27  1021.545
  28  1028.906
  29  1013.205
  30  954.0478
  31  1018.548
  32  914.813
  33  888.4639
  34  954.5962
  35  1018.902
  36  933.4536
  37  944.1805
  38  960.1336
  39  989.8032
  40  1010.866
  41  896.0611
  42  955.933
  43  912.8287
  44  937.1648
  45  948.1982
  46  1005.116
  47  949.2087
  48  991.1995
  49  864.4587
  50  827.1448
  51  926.5119
  52  989.8219
  53  947.5596
  54  1009.111
  55  1010.592
  56  1014.085
  57  918.5969
  58  944.6272
  59  1027.156
  60  1098.549
  61  976.7634
  62  973.2429
  63  975.2811
  64  1009.728
  65  988.2553
  66  989.9896
  67  997.5475
  68  954.4041
  69  891.8339
  70  922.3124
  71  861.3944
  72  818.116
  73  878.6017
  74  987.152
  75  880.1865
  76  840.1981
  77  1029.242
  78  1024.546
  79  1006.661
  80  946.4117
  81  1007.498
  82  983.8767
  83  1054.788
  84  999.0869
  85  1001.473
  86  915.646
  87  995.0556
  88  1112.984
  89  1093.71
  90  1118.2
  91  850.3572
  92  812.2274
  93  821.5309
  94  793.283
  95  878.2543
  96  912.2529
  97  935.3502
  98  1020.103
  99  1070.4
 100  932.7156
 101  856.8377
 102  831.5942
 103  940.3523
 104  1006.36
 105  867.8171
 106  900.9248
 107  877.9088
 108  865.9618
 109  1024.928
 110  998.8472
 111  900.2248
 112  935.5516
 113  969.2191
 114  914.8128
 115  881.658
 116  909.1801
 117  886.3817
 118  837.5024
 119  833.7796
 120  870.5717
 121  870.683
 122  906.0004
 123  936.8929
 124  830.8881
 125  785.5115
 126  906.4058
 127  771.4502
 128  875.5585
 129  804.9872
 130  911.1133
 131  989.2017
 132  915.4395
 133  887.1288
 134  794.0078
 135  915.1717
 136  873.7238
 137  816.8442
 138  890.3095
 139  928.6218
 140  1008.79
 141  876.8488
 142  960.3951
 143  872.9359
 144  749.3528
 145  766.6745
 146  896.9522
 147  881.8288
 148  1000.172
 149  942.0688
 150  846.7778
 151  833.0626
 152  877.0852
 153  868.5817
 154  919.908
 155  952.0383
 156  917.8873
 157  919.8511
 158  878.2441
 159  929.9851
 160  970.2056
 161  927.0384
 162  989.3794
 163  915.8022
 164  968.3032
 165  1019.081
 166  894.222
 167  1035.728
 168  1109.339
 169  1066.54
 170  1021.708
 171  1017.335
 172  1045.749
 173  1062.825
 174  1023.664
 175  954.8025
 176  963.4906
 177  980.8008
 178  1055.123
 179  884.6705
 180  912.5288
 181  1039.706
 182  889.3547
 183  872.8472
 184  919.2574
 185  961.1632
 186  921.2035
 187  851.1184
 188  859.2155
 189  975.2916
 190  976.6129
 191  944.2548
 192  866.783
 193  851.4688
 194  815.9398
 195  819.3152
 196  987.9764
 197  1011.077
 198  1007.868
 199  961.501
 200  1001.783
 201  939.028
 202  898.8114
 203  860.4972
 204  894.7032
 205  967.692
 206  850.88
 207  876.9304
 208  937.2482
 209  991.0912
 210  939.2234
 211  783.3712
 212  794.0323
 213  799.659
 214  841.1879
 215  806.2665
 216  917.725
 217  1010.724
 218  991.4659
 219  916.2955
 220  947.4733
 221  895.7143
 222  947.816
 223  911.6652
 224  974.2496
 225  924.5519
 226  987.1266
 227  862.0326
 228  918.0916
 229  930.1258
 230  870.3373
 231  918.4873
 232  963.6026
 233  922.4984
 234  993.3427
 235  979.9419
 236  935.4248
 237  910.4472
 238  943.7179
 239  968.425
 240  999.8473
 241  996.0525
 242  1062.545
 243  949.2294
 244  888.903
 245  992.4061
 246  1002.042
 247  1059.267
 248  952.2527
 249  910.9101
 250  961.2371
 251  996.7864
 252  977.0176
 253  1001.231
 254  968.6003
 255  935.7479
 256  853.8003
 257  998.0716
 258  1071.852
 259  1028.611
 260  999.3647
 261  918.1661
 262  871.597
 263  933.5603
 264  937.2856
 265  844.6164
 266  876.8541
 267  1046.845
 268  997.2096
 269  990.821
 270  978.3652
 271  972.39
 272  844.5791
 273  832.1829
 274  985.3903
 275  1071.546
 276  843.207
 277  748.6309
 278  816.0981
 279  806.0091
 280  722.3931
 281  783.3781
 282  858.4235
 283  865.8845
 284  832.213
 285  860.3148
 286  827.0453
 287  927.1927
 288  884.6855
 289  935.1953
 290  1051.213
 291  1115.554
 292  1048.464
 293  879.0935
 294  861.299
 295  968.9872
 296  974.5326
 297  928.0646
 298  956.0113
 299  966.7161
 300  868.2918
 301  914.379
 302  1031.875
 303  1051.053
 304  1027.435
 305  857.9478
 306  873.2658
 307  825.2142
 308  839.3886
 309  895.2356
 310  965.6304
 311  946.9524
 312  989.8376
 313  983.5059
 314  948.5009
 315  846.327
 316  906.855
 317  953.7587
 318  916.434
 319  919.2866
 320  885.409
 321  900.6845
 322  802.9612
 323  868.1041
 324  920.5405
 325  982.6383
 326  956.7013
 327  904.6947
 328  810.6218
 329  851.7262
 330  813.322
 331  880.1624
 332  900.6943
 333  920.5412
 334  947.0365
 335  967.6148
 336  1007.1
 337  1016.894
 338  965.7691
 339  867.4247
 340  872.7798
 341  952.6899
 342  903.8212
 343  922.3295
 344  971.5725
 345  829.6642
 346  728.6817
 347  748.7369
 348  883.6812
 349  933.3826
 350  915.8664
 351  942.6058
 352  940.8073
 353  980.9871
 354  911.1805
 355  921.9147
 356  912.6935
 357  966.5998
 358  1116.586
 359  998.1639
 360  925.6915
 361  886.7741
 362  969.8603
 363  986.7603
 364  941.3025
 365  955.1042
 366  878.6264
 367  936.5705
 368  913.3653
 369  978.2908
 370  973.3321
 371  959.5211
 372  911.4172
 373  789.0182
 374  876.9369
 375  989.3824
 376  1038.353
 377  1053.254
 378  962.6378
 379  899.2281
 380  917.1331
 381  862.5781
 382  850.2383
 383  850.4156
 384  984.3007
 385  1023.719
 386  935.9333
 387  865.945
 388  959.4453
 389  965.9394
 390  920.4171
 391  920.9127
 392  891.8077
 393  814.1592
 394  955.0255
 395  972.3012
 396  902.2026
 397  893.5344
 398  952.8964
 399  962.1768
 400  995.7329
 401  928.782
 402  805.7047
 403  772.3745
 404  865.3063
 405  925.413
 406  974.7185
 407  1005.548
 408  997.1847
 409  934.321
 410  991.1539
 411  980.9611
 412  915.9506
 413  822.9344
 414  843.9623
 415  897.7957
 416  974.9238
 417  1044.543
 418  1128.177
 419  937.5447
 420  957.0513
 421  979.0089
 422  1019.192
 423  893.7178
 424  908.3619
 425  973.9852
 426  949.7048
 427  859.8741
 428  825.1082
 429  808.9883
 430  879.905
 431  970.9157
 432  1007.621
 433  992.6367
 434  943.1248
 435  824.0092
 436  907.8856
 437  996.6594
 438  1048.606
 439  1011.596
 440  902.1746
 441  1041.805
 442  912.1385
 443  827.5968
 444  776.8517
 445  874.432
 446  865.9886
 447  913.5781
 448  883.9564
 449  858.5532
 450  941.9323
 451  913.4696
 452  960.658
 453  951.2372
 454  912.715
 455  817.4219
 456  878.0012
 457  998.8062
 458  986.5951
 459  1022.568
 460  1026.992
 461  947.3922
 462  909.8843
 463  963.6501
 464  955.9234
 465  974.2059
 466  952.139
 467  984.6918
 468  996.3872
 469  983.1646
 470  974.7673
 471  871.7653
 472  923.1501
 473  886.8273
 474  832.4914
 475  1006.234
 476  916.0176
 477  946.8028
 478  1022.209
 479  938.6663
 480  976.8173
 481  928.5594
 482  1033.352
 483  988.6252
 484  917.5845
 485  915.0987
 486  973.5204
 487  1003.326
 488  856.3952
 489  813.2135
 490  874.8769
 491  899.624
 492  894.9926
 493  937.1223
 494  853.7592
 495  844.8211
 496  823.9196
 497  830.4072
 498  917.034
 499  867.4283
 500  877.0551
 501  889.233
 502  834.1719
 503  920.7117
 504  934.8865
 505  918.7448
 506  923.6858
 507  992.3384
 508  1014.15
 509  1062.48
 510  1179.016
 511  1270.848
