# Input file       =  1196034081.122101_cleaned.dat
# Candidate        =  PSR_0332+5434
# Telescope        =  AR
# Epoch_topo       =  58086.987269931727
# Epoch_bary       =  N/A
# T_sample         =  0.002
# Data Folded      =  7340032
# Data Avg         =  0.166019046160467
# Data StdDev      =  5.27265310478241 
# Profile Bins     =  1024
# Profile Avg      =  1190.04662800676 
# Profile StdDev   =  446.404123672539 
# Reduced chi-sqr  =  0.651
# Prob(Noise)      <  1   (~0.0 sigma)
# P_topo (ms)      =  714.524981673098  +/- 4.69e-05
# P'_topo (s/s)    =  -0                +/- 2.47e-11
# P''_topo (s/s^2) =  0                 +/- 1.09e-14
# P_bary (ms)      =  N/A
# P'_bary (s/s)    =  N/A
# P''_bary (s/s^2) =  N/A
# P_orb (s)        =  N/A
# asin(i)/c (s)    =  N/A
# eccentricity     =  N/A
# w (rad)          =  N/A
# T_peri           =  N/A
######################################################
   0  1200.342
   1  1137.472
   2  964.4026
   3  854.1725
   4  915.976
   5  949.8388
   6  1059.009
   7  1227.771
   8  1256.752
   9  1299.384
  10  1213.653
  11  1095.945
  12  1033.481
  13  1103.039
  14  1339.387
  15  1409.775
  16  1270.034
  17  1114.238
  18  1155.436
  19  1088.522
  20  1142.185
  21  1123.022
  22  1145.348
  23  1020.526
  24  910.3726
  25  903.4726
  26  902.7485
  27  867.3914
  28  1044.854
  29  1189.059
  30  1319.002
  31  1284.77
  32  1100.383
  33  940.2996
  34  845.0289
  35  800.8341
  36  905.2795
  37  893.3612
  38  926.7856
  39  973.7933
  40  913.6562
  41  869.8377
  42  735.8448
  43  945.425
  44  916.2498
  45  947.0518
  46  947.9428
  47  990.5609
  48  1025.712
  49  1059.021
  50  994.2736
  51  974.7307
  52  905.9795
  53  985.6802
  54  1072.54
  55  1080.761
  56  1061.377
  57  1164.88
  58  1158.827
  59  1116.063
  60  999.2177
  61  1085.661
  62  1104.819
  63  1168.58
  64  1306.896
  65  1389.383
  66  1380.618
  67  1278.914
  68  1281.498
  69  1226.434
  70  1222.755
  71  1260.928
  72  1379.13
  73  1349.476
  74  986.0374
  75  774.5562
  76  741.833
  77  821.1249
  78  965.96
  79  1050.929
  80  1143.276
  81  1109.507
  82  1042.656
  83  940.332
  84  914.9899
  85  1009.453
  86  1102.472
  87  1031.316
  88  972.8724
  89  997.6042
  90  998.9345
  91  987.9556
  92  996.4883
  93  1100.57
  94  1103.951
  95  1011.857
  96  986.7246
  97  936.398
  98  933.5195
  99  911.0586
 100  1088.159
 101  1088.068
 102  997.2159
 103  1007.653
 104  1027.009
 105  984.8618
 106  1066.627
 107  1186.532
 108  1363.578
 109  1400.771
 110  1255.736
 111  1088.043
 112  968.0146
 113  942.1004
 114  1042.893
 115  1001.043
 116  1042.094
 117  910.9996
 118  772.2762
 119  770.9424
 120  819.8723
 121  1000.149
 122  1111.733
 123  1143.624
 124  1200.58
 125  1177.721
 126  961.9883
 127  1023.165
 128  1132.38
 129  1310.513
 130  1100.049
 131  1042.919
 132  1049.558
 133  1201.487
 134  1123.007
 135  1194.512
 136  1264.575
 137  1394.654
 138  1310.31
 139  1088.702
 140  1071.806
 141  1096.825
 142  1144.729
 143  1157.953
 144  1078.499
 145  1017.67
 146  1011.879
 147  931.2172
 148  896.2648
 149  1025.834
 150  1088.74
 151  1002.6
 152  912.5303
 153  1004.083
 154  1073.72
 155  1097.162
 156  1042.732
 157  1217.72
 158  1295.301
 159  1214.824
 160  945.7781
 161  851.6431
 162  858.1807
 163  975.1454
 164  995.5739
 165  1086.857
 166  1152.27
 167  1228.208
 168  1373.885
 169  1383.56
 170  1270.852
 171  1209.007
 172  1193.377
 173  1158.942
 174  1051.544
 175  916.4534
 176  1099.984
 177  1185.331
 178  1137.246
 179  1050.903
 180  992.8077
 181  1102.316
 182  1075.158
 183  912.777
 184  1000.33
 185  1047.709
 186  1256.161
 187  1189.778
 188  1034.028
 189  803.697
 190  782.3064
 191  876.4056
 192  1011.311
 193  1094.764
 194  1005.896
 195  992.685
 196  764.2662
 197  819.2223
 198  812.2709
 199  971.8367
 200  1072.268
 201  1133.067
 202  1042.219
 203  879.9927
 204  677.4764
 205  877.7549
 206  1037.726
 207  1244.779
 208  1155.751
 209  1042.459
 210  1061.234
 211  1066.504
 212  963.3973
 213  897.0922
 214  966.6512
 215  1225.897
 216  1296.855
 217  1246.57
 218  1151.923
 219  1101.173
 220  1130.575
 221  1159.587
 222  1292.889
 223  1255.903
 224  1228.302
 225  1164.313
 226  1132.905
 227  1168.056
 228  1262.866
 229  1384.932
 230  1218.504
 231  1196.527
 232  1091.981
 233  892.983
 234  930.269
 235  985.6151
 236  1159.919
 237  1210.062
 238  1282.385
 239  1376.121
 240  1198.695
 241  1177.705
 242  1196.641
 243  1226.135
 244  1183.508
 245  993.9282
 246  1067.328
 247  1219.003
 248  1407.177
 249  1453.953
 250  1500.333
 251  1418.264
 252  1417.124
 253  1348.117
 254  1255.072
 255  1121.864
 256  957.1567
 257  1030.629
 258  1182.319
 259  1234.151
 260  1146.513
 261  989.8794
 262  1024.919
 263  1012.223
 264  1080.406
 265  1161.61
 266  1232.043
 267  1253.308
 268  1171.598
 269  1033.107
 270  1158.039
 271  1108.096
 272  1256.038
 273  1242.224
 274  1253.415
 275  1030.595
 276  974.1273
 277  1078.911
 278  1134.527
 279  1096.935
 280  1064.778
 281  1084.036
 282  1152.905
 283  1118.12
 284  1032.83
 285  1042.965
 286  1197.06
 287  1166.554
 288  1094.911
 289  982.3627
 290  910.1277
 291  963.3718
 292  1080.563
 293  1147.781
 294  1219.392
 295  1117.786
 296  1291.036
 297  1293.537
 298  1230.934
 299  1141.721
 300  1107.182
 301  1170.219
 302  1153.403
 303  1035.222
 304  1037.614
 305  1026.67
 306  1081.104
 307  1285.526
 308  1414.316
 309  1519.495
 310  1598.729
 311  1645.492
 312  1587.69
 313  1457.194
 314  1398.941
 315  1403.697
 316  1283.091
 317  1200.31
 318  1135.921
 319  1012.69
 320  1017.154
 321  1268.847
 322  1480.474
 323  1579.435
 324  1390.636
 325  1358.128
 326  1257.944
 327  1092.451
 328  874.8379
 329  869.0606
 330  908.2097
 331  987.2932
 332  1019.196
 333  990.6013
 334  1108.918
 335  1273.447
 336  1446.335
 337  1313.995
 338  1082.57
 339  938.2254
 340  978.8514
 341  1049.339
 342  1104.454
 343  1234.155
 344  1214.266
 345  1199.049
 346  1135.089
 347  1171.73
 348  1139.649
 349  1124.001
 350  1284.859
 351  1481.416
 352  1449.426
 353  1345.308
 354  1339.633
 355  1266.254
 356  1191.132
 357  1022.755
 358  1183.941
 359  1271.445
 360  1167.578
 361  1044.563
 362  1005.135
 363  1039.19
 364  1265.163
 365  1410.405
 366  1516.228
 367  1584.917
 368  1586.737
 369  1456.923
 370  1216.178
 371  1068.011
 372  1123.692
 373  1132.369
 374  1167.417
 375  1104.101
 376  928.855
 377  999.5663
 378  1216.038
 379  1426.66
 380  1437.061
 381  1252.193
 382  1374.875
 383  1273.8
 384  1160.849
 385  1217.761
 386  1326.674
 387  1373.402
 388  1108.518
 389  1055.081
 390  1045.964
 391  1121.931
 392  1017.727
 393  1070.514
 394  1109.06
 395  1227.843
 396  1246.919
 397  1174.232
 398  1096.452
 399  1152.345
 400  1323.619
 401  1466.365
 402  1200.658
 403  1012.314
 404  835.3011
 405  1015.643
 406  1202.545
 407  1423.132
 408  1338.206
 409  1264.739
 410  1222.322
 411  1200.076
 412  1005.089
 413  874.9399
 414  962.3977
 415  1059.559
 416  1153.496
 417  1151.414
 418  1110.677
 419  1002.839
 420  1164.448
 421  1272.253
 422  1397.46
 423  1380.232
 424  1364.325
 425  1252.301
 426  1282.348
 427  1225.484
 428  1249.431
 429  1266.394
 430  1285.38
 431  1283.716
 432  1217.556
 433  1196.89
 434  1160.67
 435  1134.96
 436  1274.308
 437  1425.677
 438  1395.686
 439  1321.586
 440  1308.508
 441  1274.016
 442  1156.675
 443  994.6261
 444  1109.392
 445  1189.67
 446  942.4277
 447  717.231
 448  767.5179
 449  945.9548
 450  1281.73
 451  1276.984
 452  1251.077
 453  1292.239
 454  1395.7
 455  1527.976
 456  1362.189
 457  1215.947
 458  1344.927
 459  1479.083
 460  1508.093
 461  1393.628
 462  1154.625
 463  1241.873
 464  1274.902
 465  1438.798
 466  1430.924
 467  1373.101
 468  1577.418
 469  1682.399
 470  1589.832
 471  1449.059
 472  1276.608
 473  1298.905
 474  1293.024
 475  1184.466
 476  1178.464
 477  1219.88
 478  1380.21
 479  1464.903
 480  1433.533
 481  1427.828
 482  1403.301
 483  1278.667
 484  1129.501
 485  1124.638
 486  1199.541
 487  1404.551
 488  1430.798
 489  1534.704
 490  1577.23
 491  1524.438
 492  1427.612
 493  1430.546
 494  1419.703
 495  1373.964
 496  1315.618
 497  1362.403
 498  1321.108
 499  1324.09
 500  1313.064
 501  1461.492
 502  1444.956
 503  1442.327
 504  1357.53
 505  1268.192
 506  1256.882
 507  1315.989
 508  1379.138
 509  1202.233
 510  1233.896
 511  1148.739
 512  1242.153
 513  1094.771
 514  1210.466
 515  1373.692
 516  1419.936
 517  1341.857
 518  1259.163
 519  1242.683
 520  1281.235
 521  1341.09
 522  1373.103
 523  1360.199
 524  1176.413
 525  1221.746
 526  1232.968
 527  1137.875
 528  1193.07
 529  1162.541
 530  1401.211
 531  1402.896
 532  1326.192
 533  1217.371
 534  1046.784
 535  1198.021
 536  1265.058
 537  1358.23
 538  1230.881
 539  1223.268
 540  1249.983
 541  1332.676
 542  1391.535
 543  1464.793
 544  1573.87
 545  1559.201
 546  1630.556
 547  1586.128
 548  1342.125
 549  1255.004
 550  1466.392
 551  1702.399
 552  1636.487
 553  1507.018
 554  1651.499
 555  1662.649
 556  1519.988
 557  1560.802
 558  1585.912
 559  1609.408
 560  1696.237
 561  1571.93
 562  1385.557
 563  1159.99
 564  1228.573
 565  1326.299
 566  1191.434
 567  1169.934
 568  1254.498
 569  1217.556
 570  1124.995
 571  968.2063
 572  1074.356
 573  1201.361
 574  1350.215
 575  1417.473
 576  1331.548
 577  1272.662
 578  1291.35
 579  1342.316
 580  1254.067
 581  1195.927
 582  1133.036
 583  1267.582
 584  1307.966
 585  1324.258
 586  1274.271
 587  1356.371
 588  1396.307
 589  1214.134
 590  1130.94
 591  1042.781
 592  1230.985
 593  1424.262
 594  1431.548
 595  1281.751
 596  1150.36
 597  1190.379
 598  1220.575
 599  1297.721
 600  1345.522
 601  1431.117
 602  1447.322
 603  1559.787
 604  1529.465
 605  1278.323
 606  1167.126
 607  1328.64
 608  1464.247
 609  1361.462
 610  1107.048
 611  1171.637
 612  1363.874
 613  1269.479
 614  1350.157
 615  1393.834
 616  1566.306
 617  1552.669
 618  1570.447
 619  1677.184
 620  1546.026
 621  1642.921
 622  1830.802
 623  1972.004
 624  1994.464
 625  1940.682
 626  1946.516
 627  1925.062
 628  1953.192
 629  2169.476
 630  2221.58
 631  2023.776
 632  1829.306
 633  1723.171
 634  1558.436
 635  1346.236
 636  1376.473
 637  1414.746
 638  1360.051
 639  1185.918
 640  1121.607
 641  1114.193
 642  1028.41
 643  1115.356
 644  1095.947
 645  1242.502
 646  1239.606
 647  1171.454
 648  1149.834
 649  1187.619
 650  1165.268
 651  1184.722
 652  1253.794
 653  1440.187
 654  1556.984
 655  1372.057
 656  1271.142
 657  1259.677
 658  1383.423
 659  1412.159
 660  1310.611
 661  1194.656
 662  1066.531
 663  1102.375
 664  1068.578
 665  1155.915
 666  1162.377
 667  1242.292
 668  1193.543
 669  1318.989
 670  1318.924
 671  1282.113
 672  1302.093
 673  1379.771
 674  1446.348
 675  1352.922
 676  1370.344
 677  1226.764
 678  1132.479
 679  1064.274
 680  1070.502
 681  885.6041
 682  731.9681
 683  794.4135
 684  996.0018
 685  1055.74
 686  1093.599
 687  1096.995
 688  1188.632
 689  1113.513
 690  1030.27
 691  786.9977
 692  830.2545
 693  782.5337
 694  1055.61
 695  1128.553
 696  1190.281
 697  1170.379
 698  1229.743
 699  1240.039
 700  1164.845
 701  1252.862
 702  1539.776
 703  1750.546
 704  1532.942
 705  1395.447
 706  1332.77
 707  1329.835
 708  1329.682
 709  1321.738
 710  1352.942
 711  1253.485
 712  1167.81
 713  1191.443
 714  1114.21
 715  1030.942
 716  1104.228
 717  1224.745
 718  1387.715
 719  1300.931
 720  1220.032
 721  1165.59
 722  1232.827
 723  1348.765
 724  1215.363
 725  1063.393
 726  1037.41
 727  1074.086
 728  999.412
 729  1014.983
 730  1079.277
 731  1311.079
 732  1460.556
 733  1439.801
 734  1403.285
 735  1431.672
 736  1528.601
 737  1503.289
 738  1313.11
 739  1174.974
 740  1132.338
 741  1308.199
 742  1365.096
 743  1391.919
 744  1351.667
 745  1529.867
 746  1365.762
 747  1227.803
 748  1047.311
 749  930.4294
 750  973.9468
 751  1089.702
 752  1204.114
 753  1209.46
 754  1204.055
 755  1224.702
 756  1097.878
 757  1095.833
 758  1090.132
 759  1139.564
 760  1234.28
 761  1232.759
 762  1139.93
 763  1067.813
 764  975.9713
 765  964.559
 766  975.4002
 767  1086.51
 768  1259.054
 769  1149.045
 770  1114.774
 771  958.5238
 772  887.1477
 773  1018.404
 774  1033.629
 775  1278.675
 776  1437.636
 777  1364.76
 778  1239.829
 779  1146.522
 780  1389.87
 781  1348.413
 782  1148.71
 783  1067.337
 784  1210.076
 785  1265.17
 786  1290.187
 787  1099.204
 788  1093.639
 789  1095.136
 790  1167.294
 791  1129.814
 792  1113.448
 793  1063.445
 794  1127.276
 795  998.9221
 796  941.9869
 797  899.0792
 798  931.1662
 799  1013.779
 800  970.6638
 801  1203.387
 802  1224.85
 803  1214.656
 804  1096.046
 805  1217.526
 806  1058.212
 807  1155.045
 808  1185.094
 809  1228.946
 810  1163.471
 811  945.6818
 812  1023.565
 813  1112.656
 814  1305.472
 815  1424.5
 816  1576.902
 817  1652.828
 818  1563.003
 819  1487.849
 820  1335.759
 821  1380.919
 822  1371.415
 823  1508.255
 824  1381.93
 825  1247.214
 826  1246.198
 827  1213.768
 828  1149.25
 829  1150.145
 830  1169.768
 831  1250.644
 832  1182.218
 833  1286.699
 834  1133.839
 835  996.3505
 836  900.366
 837  1140.959
 838  1303.592
 839  1182.778
 840  1078.292
 841  1101.414
 842  1129.185
 843  1157.779
 844  1102.165
 845  1194.972
 846  1266.084
 847  1251.122
 848  1140.224
 849  1148.607
 850  1266.969
 851  1423.752
 852  1238.78
 853  1158.748
 854  1162.014
 855  1220.717
 856  1086.747
 857  960.7868
 858  1199.843
 859  1347.125
 860  1196.729
 861  1151.498
 862  1182.63
 863  1072.058
 864  874.5624
 865  867.8307
 866  996.1378
 867  1113.642
 868  1022.464
 869  1198.833
 870  1271.372
 871  1245.843
 872  1237.776
 873  1246.806
 874  1290.28
 875  1184.748
 876  1103.605
 877  1102.392
 878  1023.75
 879  1130.556
 880  1299.872
 881  1373.474
 882  1344.378
 883  1309.2
 884  1169.956
 885  1067.607
 886  1158.741
 887  1231.505
 888  1423.862
 889  1320.889
 890  1338.481
 891  1252.807
 892  1145.391
 893  1178.26
 894  1203.5
 895  1277.295
 896  1285.869
 897  1175.329
 898  1164.508
 899  1114.013
 900  1100.214
 901  1034.175
 902  1124.272
 903  1113.229
 904  1204.583
 905  1254.12
 906  1268.141
 907  1220.328
 908  1145.362
 909  1220.824
 910  1201.21
 911  1266.888
 912  1348.82
 913  1324.541
 914  1244.601
 915  1219.11
 916  1214.431
 917  1323.075
 918  1319.99
 919  1330.936
 920  1238.15
 921  1085.939
 922  1075.602
 923  1120.941
 924  1364.005
 925  1379.413
 926  1505.198
 927  1490.634
 928  1358.25
 929  1179.843
 930  1031.105
 931  1070.248
 932  1093.056
 933  1093.828
 934  1118.008
 935  920.2141
 936  867.9427
 937  987.4453
 938  1140.222
 939  1237.525
 940  1126.924
 941  1149.505
 942  1064.357
 943  1023.201
 944  933.3814
 945  903.7338
 946  949.3942
 947  967.1985
 948  1052.936
 949  870.5751
 950  900.2488
 951  922.9607
 952  1128.861
 953  1013.304
 954  913.8871
 955  891.9647
 956  951.6507
 957  896.4097
 958  1002.364
 959  1164.198
 960  1329.353
 961  1433.462
 962  1401.717
 963  1417.994
 964  1224.419
 965  1183.846
 966  1261.138
 967  1265.741
 968  1092.031
 969  881.0929
 970  867.8288
 971  969.7023
 972  1076.382
 973  1154.465
 974  1248.523
 975  1206.603
 976  1347.871
 977  1258.914
 978  985.0266
 979  878.203
 980  975.4459
 981  1190.15
 982  1131
 983  1100.923
 984  1314.674
 985  1322.01
 986  1178.527
 987  932.1745
 988  973.4872
 989  1029.401
 990  1172.086
 991  1065.514
 992  1115.08
 993  914.1674
 994  717.0786
 995  707.3867
 996  787.4918
 997  931.463
 998  866.9595
 999  892.7584
1000  1027.217
1001  1138.237
1002  1220.751
1003  1094.659
1004  1111.937
1005  1156.203
1006  1197.815
1007  1064.948
1008  948.4221
1009  1001.251
1010  1053.156
1011  956.6221
1012  823.3342
1013  960.5754
1014  1240.012
1015  1415.467
1016  1366.455
1017  1380.62
1018  1314.769
1019  1199.273
1020  1129.977
1021  954.3412
1022  1012.101
1023  1135.17
