# Input file       =  1196120284.110461_cleaned.dat
# Candidate        =  PSR_0332+5434
# Telescope        =  AR
# Epoch_topo       =  58087.984989704411
# Epoch_bary       =  N/A
# T_sample         =  0.002
# Data Folded      =  7340032
# Data Avg         =  0.204172811632036
# Data StdDev      =  4.28210415491829 
# Profile Bins     =  1024
# Profile Avg      =  1463.5369936724  
# Profile StdDev   =  362.540245823686 
# Reduced chi-sqr  =  0.514
# Prob(Noise)      <  1   (~0.0 sigma)
# P_topo (ms)      =  714.526012699172  +/- 7.12e-05
# P'_topo (s/s)    =  -0                +/- 3.76e-11
# P''_topo (s/s^2) =  0                 +/- 1.66e-14
# P_bary (ms)      =  N/A
# P'_bary (s/s)    =  N/A
# P''_bary (s/s^2) =  N/A
# P_orb (s)        =  N/A
# asin(i)/c (s)    =  N/A
# eccentricity     =  N/A
# w (rad)          =  N/A
# T_peri           =  N/A
######################################################
   0  1357.279
   1  1233.614
   2  1337.62
   3  1396.524
   4  1350.815
   5  1381.329
   6  1349.421
   7  1353.264
   8  1395.783
   9  1431.721
  10  1491.95
  11  1558.132
  12  1541.651
  13  1656.415
  14  1542.973
  15  1473.4
  16  1438.234
  17  1369.597
  18  1454.572
  19  1407.34
  20  1626.758
  21  1621.959
  22  1548.468
  23  1575.092
  24  1736.543
  25  1612.426
  26  1408.266
  27  1272.661
  28  1327.443
  29  1461.734
  30  1420.958
  31  1324.264
  32  1359.235
  33  1269.481
  34  1404.133
  35  1390.672
  36  1519.463
  37  1588.613
  38  1685.232
  39  1665.487
  40  1471.308
  41  1299.539
  42  1277.805
  43  1200.385
  44  1293.505
  45  1231.218
  46  1274.217
  47  1350.414
  48  1399.536
  49  1285.149
  50  1319.468
  51  1426.802
  52  1517.845
  53  1431.14
  54  1494.077
  55  1537.036
  56  1576.668
  57  1490.338
  58  1550.796
  59  1490.521
  60  1427.539
  61  1268.043
  62  1218.133
  63  1230.913
  64  1246.543
  65  1428.903
  66  1447.863
  67  1507.806
  68  1495.473
  69  1580.842
  70  1648.51
  71  1597.555
  72  1683.72
  73  1647.673
  74  1643.681
  75  1530.719
  76  1472.18
  77  1403.629
  78  1336.454
  79  1393.47
  80  1493.781
  81  1608.693
  82  1516.079
  83  1469.947
  84  1412.717
  85  1441.917
  86  1523.601
  87  1650.48
  88  1772.872
  89  1792.381
  90  1523.559
  91  1404.344
  92  1319.711
  93  1326.596
  94  1421.748
  95  1553.674
  96  1672.53
  97  1597.656
  98  1459.262
  99  1530.427
 100  1577.536
 101  1556.881
 102  1600.276
 103  1547.038
 104  1562.218
 105  1486.867
 106  1490.871
 107  1513.566
 108  1529.192
 109  1545.877
 110  1505.799
 111  1538.339
 112  1606.625
 113  1786.233
 114  1706.861
 115  1658.599
 116  1625.161
 117  1655.339
 118  1596.572
 119  1452.989
 120  1455.916
 121  1536.543
 122  1593.961
 123  1583.07
 124  1627.073
 125  1667.633
 126  1515.577
 127  1418.404
 128  1450.98
 129  1565.789
 130  1715.842
 131  1742.609
 132  1611.767
 133  1415.98
 134  1345.599
 135  1344.599
 136  1270.259
 137  1275.938
 138  1371.734
 139  1474.864
 140  1532.814
 141  1532.858
 142  1481.758
 143  1424.746
 144  1463.556
 145  1493.797
 146  1610.571
 147  1516.849
 148  1434.477
 149  1268.377
 150  1362.436
 151  1472.434
 152  1484.296
 153  1333.727
 154  1400.406
 155  1527.503
 156  1627.105
 157  1716.503
 158  1658.456
 159  1649.567
 160  1409.142
 161  1280.151
 162  1231.204
 163  1339.01
 164  1474.549
 165  1601.709
 166  1620.203
 167  1636.451
 168  1627.657
 169  1583.919
 170  1621.23
 171  1537.792
 172  1529.697
 173  1425.073
 174  1412.866
 175  1380.655
 176  1344.875
 177  1303.533
 178  1283.304
 179  1215.117
 180  1256.614
 181  1443.507
 182  1656.23
 183  1651.733
 184  1481.657
 185  1424.843
 186  1370.262
 187  1346.568
 188  1449.612
 189  1504.367
 190  1658.439
 191  1605.227
 192  1525.437
 193  1508.013
 194  1403.513
 195  1405.074
 196  1421.956
 197  1399.689
 198  1531.341
 199  1614.632
 200  1542.959
 201  1318.552
 202  1220.641
 203  1376.738
 204  1435.027
 205  1375.421
 206  1481.177
 207  1481.583
 208  1530.474
 209  1476.48
 210  1522.948
 211  1379.895
 212  1391.672
 213  1304.819
 214  1319.936
 215  1249.495
 216  1318.082
 217  1525.463
 218  1556.624
 219  1505.527
 220  1437.477
 221  1372.611
 222  1275.218
 223  1207.666
 224  1311.794
 225  1396.777
 226  1476.404
 227  1562.826
 228  1659.828
 229  1625.35
 230  1653.87
 231  1551.731
 232  1477.886
 233  1414.079
 234  1392.578
 235  1504.868
 236  1575.353
 237  1735.922
 238  1659.146
 239  1592.247
 240  1497.734
 241  1445.465
 242  1414.272
 243  1490.927
 244  1469.029
 245  1519.552
 246  1460.226
 247  1511.692
 248  1446.73
 249  1356.825
 250  1314.292
 251  1337.554
 252  1183.118
 253  1151.774
 254  1113.097
 255  1367.338
 256  1519.379
 257  1597.152
 258  1550.472
 259  1422.011
 260  1437.491
 261  1582.597
 262  1548.752
 263  1557.087
 264  1543.691
 265  1599.798
 266  1628.664
 267  1683.972
 268  1757.605
 269  1710.445
 270  1584.728
 271  1523.641
 272  1571.285
 273  1565.585
 274  1647.157
 275  1581.265
 276  1580.959
 277  1434.4
 278  1273.111
 279  1294.004
 280  1373.55
 281  1506.499
 282  1621.512
 283  1598.568
 284  1645.617
 285  1606.815
 286  1562.4
 287  1647.499
 288  1572.273
 289  1497.84
 290  1402.127
 291  1311.225
 292  1295.935
 293  1264.437
 294  1418.833
 295  1607.155
 296  1647.458
 297  1579.746
 298  1510.383
 299  1371.291
 300  1457.611
 301  1534.735
 302  1677.186
 303  1630.151
 304  1587.672
 305  1565.862
 306  1456.093
 307  1321.162
 308  1401.458
 309  1427.87
 310  1518.308
 311  1503.319
 312  1616.31
 313  1476.436
 314  1463.221
 315  1520.8
 316  1585.841
 317  1552.471
 318  1599.576
 319  1469.446
 320  1335.21
 321  1123.32
 322  1057.658
 323  1225.595
 324  1214.897
 325  1320.382
 326  1229.369
 327  1305.309
 328  1321.688
 329  1400.259
 330  1507.042
 331  1535.345
 332  1545.167
 333  1514.494
 334  1416.373
 335  1331.558
 336  1353.249
 337  1369.147
 338  1328.011
 339  1522.419
 340  1479.241
 341  1440.556
 342  1323.877
 343  1337.002
 344  1412.513
 345  1354.358
 346  1451.911
 347  1421.841
 348  1406.565
 349  1486.697
 350  1498.004
 351  1512.129
 352  1581.04
 353  1560.237
 354  1530.243
 355  1467.334
 356  1479.902
 357  1580.323
 358  1548.663
 359  1529.163
 360  1481.7
 361  1394.252
 362  1260.413
 363  1152.846
 364  1175.658
 365  1255.179
 366  1369.211
 367  1421.561
 368  1416.836
 369  1325.26
 370  1417.148
 371  1457.869
 372  1522.83
 373  1546.855
 374  1593.87
 375  1712.575
 376  1680.747
 377  1529.37
 378  1488.27
 379  1443.755
 380  1532.059
 381  1521.028
 382  1641.779
 383  1613.525
 384  1510.971
 385  1321.1
 386  1252.227
 387  1350.175
 388  1512.424
 389  1689.336
 390  1587.064
 391  1523.356
 392  1352.922
 393  1326.494
 394  1389.69
 395  1515.898
 396  1659.634
 397  1638.211
 398  1511.077
 399  1327.535
 400  1295.214
 401  1502.962
 402  1588.652
 403  1616.374
 404  1646.75
 405  1816.181
 406  1821.705
 407  1696.45
 408  1516.906
 409  1488.989
 410  1481.159
 411  1493.548
 412  1516.602
 413  1526.689
 414  1474.748
 415  1306.342
 416  1228.22
 417  1330.737
 418  1431.545
 419  1507.303
 420  1565.287
 421  1567.034
 422  1481.41
 423  1296.115
 424  1225.672
 425  1353.093
 426  1321.77
 427  1476.733
 428  1465.117
 429  1543.559
 430  1506.175
 431  1443.146
 432  1431.784
 433  1432.677
 434  1354.265
 435  1309.717
 436  1224.454
 437  1319.972
 438  1460.452
 439  1599.926
 440  1578.706
 441  1491.72
 442  1402.544
 443  1400.306
 444  1304.533
 445  1300.656
 446  1526.468
 447  1674.443
 448  1763.56
 449  1588.176
 450  1464.121
 451  1420.356
 452  1635.059
 453  1735.34
 454  1749.472
 455  1723.6
 456  1674.195
 457  1728.41
 458  1505.975
 459  1546.64
 460  1533.283
 461  1691.197
 462  1640.85
 463  1433.899
 464  1464.115
 465  1429.413
 466  1554.23
 467  1580.613
 468  1465.223
 469  1510.747
 470  1540.061
 471  1647.106
 472  1654.761
 473  1588.441
 474  1616.594
 475  1695.363
 476  1659.188
 477  1594.28
 478  1438.991
 479  1445.187
 480  1408.083
 481  1392.246
 482  1481.477
 483  1463.914
 484  1501.542
 485  1510.747
 486  1521.527
 487  1382.195
 488  1356.155
 489  1385.87
 490  1471.088
 491  1450.168
 492  1347.115
 493  1326.35
 494  1338.866
 495  1541.208
 496  1491.013
 497  1437.048
 498  1333.192
 499  1410.878
 500  1547.036
 501  1566.399
 502  1557.318
 503  1619.611
 504  1739.218
 505  1700.626
 506  1539.883
 507  1465.094
 508  1503.252
 509  1582.409
 510  1449.965
 511  1484.921
 512  1447.129
 513  1424.328
 514  1352.872
 515  1233.49
 516  1512.314
 517  1610.781
 518  1743.248
 519  1755.305
 520  1602.747
 521  1512.84
 522  1409.719
 523  1460.332
 524  1434.578
 525  1509.505
 526  1588.454
 527  1671.495
 528  1524.553
 529  1545.647
 530  1457.376
 531  1375.717
 532  1354.578
 533  1312.099
 534  1397.994
 535  1428.484
 536  1489.179
 537  1570.55
 538  1472.359
 539  1349.001
 540  1435.632
 541  1382.637
 542  1453.415
 543  1373.529
 544  1438.429
 545  1348.875
 546  1406.09
 547  1591.1
 548  1625.757
 549  1481.498
 550  1289.434
 551  1280.4
 552  1322.247
 553  1379.092
 554  1434.667
 555  1459.086
 556  1558.09
 557  1450.071
 558  1299.717
 559  1222.29
 560  1481.409
 561  1672.336
 562  1590.074
 563  1385.275
 564  1449.949
 565  1562.524
 566  1580.776
 567  1431.737
 568  1423.92
 569  1315.88
 570  1293.259
 571  1298.663
 572  1477.376
 573  1598.886
 574  1482.121
 575  1503.928
 576  1506.199
 577  1384.754
 578  1206.844
 579  1252.753
 580  1420.26
 581  1534.574
 582  1491.67
 583  1566.955
 584  1589.965
 585  1725.711
 586  1669.846
 587  1653.621
 588  1509.724
 589  1479.529
 590  1454.539
 591  1486.497
 592  1410.335
 593  1405.175
 594  1479.292
 595  1441.214
 596  1458.804
 597  1646.722
 598  1739.59
 599  1713.018
 600  1622.458
 601  1516.752
 602  1471.756
 603  1372.255
 604  1419.359
 605  1523.544
 606  1426.278
 607  1432.248
 608  1262.599
 609  1332.467
 610  1310.758
 611  1440.505
 612  1600.617
 613  1762.008
 614  1827.871
 615  1730.927
 616  1560.318
 617  1432.792
 618  1536.328
 619  1612.364
 620  1633.375
 621  1582.611
 622  1622.875
 623  1676.315
 624  1723.668
 625  1875.564
 626  2044.087
 627  1960.208
 628  1973.948
 629  1883.238
 630  1949.602
 631  1866.068
 632  1812.33
 633  1776.847
 634  1527.337
 635  1342.053
 636  1310.409
 637  1391.306
 638  1417.702
 639  1402.171
 640  1478.715
 641  1471.331
 642  1348.253
 643  1323.797
 644  1428.038
 645  1441.498
 646  1464.846
 647  1459.563
 648  1477.999
 649  1394.268
 650  1307.515
 651  1322.064
 652  1365.837
 653  1301.803
 654  1205.649
 655  1165.917
 656  1257.346
 657  1435.172
 658  1612.485
 659  1556.781
 660  1366.158
 661  1266.588
 662  1302.832
 663  1295.863
 664  1255.85
 665  1309.46
 666  1243.403
 667  1280.498
 668  1255.817
 669  1443.598
 670  1506.008
 671  1520.129
 672  1490.323
 673  1503.059
 674  1534.91
 675  1602.396
 676  1593.891
 677  1458.203
 678  1283.447
 679  1140.263
 680  1285.538
 681  1418.973
 682  1568.975
 683  1690.157
 684  1631.5
 685  1437.665
 686  1332.13
 687  1354.601
 688  1351.053
 689  1323.528
 690  1449.294
 691  1584.135
 692  1436.733
 693  1532.692
 694  1517.014
 695  1532.078
 696  1537.79
 697  1494.579
 698  1525.421
 699  1478.531
 700  1530.245
 701  1530.24
 702  1517.274
 703  1433.364
 704  1524.209
 705  1489.8
 706  1584.255
 707  1561.126
 708  1579.204
 709  1614.7
 710  1594.594
 711  1577.258
 712  1484.012
 713  1284.718
 714  1213.5
 715  1250.818
 716  1331.186
 717  1400.234
 718  1387.006
 719  1399.61
 720  1389.782
 721  1312.23
 722  1340.216
 723  1288.39
 724  1293.484
 725  1364.613
 726  1514.162
 727  1496.449
 728  1425.559
 729  1291.019
 730  1297.965
 731  1232.221
 732  1364.698
 733  1452.396
 734  1478.264
 735  1422.66
 736  1447.122
 737  1455.967
 738  1367.929
 739  1220.451
 740  1415.088
 741  1371.574
 742  1267.986
 743  1167.934
 744  1260.759
 745  1305.065
 746  1358.901
 747  1527.897
 748  1655.268
 749  1519.599
 750  1327.578
 751  1227.43
 752  1296.841
 753  1430.126
 754  1404.914
 755  1418.252
 756  1392.282
 757  1494.195
 758  1459.502
 759  1518.191
 760  1553.271
 761  1585.259
 762  1573.969
 763  1661.421
 764  1732.914
 765  1644.366
 766  1595.772
 767  1574.532
 768  1535.59
 769  1547.873
 770  1500.75
 771  1463.047
 772  1421.483
 773  1424.288
 774  1620.577
 775  1552.268
 776  1653.45
 777  1648.54
 778  1648.445
 779  1656.428
 780  1565.103
 781  1631.933
 782  1699.345
 783  1715.362
 784  1583.016
 785  1427.493
 786  1272.87
 787  1457.869
 788  1547.985
 789  1613.139
 790  1543.333
 791  1492.079
 792  1392.626
 793  1329.366
 794  1401.833
 795  1588.22
 796  1589.337
 797  1623.975
 798  1664.59
 799  1549.871
 800  1435.407
 801  1384.691
 802  1365.264
 803  1379.965
 804  1430.508
 805  1450.264
 806  1472.64
 807  1469.371
 808  1474.718
 809  1424.391
 810  1462.854
 811  1505.352
 812  1505.144
 813  1376.929
 814  1335.254
 815  1343.202
 816  1461.85
 817  1407.045
 818  1464.267
 819  1486.078
 820  1523.957
 821  1497.232
 822  1399.795
 823  1426.847
 824  1405.389
 825  1432.672
 826  1401.653
 827  1294.928
 828  1171.951
 829  1201.53
 830  1264.813
 831  1433.978
 832  1414.026
 833  1474.453
 834  1512.311
 835  1316.362
 836  1259.785
 837  1372.949
 838  1433.219
 839  1432.716
 840  1281.612
 841  1242.177
 842  1150.809
 843  1264.467
 844  1414.245
 845  1545.738
 846  1460.247
 847  1511.594
 848  1450.698
 849  1464.938
 850  1339.886
 851  1320.813
 852  1397.188
 853  1311.825
 854  1336.23
 855  1331.519
 856  1307.613
 857  1256.102
 858  1343.453
 859  1474.675
 860  1655.685
 861  1779.189
 862  1773.207
 863  1585.163
 864  1410.442
 865  1352.286
 866  1220.589
 867  1097.877
 868  1126.197
 869  1196.652
 870  1323.32
 871  1215.951
 872  1176.722
 873  1239.685
 874  1343.526
 875  1354.835
 876  1491.978
 877  1397.779
 878  1384.36
 879  1330.774
 880  1469.066
 881  1461.055
 882  1279.655
 883  1229.674
 884  1324.545
 885  1304.185
 886  1287.872
 887  1246.882
 888  1310.67
 889  1330.425
 890  1314.431
 891  1461.938
 892  1527.202
 893  1408.964
 894  1374.839
 895  1284.476
 896  1324.571
 897  1257.505
 898  1201.373
 899  1160.989
 900  1132.643
 901  1232.514
 902  1411.519
 903  1559.478
 904  1689.519
 905  1689.671
 906  1552.31
 907  1420.943
 908  1495.236
 909  1518.677
 910  1419.368
 911  1232.611
 912  1253.559
 913  1356.537
 914  1278.088
 915  1282.02
 916  1200.617
 917  1395.811
 918  1390.004
 919  1416.198
 920  1338.99
 921  1327.881
 922  1337.425
 923  1357.578
 924  1299.227
 925  1453.624
 926  1448.676
 927  1516.488
 928  1375.083
 929  1220.272
 930  1289.095
 931  1319.305
 932  1389.119
 933  1541.371
 934  1563.263
 935  1638.032
 936  1412.284
 937  1244.635
 938  1278.365
 939  1373.246
 940  1386.708
 941  1426.481
 942  1411.43
 943  1560.032
 944  1576.41
 945  1557.103
 946  1536.815
 947  1432.303
 948  1462.809
 949  1485.611
 950  1423.007
 951  1472.319
 952  1423.374
 953  1368.316
 954  1401.736
 955  1466.009
 956  1563.915
 957  1581.969
 958  1531.32
 959  1600.842
 960  1654.703
 961  1682.821
 962  1725.286
 963  1517.538
 964  1533.583
 965  1484.621
 966  1521.552
 967  1576.398
 968  1547.15
 969  1446.016
 970  1440.114
 971  1390.825
 972  1451.993
 973  1465.962
 974  1688.718
 975  1871.951
 976  1819.663
 977  1867.004
 978  1758.43
 979  1618.87
 980  1557.723
 981  1581.785
 982  1585.669
 983  1471.959
 984  1580.278
 985  1564.655
 986  1553.414
 987  1487.422
 988  1576.894
 989  1510.744
 990  1534.248
 991  1549.602
 992  1498.159
 993  1462.399
 994  1440.77
 995  1538.852
 996  1434.476
 997  1349.257
 998  1370.818
 999  1462.402
1000  1368.761
1001  1094.575
1002  934.9152
1003  975.1512
1004  1103.208
1005  1285.541
1006  1450.188
1007  1404.192
1008  1323.434
1009  1118.001
1010  1122.237
1011  1302.965
1012  1474.343
1013  1554.133
1014  1525.131
1015  1484.801
1016  1364.732
1017  1370.147
1018  1217.593
1019  1162.569
1020  1129.978
1021  1401.38
1022  1606.148
1023  1519.733
