# Input file       =  1196378798.121901_cleaned.dat
# Candidate        =  PSR_0332+5434
# Telescope        =  AR
# Epoch_topo       =  58090.977050022004
# Epoch_bary       =  N/A
# T_sample         =  0.002
# Data Folded      =  7340032
# Data Avg         =  0.132777390277104
# Data StdDev      =  4.92943722806543 
# Profile Bins     =  512
# Profile Avg      =  1903.46703787045 
# Profile StdDev   =  590.216486944943 
# Reduced chi-sqr  =  0.549
# Prob(Noise)      <  1   (~0.0 sigma)
# P_topo (ms)      =  714.529091540747  +/- 0.000873
# P'_topo (s/s)    =  -0                +/- 4.61e-10
# P''_topo (s/s^2) =  0                 +/- 2.03e-13
# P_bary (ms)      =  N/A
# P'_bary (s/s)    =  N/A
# P''_bary (s/s^2) =  N/A
# P_orb (s)        =  N/A
# asin(i)/c (s)    =  N/A
# eccentricity     =  N/A
# w (rad)          =  N/A
# T_peri           =  N/A
######################################################
   0  1577.637
   1  1283.71
   2  1337.441
   3  1654.103
   4  1593.306
   5  1530.112
   6  1732.882
   7  2017.583
   8  1664.019
   9  1232.787
  10  1199.346
  11  1421.683
  12  1721.855
  13  1789.984
  14  1323.429
  15  1459.202
  16  1543.553
  17  1337.287
  18  1034.055
  19  1501.11
  20  1460.209
  21  1352.63
  22  1290.451
  23  1591.017
  24  1938.159
  25  1663.314
  26  1963.996
  27  1677.501
  28  1442.938
  29  1578.607
  30  2125.56
  31  1715.726
  32  1740.581
  33  1628.952
  34  1573.71
  35  1957.23
  36  1580.96
  37  1611.338
  38  1952.796
  39  1777.053
  40  2073.566
  41  2080.003
  42  2025.644
  43  1874.322
  44  1730.867
  45  1989.398
  46  1918.014
  47  1660.509
  48  1701.101
  49  1910.344
  50  1646.833
  51  1633.7
  52  1911.578
  53  1437.906
  54  1186.591
  55  1777.671
  56  2167.366
  57  2058.054
  58  2225.026
  59  1879.176
  60  1365.422
  61  1624.088
  62  2011.574
  63  1847.216
  64  1239.661
  65  1813.059
  66  1664.851
  67  1489.759
  68  1487.55
  69  1531.423
  70  1220.902
  71  1258.403
  72  1563.273
  73  1879.992
  74  1449.167
  75  1582.348
  76  1574.653
  77  1399.165
  78  1739.187
  79  2377.924
  80  2020.352
  81  2093.606
  82  2118.695
  83  1924.464
  84  1481.397
  85  1929.098
  86  2058.524
  87  2001.717
  88  1985.307
  89  1815.636
  90  1888.585
  91  1746.233
  92  1828.336
  93  2340.288
  94  2262.741
  95  2264.176
  96  2038.722
  97  2443.531
  98  2413.957
  99  1626.902
 100  1450.587
 101  1734.527
 102  1878.423
 103  1445.919
 104  1336.952
 105  1420.629
 106  1714.272
 107  1832.246
 108  1928.988
 109  1814.867
 110  1615.335
 111  1713.012
 112  2162.78
 113  2249.883
 114  2454.962
 115  2494.695
 116  2515.021
 117  1806.808
 118  1478.871
 119  2043.563
 120  1604.813
 121  1876.817
 122  2115.886
 123  2000.683
 124  1711.835
 125  1382.598
 126  1741.399
 127  1906.393
 128  1856.697
 129  2208.862
 130  2297.545
 131  1743.531
 132  1870.842
 133  2162.026
 134  2154.347
 135  2363.675
 136  2145.484
 137  2357.107
 138  2269.132
 139  2260.367
 140  2089.773
 141  2216.78
 142  1993.107
 143  1936.853
 144  2436.23
 145  2170.312
 146  2294.583
 147  2371.296
 148  2308.245
 149  2223.528
 150  1922.498
 151  1882.649
 152  2229.104
 153  2198.613
 154  2149.73
 155  2274.663
 156  2124.946
 157  2206.397
 158  2407.759
 159  2380.504
 160  2260.258
 161  2239.883
 162  2139.034
 163  1845.592
 164  2093.649
 165  2349.986
 166  2165.389
 167  2268.217
 168  2335.537
 169  2117.491
 170  2438.512
 171  2728.672
 172  2335.575
 173  2134.034
 174  2133.707
 175  2065.957
 176  2077.648
 177  1937.286
 178  2165.333
 179  1654.01
 180  1846.704
 181  1982.122
 182  1816.293
 183  2082.126
 184  1441.126
 185  1588.354
 186  2053.537
 187  2188.257
 188  2040.914
 189  1505.966
 190  2136.299
 191  1974.469
 192  1721.291
 193  1710.86
 194  1753.82
 195  1673.008
 196  1768.543
 197  1986.402
 198  2082.379
 199  1866.219
 200  1569.649
 201  1776.742
 202  2459.955
 203  1824.812
 204  1778.475
 205  1808.998
 206  1699.232
 207  1890.737
 208  1689.568
 209  1732.207
 210  1600.77
 211  2105.442
 212  2503.132
 213  2137.137
 214  2021.907
 215  2171.913
 216  2096.451
 217  1932.93
 218  2036.018
 219  2084.024
 220  1945.937
 221  2076.435
 222  2343.117
 223  1895.497
 224  1430.385
 225  1882.791
 226  2254.016
 227  2358.034
 228  1925.46
 229  2166.755
 230  2462.772
 231  1949.191
 232  1693.435
 233  1651.908
 234  2271.053
 235  2256.471
 236  2007.973
 237  2426.909
 238  2403.069
 239  2056.48
 240  1995.877
 241  2349.835
 242  2200.085
 243  2105.04
 244  2011.149
 245  2137.415
 246  1761.141
 247  2004.445
 248  1966.497
 249  1951.504
 250  2172.183
 251  2028.802
 252  2054.452
 253  1763.739
 254  1618.544
 255  1559.209
 256  1759.7
 257  1865.641
 258  1872.638
 259  1498.784
 260  1652.692
 261  1320.189
 262  1940.01
 263  1782.599
 264  2130.341
 265  2068.232
 266  1746.417
 267  1746.912
 268  1487.211
 269  1877.789
 270  2061.076
 271  1976.11
 272  2059.799
 273  2200.805
 274  2219.257
 275  2147.77
 276  2246.793
 277  1931.597
 278  1579.081
 279  1587.065
 280  1593.323
 281  1387.794
 282  1429.33
 283  1720.85
 284  2173.038
 285  2318.716
 286  2275.391
 287  2418.702
 288  2161.304
 289  1853.422
 290  2026.622
 291  2006.606
 292  2204.097
 293  2446.104
 294  2161.4
 295  2013.956
 296  2226.357
 297  2499.651
 298  2149.965
 299  2264.939
 300  2314.355
 301  2408.917
 302  2131.776
 303  2117.515
 304  1857.759
 305  2030.423
 306  2293.823
 307  1986.554
 308  1689.021
 309  2134.11
 310  2263.546
 311  2258.781
 312  2641.346
 313  3022.814
 314  3034.452
 315  2528.767
 316  2218.995
 317  1903.526
 318  1806.012
 319  1735.134
 320  1878.32
 321  2144.334
 322  2334.871
 323  2029.974
 324  1327.871
 325  1397.489
 326  1999.209
 327  1596.674
 328  1476.448
 329  2210.697
 330  2104.025
 331  2197.883
 332  1724.505
 333  1722.903
 334  1528.065
 335  1248.761
 336  1056.168
 337  1252.787
 338  2038.014
 339  1727.406
 340  1231.119
 341  1644.701
 342  1646.001
 343  1702.322
 344  1454.125
 345  1462.697
 346  1858.275
 347  1662.064
 348  1719.444
 349  1750.219
 350  1716.165
 351  1603.699
 352  1960.201
 353  1857.98
 354  1933.844
 355  2090.442
 356  2082.15
 357  1976.841
 358  1868.676
 359  1937.446
 360  1951.622
 361  1948.464
 362  2336.573
 363  2294.217
 364  2036.788
 365  2230.135
 366  2291.703
 367  2022.615
 368  1933.031
 369  1877.393
 370  1846.562
 371  1789.092
 372  2003.381
 373  1924.455
 374  1898.617
 375  1631.351
 376  1458.443
 377  1356.674
 378  1451.249
 379  1241.491
 380  1552.202
 381  1960.838
 382  2176.102
 383  2055.73
 384  1109.748
 385  1325.896
 386  1552.985
 387  1490.65
 388  1681.916
 389  2048.717
 390  2017.122
 391  1580.717
 392  1515.556
 393  1444.905
 394  1417.28
 395  1579.483
 396  1780.5
 397  1941.442
 398  1843.588
 399  1919.701
 400  1847.854
 401  2130.383
 402  2148.201
 403  1889.878
 404  1796.21
 405  1855.573
 406  2242.425
 407  2033.859
 408  1709.991
 409  1890.757
 410  2221.541
 411  2130.449
 412  2360.371
 413  2592.431
 414  2447.367
 415  2578.736
 416  2402.413
 417  2543.714
 418  2147.109
 419  1873.589
 420  2059.098
 421  1945.139
 422  2061.589
 423  2026.811
 424  2301.725
 425  2103.503
 426  1990.771
 427  1606.031
 428  1481.704
 429  1565.369
 430  1585.248
 431  1620.711
 432  1957.33
 433  1890.517
 434  1778.057
 435  1841.56
 436  1891.642
 437  1873.068
 438  2085.563
 439  2230.447
 440  2243.203
 441  2018.031
 442  2502.131
 443  2209.178
 444  1997.223
 445  1822.519
 446  1879.979
 447  1874.793
 448  1548.391
 449  1477.985
 450  1424.085
 451  1766.214
 452  1908.022
 453  1716.595
 454  1978.458
 455  2163.408
 456  2274.73
 457  2083.559
 458  1960.678
 459  1836.63
 460  2043.998
 461  1761.546
 462  2057.787
 463  1826.484
 464  1690.157
 465  1675.694
 466  2116.947
 467  2002.447
 468  1817.005
 469  1639.451
 470  1988.314
 471  1975.612
 472  1713.588
 473  1896.544
 474  2296.107
 475  2457.732
 476  2150.523
 477  2247.825
 478  2025.934
 479  1926.18
 480  1577.03
 481  1401.07
 482  1835.263
 483  1755.285
 484  1843.418
 485  2027.989
 486  1734.155
 487  1709.9
 488  1538.325
 489  1164.981
 490  1259.643
 491  1616.42
 492  1680.668
 493  1832.042
 494  2075.396
 495  2118.599
 496  1914.265
 497  1959.892
 498  2064.895
 499  1914.186
 500  1804.222
 501  2180.211
 502  2045.036
 503  1957.311
 504  1657.451
 505  1990.273
 506  1897.08
 507  1578.475
 508  1678.814
 509  1826.585
 510  1742.932
 511  1747.977
