# Input file       =  1196722911.118757_cleaned.dat
# Candidate        =  PSR_0332+5434
# Telescope        =  AR
# Epoch_topo       =  58094.959839337469
# Epoch_bary       =  N/A
# T_sample         =  0.002
# Data Folded      =  7340032
# Data Avg         =  0.115467819383152
# Data StdDev      =  3.43032292950382 
# Profile Bins     =  1024
# Profile Avg      =  827.752834313718 
# Profile StdDev   =  290.425004419509 
# Reduced chi-sqr  =  0.631
# Prob(Noise)      <  1   (~0.0 sigma)
# P_topo (ms)      =  714.533153377017  +/- 0.00256
# P'_topo (s/s)    =  -0                +/- 1.35e-09
# P''_topo (s/s^2) =  0                 +/- 5.97e-13
# P_bary (ms)      =  N/A
# P'_bary (s/s)    =  N/A
# P''_bary (s/s^2) =  N/A
# P_orb (s)        =  N/A
# asin(i)/c (s)    =  N/A
# eccentricity     =  N/A
# w (rad)          =  N/A
# T_peri           =  N/A
######################################################
   0  1028.853
   1  819.5797
   2  821.1008
   3  819.4838
   4  944.2061
   5  921.9666
   6  947.0454
   7  839.6992
   8  825.98
   9  811.5016
  10  773.1104
  11  927.9089
  12  875.2177
  13  878.5971
  14  720.8613
  15  774.0859
  16  954.8421
  17  1010.769
  18  1052.758
  19  903.1183
  20  865.5396
  21  695.4696
  22  637.7588
  23  715.5364
  24  888.8979
  25  913.0179
  26  931.3269
  27  875.6287
  28  817.6055
  29  845.7986
  30  907.4395
  31  886.3539
  32  777.9459
  33  675.6959
  34  738.401
  35  722.233
  36  637.4523
  37  616.433
  38  645.7906
  39  706.7813
  40  715.5988
  41  813.5694
  42  859.2778
  43  921.215
  44  878.2529
  45  941.8096
  46  971.8636
  47  970.6998
  48  960.2897
  49  984.4819
  50  1059.018
  51  1004.545
  52  980.9564
  53  937.8209
  54  851.1113
  55  720.7383
  56  763.0936
  57  735.5788
  58  685.3207
  59  598.572
  60  612.9713
  61  715.0466
  62  758.1992
  63  892.501
  64  1021.552
  65  959.4101
  66  930.5526
  67  826.8184
  68  985.1411
  69  974.2494
  70  909.3764
  71  772.1038
  72  784.7552
  73  758.1819
  74  742.9786
  75  727.5153
  76  667.554
  77  667.0084
  78  590.3732
  79  627.4549
  80  640.8159
  81  717.0041
  82  739.3421
  83  730.0184
  84  820.4741
  85  887.6703
  86  927.215
  87  884.5417
  88  1019.756
  89  1077.165
  90  982.4997
  91  783.7154
  92  744.5665
  93  893.1113
  94  936.4638
  95  761.6635
  96  679.1067
  97  651.0566
  98  857.1398
  99  976.14
 100  987.0259
 101  888.0547
 102  765.5566
 103  833.7079
 104  791.9981
 105  762.4327
 106  814.1247
 107  896.8192
 108  969.7469
 109  930.4617
 110  840.1696
 111  754.7273
 112  685.1644
 113  710.9202
 114  869.1088
 115  998.3546
 116  1035.443
 117  1011.547
 118  1022.926
 119  1010.771
 120  844.9222
 121  817.0953
 122  846.1124
 123  831.9827
 124  825.6762
 125  744.4341
 126  754.4206
 127  841.7715
 128  876.3748
 129  944.2828
 130  1046.954
 131  1060.763
 132  1019.656
 133  740.0563
 134  581.868
 135  487.3662
 136  571.8448
 137  660.9717
 138  692.3309
 139  761.149
 140  805.7274
 141  870.3681
 142  823.973
 143  828.8036
 144  812.6154
 145  857.0185
 146  793.848
 147  704.1941
 148  798.3457
 149  986.3229
 150  1010.57
 151  900.3682
 152  808.1856
 153  844.2524
 154  901.5362
 155  778.5406
 156  787.676
 157  806.3646
 158  755.4071
 159  573.108
 160  441.9221
 161  441.9878
 162  583.5449
 163  777.0042
 164  999.9156
 165  1149.962
 166  1053.704
 167  972.8523
 168  881.0435
 169  839.0435
 170  755.1768
 171  646.164
 172  715.5123
 173  791.7424
 174  881.7334
 175  785.8836
 176  849.2605
 177  949.9398
 178  1010.788
 179  944.9142
 180  850.0704
 181  756.6066
 182  771.3622
 183  797.0876
 184  763.0144
 185  725.9011
 186  775.5067
 187  907.5743
 188  900.7663
 189  900.1134
 190  979.2539
 191  980.7996
 192  1027.197
 193  1005.655
 194  1042.116
 195  1042.012
 196  906.7261
 197  859.4782
 198  858.8642
 199  965.2351
 200  876.7053
 201  938.1724
 202  972.4064
 203  926.8419
 204  752.8959
 205  659.1804
 206  751.5695
 207  811.6035
 208  872.4958
 209  876.8667
 210  834.0095
 211  866.7793
 212  897.6594
 213  884.683
 214  710.7961
 215  629.9308
 216  730.152
 217  813.7606
 218  830.9994
 219  823.0015
 220  835.9635
 221  803.6946
 222  840.513
 223  936.014
 224  1019.462
 225  979.4304
 226  947.8657
 227  859.6557
 228  771.9514
 229  709.709
 230  761.9473
 231  866.1426
 232  855.2941
 233  805.7036
 234  811.5462
 235  803.2611
 236  795.1195
 237  828.8881
 238  927.9999
 239  777.1493
 240  712.8763
 241  669.6476
 242  860.5482
 243  817.6359
 244  759.608
 245  650.322
 246  745.1153
 247  786.9843
 248  840.6551
 249  831.9672
 250  892.0106
 251  1010.057
 252  1072.526
 253  1060.548
 254  900.8187
 255  932.9692
 256  932.7159
 257  892.4501
 258  721.645
 259  743.502
 260  879.85
 261  891.7001
 262  942.3628
 263  918.4751
 264  863.8699
 265  753.1385
 266  722.9967
 267  777.1738
 268  824.9426
 269  896.8583
 270  932.4741
 271  852.5901
 272  829.9279
 273  837.7245
 274  747.7554
 275  731.2632
 276  716.2652
 277  753.1019
 278  724.4804
 279  826.5569
 280  936.7156
 281  972.3707
 282  795.3667
 283  745.7819
 284  750.6944
 285  898.7236
 286  874.4506
 287  853.8188
 288  880.3253
 289  912.394
 290  937.9124
 291  976.8679
 292  997.6744
 293  968.2526
 294  929.576
 295  850.3787
 296  779.7869
 297  741.8602
 298  748.2387
 299  752.8398
 300  755.8896
 301  846.1831
 302  907.8317
 303  925.788
 304  922.0739
 305  1036.139
 306  940.3624
 307  864.5673
 308  755.0751
 309  806.9559
 310  822.6738
 311  763.4116
 312  673.7788
 313  674.0292
 314  750.5408
 315  761.7338
 316  765.054
 317  718.1195
 318  834.5413
 319  837.3569
 320  830.3142
 321  859.4294
 322  809.3444
 323  797.8301
 324  748.9086
 325  801.6436
 326  868.2726
 327  932.111
 328  883.3815
 329  761.4987
 330  697.9204
 331  734.1868
 332  797.2407
 333  838.1139
 334  854.0684
 335  963.1357
 336  1007.533
 337  1052.977
 338  1028.478
 339  846.9317
 340  841.3721
 341  857.414
 342  942.3228
 343  940.0046
 344  937.0752
 345  995.2819
 346  920.5778
 347  871.3918
 348  816.4872
 349  835.1369
 350  895.6053
 351  837.0629
 352  696.9937
 353  713.8289
 354  704.3476
 355  811.4597
 356  865.1144
 357  946.6182
 358  924.7683
 359  785.6503
 360  699.2796
 361  675.4002
 362  846.7576
 363  959.9029
 364  936.8783
 365  846.7337
 366  811.4929
 367  809.3773
 368  764.5687
 369  659.1987
 370  639.0615
 371  642.8088
 372  775.5459
 373  837.5142
 374  834.0302
 375  821.7842
 376  903.0172
 377  939.9905
 378  842.5573
 379  761.2584
 380  883.9929
 381  986.087
 382  967.6227
 383  930.4965
 384  880.5969
 385  853.8785
 386  814.2633
 387  916.1559
 388  906.5892
 389  819.1219
 390  821.339
 391  784.001
 392  822.6946
 393  851.3046
 394  913.8373
 395  935.4814
 396  892.6576
 397  945.009
 398  860.2478
 399  731.8022
 400  692.759
 401  725.4217
 402  764.6899
 403  685.449
 404  677.6599
 405  626.2153
 406  745.9337
 407  809.2076
 408  857.1541
 409  864.1126
 410  960.0452
 411  1064.893
 412  1048.555
 413  873.8636
 414  871.0941
 415  985.6243
 416  1025.115
 417  895.5242
 418  813.0673
 419  786.3726
 420  757.3058
 421  713.4349
 422  814.0703
 423  888.7808
 424  917.1819
 425  889.2543
 426  798.9178
 427  794.941
 428  763.1993
 429  738.4963
 430  671.1259
 431  647.5316
 432  701.6379
 433  631.4088
 434  673.2656
 435  731.4628
 436  881.5148
 437  852.1948
 438  777.1219
 439  826.281
 440  915.1392
 441  1047.646
 442  1019.47
 443  927.753
 444  884.2327
 445  750.918
 446  645.402
 447  633.9246
 448  802.4504
 449  930.4966
 450  926.3051
 451  947.033
 452  928.4833
 453  923.5283
 454  783.1266
 455  761.7469
 456  747.0861
 457  659.842
 458  637.8762
 459  643.8104
 460  782.0579
 461  801.2847
 462  885.4458
 463  899.3676
 464  899.5407
 465  861.4758
 466  738.2566
 467  646.9576
 468  690.8085
 469  811.4544
 470  857.2696
 471  827.2497
 472  771.5807
 473  761.955
 474  707.3491
 475  727.2929
 476  628.4836
 477  675.8115
 478  603.4185
 479  690.31
 480  805.8204
 481  929.1456
 482  802.8934
 483  603.0648
 484  645.5902
 485  845.3665
 486  970.9628
 487  885.3055
 488  750.423
 489  687.9473
 490  688.5054
 491  734.0789
 492  754.0222
 493  834.2512
 494  875.1409
 495  891.3324
 496  893.4285
 497  1033.4
 498  996.0652
 499  848.6292
 500  686.141
 501  758.9409
 502  829.7802
 503  919.9396
 504  1002.321
 505  1016.413
 506  1000.058
 507  967.0143
 508  953.4398
 509  926.7784
 510  789.8752
 511  706.5248
 512  662.5543
 513  718.3175
 514  712.7452
 515  686.66
 516  687.0386
 517  866.3498
 518  802.321
 519  818.2637
 520  833.97
 521  846.1945
 522  777.8879
 523  739.5974
 524  696.5147
 525  627.5896
 526  479.0616
 527  566.1846
 528  760.7517
 529  858.3934
 530  824.8082
 531  760.9098
 532  724.9833
 533  625.0048
 534  631.4402
 535  648.4449
 536  570.3666
 537  499.5477
 538  656.2053
 539  932.5853
 540  854.6385
 541  770.5632
 542  727.475
 543  845.8494
 544  852.6525
 545  832.2238
 546  865.7107
 547  792.0019
 548  622.1393
 549  546.1891
 550  616.7344
 551  676.8542
 552  724.9625
 553  745.8606
 554  921.6254
 555  842.2455
 556  754.3915
 557  620.0992
 558  755.8794
 559  778.1766
 560  705.5297
 561  524.1594
 562  564.2133
 563  755.2115
 564  897.2945
 565  890.4757
 566  754.3906
 567  680.9827
 568  780.8136
 569  895.7497
 570  964.3085
 571  982.16
 572  941.5301
 573  844.8764
 574  793.6713
 575  849.0311
 576  872.7667
 577  757.04
 578  813.491
 579  906.1691
 580  918.2037
 581  810.4853
 582  666.6073
 583  674.3078
 584  632.0493
 585  645.3858
 586  728.6668
 587  792.4958
 588  858.0657
 589  767.1481
 590  778.9819
 591  755.5576
 592  708.4032
 593  743.0048
 594  795.4608
 595  906.5478
 596  950.9208
 597  829.2955
 598  804.6681
 599  811.4948
 600  911.2293
 601  930.1123
 602  1075.663
 603  1031.259
 604  836.9385
 605  755.4099
 606  846.4504
 607  900.6366
 608  808.4115
 609  759.3223
 610  729.1246
 611  691.1374
 612  669.0522
 613  716.0183
 614  788.4783
 615  812.7263
 616  932.3826
 617  1137.079
 618  1216.189
 619  1212.585
 620  1122.443
 621  1141.106
 622  1191.605
 623  1354.884
 624  1482.703
 625  1457.074
 626  1343.384
 627  1193.15
 628  1268.499
 629  1241.664
 630  1163.623
 631  1069.956
 632  1043.668
 633  1036.341
 634  1020.69
 635  1027.643
 636  941.652
 637  784.2673
 638  704.4003
 639  677.4958
 640  740.8784
 641  761.5302
 642  878.781
 643  992.2762
 644  1033.694
 645  1029.473
 646  836.0499
 647  727.834
 648  686.9971
 649  740.5673
 650  784.6385
 651  874.6907
 652  889.8761
 653  938.3986
 654  913.7743
 655  983.4993
 656  927.7838
 657  822.7617
 658  792.4992
 659  709.9784
 660  696.1763
 661  731.4268
 662  738.2162
 663  841.4766
 664  864.0445
 665  859.6594
 666  774.8307
 667  676.4913
 668  660.1335
 669  657.0259
 670  789.2909
 671  948.0826
 672  854.4296
 673  605.3278
 674  429.4861
 675  485.9933
 676  519.335
 677  552.7021
 678  641.9835
 679  845.2148
 680  877.5819
 681  826.1111
 682  831.0289
 683  957.5903
 684  996.5121
 685  955.8101
 686  924.3195
 687  846.4636
 688  763.0447
 689  647.5764
 690  550.8785
 691  574.0803
 692  714.6869
 693  916.2603
 694  871.4304
 695  834.7876
 696  724.748
 697  664.02
 698  622.4096
 699  602.284
 700  694.9749
 701  771.8855
 702  889.1216
 703  817.1383
 704  800.8699
 705  721.3719
 706  771.6186
 707  836.5785
 708  899.1235
 709  783.1623
 710  785.5154
 711  810.8161
 712  787.045
 713  753.4149
 714  738.5209
 715  769.4963
 716  674.3174
 717  688.2274
 718  776.0844
 719  819.5078
 720  900.4393
 721  810.3117
 722  817.2937
 723  795.7479
 724  931.3533
 725  892.3318
 726  849.4653
 727  720.9238
 728  731.9154
 729  695.5319
 730  747.0067
 731  802.0296
 732  870.3706
 733  908.0758
 734  820.921
 735  764.6425
 736  718.5509
 737  785.4642
 738  822.4791
 739  810.2358
 740  775.3641
 741  775.4745
 742  807.2978
 743  884.6189
 744  853.2754
 745  833.3026
 746  691.4263
 747  732.9099
 748  822.7804
 749  959.8419
 750  932.4189
 751  1011.05
 752  1030.996
 753  971.6537
 754  823.7057
 755  748.5491
 756  747.0759
 757  732.7232
 758  822.87
 759  837.3552
 760  942.9888
 761  806.1774
 762  918.2128
 763  956.4141
 764  1040.244
 765  1008.203
 766  971.0615
 767  1008.577
 768  954.9172
 769  865.2123
 770  772.2413
 771  694.2964
 772  658.3987
 773  702.3374
 774  696.5685
 775  738.0321
 776  765.0028
 777  799.9965
 778  888.2578
 779  909.2456
 780  978.4
 781  920.4297
 782  887.5453
 783  799.2173
 784  753.8329
 785  756.9125
 786  854.3342
 787  862.144
 788  802.0883
 789  732.1813
 790  721.6
 791  671.1568
 792  639.2678
 793  633.6674
 794  723.4465
 795  812.9911
 796  844.7069
 797  726.3922
 798  736.1392
 799  695.5267
 800  692.6298
 801  712.0812
 802  797.7241
 803  887.738
 804  837.3831
 805  871.8913
 806  794.9178
 807  778.2458
 808  681.0963
 809  753.5001
 810  721.4705
 811  760.1714
 812  857.983
 813  872.6606
 814  854.9825
 815  776.1115
 816  833.2027
 817  801.7551
 818  645.1831
 819  633.6085
 820  645.9764
 821  674.7327
 822  816.1887
 823  911.0762
 824  998.8334
 825  999.9529
 826  932.6027
 827  794.0811
 828  629.5588
 829  725.9744
 830  773.0986
 831  691.1563
 832  613.2997
 833  631.5967
 834  829.4766
 835  893.6708
 836  905.6754
 837  864.2792
 838  820.189
 839  793.5811
 840  710.2676
 841  719.4234
 842  688.8745
 843  716.0653
 844  767.3581
 845  836.2735
 846  783.1948
 847  705.6526
 848  769.9231
 849  889.5541
 850  971.7513
 851  949.42
 852  939.4852
 853  918.8752
 854  869.8386
 855  884.4592
 856  918.8344
 857  888.7458
 858  824.2983
 859  803.6334
 860  898.0959
 861  923.6652
 862  1024.181
 863  905.835
 864  983.4325
 865  860.233
 866  908.0561
 867  835.1613
 868  771.0458
 869  697.0026
 870  760.3663
 871  829.728
 872  761.3574
 873  664.2787
 874  690.2084
 875  782.0532
 876  673.8769
 877  662.1925
 878  712.1527
 879  711.1823
 880  720.062
 881  714.0508
 882  771.7401
 883  664.9882
 884  658.3969
 885  639.8472
 886  649.0313
 887  537.494
 888  641.6854
 889  811.9285
 890  898.8202
 891  832.5881
 892  776.2214
 893  715.42
 894  689.201
 895  781.3132
 896  883.9377
 897  799.3469
 898  722.8419
 899  831.3362
 900  884.4642
 901  878.4221
 902  713.2212
 903  690.2242
 904  627.5107
 905  627.7675
 906  678.4507
 907  708.9919
 908  708.1894
 909  750.2161
 910  766.1008
 911  847.3681
 912  831.5488
 913  851.7897
 914  898.3128
 915  882.7069
 916  865.5684
 917  712.0559
 918  631.3947
 919  686.0358
 920  794.5218
 921  806.7335
 922  811.2787
 923  748.9105
 924  834.1226
 925  897.3695
 926  873.4004
 927  841.7579
 928  836.2952
 929  967.1857
 930  925.2211
 931  885.2996
 932  711.1641
 933  697.4557
 934  689.9056
 935  744.5244
 936  745.1534
 937  806.4379
 938  924.0999
 939  991.645
 940  978.265
 941  983.5986
 942  1008.318
 943  1001.943
 944  868.5948
 945  835.5435
 946  828.0488
 947  751.1036
 948  666.0407
 949  817.4893
 950  938.4241
 951  974.4661
 952  967.1604
 953  1033.146
 954  935.2646
 955  834.6546
 956  747.1542
 957  918.3375
 958  981.9454
 959  956.7147
 960  845.7585
 961  855.4294
 962  873.149
 963  840.6456
 964  825.1913
 965  735.2811
 966  754.9771
 967  818.3705
 968  987.9407
 969  980.5001
 970  978.8912
 971  958.2386
 972  1030.248
 973  1007.409
 974  954.6392
 975  977.1872
 976  1070.642
 977  1144.309
 978  1118.768
 979  1010.286
 980  849.9943
 981  853.6853
 982  974.2145
 983  1037.55
 984  956.4522
 985  964.5956
 986  863.0797
 987  880.3363
 988  860.712
 989  854.2172
 990  748.3503
 991  593.2925
 992  594.4825
 993  628.3322
 994  691.5511
 995  702.0454
 996  850.5504
 997  1022.094
 998  1099.768
 999  1138.148
1000  1115.075
1001  986.2639
1002  774.889
1003  815.5639
1004  1005.204
1005  1056.802
1006  980.2665
1007  872.082
1008  917.1816
1009  916.9001
1010  868.0543
1011  784.8707
1012  734.0375
1013  693.5114
1014  763.5868
1015  933.3032
1016  992.1824
1017  928.7324
1018  859.4071
1019  744.806
1020  765.6907
1021  798.4919
1022  999.9469
1023  1058.253
