# Input file       =  1196521562.110791_cleaned.dat
# Candidate        =  PSR_0332+5434
# Telescope        =  AR
# Epoch_topo       =  58092.629411004527
# Epoch_bary       =  N/A
# T_sample         =  0.002
# Data Folded      =  7208960
# Data Avg         =  0.0628958333400131
# Data StdDev      =  1.00002591253278 
# Profile Bins     =  512
# Profile Avg      =  885.553181098925 
# Profile StdDev   =  118.662250553313 
# Reduced chi-sqr  =  0.920
# Prob(Noise)      <  0.901   (~0.0 sigma)
# P_topo (ms)      =  714.530419382211  +/- 0.000146
# P'_topo (s/s)    =  -0                +/- 7.82e-11
# P''_topo (s/s^2) =  0                 +/- 3.51e-14
# P_bary (ms)      =  N/A
# P'_bary (s/s)    =  N/A
# P''_bary (s/s^2) =  N/A
# P_orb (s)        =  N/A
# asin(i)/c (s)    =  N/A
# eccentricity     =  N/A
# w (rad)          =  N/A
# T_peri           =  N/A
######################################################
   0  1141.746
   1  1146.544
   2  1015.278
   3  1065.265
   4  910.1817
   5  837.9833
   6  810.7183
   7  819.4587
   8  830.7306
   9  916.1131
  10  875.6846
  11  919.4135
  12  912.7493
  13  860.343
  14  881.2394
  15  911.3875
  16  982.6683
  17  945.58
  18  808.9294
  19  757.0349
  20  815.1422
  21  842.3541
  22  828.9882
  23  906.1042
  24  921.6992
  25  942.6764
  26  954.1899
  27  1009.685
  28  1031.331
  29  974.8826
  30  899.5674
  31  765.6985
  32  769.8773
  33  864.5406
  34  850.5009
  35  875.162
  36  1016.25
  37  916.8384
  38  972.7415
  39  981.6987
  40  778.6593
  41  799.3558
  42  844.8455
  43  941.4905
  44  932.4523
  45  823.5054
  46  866.9812
  47  913.174
  48  899.6981
  49  814.0795
  50  787.5592
  51  908.8917
  52  1010.743
  53  1020.501
  54  929.4663
  55  859.4764
  56  895.866
  57  892.9054
  58  902.9661
  59  940.164
  60  888.767
  61  960.1606
  62  832.0878
  63  929.0235
  64  802.5352
  65  788.356
  66  714.879
  67  802.6708
  68  907.2798
  69  967.97
  70  974.3494
  71  1014.362
  72  993.1527
  73  930.0484
  74  837.8674
  75  820.7573
  76  862.3084
  77  998.963
  78  1110.908
  79  916.0011
  80  804.4204
  81  820.5037
  82  764.8318
  83  785.7028
  84  863.9131
  85  1018.808
  86  960.9432
  87  866.7257
  88  828.0767
  89  750.5875
  90  761.7171
  91  858.5366
  92  854.8077
  93  821.4905
  94  854.5242
  95  969.7023
  96  961.0587
  97  802.0844
  98  757.2847
  99  816.1297
 100  811.6845
 101  854.4641
 102  978.334
 103  814.6682
 104  714.9698
 105  860.1768
 106  858.4933
 107  831.3898
 108  858.5568
 109  813.2161
 110  918.3488
 111  1010.728
 112  1024.255
 113  930.0516
 114  827.2354
 115  963.6224
 116  987.9416
 117  894.5949
 118  866.5681
 119  924.1298
 120  966.2724
 121  958.9255
 122  877.858
 123  858.37
 124  941.8452
 125  1016.769
 126  981.0977
 127  935.0515
 128  1018.998
 129  914.4739
 130  860.1075
 131  892.4826
 132  808.3459
 133  745.6788
 134  702.6371
 135  831.8268
 136  894.5892
 137  943.6019
 138  773.7943
 139  764.1931
 140  817.6943
 141  807.1283
 142  782.5413
 143  820.0129
 144  975.636
 145  1038.575
 146  929.0551
 147  853.9635
 148  868.5273
 149  798.1102
 150  887.6168
 151  911.6785
 152  818.3135
 153  904.8842
 154  934.1603
 155  990.8704
 156  932.1595
 157  924.0935
 158  1033.766
 159  975.3534
 160  896.0101
 161  837.0807
 162  890.1022
 163  928.4892
 164  951.2876
 165  945.0326
 166  888.8521
 167  871.3295
 168  955.8404
 169  922.5122
 170  844.4539
 171  806.1926
 172  740.282
 173  890.5349
 174  943.7109
 175  814.2229
 176  925.3018
 177  969.9319
 178  1002.88
 179  988.9183
 180  1018.383
 181  798.2345
 182  921.4172
 183  1023.188
 184  1038.969
 185  987.9673
 186  1029.344
 187  1015.125
 188  898.0387
 189  974.1714
 190  999.1106
 191  943.2219
 192  1001.151
 193  967.1241
 194  848.7472
 195  879.6711
 196  1002.862
 197  938.0557
 198  795.1581
 199  746.811
 200  876.9162
 201  770.4224
 202  725.0231
 203  734.3425
 204  792.6382
 205  843.9159
 206  733.3651
 207  673.7188
 208  716.5399
 209  750.4347
 210  902.3514
 211  936.1637
 212  798.5005
 213  785.585
 214  865.3256
 215  822.8433
 216  777.4472
 217  792.5922
 218  878.2661
 219  975.5978
 220  929.7898
 221  859.8582
 222  866.9097
 223  840.9254
 224  735.8699
 225  894.3535
 226  899.2418
 227  891.769
 228  983.6819
 229  964.2959
 230  890.6895
 231  786.4041
 232  789.6099
 233  701.3778
 234  844.1426
 235  845.2838
 236  827.5856
 237  955.0429
 238  892.7034
 239  939.9683
 240  947.1346
 241  942.0719
 242  871.0621
 243  808.6926
 244  756.5428
 245  757.7839
 246  818.819
 247  762.6974
 248  841.1179
 249  899.0083
 250  991.0876
 251  986.2077
 252  885.3558
 253  866.0472
 254  917.8643
 255  889.646
 256  992.0545
 257  968.5217
 258  973.0096
 259  1022.092
 260  963.4429
 261  970.0378
 262  868.2429
 263  851.301
 264  866.6091
 265  889.4273
 266  901.7703
 267  876.7119
 268  945.6024
 269  851.0378
 270  896.8608
 271  783.4845
 272  818.3604
 273  792.2421
 274  712.1889
 275  811.1213
 276  797.0172
 277  939.6172
 278  856.347
 279  768.3204
 280  778.0828
 281  766.0198
 282  859.91
 283  946.2621
 284  945.0628
 285  950.9646
 286  981.6257
 287  828.1286
 288  734.1755
 289  718.3643
 290  820.1968
 291  734.3552
 292  820.6246
 293  868.1193
 294  831.7421
 295  848.1718
 296  865.5654
 297  770.9028
 298  729.5421
 299  854.1934
 300  783.325
 301  837.3106
 302  938.9094
 303  913.6609
 304  817.2246
 305  841.9702
 306  864.71
 307  951.3801
 308  925.5292
 309  837.9041
 310  833.9266
 311  913.7535
 312  900.518
 313  835.6499
 314  880.7356
 315  898.6542
 316  984.5649
 317  1077.296
 318  1038.407
 319  953.3228
 320  911.1208
 321  843.0091
 322  876.5168
 323  879.6567
 324  755.8991
 325  830.9495
 326  846.5684
 327  849.1042
 328  788.3136
 329  787.8426
 330  813.689
 331  847.6895
 332  808.3096
 333  781.1932
 334  760.0392
 335  777.5984
 336  817.6907
 337  847.2978
 338  773.201
 339  753.7411
 340  873.3413
 341  913.1068
 342  901.0198
 343  804.6421
 344  891.8663
 345  872.3513
 346  836.7087
 347  822.4219
 348  794.0623
 349  777.8664
 350  889.6734
 351  843.172
 352  886.5443
 353  908.8835
 354  875.0478
 355  846.6536
 356  865.6849
 357  882.7615
 358  813.8044
 359  857.6082
 360  862.1597
 361  852.2355
 362  818.9661
 363  828.9554
 364  938.0911
 365  975.7794
 366  857.8651
 367  836.5935
 368  815.9925
 369  753.58
 370  924.1756
 371  991.2883
 372  1000.03
 373  932.7815
 374  892.1568
 375  847.9547
 376  732.7413
 377  802.8278
 378  818.5552
 379  829.1578
 380  863.2115
 381  911.9001
 382  949.837
 383  931.6139
 384  918.1121
 385  935.0065
 386  922.8288
 387  857.5082
 388  881.1388
 389  853.7181
 390  830.0052
 391  1044.828
 392  1085.975
 393  1038.133
 394  941.9714
 395  895.9077
 396  980.2451
 397  1058.588
 398  864.0671
 399  842.718
 400  808.7195
 401  734.059
 402  807.8527
 403  866.2528
 404  928.5762
 405  851.2264
 406  852.3507
 407  952.2287
 408  965.4173
 409  860.4515
 410  891.9319
 411  808.8679
 412  777.9383
 413  912.4581
 414  989.4919
 415  1064.739
 416  1030.042
 417  889.4174
 418  939.4066
 419  907.5118
 420  889.9806
 421  854.4917
 422  893.5518
 423  1049.387
 424  884.412
 425  869.4908
 426  966.5109
 427  867.2239
 428  855.5306
 429  876.352
 430  842.9926
 431  896.5779
 432  964.3829
 433  823.3471
 434  817.2891
 435  888.0274
 436  856.9286
 437  818.6259
 438  824.851
 439  847.5813
 440  903.0161
 441  948.2664
 442  1015.405
 443  956.9208
 444  914.2558
 445  891.6708
 446  856.6843
 447  961.9479
 448  946.3491
 449  884.3588
 450  901.3134
 451  889.8391
 452  843.8829
 453  807.2756
 454  956.3842
 455  959.455
 456  1090.964
 457  1030.768
 458  893.7074
 459  924.7275
 460  931.7687
 461  939.1681
 462  954.3179
 463  974.7373
 464  867.6768
 465  844.028
 466  939.7554
 467  845.1002
 468  831.165
 469  857.9684
 470  817.9257
 471  941.1078
 472  936.0265
 473  900.2244
 474  827.9532
 475  834.6765
 476  927.3779
 477  921.6635
 478  1015.091
 479  984.133
 480  809.7167
 481  829.3184
 482  798.8522
 483  852.9922
 484  824.6852
 485  853.1179
 486  909.1749
 487  934.7947
 488  978.5259
 489  881.6285
 490  931.5565
 491  846.1513
 492  823.1448
 493  876.5076
 494  998.86
 495  888.5829
 496  739.8132
 497  892.3046
 498  841.7562
 499  871.4116
 500  883.7044
 501  806.4231
 502  847.3557
 503  892.9652
 504  899.3281
 505  1012.759
 506  1041.702
 507  952.0233
 508  1118.847
 509  1146.853
 510  1089.186
 511  1078.731
