# Input file       =  1196536233.113593_cleaned.dat
# Candidate        =  PSR_0332+5434
# Telescope        =  AR
# Epoch_topo       =  58092.799214277700
# Epoch_bary       =  N/A
# T_sample         =  0.002
# Data Folded      =  7340032
# Data Avg         =  0.140352740358919
# Data StdDev      =  3.87266431790741 
# Profile Bins     =  512
# Profile Avg      =  2012.10147894649 
# Profile StdDev   =  463.685857651012 
# Reduced chi-sqr  =  0.604
# Prob(Noise)      <  1   (~0.0 sigma)
# P_topo (ms)      =  714.530619536311  +/- 0.000927
# P'_topo (s/s)    =  -0                +/- 4.89e-10
# P''_topo (s/s^2) =  0                 +/- 2.16e-13
# P_bary (ms)      =  N/A
# P'_bary (s/s)    =  N/A
# P''_bary (s/s^2) =  N/A
# P_orb (s)        =  N/A
# asin(i)/c (s)    =  N/A
# eccentricity     =  N/A
# w (rad)          =  N/A
# T_peri           =  N/A
######################################################
   0  2115.055
   1  2004.242
   2  1908.087
   3  1985.84
   4  1708.153
   5  1933.113
   6  1695.887
   7  1902.763
   8  2046.283
   9  1901.354
  10  1756.972
  11  1937.529
  12  2182.651
  13  2193.478
  14  2119.588
  15  2068.732
  16  2036.532
  17  2066.094
  18  1900.446
  19  2119.563
  20  2105.73
  21  1990.369
  22  1679.542
  23  1458.194
  24  1739.774
  25  1568.618
  26  1783.437
  27  1642.663
  28  2016.979
  29  2180.183
  30  1674.565
  31  1472.69
  32  1663.596
  33  1784.349
  34  1701.695
  35  1877.523
  36  1774.24
  37  1738.919
  38  1834.438
  39  1400.992
  40  1752.564
  41  1834.042
  42  1842.827
  43  1875.768
  44  2259.185
  45  2437.337
  46  2319.113
  47  1816.911
  48  2071.904
  49  2538.406
  50  2489.604
  51  2218.219
  52  2250.758
  53  2261.188
  54  2094.778
  55  2039.997
  56  2246.79
  57  2294.389
  58  2057.374
  59  2015.488
  60  2075.936
  61  2156.535
  62  2102.647
  63  2306.345
  64  2213.983
  65  2038.196
  66  2242.779
  67  2683.568
  68  2330.075
  69  2268.926
  70  1850.515
  71  1867.081
  72  1985.715
  73  1930.439
  74  1855.675
  75  1994.553
  76  2226.236
  77  2174.804
  78  1766.544
  79  2243.168
  80  2159.602
  81  2078.53
  82  2117.904
  83  2102.97
  84  1717.506
  85  1832.419
  86  2006.615
  87  1926.885
  88  1878.706
  89  1983.872
  90  2128.26
  91  2167.341
  92  2051.452
  93  2173.47
  94  1868.296
  95  1721.736
  96  1981.967
  97  2059.815
  98  1663.745
  99  1649.325
 100  1971.989
 101  1994.685
 102  2071.029
 103  2030.212
 104  1955.611
 105  1785.141
 106  1924.288
 107  1995.09
 108  1911.897
 109  2065.344
 110  2099.175
 111  1726.557
 112  1689.177
 113  1775.038
 114  1686.451
 115  1733.581
 116  1629.795
 117  1685.138
 118  1554.985
 119  2031.338
 120  2046.831
 121  1944.712
 122  1522.037
 123  1697.03
 124  1837.617
 125  1517.961
 126  1767.25
 127  1665.557
 128  1622.57
 129  1693.558
 130  1441.521
 131  1021.282
 132  1194.295
 133  1566.482
 134  1347.771
 135  1664.086
 136  1612.484
 137  1368.276
 138  1299.323
 139  1149.493
 140  1434.321
 141  1829.997
 142  1928.16
 143  1769.972
 144  1532.591
 145  1714.549
 146  1752.826
 147  1572.662
 148  1745.684
 149  1617.043
 150  1310.357
 151  1362.966
 152  1633.087
 153  1874.585
 154  1898.805
 155  1569.575
 156  1960.891
 157  2269.268
 158  2483.934
 159  1886.746
 160  2092.544
 161  1959.83
 162  2110.343
 163  2081.25
 164  1930.862
 165  2079.927
 166  2065.319
 167  2332.77
 168  2439.525
 169  2241.854
 170  2069.808
 171  2015.43
 172  1980.89
 173  2222.759
 174  2118.317
 175  2177.011
 176  2264.628
 177  2344.013
 178  2324.258
 179  2305.756
 180  2203.063
 181  2232.859
 182  2164.66
 183  2245.018
 184  2024.727
 185  1852.784
 186  1821.676
 187  1743.489
 188  2120.403
 189  2246.679
 190  2195.979
 191  2063.688
 192  2277.575
 193  2076.022
 194  2087.865
 195  2005.997
 196  2234.879
 197  2128.359
 198  2132.33
 199  2581.144
 200  2431.803
 201  2231.171
 202  2120.66
 203  2162.091
 204  2218.402
 205  1800.276
 206  2075.546
 207  2093.348
 208  1839.384
 209  1638.391
 210  1568.062
 211  1649.246
 212  1667.822
 213  1777.78
 214  1900.488
 215  2099.926
 216  2167.194
 217  1700.869
 218  1874.495
 219  1718.934
 220  1501.399
 221  1829.797
 222  2064.142
 223  2187.407
 224  2176.95
 225  1799.92
 226  1863.445
 227  1614.578
 228  1915.58
 229  2437.042
 230  2020.377
 231  1902.78
 232  2042.358
 233  1780.817
 234  1814.415
 235  2198.856
 236  2155.096
 237  1878.909
 238  1801.798
 239  1999.387
 240  1624.774
 241  1300.42
 242  1809.031
 243  2187.894
 244  1939.601
 245  1824.366
 246  1799.026
 247  1670.674
 248  1669.911
 249  1852.708
 250  2127.708
 251  2437.348
 252  2207.062
 253  2162.361
 254  2028.253
 255  1855.277
 256  1758.862
 257  1840.745
 258  1977.434
 259  1909.869
 260  2018.053
 261  2000.856
 262  1944.684
 263  1604.615
 264  2019.149
 265  2313.8
 266  2225.395
 267  2002.076
 268  1912.236
 269  1700.223
 270  1944.072
 271  2491.106
 272  2540.017
 273  2528.882
 274  2150.407
 275  1993.845
 276  1639.462
 277  1620.863
 278  1940.614
 279  2187.249
 280  1891.429
 281  1867.675
 282  1846.02
 283  1637.803
 284  1620.719
 285  1831.915
 286  2213.09
 287  2067.487
 288  1852.851
 289  2001.138
 290  1985.538
 291  1872.426
 292  2449.075
 293  2381.366
 294  2273.73
 295  2297.007
 296  1923.915
 297  2143.397
 298  2236.11
 299  2163.13
 300  2070.718
 301  1838.166
 302  2110.349
 303  2178.445
 304  1976.146
 305  2290.624
 306  2196.053
 307  2083.518
 308  1988.687
 309  2080.94
 310  2185.703
 311  2311.539
 312  2278.003
 313  2113.203
 314  1896.586
 315  1896.515
 316  2109.742
 317  1951.496
 318  2003.091
 319  2278.911
 320  2300.583
 321  2321.412
 322  2538.229
 323  2332.06
 324  2517.652
 325  2773.472
 326  2219.584
 327  2124.451
 328  2294.446
 329  2239.527
 330  1893.305
 331  1903.005
 332  1858.838
 333  1895.098
 334  1974.894
 335  2113.58
 336  2079.082
 337  1769.252
 338  1974.838
 339  1766.332
 340  1463.142
 341  1603.358
 342  1712.889
 343  1632.124
 344  2196.097
 345  2228.706
 346  1909.883
 347  1907.263
 348  1911.129
 349  1721.043
 350  1925.161
 351  2177.104
 352  2226.865
 353  2126.432
 354  1889.394
 355  1733.555
 356  2305.406
 357  2488.368
 358  2133.598
 359  2270.661
 360  2664.889
 361  2410.492
 362  2305.206
 363  2520.427
 364  2327.879
 365  2443.098
 366  2203.781
 367  2080.109
 368  2276.071
 369  2536.005
 370  2279.358
 371  2136.947
 372  2061.015
 373  2169.026
 374  2239.954
 375  2344.246
 376  2270.34
 377  2032.952
 378  2351.574
 379  2469.102
 380  2462.39
 381  2416.204
 382  2076.611
 383  2054.801
 384  2033.226
 385  2168.412
 386  2014.232
 387  2241.992
 388  2205.628
 389  1932.856
 390  2321.489
 391  2211.679
 392  2135.086
 393  2062.943
 394  2037.457
 395  2112.311
 396  1831.796
 397  1816.766
 398  1856.737
 399  1993.204
 400  2123.88
 401  2328.698
 402  2184.33
 403  2153.102
 404  2012.814
 405  1836.038
 406  1987.568
 407  1981.867
 408  2523.719
 409  2501.1
 410  2230.974
 411  2219.715
 412  1873.063
 413  1541.167
 414  1816.769
 415  2299.925
 416  2348.639
 417  1902.86
 418  1756.672
 419  1785.972
 420  1759.648
 421  2251.55
 422  2109.44
 423  1934.89
 424  2200.116
 425  2305.22
 426  1793.014
 427  1587.796
 428  2037.435
 429  2342.715
 430  2108.564
 431  2109.39
 432  2030.918
 433  2041.689
 434  2048.874
 435  1915.687
 436  2076.599
 437  2079.911
 438  1909.026
 439  2089.498
 440  2152.775
 441  2232.632
 442  2006.981
 443  1774.389
 444  1636.882
 445  1988.208
 446  2238.189
 447  1912.705
 448  2204.565
 449  2388.974
 450  2129.592
 451  1821.393
 452  2064.35
 453  2100.426
 454  1802.816
 455  1931.49
 456  2150.364
 457  2006.889
 458  2100.106
 459  2399.042
 460  2273.166
 461  1782.085
 462  1606.159
 463  1975.497
 464  2291.765
 465  1905.809
 466  2082.305
 467  2150.773
 468  2332.097
 469  2148.437
 470  1909.251
 471  1805.056
 472  2157.592
 473  2151.487
 474  2371.499
 475  2361.528
 476  2186.328
 477  1930.168
 478  2039.596
 479  2534.173
 480  2744.887
 481  2378.618
 482  2280.763
 483  2043.029
 484  1899.366
 485  2052.355
 486  2030.931
 487  2069.279
 488  1936.334
 489  1967.174
 490  2048.289
 491  2078.107
 492  1750.313
 493  1957.419
 494  1941.098
 495  2136.543
 496  2406.421
 497  1992.519
 498  2081.855
 499  2181.878
 500  2004.782
 501  2111.491
 502  2028.202
 503  2059.71
 504  1993.33
 505  2287.23
 506  2193.419
 507  2198.684
 508  2178.913
 509  2149.564
 510  2342.926
 511  2043.289
