# Input file       =  1196206442.107451_cleaned.dat
# Candidate        =  PSR_0332+5434
# Telescope        =  AR
# Epoch_topo       =  58088.982188743648
# Epoch_bary       =  N/A
# T_sample         =  0.002
# Data Folded      =  7340032
# Data Avg         =  0.0945348793870758
# Data StdDev      =  1.00026092232174 
# Profile Bins     =  512
# Profile Avg      =  1355.23358466556 
# Profile StdDev   =  119.764277398606 
# Reduced chi-sqr  =  0.786
# Prob(Noise)      <  1   (~0.0 sigma)
# P_topo (ms)      =  714.527038900495  +/- 4.04e-05
# P'_topo (s/s)    =  -0                +/- 2.13e-11
# P''_topo (s/s^2) =  0                 +/- 9.42e-15
# P_bary (ms)      =  N/A
# P'_bary (s/s)    =  N/A
# P''_bary (s/s^2) =  N/A
# P_orb (s)        =  N/A
# asin(i)/c (s)    =  N/A
# eccentricity     =  N/A
# w (rad)          =  N/A
# T_peri           =  N/A
######################################################
   0  1737.568
   1  1664.795
   2  1569.173
   3  1412.649
   4  1331.429
   5  1358.633
   6  1403.006
   7  1360.848
   8  1396.684
   9  1322.219
  10  1332.553
  11  1312.215
  12  1392.237
  13  1362.292
  14  1366.088
  15  1377.353
  16  1336.956
  17  1342.754
  18  1326.267
  19  1367.244
  20  1321.459
  21  1206.853
  22  1319.183
  23  1338.139
  24  1312.972
  25  1379.048
  26  1402.28
  27  1389.477
  28  1313.458
  29  1349.882
  30  1381.476
  31  1344.628
  32  1274.626
  33  1317.158
  34  1415.596
  35  1355.013
  36  1377.705
  37  1374.017
  38  1472.031
  39  1345.172
  40  1297.955
  41  1404.538
  42  1411.538
  43  1389.382
  44  1405.42
  45  1482.658
  46  1429.473
  47  1429.572
  48  1333.152
  49  1247.382
  50  1348.454
  51  1378.717
  52  1344.409
  53  1222.581
  54  1305.336
  55  1331.537
  56  1336.748
  57  1436.536
  58  1449.814
  59  1362.358
  60  1244.561
  61  1279.032
  62  1367.04
  63  1407.572
  64  1443.006
  65  1371.933
  66  1454.186
  67  1460.261
  68  1408.908
  69  1471.475
  70  1579.456
  71  1514.841
  72  1448.998
  73  1417.981
  74  1310.137
  75  1338.497
  76  1371.198
  77  1429.152
  78  1338.452
  79  1320.888
  80  1406.052
  81  1348.79
  82  1354.926
  83  1281.732
  84  1271.523
  85  1307.186
  86  1288.534
  87  1421.258
  88  1398.665
  89  1244.627
  90  1294.462
  91  1455.842
  92  1551.385
  93  1504.051
  94  1427.893
  95  1400.946
  96  1347.089
  97  1313.213
  98  1325.669
  99  1324.694
 100  1242.968
 101  1433.063
 102  1350.996
 103  1383.853
 104  1343.368
 105  1363.154
 106  1344.844
 107  1311.745
 108  1332.672
 109  1380.193
 110  1347.055
 111  1255.19
 112  1348.988
 113  1357.39
 114  1398.936
 115  1306.698
 116  1305.385
 117  1391.601
 118  1476.489
 119  1356.538
 120  1324.95
 121  1368.546
 122  1394.452
 123  1346.203
 124  1306.276
 125  1300.452
 126  1361.128
 127  1430.303
 128  1414.219
 129  1294.447
 130  1325.289
 131  1345.439
 132  1228.487
 133  1374.178
 134  1377.725
 135  1344.082
 136  1298.878
 137  1320.81
 138  1329.109
 139  1314.771
 140  1289.501
 141  1311.153
 142  1287.448
 143  1190.853
 144  1275.623
 145  1267.051
 146  1160.438
 147  1252.969
 148  1264.355
 149  1336.884
 150  1302.317
 151  1371.279
 152  1317.846
 153  1255.037
 154  1198.607
 155  1305.976
 156  1396.063
 157  1347.057
 158  1255.614
 159  1296.463
 160  1348.981
 161  1257.666
 162  1333.688
 163  1409.965
 164  1284.241
 165  1255.938
 166  1285.223
 167  1281.497
 168  1311.514
 169  1371.002
 170  1401.99
 171  1434.536
 172  1399.943
 173  1353.82
 174  1246.472
 175  1320.871
 176  1325.826
 177  1356.212
 178  1365.611
 179  1278.96
 180  1321.36
 181  1313.052
 182  1300.198
 183  1367.438
 184  1329.067
 185  1293.326
 186  1297.517
 187  1420.962
 188  1463.344
 189  1436.375
 190  1404.455
 191  1462.888
 192  1378.337
 193  1361.029
 194  1467.006
 195  1486.948
 196  1436.287
 197  1323.675
 198  1429.018
 199  1430.033
 200  1381.088
 201  1404.447
 202  1372.018
 203  1288.398
 204  1291.396
 205  1366.583
 206  1387.985
 207  1344.976
 208  1428.984
 209  1435.629
 210  1369.236
 211  1387.905
 212  1399.299
 213  1444.568
 214  1334.831
 215  1322.06
 216  1416.677
 217  1409.718
 218  1320.896
 219  1305.26
 220  1445.971
 221  1532.105
 222  1504.844
 223  1511.307
 224  1395.929
 225  1381.587
 226  1462.996
 227  1433.096
 228  1396.493
 229  1357.444
 230  1381.399
 231  1364.922
 232  1314.906
 233  1449.35
 234  1463.278
 235  1295.362
 236  1301.417
 237  1280.8
 238  1441.873
 239  1380.453
 240  1402.822
 241  1475.89
 242  1440.22
 243  1332.843
 244  1263.071
 245  1401.746
 246  1478.132
 247  1427.06
 248  1549.477
 249  1425.425
 250  1355.501
 251  1367.343
 252  1401.089
 253  1349.033
 254  1336.842
 255  1452.633
 256  1497.291
 257  1330.138
 258  1333.289
 259  1382.284
 260  1232.099
 261  1244.765
 262  1362.689
 263  1416.216
 264  1432.739
 265  1318.564
 266  1307.638
 267  1306.651
 268  1493.029
 269  1466.005
 270  1470.654
 271  1406.78
 272  1363.208
 273  1438.245
 274  1356.567
 275  1368.95
 276  1461.207
 277  1538.031
 278  1417.407
 279  1283.426
 280  1219.679
 281  1301.492
 282  1273.628
 283  1216.754
 284  1252.359
 285  1378.021
 286  1322.234
 287  1320.061
 288  1380.615
 289  1371.993
 290  1345.679
 291  1302.375
 292  1250.556
 293  1354.324
 294  1395.292
 295  1447.764
 296  1399.943
 297  1345.8
 298  1350.201
 299  1320.417
 300  1209.323
 301  1221.88
 302  1351.214
 303  1310.454
 304  1245.256
 305  1306.272
 306  1386.074
 307  1413.01
 308  1371.872
 309  1324.223
 310  1292.546
 311  1324.426
 312  1306.785
 313  1256.802
 314  1303.388
 315  1219.935
 316  1356.994
 317  1375.631
 318  1317.358
 319  1338.896
 320  1402.465
 321  1308.44
 322  1370.701
 323  1436.193
 324  1304.835
 325  1275.359
 326  1388.555
 327  1481.164
 328  1384.767
 329  1296.848
 330  1355.311
 331  1344.84
 332  1242.964
 333  1266.61
 334  1399.593
 335  1496.343
 336  1282.798
 337  1248.645
 338  1303.247
 339  1272.513
 340  1279.049
 341  1412.214
 342  1382.215
 343  1285.394
 344  1255.759
 345  1289.488
 346  1244.705
 347  1195.046
 348  1175.431
 349  1300.095
 350  1324.123
 351  1324.832
 352  1265.781
 353  1212.468
 354  1179.151
 355  1294.593
 356  1394.061
 357  1297.315
 358  1351.286
 359  1356.258
 360  1319.691
 361  1270.724
 362  1278.423
 363  1430.127
 364  1402.792
 365  1327.642
 366  1507.526
 367  1542.283
 368  1424.994
 369  1333.94
 370  1401.095
 371  1456.138
 372  1392.521
 373  1359.017
 374  1297.161
 375  1311.165
 376  1343.109
 377  1361.387
 378  1287.708
 379  1232.992
 380  1282.546
 381  1209.969
 382  1279.654
 383  1241.141
 384  1445.289
 385  1502.611
 386  1343.026
 387  1323.496
 388  1351.303
 389  1374.206
 390  1318.009
 391  1328.962
 392  1417.067
 393  1368.413
 394  1336.057
 395  1342.51
 396  1233.291
 397  1169.88
 398  1299.874
 399  1382.092
 400  1325.201
 401  1157.224
 402  1281.454
 403  1315.126
 404  1294.524
 405  1279.065
 406  1329.756
 407  1329.665
 408  1300.925
 409  1359.332
 410  1353.69
 411  1296.304
 412  1276.054
 413  1343.276
 414  1392.824
 415  1296.091
 416  1422.095
 417  1445.857
 418  1364.92
 419  1392.507
 420  1384.437
 421  1377.474
 422  1368.125
 423  1463.035
 424  1372.835
 425  1347.438
 426  1433.338
 427  1519.078
 428  1382.867
 429  1312.967
 430  1261.897
 431  1426.393
 432  1416.412
 433  1440.247
 434  1417.404
 435  1341.969
 436  1258.568
 437  1353.413
 438  1389.526
 439  1291.013
 440  1219.546
 441  1297.252
 442  1365.071
 443  1358.363
 444  1253.461
 445  1307.922
 446  1400.652
 447  1373.207
 448  1434.875
 449  1494.445
 450  1376.731
 451  1311.957
 452  1357.644
 453  1456.006
 454  1354.041
 455  1361.114
 456  1419.214
 457  1393.69
 458  1278.279
 459  1295.981
 460  1460.98
 461  1352.053
 462  1359.04
 463  1391.163
 464  1356.011
 465  1371.754
 466  1404.098
 467  1504.762
 468  1243.693
 469  1242.825
 470  1379.179
 471  1380.596
 472  1363.65
 473  1330.518
 474  1410.823
 475  1301.107
 476  1260.851
 477  1292.466
 478  1344.294
 479  1276.879
 480  1244.848
 481  1312.209
 482  1381.107
 483  1375.055
 484  1458.969
 485  1348.972
 486  1262.746
 487  1289.048
 488  1419.63
 489  1415.229
 490  1366.376
 491  1293.764
 492  1254.458
 493  1263.801
 494  1306.992
 495  1361.584
 496  1363.286
 497  1355.326
 498  1337.901
 499  1297.675
 500  1310.959
 501  1227.192
 502  1290.472
 503  1369.475
 504  1400.083
 505  1372.433
 506  1366.439
 507  1422.203
 508  1394.218
 509  1454.223
 510  1594.407
 511  1714.219
