# Input file       =  1196966586.130779_cleaned.dat
# Candidate        =  PSR_0332+5434
# Telescope        =  AR
# Epoch_topo       =  58097.780151976607
# Epoch_bary       =  N/A
# T_sample         =  0.002
# Data Folded      =  7340032
# Data Avg         =  0.40710038404255 
# Data StdDev      =  5.67735116923216 
# Profile Bins     =  512
# Profile Avg      =  5838.18979436522 
# Profile StdDev   =  679.76649406935  
# Reduced chi-sqr  =  0.496
# Prob(Noise)      <  1   (~0.0 sigma)
# P_topo (ms)      =  714.535691114024  +/- 0.000818
# P'_topo (s/s)    =  -0                +/- 4.32e-10
# P''_topo (s/s^2) =  0                 +/- 1.91e-13
# P_bary (ms)      =  N/A
# P'_bary (s/s)    =  N/A
# P''_bary (s/s^2) =  N/A
# P_orb (s)        =  N/A
# asin(i)/c (s)    =  N/A
# eccentricity     =  N/A
# w (rad)          =  N/A
# T_peri           =  N/A
######################################################
   0  6305.811
   1  5761.508
   2  6073.445
   3  6106.981
   4  6149.583
   5  6078.549
   6  6246.176
   7  6152.79
   8  6174.054
   9  6345.11
  10  6140.036
  11  5773.826
  12  5500.151
  13  5242.945
  14  5515.876
  15  5511.76
  16  5615.097
  17  5939.047
  18  5952.087
  19  5593.4
  20  5164.355
  21  5585.736
  22  5926.235
  23  5554.471
  24  5962.532
  25  5577.524
  26  5061.686
  27  5356.802
  28  5642.821
  29  5709.946
  30  5544.989
  31  5171.344
  32  5515.847
  33  5998.876
  34  6352.634
  35  6269.496
  36  6399.286
  37  5893.871
  38  5723.625
  39  6086.052
  40  6295.848
  41  6156.365
  42  6362.444
  43  5863.292
  44  5846.656
  45  5857.215
  46  6003.564
  47  6075.304
  48  5616.77
  49  5652.173
  50  5726.349
  51  5567.636
  52  5598.597
  53  5590.741
  54  5308.118
  55  5340.609
  56  5210.718
  57  5594.867
  58  5755.811
  59  5869.291
  60  5848.26
  61  5476.144
  62  5357.832
  63  5607.702
  64  5746.241
  65  6321.835
  66  5635.597
  67  5767.707
  68  5787.711
  69  5716.684
  70  5524.186
  71  5566.991
  72  5827.133
  73  6169.202
  74  6276.18
  75  6143.92
  76  5678.997
  77  5914.412
  78  6068.771
  79  6036.36
  80  5867.98
  81  5762.065
  82  6055.753
  83  5696.329
  84  5772.04
  85  5827.519
  86  5698.813
  87  5754.183
  88  5720.184
  89  5878.307
  90  5445.224
  91  5586.395
  92  5458.392
  93  6066.767
  94  6176.361
  95  5760.103
  96  5620.68
  97  5169.088
  98  5037.396
  99  5296.041
 100  5707.488
 101  6310.453
 102  6107.793
 103  5933.781
 104  5788.029
 105  5804.27
 106  6006.73
 107  6005.514
 108  6339.998
 109  6052.816
 110  5358.959
 111  5356.429
 112  5565.925
 113  5542.267
 114  5692.77
 115  5901.519
 116  5707.958
 117  5600.131
 118  5773.083
 119  5760.847
 120  5978.876
 121  5735.5
 122  5903.965
 123  5906.383
 124  5910.19
 125  5937.006
 126  6243.776
 127  5706.568
 128  5886.125
 129  5998.253
 130  5690.553
 131  5633.299
 132  5791.853
 133  5769.949
 134  5423.235
 135  5751.584
 136  5923.237
 137  5728.119
 138  5679.145
 139  5553.888
 140  5572.105
 141  5729.653
 142  5518.347
 143  5468.625
 144  5516.024
 145  5657.551
 146  5776.827
 147  5662.661
 148  5534.343
 149  5553.616
 150  5901.268
 151  5764.696
 152  5635.927
 153  5691.885
 154  5478.903
 155  5258.965
 156  5237.645
 157  5926.25
 158  5659.958
 159  5744.151
 160  6024.118
 161  5883.143
 162  5480.675
 163  5632.073
 164  5676.904
 165  5811.211
 166  5447.064
 167  5581.457
 168  5692.535
 169  5984.878
 170  6154.747
 171  5891.719
 172  5676.791
 173  5577.391
 174  5416.097
 175  5776.693
 176  5560.48
 177  5282.206
 178  5134.881
 179  5163.627
 180  4986.775
 181  5155.155
 182  5503.162
 183  5509.189
 184  5175.639
 185  5334.173
 186  5536.97
 187  5738.551
 188  5704.989
 189  5799.614
 190  5585.959
 191  5014.635
 192  5061.537
 193  5631.534
 194  5582.203
 195  5628.661
 196  5802.825
 197  5669.599
 198  5377.052
 199  5209.613
 200  5628.872
 201  5892.309
 202  5959.253
 203  5935.076
 204  5884.254
 205  5704.639
 206  5893.645
 207  6041.846
 208  6151.494
 209  5893.311
 210  6167.771
 211  6578.917
 212  6416.147
 213  6278.638
 214  6062.612
 215  5746.326
 216  6361.9
 217  6700.007
 218  6417.912
 219  6080.57
 220  5983.684
 221  5699.14
 222  5889.633
 223  5713.743
 224  5992.273
 225  6509.962
 226  6577.164
 227  6042.57
 228  5824.908
 229  6024.277
 230  5862.982
 231  5765.407
 232  6091.505
 233  5742.629
 234  5739.198
 235  5927.868
 236  6240.125
 237  6550.034
 238  6299.772
 239  6257.71
 240  6537.271
 241  6432.865
 242  6533.99
 243  6650.426
 244  6742.446
 245  6660.613
 246  6463.876
 247  6260.958
 248  6062.646
 249  6010.401
 250  6313.946
 251  6344.454
 252  5895.606
 253  6086.663
 254  6005.816
 255  5521.373
 256  5480.012
 257  5542.93
 258  5854.183
 259  5973.302
 260  6064.672
 261  6286.928
 262  5881.481
 263  5827.771
 264  5475.856
 265  5663.343
 266  6099.401
 267  6107.195
 268  6040.776
 269  5811.807
 270  5981.222
 271  6063.533
 272  5809.502
 273  5561.435
 274  5930.11
 275  5931.929
 276  5734.764
 277  5285.93
 278  5839.785
 279  5902.297
 280  5613.422
 281  5812.292
 282  5744.462
 283  5751.763
 284  5809.485
 285  5616.432
 286  5851.86
 287  5871.146
 288  5720.86
 289  5982.696
 290  6463.646
 291  6476.858
 292  6249.569
 293  6080.812
 294  5606.333
 295  5326.481
 296  5882.511
 297  5991.894
 298  6130.021
 299  5683.337
 300  5984.68
 301  6538.772
 302  6031.423
 303  6270.866
 304  6455.326
 305  6107.137
 306  5689.832
 307  5857.618
 308  6084.729
 309  5963.045
 310  6232.204
 311  6476.962
 312  7105.202
 313  7552.603
 314  7104.618
 315  6836.174
 316  6520.311
 317  6071.449
 318  5856.445
 319  6303.216
 320  5845.479
 321  5609.583
 322  5783.978
 323  5810.541
 324  5635.184
 325  5583.356
 326  5639.161
 327  5392.102
 328  5473.543
 329  5773.213
 330  6036.83
 331  5885.609
 332  6042.177
 333  6113.083
 334  6005.335
 335  6165.83
 336  6117.778
 337  5803.487
 338  5819.204
 339  5835.132
 340  6214.534
 341  6592.387
 342  6205.418
 343  5680.438
 344  5697.946
 345  5845.926
 346  6273.626
 347  6543.263
 348  6178.717
 349  5793.629
 350  6026.131
 351  6131.437
 352  6146.051
 353  6030.706
 354  5769.351
 355  5099.137
 356  5330.126
 357  5572.513
 358  5767.333
 359  5876.008
 360  5730.447
 361  6080.063
 362  5948.843
 363  5485.238
 364  5416.625
 365  6066.742
 366  5908.95
 367  5923.856
 368  6378.383
 369  6032.794
 370  6026.058
 371  5631.735
 372  5516.057
 373  5398.789
 374  5697.5
 375  5879.347
 376  5830.732
 377  5826.169
 378  6146.43
 379  5771.102
 380  5343.474
 381  5209.851
 382  5446.265
 383  5643.119
 384  5469.726
 385  5597.627
 386  5493.489
 387  5524.368
 388  5690.182
 389  5463.947
 390  5515.321
 391  5084.098
 392  5385.917
 393  5432.196
 394  5392.675
 395  5430.88
 396  5373.354
 397  5519.67
 398  5878.75
 399  5820.05
 400  5814.554
 401  5859.215
 402  5788.387
 403  6122.074
 404  6566.75
 405  6468.193
 406  5938.854
 407  5565.294
 408  5627.443
 409  5937.534
 410  5887.45
 411  5636.653
 412  5448.994
 413  5936.926
 414  6306.794
 415  6125.812
 416  5863.571
 417  6081.306
 418  6117.39
 419  5897.683
 420  5785.202
 421  5600.7
 422  5929.734
 423  5833.513
 424  5844.529
 425  6133.771
 426  5840.57
 427  5971.43
 428  5995.833
 429  6007.507
 430  5834.916
 431  5299.334
 432  5610.744
 433  5727.302
 434  5599.507
 435  5769.275
 436  5920.641
 437  5779.227
 438  5594.116
 439  5732.075
 440  5809.06
 441  5642.811
 442  5508.313
 443  5469.03
 444  5642.336
 445  6061.799
 446  5916.453
 447  6254.436
 448  6159.599
 449  5845.941
 450  5230.928
 451  5430.081
 452  5404.157
 453  5498.908
 454  5496.011
 455  5401.729
 456  5653.875
 457  5888.781
 458  5697.738
 459  5612.491
 460  5698.53
 461  5565.149
 462  5511.153
 463  5238.627
 464  5201.046
 465  5609.282
 466  6045.139
 467  5799.018
 468  6065.94
 469  6437.317
 470  6138.586
 471  5941.699
 472  5730.606
 473  6221.489
 474  6151.164
 475  6276.883
 476  5884.23
 477  5486.911
 478  5179.719
 479  5335.517
 480  5136.467
 481  5607.079
 482  5886.421
 483  6108.378
 484  6228.123
 485  5529.789
 486  5630.485
 487  6114.475
 488  6093.697
 489  6295
 490  6071.219
 491  5902.386
 492  5838.25
 493  5927.395
 494  6007.611
 495  5875.467
 496  5819.86
 497  6012.297
 498  6471.664
 499  6181.813
 500  6316.663
 501  6087.036
 502  5955.535
 503  6054.594
 504  6049.64
 505  5908.74
 506  5769.222
 507  5457.066
 508  5723.195
 509  6176.569
 510  6299.667
 511  6501.489
