# Input file       =  1196206442.107451_cleaned.dat
# Candidate        =  PSR_0332+5434
# Telescope        =  AR
# Epoch_topo       =  58088.982188743648
# Epoch_bary       =  N/A
# T_sample         =  0.002
# Data Folded      =  7340032
# Data Avg         =  1.3308152891259  
# Data StdDev      =  11.3937788802378 
# Profile Bins     =  1024
# Profile Avg      =  9539.26484223929 
# Profile StdDev   =  964.643373131812 
# Reduced chi-sqr  =  0.711
# Prob(Noise)      <  1   (~0.0 sigma)
# P_topo (ms)      =  714.527040133862  +/- 2.27e-05
# P'_topo (s/s)    =  -0                +/- 1.2e-11
# P''_topo (s/s^2) =  0                 +/- 5.28e-15
# P_bary (ms)      =  N/A
# P'_bary (s/s)    =  N/A
# P''_bary (s/s^2) =  N/A
# P_orb (s)        =  N/A
# asin(i)/c (s)    =  N/A
# eccentricity     =  N/A
# w (rad)          =  N/A
# T_peri           =  N/A
######################################################
   0  9669.182
   1  9931.885
   2  9947.925
   3  9963.515
   4  9568.721
   5  9736.103
   6  9695.976
   7  10069.31
   8  9994.573
   9  9763.068
  10  9609.246
  11  9273.149
  12  9219.548
  13  9337.475
  14  9621.447
  15  9808.335
  16  9756.427
  17  9523.649
  18  9226.161
  19  9179.983
  20  9776.366
  21  10144.2
  22  10241.87
  23  9709.131
  24  9278.521
  25  9285.147
  26  9366.116
  27  9576.108
  28  9398.461
  29  9756.682
  30  9880.459
  31  9781.629
  32  9615.505
  33  9714.385
  34  9600.557
  35  9837.54
  36  10212.85
  37  10371.03
  38  10036.6
  39  9763.686
  40  9251.186
  41  9230.492
  42  9076.13
  43  9663.206
  44  10053.42
  45  9981.239
  46  9967.061
  47  10288.19
  48  10384.54
  49  10673.39
  50  10697.42
  51  10826.29
  52  10324.71
  53  9918.623
  54  9994.226
  55  10108.81
  56  10255.09
  57  10518.65
  58  10384.17
  59  10153.97
  60  9904.521
  61  9684.905
  62  9627.727
  63  9587.728
  64  9581.38
  65  10174.76
  66  9941.096
  67  9806.55
  68  9745.2
  69  9942.618
  70  10748.24
  71  10618.2
  72  10526.35
  73  9833.202
  74  9039.036
  75  8911.46
  76  8976.881
  77  9069.878
  78  9312.848
  79  9613.737
  80  10124.84
  81  9918.769
  82  9762.605
  83  9836.092
  84  10198.14
  85  10126.15
  86  10212.42
  87  9844.184
  88  9678.696
  89  9272.368
  90  9129.29
  91  8951.473
  92  9173.095
  93  9535.221
  94  9946.674
  95  9726.725
  96  9765.756
  97  9813.21
  98  10038.02
  99  10325.74
 100  10411.65
 101  10416.59
 102  9845.119
 103  9531.478
 104  9579.73
 105  9534.443
 106  9869.856
 107  9698.109
 108  10137.05
 109  10209.23
 110  9799.282
 111  9544.6
 112  9359.912
 113  9897.634
 114  10296.72
 115  10605.24
 116  10338.14
 117  10019.26
 118  9651.556
 119  9774.377
 120  9510.536
 121  9903.012
 122  10033.07
 123  9869.05
 124  9222.987
 125  8881.004
 126  8850.546
 127  9167.527
 128  8946.185
 129  9097.581
 130  9255.51
 131  9492.8
 132  9483.305
 133  9335.938
 134  8898.574
 135  9294.891
 136  9398.769
 137  9727.298
 138  9505.309
 139  9646.047
 140  9725.201
 141  9663.293
 142  9470.955
 143  9723.807
 144  9724.023
 145  9550.899
 146  9446.846
 147  9165.893
 148  9099.645
 149  8773.943
 150  9154.32
 151  9620.318
 152  9573.132
 153  9523.28
 154  9799.402
 155  9511.235
 156  9936.776
 157  9851.354
 158  10424.45
 159  10140.91
 160  9699.802
 161  9365.365
 162  9065.723
 163  8870.805
 164  9080.757
 165  9083.346
 166  9398.649
 167  9143.962
 168  9004.212
 169  8573.914
 170  8508.051
 171  8541.652
 172  9102.956
 173  9485.271
 174  9445.81
 175  9152.258
 176  9011.909
 177  9235.873
 178  9224.764
 179  9302.392
 180  9562.674
 181  9743.805
 182  9724.058
 183  9610.688
 184  9538.291
 185  9324.269
 186  9210.718
 187  9282.614
 188  9034.731
 189  9326.618
 190  9371.035
 191  9626.407
 192  9648.66
 193  9916.594
 194  10187.43
 195  10149.36
 196  9423.023
 197  9258.472
 198  9367.743
 199  9678.668
 200  9597.105
 201  9283.765
 202  9350.628
 203  9093.302
 204  8635.73
 205  8423.56
 206  8672.267
 207  9466.661
 208  9942.693
 209  9798.406
 210  9068.11
 211  9156.226
 212  8982.866
 213  9608.804
 214  9759.051
 215  10001.05
 216  9925.909
 217  9645.607
 218  9658.415
 219  9653.05
 220  9575.266
 221  9907.139
 222  9543.281
 223  9448.623
 224  9439.576
 225  9339.552
 226  9336.704
 227  9072.016
 228  9113.222
 229  9223.526
 230  9128.315
 231  9351.507
 232  9381.827
 233  9085.078
 234  9167.789
 235  9080.255
 236  9600.368
 237  9711.387
 238  9585.694
 239  9404.449
 240  9331.221
 241  9373.358
 242  10056.84
 243  9867.007
 244  9902.153
 245  9547.515
 246  9333.237
 247  9039.562
 248  9062.278
 249  9332.202
 250  10157.53
 251  9886.76
 252  9760.055
 253  9095.105
 254  9095.068
 255  9353.047
 256  9574.727
 257  9885.932
 258  9943.688
 259  9882.973
 260  9515.96
 261  9341.202
 262  9180.239
 263  9411.283
 264  9607.826
 265  9793.026
 266  9530.695
 267  9128.074
 268  8861.013
 269  9071.41
 270  9303.673
 271  9614.378
 272  9731.704
 273  10298.19
 274  10234.5
 275  10067.57
 276  9530.363
 277  9162.026
 278  8895.26
 279  9132.101
 280  9668.904
 281  9743.238
 282  9457.911
 283  9194.011
 284  9113.004
 285  9197.312
 286  9825.73
 287  9795.552
 288  9441.807
 289  9386.815
 290  9341.42
 291  9290.64
 292  8786.741
 293  9190.071
 294  9523.576
 295  9260.396
 296  8809.284
 297  8672.123
 298  8660.554
 299  8901.812
 300  8884.147
 301  9398.386
 302  9718.394
 303  9560.959
 304  9345.017
 305  9289.448
 306  9108.741
 307  9298.295
 308  8967.307
 309  9106.851
 310  9067.539
 311  8715.534
 312  8801.466
 313  8938.465
 314  9417.138
 315  9774.954
 316  9739.547
 317  9785.785
 318  9533.476
 319  9329.635
 320  9771.856
 321  9877.863
 322  9984.093
 323  9752.305
 324  9365.452
 325  8865.687
 326  8595.291
 327  8748.83
 328  9469.49
 329  9818.065
 330  10193.74
 331  9809.997
 332  9332.624
 333  8826.243
 334  9105.569
 335  9719.762
 336  10467.3
 337  10508.99
 338  10320.78
 339  10219.41
 340  10029.43
 341  9834.207
 342  9749.12
 343  9843.459
 344  10271.31
 345  10189.45
 346  9743.919
 347  9287.314
 348  9454.063
 349  9802.24
 350  9890.846
 351  9810.349
 352  9814.559
 353  9695.345
 354  9530.668
 355  9205.203
 356  9524.193
 357  9876.139
 358  9848.06
 359  9600.379
 360  9265.014
 361  8948.645
 362  8666.829
 363  9034.716
 364  9179.028
 365  8894.562
 366  8627.574
 367  8859.756
 368  8987.069
 369  8867.728
 370  8903.841
 371  9177.871
 372  9961.387
 373  9934.916
 374  10119.69
 375  9510.483
 376  8879.508
 377  8712.723
 378  8729.203
 379  9131.856
 380  9526.534
 381  9594.627
 382  9696.732
 383  9591.1
 384  9122.427
 385  9104.326
 386  8868.485
 387  9333.519
 388  9727.904
 389  9553.402
 390  9311.562
 391  8736.243
 392  8901.381
 393  9509.152
 394  9592.27
 395  9363.367
 396  8958.074
 397  8547.052
 398  8361.331
 399  8411.939
 400  9267.217
 401  9851.324
 402  9736.838
 403  9743.215
 404  9766.979
 405  9217.323
 406  8925.058
 407  8922.922
 408  9302.156
 409  9674.683
 410  9736.791
 411  9590.038
 412  9265.475
 413  8764.982
 414  9150.713
 415  9217.783
 416  9657.115
 417  9797.634
 418  9436.606
 419  9233.813
 420  9309.815
 421  9517.795
 422  9872.312
 423  9485.322
 424  9541.409
 425  9435.267
 426  9218.75
 427  9282.395
 428  9177.904
 429  9196.862
 430  9664.243
 431  9602.919
 432  9659.418
 433  9419.169
 434  9609.357
 435  9927.111
 436  10122.14
 437  10524.85
 438  10216.2
 439  9907.93
 440  9445.58
 441  9727.099
 442  9808.72
 443  9767.235
 444  10015.21
 445  10053.44
 446  9815.16
 447  9349.3
 448  9182.505
 449  9452.562
 450  9997.924
 451  10170.89
 452  10029.24
 453  9982.954
 454  9824.215
 455  10121.8
 456  9763.968
 457  10022.32
 458  10149.82
 459  10080.51
 460  9839.709
 461  9356.082
 462  8981.304
 463  9076.446
 464  9153.33
 465  9662.388
 466  10055.71
 467  9515.567
 468  9290.038
 469  9218.186
 470  9566.461
 471  10044.64
 472  9657.853
 473  9651.594
 474  9229.347
 475  9062.584
 476  9098.597
 477  9400.196
 478  9440.186
 479  10025.5
 480  9789.714
 481  9935.402
 482  9610.729
 483  9386.647
 484  9448.979
 485  9388.035
 486  9709.585
 487  10055.1
 488  10093.52
 489  9829.782
 490  9599.198
 491  9225.685
 492  9639.124
 493  9646.978
 494  9670.24
 495  9872.435
 496  10061.59
 497  10080.92
 498  9974.974
 499  9830.132
 500  10313.71
 501  10445.77
 502  10604.66
 503  10190.54
 504  9702.976
 505  9562.091
 506  9601.869
 507  9827.27
 508  9901.729
 509  10184.2
 510  10128.24
 511  9823.874
 512  9438.025
 513  9565.378
 514  9654.757
 515  9840.006
 516  9995.639
 517  9918.547
 518  9864.949
 519  9388.957
 520  9471.416
 521  9358.185
 522  9601.42
 523  10034.01
 524  10127.06
 525  9675.936
 526  9615.127
 527  9577.368
 528  9949.735
 529  9702.997
 530  9845.311
 531  9758.383
 532  9694.288
 533  9946.596
 534  10242.06
 535  9967.118
 536  10312.86
 537  10500.58
 538  10321.06
 539  9601.021
 540  8933.6
 541  8860.161
 542  9071.814
 543  9264.486
 544  9839.177
 545  9918.138
 546  10040.82
 547  9987.737
 548  9733.447
 549  9945.605
 550  9772.143
 551  9972.938
 552  10130.6
 553  9792.621
 554  9309.837
 555  8879.911
 556  9006.531
 557  9424.566
 558  9568.201
 559  10046.92
 560  10551.36
 561  10262.97
 562  9474.51
 563  8837.366
 564  9246.801
 565  9931.269
 566  9817.46
 567  9821.267
 568  9668.748
 569  9175.799
 570  9211.596
 571  9286.137
 572  9595.272
 573  9606.553
 574  9320.654
 575  9428.303
 576  9103.229
 577  9066.64
 578  9278.349
 579  9528.508
 580  10154.84
 581  10239.69
 582  9805.868
 583  9321.416
 584  9392.944
 585  9504.334
 586  9860.663
 587  9674.235
 588  9585.722
 589  9096.174
 590  8842.845
 591  8856.871
 592  8961.52
 593  9214.246
 594  9673.619
 595  9726.277
 596  9683.968
 597  9421.899
 598  9511.652
 599  9549.865
 600  9696.727
 601  9738.61
 602  9743.572
 603  9327.271
 604  9157.959
 605  8892.513
 606  8964.181
 607  8878.199
 608  9296.961
 609  9530.646
 610  9528.562
 611  9295.768
 612  9201.171
 613  8936.042
 614  9039.86
 615  9506.622
 616  9547.828
 617  9612.685
 618  9433.388
 619  9611.831
 620  9223.453
 621  9255.084
 622  9999.281
 623  10307.43
 624  10344.24
 625  10264.84
 626  10351.09
 627  10320.52
 628  10081.02
 629  10309.83
 630  10590.34
 631  10485.44
 632  10662.49
 633  10551.12
 634  10007.92
 635  9511.039
 636  9239.467
 637  9391.379
 638  9503.356
 639  9636.955
 640  9737.958
 641  9632.192
 642  9237.086
 643  9767.646
 644  9708.212
 645  9839.779
 646  9629.319
 647  9425.612
 648  9341.378
 649  9042.044
 650  8950.441
 651  9501.726
 652  9711.327
 653  9849.894
 654  9361.732
 655  9007.973
 656  9091.445
 657  9142.008
 658  9314.154
 659  9465.701
 660  9491.144
 661  9450.961
 662  9683.82
 663  9435.239
 664  9533.225
 665  9548.044
 666  9975.853
 667  10121.52
 668  9492.78
 669  8960.709
 670  9115.672
 671  9053.213
 672  9876.027
 673  9556.58
 674  9817.01
 675  9357.401
 676  9461.818
 677  9364.858
 678  9327.689
 679  9446.605
 680  9957.348
 681  10121.93
 682  10217.71
 683  10032.85
 684  9902.864
 685  9557.563
 686  9782.604
 687  9886.96
 688  9991.174
 689  9809.131
 690  9813.664
 691  9407.491
 692  8877.696
 693  8870.947
 694  9170.819
 695  9553.521
 696  10110.77
 697  10033.85
 698  9752.623
 699  9346.232
 700  9536.513
 701  9608.732
 702  9644.95
 703  9892.954
 704  9851.804
 705  9622.049
 706  9090.652
 707  8868.235
 708  9388.686
 709  9707.854
 710  10125.86
 711  10103.94
 712  9878.331
 713  10001.01
 714  9666.977
 715  9979.563
 716  10131.14
 717  10457
 718  10345.4
 719  9886.368
 720  9563.808
 721  9636.616
 722  9795.742
 723  9759.152
 724  9521.122
 725  9310.661
 726  9146.486
 727  9490.5
 728  9373.229
 729  9898.633
 730  9847.328
 731  10016.87
 732  10036.87
 733  9293.2
 734  8759.723
 735  8526.077
 736  8902.132
 737  9581.961
 738  9349.885
 739  9421.92
 740  9304.497
 741  9353.116
 742  9737.506
 743  10136.63
 744  10439.41
 745  10490.77
 746  10051.49
 747  9630.166
 748  9311.113
 749  8921.725
 750  9225.398
 751  9348.597
 752  9753.586
 753  9957.425
 754  9929.864
 755  10034.89
 756  9840.837
 757  9759.974
 758  10009.45
 759  9948.167
 760  10229.54
 761  10240.25
 762  10353.17
 763  10168.21
 764  10077.84
 765  10110.02
 766  10383.05
 767  10442.42
 768  11026.16
 769  10791.11
 770  10280.59
 771  9738.459
 772  9888.787
 773  9808.993
 774  9800.091
 775  9576.078
 776  9122.379
 777  8685.372
 778  8697.125
 779  9044.479
 780  9307.196
 781  9427.13
 782  9447.266
 783  9441.637
 784  9232.637
 785  8906.681
 786  9286.617
 787  9785.319
 788  9957.354
 789  9769.367
 790  9497.097
 791  9428.134
 792  9107.874
 793  9113.313
 794  9217.637
 795  9425.913
 796  9449.987
 797  9707.841
 798  9638.505
 799  9593.292
 800  9140.912
 801  9419.482
 802  9884.236
 803  9990.763
 804  9842.958
 805  9439.533
 806  9266.645
 807  9244.969
 808  9352.729
 809  9871.854
 810  10229.7
 811  10397.48
 812  10385.59
 813  10396.07
 814  9985.383
 815  10211.25
 816  10227.99
 817  10437.75
 818  10659.34
 819  10151.46
 820  9433.943
 821  8865.808
 822  9000.475
 823  9614.331
 824  9640.479
 825  9443.567
 826  9399.563
 827  8782.782
 828  9127.434
 829  9259.827
 830  9932.182
 831  10064.51
 832  9899.419
 833  9895.829
 834  9810.032
 835  9415.417
 836  9350.433
 837  9254.739
 838  9406.374
 839  9486.797
 840  9197.548
 841  9202.597
 842  9083.018
 843  9150.938
 844  9259.954
 845  9108.912
 846  9597.401
 847  9808.926
 848  9954.602
 849  9589.856
 850  9388.842
 851  9653.595
 852  9928.696
 853  10073.07
 854  10071.78
 855  10315.27
 856  10160.06
 857  9653.574
 858  9483.726
 859  9430.835
 860  9549.206
 861  9683.42
 862  10168.21
 863  10509.92
 864  10240.58
 865  9960.969
 866  9594.519
 867  9437.97
 868  9338.815
 869  9163.008
 870  9487.312
 871  9589.146
 872  9699.666
 873  9518.453
 874  9446.224
 875  9528.079
 876  9211.825
 877  9406.259
 878  9309.582
 879  9298.048
 880  9457.499
 881  9464
 882  9534.283
 883  9686.636
 884  9488.038
 885  9616.549
 886  8867.706
 887  9023.711
 888  8907.354
 889  9225.24
 890  9124.696
 891  8846.356
 892  8343.113
 893  8573.016
 894  8591.699
 895  8884.671
 896  8947.505
 897  8980.264
 898  9033.647
 899  8856.404
 900  8836.889
 901  9179.086
 902  9023.237
 903  9267.946
 904  9255.091
 905  8951.323
 906  9159.549
 907  9189.712
 908  8951.445
 909  8832.569
 910  8625.784
 911  9094.975
 912  8949.362
 913  8572.77
 914  8258.511
 915  8208.349
 916  8787.783
 917  9313.993
 918  9075.783
 919  8793.001
 920  8705.644
 921  8555.308
 922  8994.056
 923  8813.249
 924  9257.528
 925  9546
 926  9320.663
 927  8975.534
 928  8838.146
 929  9252.658
 930  9476.174
 931  9371.204
 932  9317.835
 933  9231.389
 934  8945.253
 935  8667.993
 936  8618.331
 937  8713.112
 938  9319.452
 939  9550.36
 940  10007.43
 941  9772.287
 942  9534.741
 943  9709.778
 944  9595.96
 945  9705.346
 946  9731.91
 947  9846.425
 948  9681.335
 949  9049.149
 950  9014.179
 951  8957.354
 952  9047.659
 953  9400.469
 954  9757.319
 955  9695.586
 956  9086.886
 957  8774.979
 958  9210.906
 959  9288.151
 960  9493.564
 961  9169.427
 962  9108.07
 963  9045.623
 964  8892.901
 965  9119.32
 966  9509.763
 967  9714.306
 968  9643.451
 969  9646.166
 970  9541.79
 971  9435.197
 972  9157.069
 973  9428.073
 974  9472.956
 975  8896.846
 976  8920.945
 977  9062.09
 978  8917.281
 979  9323.45
 980  9377.371
 981  9692.132
 982  9574.446
 983  9450.953
 984  9230.642
 985  8714.267
 986  8610.303
 987  9061.99
 988  8932.102
 989  9152.907
 990  9212.034
 991  9188.857
 992  9142.239
 993  9616.121
 994  9813.181
 995  9769.588
 996  9232.135
 997  9333.961
 998  9212.05
 999  8751.41
1000  8668.904
1001  8815.158
1002  8904.956
1003  9132.673
1004  9109.11
1005  9308.879
1006  9513.941
1007  9573.032
1008  9905.991
1009  10052.98
1010  10295.43
1011  10238.09
1012  9670.323
1013  9414.04
1014  9220.546
1015  9315.618
1016  9805.257
1017  9684.406
1018  9839.221
1019  9779.188
1020  9655.234
1021  9225.763
1022  8812.685
1023  9033.168
