# Input file       =  1196779532.114438_cleaned.dat
# Candidate        =  PSR_0332+5434
# Telescope        =  AR
# Epoch_topo       =  58095.615174935629
# Epoch_bary       =  N/A
# T_sample         =  0.002
# Data Folded      =  7208960
# Data Avg         =  0.0420884097263354
# Data StdDev      =  1.00001098436857 
# Profile Bins     =  512
# Profile Avg      =  592.597833197662 
# Profile StdDev   =  118.660479189652 
# Reduced chi-sqr  =  1.098
# Prob(Noise)      <  0.0628   (~1.5 sigma)
# P_topo (ms)      =  714.533476313538  +/- 4.17e-05
# P'_topo (s/s)    =  -0                +/- 2.24e-11
# P''_topo (s/s^2) =  0                 +/- 1.01e-14
# P_bary (ms)      =  N/A
# P'_bary (s/s)    =  N/A
# P''_bary (s/s^2) =  N/A
# P_orb (s)        =  N/A
# asin(i)/c (s)    =  N/A
# eccentricity     =  N/A
# w (rad)          =  N/A
# T_peri           =  N/A
######################################################
   0  856.4057
   1  966.4396
   2  758.8844
   3  591.3972
   4  469.8591
   5  610.4968
   6  549.4955
   7  624.0375
   8  604.702
   9  651.4261
  10  572.5988
  11  530.9202
  12  578.4766
  13  429.8018
  14  495.6879
  15  438.9041
  16  602.7419
  17  696.0034
  18  681.5983
  19  584.3143
  20  520.0364
  21  434.0489
  22  476.5885
  23  554.6455
  24  628.1927
  25  612.3155
  26  589.7321
  27  655.5074
  28  494.8414
  29  476.204
  30  660.0314
  31  592.4163
  32  614.613
  33  600.2798
  34  592.5237
  35  619.0428
  36  602.5666
  37  510.1005
  38  507.3596
  39  475.7444
  40  467.9869
  41  560.3664
  42  607.3673
  43  490.5696
  44  536.9262
  45  566.2551
  46  556.512
  47  578.4037
  48  533.6855
  49  472.9503
  50  424.4751
  51  666.4828
  52  598.7958
  53  603.7037
  54  643.7875
  55  544.4642
  56  488.6676
  57  640.8828
  58  724.1679
  59  681.9002
  60  735.9734
  61  642.7391
  62  559.3455
  63  637.2503
  64  575.8966
  65  578.627
  66  571.4022
  67  640.9657
  68  596.9726
  69  657.1044
  70  640.0833
  71  602.1259
  72  605.994
  73  554.4686
  74  651.4578
  75  622.2896
  76  664.2723
  77  552.2538
  78  543.2457
  79  648.6941
  80  591.6142
  81  598.5789
  82  654.5529
  83  651.9697
  84  629.2144
  85  606.8506
  86  618.3431
  87  660.9909
  88  672.051
  89  621.0551
  90  633.1268
  91  711.304
  92  648.819
  93  656.9095
  94  600.2243
  95  529.8679
  96  584.3295
  97  570.8011
  98  528.0759
  99  664.4194
 100  715.6021
 101  554.9928
 102  537.1962
 103  574.2445
 104  617.4539
 105  675.5016
 106  586.0258
 107  588.4401
 108  633.2198
 109  641.5837
 110  706.1953
 111  562.7572
 112  634.7388
 113  655.0481
 114  584.0978
 115  430.2027
 116  414.8603
 117  549.0386
 118  660.0963
 119  781.9255
 120  696.9135
 121  498.3179
 122  460.7193
 123  566.3815
 124  541.7576
 125  636.8315
 126  694.9843
 127  532.6621
 128  504.2688
 129  614.316
 130  645.7811
 131  662.6738
 132  629.4501
 133  536.9661
 134  660.0715
 135  658.3722
 136  523.688
 137  542.1073
 138  501.0503
 139  545.0196
 140  620.467
 141  571.1997
 142  730.741
 143  752.5302
 144  712.2033
 145  604.2959
 146  484.0566
 147  535.7285
 148  624.4833
 149  628.9039
 150  720.2463
 151  687.2469
 152  595.2341
 153  389.1574
 154  465.3626
 155  583.991
 156  585.7742
 157  648.859
 158  596.2286
 159  656.3466
 160  675.0978
 161  668.1273
 162  618.3016
 163  487.2184
 164  610.2382
 165  696.9621
 166  678.6127
 167  700.8757
 168  623.2563
 169  530.9825
 170  617.1726
 171  510.2609
 172  572.7098
 173  600.651
 174  555.5799
 175  696.3607
 176  714.9993
 177  560.9811
 178  460.9369
 179  485.8153
 180  436.8377
 181  490.7
 182  625.73
 183  654.0363
 184  547.8762
 185  506.4019
 186  607.9147
 187  534.9248
 188  488.8746
 189  680.3381
 190  658.048
 191  715.2469
 192  799.909
 193  722.9019
 194  602.5586
 195  608.4966
 196  600.4796
 197  513.381
 198  477.7179
 199  626.7426
 200  744.7583
 201  679.4427
 202  651.8779
 203  597.0003
 204  561.1912
 205  561.7959
 206  508.8849
 207  612.3854
 208  606.9127
 209  690.3061
 210  760.4926
 211  722.1157
 212  618.0912
 213  627.7067
 214  598.9764
 215  493.9644
 216  608.2375
 217  699.8812
 218  629.072
 219  562.9861
 220  522.7979
 221  408.3111
 222  406.072
 223  532.4681
 224  627.4424
 225  715.549
 226  635.4374
 227  503.1091
 228  550.7978
 229  569.5311
 230  573.4449
 231  607.8372
 232  710.1393
 233  649.9724
 234  570.2886
 235  673.1971
 236  581.4451
 237  480.3817
 238  474.5811
 239  436.9796
 240  478.4013
 241  672.5317
 242  547.2908
 243  519.9325
 244  430.2003
 245  533.8093
 246  671.0705
 247  654.0824
 248  777.3245
 249  686.0055
 250  625.9958
 251  582.5958
 252  632.0749
 253  629.6724
 254  500.4202
 255  559.7556
 256  672.7184
 257  739.8452
 258  806.3894
 259  654.0435
 260  533.2244
 261  552.4203
 262  548.4341
 263  561.755
 264  567.7127
 265  593.6074
 266  705.8991
 267  631.6425
 268  576.1158
 269  570.1293
 270  570.1031
 271  596.4616
 272  538.1387
 273  629.5876
 274  693.934
 275  604.6806
 276  679.7906
 277  483.3887
 278  498.2195
 279  649.6652
 280  682.6846
 281  531.2258
 282  681.3428
 283  724.9435
 284  659.2302
 285  535.6789
 286  595.6752
 287  512.6921
 288  471.1842
 289  522.8954
 290  630.3091
 291  543.2718
 292  534.5399
 293  611.0149
 294  560.6342
 295  531.8951
 296  513.1706
 297  576.0827
 298  766.1555
 299  828.3608
 300  617.012
 301  596.5983
 302  517.6553
 303  462.2182
 304  512.793
 305  586.0195
 306  728.8002
 307  645.4064
 308  642.0963
 309  610.9735
 310  515.8824
 311  530.0335
 312  613.1873
 313  743.225
 314  628.6467
 315  577.7987
 316  525.1111
 317  593.3579
 318  407.0843
 319  453.3332
 320  482.1008
 321  634.4332
 322  657.3654
 323  533.0916
 324  557.1481
 325  606.1735
 326  443.3893
 327  496.2752
 328  585.2499
 329  567.2797
 330  559.5031
 331  709.7389
 332  725.6766
 333  588.2281
 334  543.2089
 335  650.5879
 336  573.5117
 337  558.27
 338  557.7704
 339  705.9144
 340  745.6525
 341  702.8586
 342  646.0416
 343  573.5659
 344  404.3325
 345  398.4745
 346  488.7652
 347  634.6017
 348  629.7216
 349  611.3134
 350  544.3005
 351  361.0442
 352  489.3828
 353  473.8943
 354  460.4952
 355  484.5849
 356  557.0698
 357  634.3954
 358  628.53
 359  626.4388
 360  496.6551
 361  460.6267
 362  611.0667
 363  533.1125
 364  580.6638
 365  688.4215
 366  736.0637
 367  642.2838
 368  494.3365
 369  386.6117
 370  490.9829
 371  517.5455
 372  539.826
 373  626.9402
 374  674.3848
 375  623.4682
 376  660.2405
 377  603.5125
 378  546.2132
 379  535.2451
 380  610.836
 381  687.7233
 382  668.2415
 383  554.0231
 384  464.1039
 385  494.4504
 386  551.4782
 387  639.7374
 388  519.0458
 389  675.0569
 390  667.3474
 391  574.0349
 392  520.3035
 393  407.3719
 394  585.8868
 395  526.123
 396  597.6564
 397  751.2919
 398  758.7646
 399  764.5523
 400  549.3976
 401  390.4544
 402  451.7133
 403  495.4626
 404  497.4382
 405  583.4191
 406  737.0572
 407  717.8868
 408  641.1415
 409  712.278
 410  608.3667
 411  591.5756
 412  481.3581
 413  569.3813
 414  687.806
 415  639.9688
 416  713.1661
 417  629.2111
 418  561.5184
 419  543.5863
 420  606.4279
 421  541.8892
 422  479.5778
 423  607.3898
 424  601.97
 425  424.2058
 426  389.8577
 427  445.7695
 428  399.6084
 429  497.5513
 430  765.049
 431  770.2719
 432  587.4465
 433  518.7924
 434  483.8022
 435  593.0159
 436  545.4541
 437  580.0012
 438  505.3632
 439  561.8621
 440  594.7073
 441  639.833
 442  646.2258
 443  499.387
 444  508.7438
 445  495.3914
 446  484.4224
 447  582.0145
 448  626.2512
 449  501.9244
 450  401.8821
 451  410.1942
 452  350.9916
 453  515.9174
 454  604.007
 455  522.4928
 456  571.2378
 457  572.2328
 458  585.2303
 459  602.0412
 460  586.4116
 461  665.6895
 462  640.4954
 463  670.9302
 464  616.7733
 465  576.4754
 466  623.4113
 467  536.3059
 468  468.1388
 469  600.5372
 470  577.3942
 471  480.4395
 472  515.8472
 473  589.8557
 474  623.9803
 475  576.7237
 476  509.377
 477  685.2188
 478  560.7291
 479  480.8021
 480  623.6387
 481  723.2076
 482  566.5206
 483  575.3341
 484  486.39
 485  499.7784
 486  576.2706
 487  796.5746
 488  762.3777
 489  687.9156
 490  718.3157
 491  593.218
 492  591.951
 493  611.3246
 494  645.734
 495  615.3231
 496  593.3813
 497  719.9628
 498  670.3819
 499  601.3601
 500  627.5892
 501  499.6775
 502  472.5114
 503  756.3254
 504  804.1248
 505  694.9904
 506  699.7151
 507  683.863
 508  702.5875
 509  795.9246
 510  907.8905
 511  829.5511
