# Input file       =  1196981508.116393_cleaned.dat
# Candidate        =  PSR_0332+5434
# Telescope        =  AR
# Epoch_topo       =  58097.952860143436
# Epoch_bary       =  N/A
# T_sample         =  0.002
# Data Folded      =  7340032
# Data Avg         =  1.0096679929359  
# Data StdDev      =  9.22400161658685 
# Profile Bins     =  1024
# Profile Avg      =  7237.09057025447 
# Profile StdDev   =  780.94125985109  
# Reduced chi-sqr  =  0.610
# Prob(Noise)      <  1   (~0.0 sigma)
# P_topo (ms)      =  714.536201095379  +/- 0.00012
# P'_topo (s/s)    =  -0                +/- 6.33e-11
# P''_topo (s/s^2) =  0                 +/- 2.79e-14
# P_bary (ms)      =  N/A
# P'_bary (s/s)    =  N/A
# P''_bary (s/s^2) =  N/A
# P_orb (s)        =  N/A
# asin(i)/c (s)    =  N/A
# eccentricity     =  N/A
# w (rad)          =  N/A
# T_peri           =  N/A
######################################################
   0  6976.147
   1  7051.639
   2  7351.934
   3  7181.705
   4  7305.722
   5  7206.753
   6  7337.59
   7  7137.399
   8  6825.399
   9  6761.942
  10  7035.693
  11  7184.801
  12  7305.971
  13  6951.945
  14  6787.069
  15  6827.415
  16  6717.944
  17  6995.15
  18  7167.195
  19  7319.145
  20  7629.953
  21  7478.167
  22  7334.525
  23  7640.241
  24  7628.024
  25  7756.143
  26  7468.639
  27  7148.807
  28  7181.964
  29  6723.938
  30  6936.335
  31  7007.172
  32  6829.206
  33  7395.145
  34  7467.999
  35  7672.867
  36  7726.667
  37  7794.067
  38  8012.927
  39  8038.567
  40  8070.621
  41  8256.774
  42  8063.986
  43  8042.816
  44  8154.96
  45  7725.636
  46  7590.731
  47  7509.811
  48  7520.154
  49  7708.823
  50  7285.109
  51  7417.074
  52  7423.758
  53  7209.035
  54  7404.748
  55  7543.04
  56  7732.383
  57  7829.54
  58  7694.848
  59  7961.601
  60  7930.101
  61  7592.65
  62  7453.536
  63  7046.675
  64  6884.965
  65  6930.957
  66  6987.244
  67  7115.333
  68  6895.318
  69  7073.315
  70  7237.552
  71  7101.631
  72  7065.901
  73  6905.688
  74  6720.15
  75  6704.031
  76  7138.943
  77  7490.189
  78  7392.277
  79  6783.549
  80  6703.016
  81  6760.368
  82  7087.763
  83  7283.099
  84  7312.374
  85  7118.324
  86  6824.505
  87  6829.108
  88  6982.204
  89  6908.347
  90  6750.805
  91  6578.878
  92  6632.692
  93  6713.702
  94  6671.274
  95  6767.751
  96  6820.732
  97  6887.729
  98  7050.255
  99  7016.712
 100  7142.277
 101  7428.626
 102  7246.922
 103  7106.913
 104  6940.615
 105  6886.303
 106  7020.065
 107  6938.25
 108  6982.445
 109  7286.105
 110  7019.291
 111  6864.88
 112  6671.819
 113  6663.9
 114  7069.323
 115  6926.185
 116  7187.748
 117  7175.085
 118  7089.677
 119  7283.48
 120  7020.077
 121  7115.514
 122  7249.641
 123  6870.781
 124  6858.423
 125  6765.705
 126  6867.412
 127  6864.15
 128  6709.185
 129  6665.384
 130  6611.262
 131  6277.786
 132  6515.432
 133  6565.247
 134  6972.762
 135  7198.782
 136  7125.501
 137  7243.431
 138  7620.479
 139  7588.127
 140  7682.889
 141  7614.403
 142  7633.421
 143  7636.804
 144  7370.811
 145  7474.097
 146  7322.897
 147  7095.899
 148  7290.256
 149  7192.886
 150  7304.98
 151  7205.226
 152  7053.792
 153  7205.117
 154  7183.002
 155  7710.323
 156  7754.296
 157  7339.632
 158  7238.312
 159  7565.027
 160  7747.935
 161  7570.134
 162  7269.718
 163  7230.29
 164  7201.529
 165  7056.569
 166  7256.278
 167  7251.601
 168  7322.423
 169  7391.124
 170  7540.938
 171  7688.015
 172  7642.093
 173  7705.485
 174  7748.255
 175  7491.615
 176  7417.462
 177  7174.998
 178  7048.033
 179  6862.965
 180  6643.087
 181  6793.343
 182  6806.098
 183  6701.149
 184  6898.995
 185  6999.457
 186  7083.612
 187  7139.351
 188  7049.662
 189  7676.789
 190  7845.934
 191  8049.473
 192  8324.062
 193  8130.389
 194  8035.046
 195  7793.049
 196  7409.687
 197  7298.395
 198  6982.711
 199  6771.972
 200  6602.599
 201  6091.196
 202  6511.811
 203  6890.154
 204  6903.254
 205  7465.086
 206  7354.387
 207  7591.83
 208  7534.275
 209  7385.856
 210  7733.767
 211  7630.235
 212  7367.905
 213  7388.878
 214  7263.158
 215  7356.027
 216  7358.681
 217  7209.811
 218  7174.545
 219  7048.472
 220  6985.918
 221  7281.643
 222  7064.663
 223  7144.595
 224  7354.225
 225  7283.006
 226  7347.246
 227  7103.161
 228  7007.983
 229  6706.717
 230  6413.584
 231  6500.2
 232  7157.208
 233  7047.446
 234  7055.435
 235  6838.109
 236  6834.453
 237  6879.869
 238  6699.572
 239  6868.424
 240  7076.073
 241  7169.235
 242  7386.664
 243  7509.138
 244  7788.166
 245  7700.711
 246  7454.608
 247  7140.557
 248  7141.833
 249  7176.564
 250  7221.499
 251  7134.13
 252  7419.874
 253  7847.466
 254  8155.183
 255  8002.586
 256  7570.812
 257  7458.934
 258  7299.101
 259  7288.564
 260  7079.198
 261  7206.277
 262  7588.23
 263  7842.458
 264  7899.555
 265  7872.836
 266  7452.26
 267  7564.752
 268  7629.481
 269  7480.922
 270  7529.932
 271  7448.347
 272  7607.404
 273  7901.526
 274  7784.229
 275  7750.566
 276  7548.942
 277  7534.136
 278  7556.532
 279  7493.229
 280  7479.567
 281  7519.333
 282  6986.287
 283  7185.849
 284  7142.489
 285  7202.389
 286  7207.318
 287  7106.042
 288  6991.445
 289  7207.523
 290  7124.36
 291  7445.397
 292  7072.861
 293  7059.438
 294  7357.52
 295  7132.412
 296  7087.013
 297  6866.791
 298  6734.52
 299  6765.906
 300  6719.786
 301  6865.313
 302  6917.778
 303  6714.998
 304  7159.687
 305  7478.408
 306  7418.128
 307  7405.777
 308  7190.291
 309  7203.642
 310  6891.099
 311  6477.733
 312  6744.875
 313  6714.236
 314  6730.699
 315  7117.144
 316  7027.278
 317  7159.57
 318  6984.125
 319  6854.632
 320  7169.935
 321  6999.645
 322  7353.112
 323  7509.307
 324  7475.579
 325  7669.006
 326  7540.489
 327  7377.063
 328  7112.075
 329  6906.319
 330  7179.325
 331  7101.386
 332  6952.712
 333  6964.122
 334  6974.454
 335  7354.306
 336  7641.426
 337  7820.946
 338  7667.853
 339  7506.179
 340  7738.266
 341  7801.169
 342  7502.001
 343  7487.211
 344  7436.318
 345  7426.365
 346  7157.634
 347  7149.661
 348  7435.647
 349  7432.212
 350  7395.628
 351  7343.163
 352  7324.107
 353  7452.373
 354  7260.312
 355  7236.819
 356  7358.749
 357  7216.996
 358  7328.685
 359  7341.765
 360  7270.932
 361  7226.14
 362  7164.193
 363  6995.293
 364  7231.238
 365  7024.358
 366  7105.147
 367  7030.198
 368  6860.879
 369  7255.468
 370  7254.759
 371  7587.936
 372  7687.864
 373  7483.732
 374  7428.693
 375  7383.978
 376  7018.491
 377  6942.041
 378  6530.931
 379  6777.397
 380  7058.251
 381  7192.914
 382  7233.195
 383  7304.464
 384  7017.15
 385  7367.242
 386  7193.925
 387  7333.244
 388  7520.237
 389  7272.456
 390  7223.08
 391  6785.824
 392  6880.717
 393  7292.488
 394  7218
 395  7276.314
 396  7184.916
 397  6950.401
 398  7140.555
 399  7104.155
 400  7100.801
 401  6909.57
 402  6568.213
 403  6627.193
 404  6677.362
 405  6765.357
 406  6918.9
 407  6969.371
 408  7094.671
 409  7294.986
 410  7295.503
 411  7037.048
 412  6930.679
 413  7088.059
 414  7440.719
 415  7421.841
 416  7261.982
 417  7083.715
 418  7060.307
 419  7011.74
 420  6976.956
 421  6922.234
 422  6982.252
 423  7187.684
 424  7204.28
 425  7109.549
 426  7001.035
 427  7138.643
 428  7221.793
 429  7401.088
 430  7376.167
 431  7190.897
 432  7011.387
 433  6888.621
 434  7012.483
 435  6861.106
 436  6794.835
 437  6880.342
 438  6713.09
 439  6794.729
 440  7056.084
 441  7109.364
 442  7561.485
 443  7642.037
 444  7682.758
 445  7386.894
 446  7248.181
 447  7446.619
 448  7443.479
 449  7232.792
 450  7295.995
 451  7050.844
 452  7045.059
 453  7085.903
 454  6980.352
 455  7166.385
 456  7046.806
 457  7233.842
 458  7569.321
 459  7201.436
 460  7078.888
 461  6990.868
 462  6885.063
 463  6920.751
 464  6656.196
 465  6882.753
 466  7199.525
 467  6972.068
 468  7143.059
 469  7127.538
 470  6995.828
 471  6982.812
 472  6553.66
 473  6778.177
 474  6902.905
 475  6884.938
 476  6937.51
 477  6876.126
 478  7070.242
 479  7354.334
 480  7164.181
 481  7233.121
 482  7227.148
 483  7169.95
 484  7290.246
 485  7349.692
 486  7517.905
 487  7648.7
 488  7519.406
 489  7543.645
 490  7605.134
 491  7461.308
 492  7759.964
 493  7941.007
 494  8032.808
 495  7793.629
 496  7537.455
 497  7415.259
 498  7451.032
 499  7529.401
 500  7688.936
 501  7424.389
 502  7678.194
 503  7791.911
 504  7726.082
 505  7596.908
 506  7508.507
 507  7560.194
 508  7464.329
 509  7321.082
 510  7397.381
 511  7329.647
 512  7241.875
 513  7396.565
 514  7589.648
 515  7548.205
 516  7278.522
 517  7198.854
 518  7381.456
 519  7071.348
 520  6987.945
 521  7072.87
 522  7030.459
 523  7181.907
 524  6822.547
 525  6818.337
 526  6874.565
 527  7021.833
 528  7238.225
 529  7010.568
 530  7106.255
 531  7235.056
 532  7046.64
 533  7088.612
 534  7132.669
 535  7103.322
 536  7324.165
 537  7041.813
 538  7221.27
 539  7271.214
 540  7095.28
 541  7025.158
 542  6675.841
 543  6506.901
 544  6592.165
 545  6575.034
 546  6931.995
 547  7074.255
 548  6985.933
 549  7111.903
 550  6984.222
 551  7197.154
 552  7483.392
 553  7163.335
 554  7164.475
 555  6996.6
 556  6688.39
 557  6480.752
 558  6333.833
 559  6822.274
 560  7242.707
 561  7313.276
 562  7681.731
 563  7511.885
 564  7264.608
 565  7031.472
 566  6953.969
 567  6903.917
 568  7065.803
 569  6829.176
 570  7060.884
 571  7087.029
 572  7211.367
 573  7285.486
 574  7354.573
 575  7580.245
 576  7513.71
 577  7215.887
 578  7251.352
 579  6960.413
 580  6811.611
 581  6902.917
 582  6681.141
 583  6613.9
 584  6501.525
 585  6763.306
 586  6839.662
 587  6779.437
 588  7115.785
 589  7451.786
 590  7588.227
 591  7781.938
 592  7731.804
 593  7812.112
 594  7720.633
 595  7410.601
 596  7145.576
 597  6804.05
 598  6710.601
 599  6897.309
 600  6700.653
 601  6915.794
 602  7157.739
 603  7368.231
 604  7376.072
 605  7227.166
 606  7465.839
 607  7231.655
 608  7001.604
 609  7174.292
 610  7204.473
 611  7425.467
 612  7332.351
 613  7127.525
 614  7310.573
 615  7175.414
 616  7390.434
 617  7478.064
 618  7625.255
 619  7652.901
 620  7671.561
 621  7855.196
 622  8238.208
 623  8139.335
 624  8174.611
 625  8087.328
 626  7725.104
 627  7735.022
 628  7882.72
 629  8003.519
 630  8031.692
 631  7555.819
 632  7609.814
 633  7350.404
 634  7081.752
 635  7156.775
 636  6993.044
 637  7024.587
 638  7272.431
 639  7301.576
 640  7397.875
 641  7403.51
 642  7347.464
 643  7329.192
 644  7173.055
 645  7242.035
 646  7447.118
 647  7277.666
 648  7403.944
 649  7405.684
 650  7297.261
 651  7503.28
 652  7302.249
 653  7486.777
 654  7662.035
 655  7404.052
 656  7270.676
 657  6813.375
 658  7064.756
 659  7731.879
 660  7811.595
 661  7851.995
 662  7548.16
 663  7401.601
 664  7440.727
 665  7371.554
 666  7306.256
 667  7242.377
 668  7292.835
 669  7839.306
 670  7651.197
 671  7390.323
 672  7217.418
 673  7374.971
 674  7926.576
 675  7946.119
 676  7844.46
 677  7907.823
 678  7897.587
 679  7779.137
 680  7464.558
 681  7359.565
 682  7490.472
 683  7613.131
 684  7687.554
 685  7541.335
 686  7358.481
 687  7528.037
 688  7450.902
 689  7456.05
 690  7370.455
 691  7164.772
 692  7292.749
 693  7206.884
 694  7272.419
 695  7400.699
 696  7356.936
 697  7326.283
 698  7341.507
 699  7634.221
 700  7862.4
 701  7513.013
 702  7402.053
 703  7590.625
 704  7488.423
 705  7426.47
 706  7340.808
 707  7373.294
 708  7837.932
 709  7781.651
 710  7992.777
 711  7662.036
 712  7307.576
 713  7548.131
 714  7382.936
 715  7328.914
 716  7364.195
 717  7493.211
 718  7808.204
 719  7434.005
 720  7294.707
 721  7391.321
 722  7325.704
 723  7570.629
 724  7815.883
 725  7777.246
 726  7578.87
 727  7351.742
 728  7134.575
 729  7028.103
 730  6765.741
 731  6776.37
 732  7092.806
 733  6839.267
 734  7077.727
 735  6976.884
 736  7073.578
 737  7379.646
 738  7469.092
 739  7912.157
 740  7680.895
 741  7432.609
 742  7611.968
 743  7674.187
 744  7510.164
 745  7424.592
 746  7332.521
 747  7410.591
 748  7594.016
 749  7520.673
 750  7374.462
 751  7096.252
 752  7211.565
 753  7451.81
 754  7229.309
 755  7256.675
 756  7308.465
 757  7472.632
 758  7776.178
 759  7567.819
 760  7513.898
 761  7391.565
 762  7418.943
 763  7408.95
 764  7459.951
 765  7632.44
 766  7465.061
 767  7532.902
 768  7450.216
 769  7426.023
 770  7317.821
 771  7386.826
 772  7447.688
 773  7248.397
 774  7194.273
 775  7318.55
 776  7647.136
 777  7334.913
 778  7500.625
 779  7231.615
 780  7166.342
 781  7150.257
 782  6829.768
 783  6772.295
 784  6565.181
 785  6622.383
 786  6840.855
 787  6748.641
 788  6868.757
 789  7139.186
 790  6973.162
 791  7119.542
 792  7066.058
 793  6874.73
 794  6963.106
 795  6781.407
 796  7138.013
 797  7211.288
 798  7015.521
 799  7088.539
 800  6604.602
 801  6529.119
 802  6827.798
 803  6855.398
 804  6969.398
 805  6787.312
 806  6593.933
 807  6884.293
 808  6802.105
 809  6924.862
 810  7372.523
 811  7527.881
 812  7808.862
 813  7653.61
 814  7528.099
 815  7561.875
 816  7260.594
 817  7278.334
 818  7123.704
 819  7083.042
 820  6998.556
 821  6817.944
 822  6768.574
 823  6995.523
 824  6987.616
 825  7060.308
 826  7313.892
 827  7408.627
 828  7750.096
 829  7613.506
 830  7577.525
 831  7514.865
 832  7291.745
 833  7202.326
 834  6952.27
 835  6956.748
 836  7183.945
 837  7034.978
 838  7059.841
 839  7133.677
 840  7260.543
 841  7614.557
 842  7515.987
 843  7462.847
 844  7270.706
 845  6928.482
 846  7206.108
 847  7362.096
 848  7521.447
 849  7378.94
 850  7321.063
 851  7198.802
 852  6830.81
 853  6637.966
 854  7114.617
 855  7580.076
 856  7745.923
 857  7305.028
 858  6796.131
 859  6842.258
 860  6856.229
 861  7120.131
 862  7130.486
 863  7182.946
 864  7096.094
 865  6817.601
 866  6812.728
 867  7147.283
 868  7137.008
 869  7272.31
 870  7027.168
 871  6869.34
 872  6986.676
 873  6839.022
 874  6661.057
 875  6485.621
 876  6349.413
 877  6956.634
 878  7075.599
 879  7101.52
 880  7015.319
 881  6876.484
 882  6886.58
 883  7136.04
 884  7054.767
 885  7458.89
 886  7426.614
 887  7375.734
 888  7284.826
 889  6586.789
 890  6704.506
 891  6967.054
 892  6828.963
 893  7062.811
 894  6795.223
 895  6914.081
 896  6970.282
 897  6903.431
 898  7260.985
 899  7206.539
 900  7071.691
 901  7174.793
 902  7047.317
 903  7189.524
 904  7281.026
 905  7194.179
 906  7230.08
 907  7142.675
 908  7237.938
 909  7405.408
 910  7176.197
 911  7277.367
 912  7212.054
 913  7130.759
 914  7262.083
 915  7523.878
 916  7654.357
 917  7918.291
 918  7651.755
 919  7504.58
 920  7322.862
 921  7182.224
 922  7400.057
 923  7344.333
 924  7584.525
 925  7652.251
 926  7705.553
 927  7862.975
 928  7671.523
 929  7737.877
 930  7687.483
 931  7469.802
 932  7492.874
 933  7471.86
 934  7588.223
 935  7772.731
 936  7605.168
 937  7770.58
 938  7332.711
 939  7416.106
 940  7229.625
 941  7399.056
 942  7712.937
 943  7792.081
 944  7630.782
 945  7597.623
 946  7270.855
 947  7157.596
 948  7105.213
 949  6984.226
 950  7169.678
 951  7218.87
 952  7328.984
 953  7293.681
 954  6977.716
 955  7115.789
 956  7303.393
 957  7497.241
 958  7650.289
 959  7411.569
 960  7301.245
 961  7459.844
 962  7204
 963  7406.953
 964  7345.158
 965  7425.704
 966  7510.263
 967  7251.354
 968  7185.32
 969  7132.016
 970  7015.252
 971  7298.511
 972  7038.435
 973  6985.686
 974  7074.432
 975  6953.804
 976  7158.747
 977  7001.787
 978  6822.583
 979  6939.117
 980  6988.759
 981  7134.612
 982  6896.531
 983  6676.107
 984  6802.39
 985  6894.506
 986  6794.895
 987  7031.337
 988  6947.684
 989  7095.248
 990  7313.055
 991  7122.925
 992  7223.06
 993  6922.093
 994  7137.501
 995  7177.491
 996  7011.712
 997  7146.028
 998  7083.344
 999  7134.089
1000  7243.013
1001  6939.805
1002  6759.867
1003  6645.3
1004  6760.823
1005  6855.614
1006  6885.931
1007  6874.322
1008  6899.648
1009  6877.854
1010  6993.537
1011  7231.715
1012  7411.975
1013  7780.257
1014  7943.846
1015  7795.475
1016  7373.697
1017  6894.378
1018  6819.653
1019  6582.908
1020  6585.902
1021  6849.789
1022  7014.237
1023  7197.338
