# Input file       =  1196865738.117129_cleaned.dat
# Candidate        =  PSR_0332+5434
# Telescope        =  AR
# Epoch_topo       =  58096.612929596398
# Epoch_bary       =  N/A
# T_sample         =  0.002
# Data Folded      =  7143424
# Data Avg         =  0.236724334436793
# Data StdDev      =  4.6970901470842  
# Profile Bins     =  1024
# Profile Avg      =  1651.43779174063 
# Profile StdDev   =  392.312486684342 
# Reduced chi-sqr  =  0.751
# Prob(Noise)      <  1   (~0.0 sigma)
# P_topo (ms)      =  714.534493004472  +/- 3.72e-05
# P'_topo (s/s)    =  -0                +/- 2.02e-11
# P''_topo (s/s^2) =  0                 +/- 9.14e-15
# P_bary (ms)      =  N/A
# P'_bary (s/s)    =  N/A
# P''_bary (s/s^2) =  N/A
# P_orb (s)        =  N/A
# asin(i)/c (s)    =  N/A
# eccentricity     =  N/A
# w (rad)          =  N/A
# T_peri           =  N/A
######################################################
   0  1431.048
   1  1402.106
   2  1385.193
   3  1354.677
   4  1383.252
   5  1342.45
   6  1531.437
   7  1705.524
   8  1688.422
   9  1748.357
  10  1880.936
  11  1825.103
  12  1711.542
  13  1678.818
  14  1743.918
  15  1521.954
  16  1384.759
  17  1435.074
  18  1310.823
  19  1203.42
  20  1291.458
  21  1493.38
  22  1521.798
  23  1570.45
  24  1908.529
  25  2042.922
  26  1988.394
  27  1754.397
  28  1787.073
  29  1748.358
  30  1616.452
  31  1677.498
  32  1738.672
  33  1662.617
  34  1530.523
  35  1505.3
  36  1613.501
  37  1481.753
  38  1569.505
  39  1771.068
  40  1761.692
  41  1701.238
  42  1873.743
  43  1994.639
  44  1933.736
  45  1784.057
  46  1858.362
  47  1743.013
  48  1507.518
  49  1624.223
  50  1734.144
  51  1644.043
  52  1550.218
  53  1490.719
  54  1478.6
  55  1275.674
  56  1424.405
  57  1731.092
  58  1911.484
  59  1894.965
  60  1838.757
  61  1836.833
  62  1700.453
  63  1602.994
  64  1669.317
  65  1652.043
  66  1438.772
  67  1270.302
  68  1516.382
  69  1543.198
  70  1528.951
  71  1641.418
  72  1625.428
  73  1605.404
  74  1729.067
  75  1950.324
  76  2144.451
  77  1990.701
  78  2102.489
  79  1925.679
  80  1675.711
  81  1596.126
  82  1564.529
  83  1513.386
  84  1465.46
  85  1552.177
  86  1600.351
  87  1436.498
  88  1380.862
  89  1627.478
  90  1708.638
  91  1837.102
  92  1775
  93  2010.057
  94  1752.817
  95  1499.862
  96  1442.345
  97  1561.325
  98  1545.59
  99  1610.913
 100  1636.063
 101  1754.198
 102  1595.234
 103  1632.907
 104  1774.21
 105  1785.644
 106  1920.171
 107  1887.056
 108  1835.192
 109  1770.569
 110  1808.011
 111  1835.198
 112  1584.806
 113  1441.351
 114  1623.349
 115  1758.443
 116  1808.374
 117  1692.178
 118  1625.242
 119  1522.165
 120  1490.549
 121  1489.347
 122  1523.227
 123  1646.185
 124  1724.031
 125  1643.646
 126  1626.602
 127  1453.517
 128  1379.396
 129  1325.696
 130  1513.672
 131  1604.02
 132  1460.8
 133  1458.214
 134  1442.412
 135  1480.584
 136  1522.644
 137  1531.782
 138  1691.963
 139  1820.528
 140  1881.473
 141  1907.047
 142  1759.403
 143  1889.524
 144  1716.496
 145  1520.478
 146  1417.492
 147  1374.025
 148  1412.226
 149  1342.329
 150  1501.591
 151  1514.043
 152  1361.922
 153  1269.319
 154  1314.238
 155  1444.26
 156  1517.703
 157  1709.314
 158  1841.995
 159  1867.459
 160  1638.11
 161  1491.612
 162  1457.805
 163  1526.57
 164  1490.675
 165  1479.772
 166  1495.406
 167  1520.188
 168  1538.614
 169  1502.041
 170  1460.724
 171  1461.227
 172  1671.177
 173  1838.543
 174  1715.505
 175  1810.582
 176  1793.982
 177  1834.495
 178  1608.757
 179  1550.207
 180  1528.621
 181  1368.347
 182  1374.664
 183  1455.059
 184  1466.107
 185  1378.325
 186  1321.194
 187  1370.954
 188  1462.566
 189  1482.344
 190  1712.408
 191  1907.707
 192  2008.085
 193  1868.108
 194  1649.084
 195  1547.769
 196  1373.233
 197  1484.562
 198  1585.578
 199  1639.136
 200  1654.765
 201  1617.109
 202  1731.052
 203  1718.466
 204  1794.639
 205  1907.441
 206  1938.994
 207  1911.12
 208  1947.455
 209  1868.722
 210  1710.945
 211  1504.881
 212  1427.832
 213  1316.795
 214  1345.552
 215  1440.028
 216  1373.329
 217  1239.473
 218  1190.296
 219  1417.832
 220  1427.465
 221  1470.01
 222  1610.902
 223  1757.556
 224  1980.176
 225  1876.003
 226  1757.196
 227  1596.091
 228  1669.588
 229  1698.108
 230  1694.92
 231  1649.628
 232  1637.166
 233  1501.436
 234  1538.695
 235  1532.065
 236  1464.39
 237  1608.22
 238  1780.038
 239  1950.147
 240  1947.114
 241  1987.002
 242  1912.387
 243  1886.486
 244  1807.867
 245  1801.621
 246  1693.132
 247  1700.353
 248  1605.842
 249  1585.455
 250  1510.799
 251  1671.981
 252  1644.147
 253  1397.561
 254  1341.01
 255  1392.624
 256  1546.366
 257  1576.325
 258  1646.342
 259  1770.597
 260  1734.911
 261  1621.025
 262  1613.934
 263  1676.172
 264  1881.547
 265  1916.053
 266  1856.418
 267  1848.296
 268  1729.024
 269  1827.911
 270  1719.293
 271  1774.623
 272  1906.911
 273  2007.505
 274  1922.599
 275  1589.108
 276  1553.066
 277  1627.316
 278  1660.345
 279  1678.334
 280  1457.078
 281  1454.516
 282  1404.944
 283  1592.972
 284  1548.276
 285  1406.566
 286  1479.695
 287  1658.203
 288  1738.437
 289  1864.689
 290  1788.667
 291  1840.21
 292  1648.254
 293  1494.376
 294  1470.21
 295  1433.679
 296  1478.229
 297  1408.972
 298  1555.85
 299  1732.726
 300  1579.774
 301  1584.201
 302  1808.415
 303  1949.957
 304  1911.248
 305  1860.5
 306  1937.93
 307  1867.205
 308  1716.002
 309  1586.334
 310  1516.222
 311  1376.74
 312  1411.161
 313  1490.136
 314  1654.383
 315  1647.262
 316  1695.939
 317  1586.124
 318  1492.357
 319  1534.174
 320  1658.9
 321  1862.283
 322  1719.162
 323  1707.795
 324  1736.108
 325  1762.112
 326  1545.629
 327  1446.601
 328  1551.639
 329  1727.108
 330  1703.991
 331  1591.535
 332  1467.024
 333  1582.087
 334  1732.217
 335  1847.101
 336  1846.577
 337  1789.784
 338  1908.229
 339  2077.087
 340  1994.338
 341  1901.659
 342  1726.504
 343  1642.496
 344  1359.858
 345  1400.052
 346  1605.814
 347  1586.943
 348  1568.658
 349  1440.795
 350  1419.439
 351  1510.269
 352  1617.374
 353  1822.317
 354  1755.578
 355  1704.674
 356  1788.534
 357  1799.656
 358  1719.736
 359  1642.7
 360  1670.275
 361  1719.223
 362  1575.379
 363  1612.737
 364  1547.469
 365  1440.736
 366  1506.727
 367  1684.291
 368  1679.136
 369  1650.205
 370  1834.242
 371  2083.48
 372  2082.126
 373  1985.548
 374  2001.216
 375  1886.802
 376  1614.076
 377  1411.872
 378  1441.758
 379  1351.367
 380  1399.165
 381  1570.26
 382  1651.014
 383  1456.398
 384  1359.066
 385  1593.436
 386  1633.95
 387  1576.588
 388  1714.089
 389  1903.222
 390  1844.669
 391  1651.993
 392  1765.207
 393  1819.699
 394  1681.27
 395  1503.126
 396  1488.516
 397  1481.612
 398  1580.743
 399  1615.882
 400  1769.203
 401  1696.659
 402  1880.79
 403  1967.047
 404  1855.752
 405  1753.707
 406  1889.159
 407  2127.871
 408  2020.116
 409  1716.821
 410  1641.635
 411  1639.466
 412  1565.957
 413  1653.316
 414  1679.991
 415  1734.748
 416  1499.694
 417  1569.139
 418  1629.617
 419  1446.445
 420  1509.604
 421  1781.929
 422  2097.576
 423  1897.313
 424  1692.966
 425  1743.176
 426  1805.994
 427  1804.066
 428  1831.205
 429  1749.746
 430  1795.951
 431  1802.373
 432  2017.598
 433  1846.075
 434  1640.372
 435  1665.493
 436  1642.276
 437  1650.255
 438  1623.134
 439  1934.554
 440  2013.141
 441  1814.5
 442  1824.797
 443  1747.389
 444  1424.524
 445  1356.947
 446  1364.614
 447  1552.948
 448  1285.319
 449  1331.39
 450  1520.594
 451  1509.547
 452  1568.083
 453  1675.744
 454  1881.886
 455  1878.58
 456  1719.739
 457  1747.984
 458  1714.435
 459  1547.77
 460  1517.969
 461  1462.659
 462  1538.201
 463  1585.096
 464  1859.786
 465  1845.455
 466  1708.919
 467  1753.19
 468  1835.707
 469  1831.922
 470  1718.766
 471  1671.127
 472  1751.487
 473  1502.437
 474  1607.198
 475  1693.745
 476  1713.356
 477  1400.056
 478  1175.492
 479  1385.109
 480  1555.818
 481  1569.895
 482  1513.318
 483  1301.136
 484  1214.658
 485  1231.686
 486  1597.524
 487  1772.475
 488  1813.452
 489  1682.581
 490  1567.582
 491  1472.876
 492  1427.395
 493  1393.414
 494  1454.343
 495  1462.012
 496  1532.835
 497  1642.097
 498  1534.145
 499  1535.986
 500  1517.116
 501  1713.77
 502  1699.475
 503  1745.236
 504  1898.009
 505  1842.363
 506  1600.344
 507  1521.907
 508  1431.734
 509  1372.192
 510  1118.856
 511  1190.672
 512  1317.744
 513  1324.177
 514  1423.397
 515  1519.306
 516  1504.266
 517  1474.191
 518  1570.553
 519  1936.661
 520  1993.923
 521  1927
 522  1816.849
 523  1800.031
 524  1612.399
 525  1485.851
 526  1314.15
 527  1251.127
 528  1195.903
 529  1370.505
 530  1459.173
 531  1501.159
 532  1622.949
 533  1779.941
 534  1851.934
 535  1707.052
 536  1980.38
 537  1987.606
 538  1911.404
 539  1859.997
 540  1846.114
 541  1770.06
 542  1448.536
 543  1405.973
 544  1547.269
 545  1428.862
 546  1580.323
 547  1655.074
 548  1598.385
 549  1473.168
 550  1365.19
 551  1606.109
 552  1715.748
 553  1864.929
 554  1965.114
 555  1947.206
 556  1793.044
 557  1544.869
 558  1495.615
 559  1566.545
 560  1673.04
 561  1811.455
 562  1835.262
 563  1742.224
 564  1592.948
 565  1577.654
 566  1555.417
 567  1561.411
 568  1629.28
 569  1684.501
 570  1655.951
 571  1615.344
 572  1614.815
 573  1613.83
 574  1610.158
 575  1642.021
 576  1840.992
 577  1745.269
 578  1754.86
 579  1780.319
 580  1799.599
 581  1628.073
 582  1572.748
 583  1707.196
 584  1668.186
 585  1514.251
 586  1591.484
 587  1764.453
 588  1858.7
 589  1751.234
 590  1792.147
 591  1786.112
 592  1733.89
 593  1836.236
 594  1869.011
 595  1832.791
 596  1673.213
 597  1472.552
 598  1636.684
 599  1471.07
 600  1544.636
 601  1622.87
 602  1766.853
 603  1841.821
 604  1769.337
 605  1812.103
 606  1794.998
 607  1684.033
 608  1701.58
 609  1539.697
 610  1454.187
 611  1562.768
 612  1604.937
 613  1572.498
 614  1470.98
 615  1695.079
 616  1673.955
 617  1682.692
 618  1818.429
 619  2111.812
 620  2251.677
 621  2208.878
 622  2174.204
 623  2150.142
 624  1986.188
 625  2003.343
 626  1909.515
 627  2014.368
 628  2025.043
 629  1963.516
 630  1873.017
 631  1643.645
 632  1672.611
 633  1634.252
 634  1715.276
 635  1753.54
 636  1799.15
 637  1754.366
 638  1806.32
 639  1623.654
 640  1541.296
 641  1496.149
 642  1446.555
 643  1412.142
 644  1470.842
 645  1572.243
 646  1579.679
 647  1601.999
 648  1836.367
 649  1853.745
 650  1800.95
 651  1885.097
 652  2012.043
 653  2084.252
 654  1887.191
 655  1906.186
 656  1686.568
 657  1568.996
 658  1357.436
 659  1373.207
 660  1430.048
 661  1310.447
 662  1365.233
 663  1450.156
 664  1484.191
 665  1565.682
 666  1608.063
 667  1720.202
 668  1691.209
 669  1760.188
 670  1826.74
 671  1725.078
 672  1648.468
 673  1675.962
 674  1566.242
 675  1421.926
 676  1315.16
 677  1384.361
 678  1360.271
 679  1449.097
 680  1468.55
 681  1563.73
 682  1530.935
 683  1524.92
 684  1719.864
 685  1886.408
 686  2002.737
 687  1914.791
 688  1795.385
 689  1751.211
 690  1579.175
 691  1478.478
 692  1499.526
 693  1543.48
 694  1715.847
 695  1666.281
 696  1648.007
 697  1541.717
 698  1660.813
 699  1818.137
 700  1929.929
 701  1966.045
 702  2071.318
 703  1939.712
 704  1839.234
 705  1762.573
 706  1784.614
 707  1665.746
 708  1435.661
 709  1450.627
 710  1487.947
 711  1584.009
 712  1617.901
 713  1613.917
 714  1619.335
 715  1564.607
 716  1580.003
 717  1701.011
 718  1750.781
 719  1717.272
 720  1755.3
 721  1838.542
 722  1923.677
 723  1682.953
 724  1688.698
 725  1706.757
 726  1650.15
 727  1531.72
 728  1494.331
 729  1580.305
 730  1558.883
 731  1670.589
 732  1807.455
 733  1736.178
 734  1684.275
 735  1498.313
 736  1485.973
 737  1507.155
 738  1673.197
 739  1717.314
 740  1523.814
 741  1431.422
 742  1467.562
 743  1383.11
 744  1439.356
 745  1460.57
 746  1613.098
 747  1457.382
 748  1333.064
 749  1531.662
 750  1563.39
 751  1766.501
 752  1757.354
 753  1951.031
 754  2066.145
 755  1909.56
 756  1947.724
 757  1815.923
 758  1667.967
 759  1547.153
 760  1446.711
 761  1559.682
 762  1471.693
 763  1614.37
 764  1629.15
 765  1592.156
 766  1590.825
 767  1863.706
 768  1960.107
 769  2002.397
 770  1869.735
 771  1836.271
 772  1645.933
 773  1456.007
 774  1356.769
 775  1433.256
 776  1578.916
 777  1639.566
 778  1601.71
 779  1433.734
 780  1378.047
 781  1600.426
 782  1800.871
 783  1933.58
 784  1860.502
 785  1896.263
 786  1964.336
 787  1893.654
 788  1647.427
 789  1530.746
 790  1504.045
 791  1630.348
 792  1732.017
 793  1803.271
 794  1865.887
 795  1702.062
 796  1814.341
 797  1777.411
 798  1857.051
 799  1897.737
 800  2028.509
 801  1978.626
 802  1728.686
 803  1750.164
 804  1665.748
 805  1486.853
 806  1344.809
 807  1552.564
 808  1639.455
 809  1534.755
 810  1326.51
 811  1372.101
 812  1236.066
 813  1363.417
 814  1448.607
 815  1572.026
 816  1716.513
 817  1714.851
 818  1807.931
 819  1739.004
 820  1584.825
 821  1648.275
 822  1578.149
 823  1654.847
 824  1531.426
 825  1421.228
 826  1386.304
 827  1339.316
 828  1513.668
 829  1769.839
 830  1809.289
 831  1820.875
 832  1800.139
 833  1793.573
 834  1627.943
 835  1620.392
 836  1775.1
 837  1750.354
 838  1636.984
 839  1618.758
 840  1659.864
 841  1555.391
 842  1429.291
 843  1493.595
 844  1423.085
 845  1490.387
 846  1558.717
 847  1542.161
 848  1563.712
 849  1532.693
 850  1830.969
 851  2070.676
 852  2096.515
 853  2047.804
 854  1830.134
 855  1715.858
 856  1572.485
 857  1511.709
 858  1497.919
 859  1407.354
 860  1508.131
 861  1644.578
 862  1665.399
 863  1643.361
 864  1679.849
 865  1816.233
 866  1845.797
 867  1757.139
 868  1734.007
 869  1766.735
 870  1748.806
 871  1793.403
 872  1809.164
 873  1778.703
 874  1550.295
 875  1598.327
 876  1604.303
 877  1538.779
 878  1434.432
 879  1358.859
 880  1421.606
 881  1309.541
 882  1515.898
 883  1631.438
 884  1730.877
 885  1713.303
 886  1842.607
 887  1831.696
 888  1746.979
 889  1563.745
 890  1696.547
 891  1689.45
 892  1617.052
 893  1466.636
 894  1627.924
 895  1491.095
 896  1535.499
 897  1668.769
 898  1650.406
 899  1492.188
 900  1595.242
 901  1862.443
 902  1951.423
 903  1811.422
 904  1889.708
 905  1714.954
 906  1384.07
 907  1363.748
 908  1516.592
 909  1555.421
 910  1478.791
 911  1496.45
 912  1644.365
 913  1472.431
 914  1567.942
 915  1769.301
 916  1766.613
 917  1674.572
 918  1653.765
 919  1830.703
 920  1792.218
 921  1665.843
 922  1750.766
 923  1797.722
 924  1777.96
 925  1688.402
 926  1589.781
 927  1545.688
 928  1433.591
 929  1561.54
 930  1567.394
 931  1462.95
 932  1491.745
 933  1721.433
 934  1818.196
 935  1789.903
 936  1776.342
 937  1918.995
 938  1599.04
 939  1434.374
 940  1343.43
 941  1446.991
 942  1539.421
 943  1557.457
 944  1672.426
 945  1452.209
 946  1330.441
 947  1570.551
 948  1657.203
 949  1778.237
 950  1776.098
 951  1916.094
 952  1831.498
 953  1581.531
 954  1548.059
 955  1585.264
 956  1543.653
 957  1505.638
 958  1535.885
 959  1612.51
 960  1459.873
 961  1450.001
 962  1708.938
 963  1659.85
 964  1690.527
 965  1800.543
 966  2070.496
 967  2141.298
 968  1931.821
 969  1956.168
 970  1654.837
 971  1523.214
 972  1494.414
 973  1557.342
 974  1561.776
 975  1413.126
 976  1463.199
 977  1561.591
 978  1552.215
 979  1682.265
 980  1959.824
 981  2126.874
 982  2202.837
 983  2096.312
 984  2085.103
 985  1884.018
 986  1744.701
 987  1676.084
 988  1473.96
 989  1319.064
 990  1358.415
 991  1532.769
 992  1519.913
 993  1537.945
 994  1580.095
 995  1626.201
 996  1658.603
 997  1784.277
 998  1893.382
 999  1846.025
1000  1800.566
1001  1827.494
1002  1732.924
1003  1487.024
1004  1335.111
1005  1397.511
1006  1539.43
1007  1437.137
1008  1421.809
1009  1617.573
1010  1532.047
1011  1617.534
1012  1621.456
1013  1886.407
1014  1983.367
1015  2010.6
1016  2003.365
1017  1756.384
1018  1638.821
1019  1721.567
1020  1688.684
1021  1652.851
1022  1416.251
1023  1434.075
