# Input file       =  1196019175.113502_cleaned.dat
# Candidate        =  PSR_0332+5434
# Telescope        =  AR
# Epoch_topo       =  58086.814746684053
# Epoch_bary       =  N/A
# T_sample         =  0.002
# Data Folded      =  7340032
# Data Avg         =  0.175979493408314
# Data StdDev      =  4.224871556026   
# Profile Bins     =  1024
# Profile Avg      =  1261.54365554376 
# Profile StdDev   =  357.694702669929 
# Reduced chi-sqr  =  0.512
# Prob(Noise)      <  1   (~0.0 sigma)
# P_topo (ms)      =  714.524464594569  +/- 0.000358
# P'_topo (s/s)    =  -0                +/- 1.89e-10
# P''_topo (s/s^2) =  0                 +/- 8.34e-14
# P_bary (ms)      =  N/A
# P'_bary (s/s)    =  N/A
# P''_bary (s/s^2) =  N/A
# P_orb (s)        =  N/A
# asin(i)/c (s)    =  N/A
# eccentricity     =  N/A
# w (rad)          =  N/A
# T_peri           =  N/A
######################################################
   0  1333.365
   1  1194.435
   2  1273.371
   3  1388.859
   4  1605.74
   5  1557.422
   6  1464.547
   7  1364.486
   8  1318.684
   9  1236.132
  10  1197.435
  11  1200.252
  12  1256.558
  13  1306.401
  14  1315.483
  15  1207.401
  16  1192.589
  17  1231.616
  18  1279.254
  19  1145.385
  20  1064.096
  21  1011.729
  22  1110.605
  23  1123.703
  24  1068.802
  25  906.3568
  26  945.1818
  27  988.5493
  28  1133.586
  29  1199.638
  30  1167.81
  31  1336.801
  32  1374.953
  33  1474.399
  34  1372.254
  35  1208.223
  36  1116.422
  37  1152.342
  38  1179.087
  39  1172.354
  40  1148.623
  41  1240.784
  42  1227.295
  43  1157.658
  44  1182.759
  45  1274.65
  46  1382.206
  47  1354.876
  48  1119.135
  49  1038.517
  50  1088.04
  51  1088.463
  52  1089.988
  53  1103.09
  54  1261.581
  55  1249.072
  56  1226.537
  57  1166.441
  58  1058.202
  59  1051.132
  60  1108.82
  61  1326.509
  62  1386.204
  63  1350.517
  64  1208.212
  65  1231.569
  66  1188.815
  67  1261.559
  68  1328.166
  69  1377.491
  70  1406.783
  71  1376.545
  72  1278.905
  73  1072.887
  74  987.9868
  75  987.1589
  76  1158.469
  77  1315.503
  78  1539.238
  79  1558.591
  80  1391.475
  81  1301.312
  82  1270.021
  83  1346.426
  84  1333.851
  85  1359.269
  86  1366.627
  87  1338.351
  88  1226.767
  89  1159.264
  90  1108.584
  91  1099.82
  92  1096.508
  93  1103.448
  94  1108.183
  95  1042.337
  96  1089.675
  97  1216.013
  98  1303.198
  99  1270.897
 100  1247.673
 101  1425.904
 102  1572.437
 103  1585.714
 104  1470.812
 105  1250.178
 106  1166.625
 107  1165.772
 108  1264.874
 109  1287.711
 110  1398.027
 111  1480.53
 112  1565.367
 113  1438.255
 114  1375.178
 115  1340.232
 116  1401.158
 117  1428.424
 118  1446.875
 119  1436.853
 120  1376.117
 121  1312.515
 122  1343.639
 123  1330.355
 124  1399.43
 125  1454.524
 126  1461.321
 127  1428.685
 128  1365.723
 129  1360.171
 130  1231.833
 131  1058.144
 132  1092.518
 133  1211.839
 134  1271.846
 135  1309.525
 136  1351.947
 137  1397.906
 138  1306.222
 139  1253.695
 140  1300.176
 141  1432.823
 142  1496.266
 143  1527.43
 144  1435.137
 145  1436.017
 146  1380.284
 147  1347.075
 148  1230.406
 149  1232.757
 150  1244.677
 151  1202.309
 152  1023.437
 153  945.88
 154  962.4224
 155  1047.773
 156  1076.622
 157  1064.447
 158  1040.99
 159  1044.824
 160  1019.859
 161  1155.051
 162  1127.25
 163  1142.944
 164  1074.907
 165  1163.009
 166  1227.594
 167  1310.987
 168  1172.794
 169  1121.113
 170  1256.178
 171  1280.867
 172  1208.38
 173  1179.516
 174  1272.589
 175  1263.657
 176  1114.992
 177  1041.379
 178  1147.859
 179  1276.086
 180  1320.263
 181  1275.349
 182  1343.702
 183  1579.272
 184  1696.66
 185  1637.521
 186  1510.702
 187  1516.199
 188  1444.805
 189  1418.21
 190  1436.916
 191  1361.992
 192  1358.468
 193  1361.733
 194  1398.915
 195  1373.373
 196  1334.2
 197  1352.042
 198  1276.194
 199  1256.597
 200  1326.509
 201  1409.514
 202  1351.115
 203  1377.564
 204  1411.318
 205  1438.15
 206  1261.246
 207  1203.594
 208  1170.169
 209  1321.157
 210  1356.601
 211  1338.91
 212  1290.074
 213  1208.014
 214  1277.518
 215  1252.854
 216  1220.469
 217  1148.91
 218  1306.176
 219  1340.432
 220  1303.325
 221  1185.475
 222  1221.024
 223  1253.671
 224  1241.92
 225  1288.332
 226  1220.33
 227  1357.609
 228  1324.803
 229  1450.58
 230  1422.321
 231  1407.704
 232  1330.568
 233  1200.256
 234  1066.683
 235  927.7873
 236  971.713
 237  1080.039
 238  1182.439
 239  1166.632
 240  1132.501
 241  1258.357
 242  1291.996
 243  1309.803
 244  1203.055
 245  1232.424
 246  1159.788
 247  1328.855
 248  1361.086
 249  1365.029
 250  1219.944
 251  1119.358
 252  1038.296
 253  1011.521
 254  999.6916
 255  1146.374
 256  1195.433
 257  1249.57
 258  1137.055
 259  1121.677
 260  1119.12
 261  1333.151
 262  1486.944
 263  1612.166
 264  1451.41
 265  1344.042
 266  1322.606
 267  1287.255
 268  1351.917
 269  1382.383
 270  1424.869
 271  1363.994
 272  1376.567
 273  1420.84
 274  1469.737
 275  1494.171
 276  1465.876
 277  1255.997
 278  1184.939
 279  1190.758
 280  1303.251
 281  1242.738
 282  1107.603
 283  948.5233
 284  1084.358
 285  1195.918
 286  1272.594
 287  1189.419
 288  1220.851
 289  1265.323
 290  1256.136
 291  1137.394
 292  1159.197
 293  1159.172
 294  1190.185
 295  1148.421
 296  1047.906
 297  962.8069
 298  982.6442
 299  1130.801
 300  1215.658
 301  1257.451
 302  1293.241
 303  1288.686
 304  1306.347
 305  1314.164
 306  1234.232
 307  1108.708
 308  1130.243
 309  1256.516
 310  1315.213
 311  1253.127
 312  1127.208
 313  1112.739
 314  1106.801
 315  1255.855
 316  1297.554
 317  1336.36
 318  1239.035
 319  1200.841
 320  1098.115
 321  981.8922
 322  876.578
 323  951.5851
 324  918.6558
 325  1017.419
 326  994.2164
 327  1105.344
 328  1108.64
 329  1162.802
 330  1194.266
 331  1234.917
 332  1260.743
 333  1236.291
 334  1245.891
 335  1104.135
 336  1109.18
 337  1128.727
 338  1272.096
 339  1221.373
 340  1081.179
 341  1123.368
 342  1142.292
 343  1228.258
 344  1271.805
 345  1242.552
 346  1267.268
 347  1202.824
 348  1286.075
 349  1266.465
 350  1275.968
 351  1212.963
 352  1182.358
 353  1113.917
 354  1119.299
 355  1058.155
 356  1101.124
 357  1064.782
 358  917.2863
 359  832.2203
 360  902.3629
 361  952.7929
 362  914.3923
 363  902.5012
 364  1045.606
 365  1245.265
 366  1250.459
 367  1165.362
 368  1082.748
 369  1092.469
 370  1211.348
 371  1226.335
 372  1281.397
 373  1289.382
 374  1308.894
 375  1346.24
 376  1298.835
 377  1279.703
 378  1312.376
 379  1382.021
 380  1468.112
 381  1490.175
 382  1463.321
 383  1505.813
 384  1471.557
 385  1440.737
 386  1370.928
 387  1327.107
 388  1278.032
 389  1286.771
 390  1401.994
 391  1465.513
 392  1359.613
 393  1200.724
 394  1132.624
 395  1066.854
 396  1088.842
 397  1180.764
 398  1329.96
 399  1496.522
 400  1538.699
 401  1620.054
 402  1505.209
 403  1390.569
 404  1390.139
 405  1450.178
 406  1441.157
 407  1390.26
 408  1201.663
 409  1104.093
 410  976.6223
 411  1177.932
 412  1299.819
 413  1429.437
 414  1471.723
 415  1442.621
 416  1462.38
 417  1413.23
 418  1381.417
 419  1402.32
 420  1347.62
 421  1267.187
 422  1164.282
 423  1174.994
 424  1214.817
 425  1214.102
 426  1192.775
 427  1112.882
 428  1174.994
 429  1236.358
 430  1300.245
 431  1210.278
 432  1263.708
 433  1312.193
 434  1369.018
 435  1313.672
 436  1296.726
 437  1281.705
 438  1360.445
 439  1252.979
 440  1177.759
 441  1023.977
 442  1109.031
 443  1194.212
 444  1326.844
 445  1239.875
 446  1225.885
 447  1268.188
 448  1427.188
 449  1359.435
 450  1290.511
 451  1268.144
 452  1361.88
 453  1315.865
 454  1337.085
 455  1310.028
 456  1357.43
 457  1295.527
 458  1336.73
 459  1308.111
 460  1376.067
 461  1393.451
 462  1389.933
 463  1304.318
 464  1257.845
 465  1285.826
 466  1347.874
 467  1451.547
 468  1409.204
 469  1307.637
 470  1148.577
 471  1213.394
 472  1134.379
 473  1041.24
 474  965.5378
 475  997.9492
 476  1042.84
 477  1173.685
 478  1158.856
 479  1103.768
 480  942.1697
 481  999.8195
 482  1071.405
 483  1142.552
 484  1038.345
 485  1062.448
 486  1047.256
 487  1164.648
 488  1145.138
 489  1098.238
 490  1177.912
 491  1199.831
 492  1280.889
 493  1300.757
 494  1222.377
 495  1160.062
 496  1168.63
 497  1349.799
 498  1410.039
 499  1275.256
 500  1223.446
 501  1236.749
 502  1311.443
 503  1184.46
 504  1107.074
 505  1129.824
 506  1249.396
 507  1201.423
 508  1279.131
 509  1404.214
 510  1391.289
 511  1329.037
 512  1337.237
 513  1303.14
 514  1186.534
 515  1051.997
 516  1064.243
 517  1112.04
 518  1156.953
 519  1190.872
 520  1155.493
 521  1279.414
 522  1283.339
 523  1359.095
 524  1302.921
 525  1274.428
 526  1286.969
 527  1307.731
 528  1264.546
 529  1194.877
 530  1130.14
 531  1187.71
 532  1314.855
 533  1526.436
 534  1771.609
 535  1594.882
 536  1480.562
 537  1316.765
 538  1322.158
 539  1266.697
 540  1267.121
 541  1351.025
 542  1400.288
 543  1349.312
 544  1219.432
 545  1091.5
 546  1171.275
 547  1232.519
 548  1239.484
 549  1282.945
 550  1323.402
 551  1323.286
 552  1276.672
 553  1141.101
 554  1007.81
 555  1036.256
 556  1118.192
 557  1276.712
 558  1291.821
 559  1298.839
 560  1281.201
 561  1223.468
 562  1238.598
 563  1215.102
 564  1296.355
 565  1420.956
 566  1415.486
 567  1339.982
 568  1260.32
 569  1220.373
 570  1153.163
 571  1212.759
 572  1293.368
 573  1371.892
 574  1357.876
 575  1303.555
 576  1406.764
 577  1289.39
 578  1164.794
 579  1009.409
 580  1094.901
 581  1240.574
 582  1182.182
 583  1116.079
 584  1045.947
 585  953.8251
 586  1021.613
 587  995.8586
 588  1043.559
 589  1066.987
 590  1186.354
 591  1346.939
 592  1449.523
 593  1490.035
 594  1333.355
 595  1252.486
 596  1160.069
 597  1092.382
 598  1104.675
 599  1309.691
 600  1507.48
 601  1528.773
 602  1513.473
 603  1449.175
 604  1448.685
 605  1454.153
 606  1364.83
 607  1272.688
 608  1226.907
 609  1175.348
 610  1134.858
 611  1089.245
 612  1076.376
 613  1052.09
 614  1230.973
 615  1325.709
 616  1288.997
 617  1191.984
 618  1218.572
 619  1266.289
 620  1311.188
 621  1338.359
 622  1420.035
 623  1526.124
 624  1622.767
 625  1506.072
 626  1466.958
 627  1538.401
 628  1690.475
 629  1645.418
 630  1702.189
 631  1707.125
 632  1621.375
 633  1594.123
 634  1518.609
 635  1477.571
 636  1353.045
 637  1324.443
 638  1464.826
 639  1516.008
 640  1428.515
 641  1219.303
 642  1222.198
 643  1310.605
 644  1367.613
 645  1289.584
 646  1217.399
 647  1100.355
 648  1086.584
 649  1202.779
 650  1271.114
 651  1256.288
 652  1332.844
 653  1440.186
 654  1523.71
 655  1468.74
 656  1487.758
 657  1387.944
 658  1381.189
 659  1423.373
 660  1410.371
 661  1353.964
 662  1215.491
 663  1243.11
 664  1374.307
 665  1412.468
 666  1326.33
 667  1261.586
 668  1224.145
 669  1354.709
 670  1308.059
 671  1263.185
 672  1136.247
 673  1141.451
 674  1199.978
 675  1335.976
 676  1232.168
 677  1242.543
 678  1259.394
 679  1373.949
 680  1480.14
 681  1498.003
 682  1533.487
 683  1455.957
 684  1363.001
 685  1289.006
 686  1181.625
 687  1361.24
 688  1352.232
 689  1421.717
 690  1343.199
 691  1285.34
 692  1229.123
 693  1170.254
 694  1285.442
 695  1290.272
 696  1259.464
 697  1276.902
 698  1314.295
 699  1347.619
 700  1156.585
 701  1119.029
 702  1170.171
 703  1322.792
 704  1340.708
 705  1320.845
 706  1494.745
 707  1502.208
 708  1399.899
 709  1256.703
 710  1231.933
 711  1197.845
 712  1167.002
 713  1122.557
 714  1092.038
 715  957.8056
 716  994.7221
 717  1037.77
 718  1046.283
 719  1078.865
 720  1215.587
 721  1410.725
 722  1430.481
 723  1347.263
 724  1398.368
 725  1419.53
 726  1408.436
 727  1263.294
 728  1147.319
 729  1077.995
 730  985.0534
 731  990.5648
 732  1064.939
 733  1235.793
 734  1309.643
 735  1388.604
 736  1351.935
 737  1393.215
 738  1208.019
 739  1250.174
 740  1197.971
 741  1324.851
 742  1237.292
 743  1281.058
 744  1218.839
 745  1169.597
 746  1191.022
 747  1210.902
 748  1238.338
 749  1221.21
 750  1299
 751  1397.311
 752  1323.317
 753  1164.229
 754  1092.358
 755  1146.792
 756  1194.323
 757  1213.141
 758  1218.919
 759  1402.335
 760  1400.117
 761  1265.026
 762  1105.544
 763  1119.315
 764  1275.254
 765  1290.761
 766  1315.821
 767  1199.289
 768  1207.656
 769  1180.338
 770  1169.047
 771  1160.974
 772  1249.144
 773  1341.369
 774  1439.19
 775  1355.674
 776  1359.026
 777  1325.554
 778  1397.585
 779  1444.157
 780  1367.332
 781  1269.671
 782  1158.601
 783  1025.123
 784  1003.604
 785  944.9663
 786  1099.408
 787  1187.34
 788  1142.286
 789  1093.695
 790  1181.373
 791  1298.203
 792  1326.116
 793  1397.118
 794  1382.37
 795  1270.134
 796  1155.962
 797  1174.918
 798  1234.333
 799  1239.145
 800  1274.286
 801  1233.046
 802  1236.498
 803  1206.146
 804  1182.703
 805  1218.116
 806  1255.395
 807  1294.009
 808  1287.865
 809  1402.444
 810  1431.806
 811  1305.83
 812  1257.278
 813  1311.272
 814  1357.311
 815  1423.863
 816  1478.486
 817  1332.578
 818  1120.258
 819  982.3057
 820  1004.741
 821  1050.867
 822  1122.586
 823  1262.383
 824  1441.98
 825  1481.242
 826  1399.918
 827  1238.24
 828  1111.338
 829  1259.88
 830  1347.834
 831  1398.35
 832  1285.887
 833  1313.144
 834  1291.967
 835  1295.746
 836  1352.367
 837  1458.205
 838  1483.363
 839  1439.148
 840  1335.066
 841  1299.688
 842  1151.049
 843  1053.115
 844  1058.816
 845  1275.947
 846  1520.049
 847  1533.609
 848  1417.604
 849  1351.023
 850  1478.547
 851  1510.209
 852  1491.354
 853  1406.043
 854  1365.263
 855  1359.1
 856  1288.142
 857  1244.623
 858  1219.165
 859  1138.36
 860  1169.472
 861  1111.258
 862  1157.728
 863  1134.721
 864  1213.817
 865  1329.934
 866  1286.926
 867  1192.732
 868  1088.504
 869  1131.406
 870  1248.166
 871  1296.731
 872  1434.16
 873  1482.881
 874  1447.829
 875  1328.258
 876  1231.999
 877  1220.823
 878  1238.923
 879  1188.945
 880  1244.027
 881  1195.675
 882  1187.486
 883  1157.805
 884  1237.514
 885  1311.758
 886  1270.638
 887  1174.881
 888  1235.22
 889  1288.687
 890  1296.412
 891  1277.819
 892  1287.641
 893  1231.495
 894  1177.252
 895  1132.838
 896  1136.252
 897  1054.799
 898  1060.397
 899  1066.159
 900  1044.834
 901  1054.126
 902  1046.744
 903  1058.742
 904  1145.742
 905  1139.022
 906  1132.719
 907  1138.865
 908  1138.556
 909  1219.235
 910  1164.458
 911  1150.451
 912  1150.704
 913  1156.406
 914  1140.886
 915  1151.03
 916  1175.295
 917  1164.307
 918  1091.766
 919  1069.647
 920  1064.485
 921  1164.819
 922  1223.191
 923  1221.562
 924  1263.621
 925  1309.879
 926  1192.272
 927  1148.074
 928  1195.884
 929  1175.549
 930  1105.762
 931  1100.82
 932  1257.238
 933  1364.295
 934  1458.389
 935  1461.329
 936  1428.994
 937  1402.678
 938  1460.303
 939  1518.683
 940  1468.62
 941  1312.619
 942  1195.183
 943  1316.445
 944  1352.647
 945  1277.475
 946  1178.151
 947  1180.194
 948  1175.851
 949  1184.53
 950  1299.911
 951  1446.73
 952  1467.799
 953  1431.376
 954  1363.214
 955  1337.585
 956  1333.046
 957  1279.06
 958  1344.913
 959  1357.953
 960  1448.16
 961  1384.981
 962  1240.369
 963  1225.808
 964  1242.023
 965  1302.74
 966  1218.673
 967  1203.724
 968  1246.234
 969  1218.31
 970  1195.342
 971  1102.187
 972  1141.228
 973  1158.381
 974  1288.132
 975  1285.892
 976  1182.57
 977  1091.353
 978  1078.72
 979  1189.27
 980  1197.805
 981  1314.142
 982  1288.087
 983  1293.516
 984  1295.016
 985  1432.33
 986  1480.204
 987  1520.188
 988  1478.727
 989  1463.082
 990  1390.867
 991  1340.758
 992  1238.567
 993  1253.212
 994  1314.498
 995  1284.615
 996  1250.353
 997  1194.101
 998  1309.407
 999  1314.752
1000  1303.401
1001  1200.469
1002  1215.788
1003  1340.143
1004  1360.145
1005  1281.994
1006  1328.266
1007  1304.947
1008  1290.179
1009  1172.293
1010  1156.777
1011  1262.175
1012  1304.876
1013  1353.592
1014  1222.188
1015  1236.23
1016  1332.063
1017  1464.418
1018  1448.619
1019  1419.949
1020  1395.936
1021  1525.04
1022  1612.091
1023  1546.203
