# Input file       =  1197986379.106846_cleaned.dat
# Candidate        =  PSR_0332+5434
# Telescope        =  AR
# Epoch_topo       =  58109.583311421833
# Epoch_bary       =  N/A
# T_sample         =  0.002
# Data Folded      =  7143424
# Data Avg         =  0.0383016231653212
# Data StdDev      =  1.00040516569238 
# Profile Bins     =  512
# Profile Avg      =  534.383924287938 
# Profile StdDev   =  118.166442079931 
# Reduced chi-sqr  =  0.731
# Prob(Noise)      <  1   (~0.0 sigma)
# P_topo (ms)      =  714.547291486671  +/- 0.000195
# P'_topo (s/s)    =  -0                +/- 1.06e-10
# P''_topo (s/s^2) =  0                 +/- 4.8e-14
# P_bary (ms)      =  N/A
# P'_bary (s/s)    =  N/A
# P''_bary (s/s^2) =  N/A
# P_orb (s)        =  N/A
# asin(i)/c (s)    =  N/A
# eccentricity     =  N/A
# w (rad)          =  N/A
# T_peri           =  N/A
######################################################
   0  777.9238
   1  832.4211
   2  673.3964
   3  549.1534
   4  421.6995
   5  459.9598
   6  614.2661
   7  545.2861
   8  580.1133
   9  689.6474
  10  709.8691
  11  499.8621
  12  484.6783
  13  400.3046
  14  549.3591
  15  549.7383
  16  523.7628
  17  485.1736
  18  479.5394
  19  489.5191
  20  623.7198
  21  606.5803
  22  438.5368
  23  480.2837
  24  544.6262
  25  472.2472
  26  392.989
  27  588.1499
  28  448.1765
  29  385.1383
  30  489.7729
  31  436.7411
  32  475.2575
  33  550.3913
  34  618.894
  35  494.0364
  36  532.0735
  37  528.5594
  38  499.0222
  39  420.8354
  40  468.9487
  41  479.873
  42  495.3805
  43  508.2644
  44  462.8981
  45  495.3536
  46  420.4146
  47  454.9384
  48  487.9125
  49  452.2316
  50  386.6827
  51  402.1206
  52  526.2848
  53  588.1838
  54  498.3124
  55  446.8314
  56  455.9722
  57  573.3055
  58  560.248
  59  597.8156
  60  606.2232
  61  544.1465
  62  518.5082
  63  524.4287
  64  480.9937
  65  652.419
  66  700.5887
  67  632.131
  68  547.3447
  69  531.2966
  70  460.3558
  71  546.6996
  72  497.9955
  73  504.5475
  74  407.9305
  75  455.5451
  76  486.7665
  77  474.5419
  78  513.1861
  79  509.5743
  80  583.598
  81  560.9541
  82  543.4524
  83  539.9841
  84  604.3649
  85  660.236
  86  501.9702
  87  436.0587
  88  555.3986
  89  631.0339
  90  631.9323
  91  583.7038
  92  560.8347
  93  520.5631
  94  624.0238
  95  633.0826
  96  696.2422
  97  627.0297
  98  529.7808
  99  502.485
 100  546.6
 101  531.3333
 102  459.1458
 103  561.9951
 104  629.5054
 105  693.3539
 106  636.7017
 107  554.9319
 108  607.2546
 109  566.5297
 110  593.2551
 111  602.7459
 112  549.3434
 113  515.8493
 114  538.2469
 115  542.7303
 116  439.4526
 117  511.7411
 118  511.3853
 119  477.3177
 120  401.7035
 121  443.5939
 122  514.117
 123  568.6058
 124  474.2738
 125  380.317
 126  512.7714
 127  433.3728
 128  460.1691
 129  470.8312
 130  538.4002
 131  537.4056
 132  494.0229
 133  395.6127
 134  457.9026
 135  527.0193
 136  485.0057
 137  459.9937
 138  512.5609
 139  578.5433
 140  569.8274
 141  602.9723
 142  586.8824
 143  549.5937
 144  600.4802
 145  652.3794
 146  643.8312
 147  626.009
 148  438.6543
 149  490.4206
 150  569.1886
 151  583.4238
 152  574.9379
 153  600.6555
 154  660.9839
 155  562.1337
 156  533.7894
 157  520.6589
 158  521.5101
 159  539.9572
 160  564.9383
 161  517.7009
 162  470.5183
 163  489.3799
 164  447.4619
 165  478.17
 166  561.3095
 167  622.9844
 168  559.7579
 169  552.1225
 170  542.1567
 171  513.9443
 172  519.9242
 173  481.4756
 174  535.6983
 175  469.9726
 176  503.1302
 177  581.4816
 178  524.4318
 179  553.5781
 180  599.1242
 181  613.1771
 182  617.0207
 183  489.1232
 184  522.8011
 185  592.6977
 186  617.2238
 187  610.7998
 188  642.3241
 189  587.2499
 190  488.135
 191  544.7332
 192  604.4854
 193  721.0708
 194  613.1594
 195  525.9489
 196  518.921
 197  416.8079
 198  457.3223
 199  480.7519
 200  618.0345
 201  471.2719
 202  521.2219
 203  541.2365
 204  468.9176
 205  596.8279
 206  514.0682
 207  432.1104
 208  415.5977
 209  528.5646
 210  584.845
 211  441.2037
 212  543.4748
 213  520.1659
 214  477.4422
 215  343.2258
 216  344.3891
 217  464.2456
 218  530.4249
 219  495.8499
 220  411.7418
 221  487.6442
 222  492.7071
 223  540.4664
 224  538.7763
 225  502.4835
 226  513.3295
 227  500.0189
 228  492.8649
 229  626.1544
 230  525.6195
 231  506.5852
 232  466.5562
 233  511.7277
 234  524.4716
 235  562.58
 236  421.8395
 237  495.726
 238  474.0852
 239  477.9494
 240  521.4581
 241  499.8821
 242  478.1199
 243  491.9673
 244  494.3046
 245  454.2349
 246  506.1213
 247  472.6061
 248  440.163
 249  475.2352
 250  612.7704
 251  603.8796
 252  553.2465
 253  594.7968
 254  487.7287
 255  488.9072
 256  543.3266
 257  553.7202
 258  490.3783
 259  492.9591
 260  599.176
 261  505.9214
 262  537.2784
 263  430.7439
 264  452.9659
 265  503.1143
 266  501.4163
 267  527.6982
 268  496.326
 269  529.4005
 270  506.5407
 271  509.1808
 272  507.0468
 273  558.0037
 274  448.3697
 275  466.7464
 276  571.1124
 277  551.5977
 278  473.8666
 279  458.4164
 280  496.0204
 281  648.0964
 282  670.9962
 283  696.9366
 284  630.3978
 285  561.937
 286  526.373
 287  506.4675
 288  518.4907
 289  488.4241
 290  489.691
 291  578.6303
 292  523.6699
 293  527.4571
 294  574.4614
 295  574.3144
 296  540.5506
 297  403.3948
 298  349.723
 299  485.2664
 300  617.9002
 301  506.4268
 302  554.8579
 303  676.2197
 304  616.287
 305  569.2389
 306  606.9874
 307  611.2333
 308  462.1405
 309  431.2232
 310  413.4756
 311  496.6554
 312  533.6226
 313  485.9022
 314  466.9252
 315  390.8119
 316  389.7586
 317  419.6802
 318  421.3126
 319  450.7882
 320  588.8737
 321  634.6205
 322  596.8682
 323  539.7494
 324  464.4803
 325  498.1418
 326  384.5679
 327  348.7523
 328  533.7625
 329  487.6763
 330  596.3879
 331  514.0461
 332  442.8656
 333  551.8731
 334  488.2942
 335  571.4639
 336  574.3389
 337  594.6528
 338  573.451
 339  668.4014
 340  486.0362
 341  504.8718
 342  582.2668
 343  575.4689
 344  582.1054
 345  607.4712
 346  617.3003
 347  495.9402
 348  532.3999
 349  571.4628
 350  679.2225
 351  677.7655
 352  529.8639
 353  546.1823
 354  629.4457
 355  575.3014
 356  454.7163
 357  511.6642
 358  552.1328
 359  515.9235
 360  538.999
 361  516.3417
 362  654.6888
 363  650.7512
 364  581.0508
 365  520.6331
 366  456.4022
 367  530.2529
 368  490.1801
 369  486.9274
 370  553.8663
 371  579.3737
 372  476.9999
 373  522.9387
 374  548.634
 375  503.8495
 376  507.1884
 377  515.498
 378  512.0246
 379  514.7358
 380  520.6771
 381  466.3931
 382  481.4821
 383  445.3194
 384  498.2653
 385  523.6095
 386  530.1703
 387  366.4165
 388  397.9023
 389  484.6738
 390  498.4771
 391  492.5478
 392  427.1962
 393  564.3464
 394  517.9551
 395  588.2677
 396  512.8109
 397  409.9081
 398  521.0607
 399  552.2491
 400  514.3364
 401  522.6078
 402  501.1263
 403  500.6872
 404  598.8268
 405  530.1066
 406  589.27
 407  561.5134
 408  512.129
 409  563.0514
 410  412.5687
 411  516.475
 412  536.8871
 413  490.8088
 414  559.9851
 415  594.772
 416  489.9642
 417  470.7339
 418  517.5255
 419  628.5028
 420  608.864
 421  549.9427
 422  561.243
 423  485.6269
 424  546.1097
 425  619.2191
 426  625.9762
 427  653.1155
 428  578.0773
 429  546.3215
 430  505.546
 431  550.8085
 432  463.3925
 433  473.8868
 434  570.6641
 435  585.7267
 436  567.3127
 437  519.3964
 438  509.3955
 439  582.1926
 440  583.5253
 441  507.1373
 442  529.0684
 443  540.4479
 444  604.676
 445  545.4813
 446  481.0554
 447  560.2953
 448  600.3553
 449  593.5957
 450  522.0002
 451  513.9134
 452  627.2082
 453  615.7516
 454  579.0715
 455  549.6599
 456  432.8747
 457  541.3663
 458  589.9363
 459  617.9852
 460  606.4402
 461  470.3047
 462  463.601
 463  417.8751
 464  518.0498
 465  507.6379
 466  567.5577
 467  642.5967
 468  593.7109
 469  499.8745
 470  479.5504
 471  448.4407
 472  477.4528
 473  603.4764
 474  604.3978
 475  645.1617
 476  540.3545
 477  583.9941
 478  500.6065
 479  542.5826
 480  615.0356
 481  563.1849
 482  561.5452
 483  538.3083
 484  550.7821
 485  490.6176
 486  679.3127
 487  635.688
 488  610.8706
 489  606.8273
 490  593.6718
 491  558.4354
 492  462.209
 493  588.0818
 494  643.4982
 495  477.7444
 496  483.2867
 497  489.6563
 498  532.0479
 499  672.8735
 500  626.7629
 501  639.2014
 502  619.9774
 503  577.3792
 504  636.0088
 505  758.3879
 506  714.9517
 507  643.6693
 508  551.1866
 509  604.2311
 510  738.3715
 511  882.6288
