# Input file       =  1197052844.123184_cleaned.dat
# Candidate        =  PSR_0332+5434
# Telescope        =  AR
# Epoch_topo       =  58098.778508370182
# Epoch_bary       =  N/A
# T_sample         =  0.002
# Data Folded      =  7340032
# Data Avg         =  0.281345873927681
# Data StdDev      =  4.97963710452262 
# Profile Bins     =  1024
# Profile Avg      =  2014.52007028402 
# Profile StdDev   =  421.596204733331 
# Reduced chi-sqr  =  0.559
# Prob(Noise)      <  1   (~0.0 sigma)
# P_topo (ms)      =  714.536703005238  +/- 9.42e-05
# P'_topo (s/s)    =  -0                +/- 4.97e-11
# P''_topo (s/s^2) =  0                 +/- 2.2e-14
# P_bary (ms)      =  N/A
# P'_bary (s/s)    =  N/A
# P''_bary (s/s^2) =  N/A
# P_orb (s)        =  N/A
# asin(i)/c (s)    =  N/A
# eccentricity     =  N/A
# w (rad)          =  N/A
# T_peri           =  N/A
######################################################
   0  2178.498
   1  2371.999
   2  2397.844
   3  2243.062
   4  2222.25
   5  2274.407
   6  2258.667
   7  2233.901
   8  2099.593
   9  2036.374
  10  1933.414
  11  1893.045
  12  1856.663
  13  1989.627
  14  2041.86
  15  2048.551
  16  1994.626
  17  2063.917
  18  2107.076
  19  2206.975
  20  2266.031
  21  2346.052
  22  2418.258
  23  2257.107
  24  1985.088
  25  1937.221
  26  1990.989
  27  2000.995
  28  2056.554
  29  2205.692
  30  2202.573
  31  2266.412
  32  2273.811
  33  2317.066
  34  2245.646
  35  2242.203
  36  2345.991
  37  2348.226
  38  2273.556
  39  2168.85
  40  2175.697
  41  2009.689
  42  1936.278
  43  2008.101
  44  1974.101
  45  1925.956
  46  1983.617
  47  2129.688
  48  2226.152
  49  2118.035
  50  2054.87
  51  2133.221
  52  2279.494
  53  2308.333
  54  2224.031
  55  2153.894
  56  2004.532
  57  1974.619
  58  2012.74
  59  2065.356
  60  2020.137
  61  2105.008
  62  2166.669
  63  2233.061
  64  2203.546
  65  2200.665
  66  2196.438
  67  2186.315
  68  2195.865
  69  2034.963
  70  1830.182
  71  1717.851
  72  1803.482
  73  1919.03
  74  1984.486
  75  2130.318
  76  2296.788
  77  2352.842
  78  2391.361
  79  2270.789
  80  2180.649
  81  2010.162
  82  1989.926
  83  2009.242
  84  1825.385
  85  1803.91
  86  1791.156
  87  1959.135
  88  2011.867
  89  2136.015
  90  2206.342
  91  2143.438
  92  2086.039
  93  2038.315
  94  2098.304
  95  2023.254
  96  2144.361
  97  2190.814
  98  2160.857
  99  2179.477
 100  2131.19
 101  2145.148
 102  2126.189
 103  2132.406
 104  2257.2
 105  2158.665
 106  2129.364
 107  2069.188
 108  2051.511
 109  2033.425
 110  2114.225
 111  2202.04
 112  2169.363
 113  2044.637
 114  1912.543
 115  1990.378
 116  1957.14
 117  2151.291
 118  2229.415
 119  2193.078
 120  2037.608
 121  2056.918
 122  2209.42
 123  2242.41
 124  2087.905
 125  2016.45
 126  2034.13
 127  1846.791
 128  1775.88
 129  1787.709
 130  2057.08
 131  2066.495
 132  2079.606
 133  1980.843
 134  2004.939
 135  1971.087
 136  1990.722
 137  1939.967
 138  1995.895
 139  2135.316
 140  2193.984
 141  2127.323
 142  2042.938
 143  2158.286
 144  2070.783
 145  2043.897
 146  1946.972
 147  1995.783
 148  2001.491
 149  1990.566
 150  2021.492
 151  1956.959
 152  1939.59
 153  1943.416
 154  2053.68
 155  2187.151
 156  2280.896
 157  2164.881
 158  2074.412
 159  2016.232
 160  2066.288
 161  2107.511
 162  2074.063
 163  2042.752
 164  1993.712
 165  1918.894
 166  1922.253
 167  1965.933
 168  2045.574
 169  2129.197
 170  1963.011
 171  1936.152
 172  1727.918
 173  1849.998
 174  1745.856
 175  1695.645
 176  1658.323
 177  1766.459
 178  1830.021
 179  1879.47
 180  1974.004
 181  2075.307
 182  2159.435
 183  2218.092
 184  2105.374
 185  1984.454
 186  1970.554
 187  2012.003
 188  2018.115
 189  2016.633
 190  2039.183
 191  2038.339
 192  2030.674
 193  2090.592
 194  2106.864
 195  1956.812
 196  1941.216
 197  2051.943
 198  2213.687
 199  2258.963
 200  2299.506
 201  2222.663
 202  2031.429
 203  2028.101
 204  2070.607
 205  2048.567
 206  2009.427
 207  1963.595
 208  1949.99
 209  1966.471
 210  1977.67
 211  2016.92
 212  1945.526
 213  1863.936
 214  1864.998
 215  1767.598
 216  1748.239
 217  1780.336
 218  1925.577
 219  1915.215
 220  1902.164
 221  1927.349
 222  1942.274
 223  1948.587
 224  1899.311
 225  2067.803
 226  2083.524
 227  1984.991
 228  1880.148
 229  1843.209
 230  1843.173
 231  1895.194
 232  1920.175
 233  1957.457
 234  1835.548
 235  1895.769
 236  2054.981
 237  2108.654
 238  1993.581
 239  2103.683
 240  2124.002
 241  2115.573
 242  2002.827
 243  1744.592
 244  1740.683
 245  1703.45
 246  1847.196
 247  1875.559
 248  1841.445
 249  1826.224
 250  1975.716
 251  1962.472
 252  1973.138
 253  1968.839
 254  2076.023
 255  2077.281
 256  2033.084
 257  1992.751
 258  1924.255
 259  1845.934
 260  1934.941
 261  2066.274
 262  2177.308
 263  2176.878
 264  2021.93
 265  2004.365
 266  1958.489
 267  1922.482
 268  1984.753
 269  2033.057
 270  1951.1
 271  1890.497
 272  1872.776
 273  1854.533
 274  1830.312
 275  1702.89
 276  1726.395
 277  1764.091
 278  1929.906
 279  1952.358
 280  1946.211
 281  1982.084
 282  2048.596
 283  2050.366
 284  1928.875
 285  1785.882
 286  1852.145
 287  2022.433
 288  2039.109
 289  1928.417
 290  1869.802
 291  1768.225
 292  1711.557
 293  1707.975
 294  1923.949
 295  2017.612
 296  2072.038
 297  2094.32
 298  2044.892
 299  1860.229
 300  1754.77
 301  1817.22
 302  1852.887
 303  1779.012
 304  1906.317
 305  2052.259
 306  2191.639
 307  2093.377
 308  2026.146
 309  1859.495
 310  1714.661
 311  1751.403
 312  1828.288
 313  1869.02
 314  1853.538
 315  1809.312
 316  1859.673
 317  1825.605
 318  1902.456
 319  1942.264
 320  1960.428
 321  1868.504
 322  1780.451
 323  1810.194
 324  1980.378
 325  2123.158
 326  1988.449
 327  1706.754
 328  1534.013
 329  1509.415
 330  1510.533
 331  1534.897
 332  1623.553
 333  1795.513
 334  1868.916
 335  1824.588
 336  1841.827
 337  1740.019
 338  1978.276
 339  2006.42
 340  1948.977
 341  1809.356
 342  1725.361
 343  1872.893
 344  1752.505
 345  1742.167
 346  1667.584
 347  1738.481
 348  1842.092
 349  1847.615
 350  1841.607
 351  1869.393
 352  1972.12
 353  1977.68
 354  1928.056
 355  1893.761
 356  1763.267
 357  1570.456
 358  1491.399
 359  1491.839
 360  1638.097
 361  1720.78
 362  1906.943
 363  1845.5
 364  1747.252
 365  1783.644
 366  1772.502
 367  1844.332
 368  1865.695
 369  1916.781
 370  1914.837
 371  1896.931
 372  1945.264
 373  1934.563
 374  1852.238
 375  1853.258
 376  1879.467
 377  1870.244
 378  1965.956
 379  2047.11
 380  2043.644
 381  1986.677
 382  1976.034
 383  2105.788
 384  2034.381
 385  1931.217
 386  1922.139
 387  1891.526
 388  1848.02
 389  1806.314
 390  1883.93
 391  1894.625
 392  1829.712
 393  1855.183
 394  1803.372
 395  1892.209
 396  1959.868
 397  2126.34
 398  2027.901
 399  1929.965
 400  1908.44
 401  1915.213
 402  1778.599
 403  1729.453
 404  1689.871
 405  1677.539
 406  1664.49
 407  1665.698
 408  1763.932
 409  1774.938
 410  1952.359
 411  1980.782
 412  2007.081
 413  2015.856
 414  2066.752
 415  2037.124
 416  2012.451
 417  1944.501
 418  2010.464
 419  2058.203
 420  2021.016
 421  1952.536
 422  2040.161
 423  2033.166
 424  2080.272
 425  2055.951
 426  2175.481
 427  2112.96
 428  1986.676
 429  1937.32
 430  1839.115
 431  1916.651
 432  2027.922
 433  1997.162
 434  1966
 435  1991.338
 436  2000.739
 437  2078.428
 438  2072.318
 439  2047.002
 440  2082.017
 441  2018.872
 442  1916.162
 443  1877.911
 444  1882.339
 445  1906.013
 446  1935.026
 447  1933.88
 448  2002.847
 449  1998.826
 450  2068.531
 451  2043.765
 452  2014.126
 453  1994.713
 454  2140.311
 455  2126.427
 456  2030.584
 457  1858.941
 458  1719.753
 459  1656.025
 460  1621.451
 461  1669.258
 462  1721.22
 463  1748.396
 464  1840.675
 465  1847.782
 466  1835.592
 467  1757.206
 468  1831.954
 469  1865.84
 470  1887.139
 471  1795.754
 472  1730.396
 473  1693.634
 474  1639.02
 475  1724.857
 476  1799.232
 477  1835.871
 478  1800.354
 479  1749.649
 480  1772.535
 481  1790.483
 482  1794.907
 483  1848.753
 484  1887.459
 485  1960.549
 486  2010.055
 487  1983.905
 488  2050.08
 489  1980.361
 490  1901.313
 491  1805.375
 492  1714.74
 493  1709.011
 494  1882.021
 495  1989.988
 496  1967.944
 497  1905.829
 498  1969.399
 499  2077.589
 500  2075.597
 501  1941.479
 502  1736.487
 503  1648.28
 504  1560.411
 505  1604.529
 506  1647.82
 507  1685.821
 508  1813.633
 509  1811.678
 510  1819.05
 511  1722.244
 512  1681.798
 513  1733.71
 514  1755.934
 515  1831.783
 516  1751.425
 517  1764.905
 518  1776.333
 519  1858.946
 520  1708.604
 521  1628.934
 522  1531.933
 523  1581.176
 524  1727.442
 525  1776.234
 526  1963.414
 527  1903.388
 528  1992.736
 529  1884.275
 530  1732.755
 531  1783.689
 532  1775.47
 533  1806.38
 534  1808.933
 535  1762.011
 536  1682.427
 537  1617.03
 538  1784.987
 539  1944.021
 540  2033.35
 541  1908.128
 542  1950.743
 543  1991.223
 544  2046.832
 545  1876.887
 546  1809.565
 547  1806.903
 548  2023.571
 549  1986.994
 550  1988.576
 551  1996.545
 552  2052.939
 553  2160.628
 554  2088.663
 555  2207.698
 556  2275.333
 557  2265.99
 558  2240.349
 559  2236.804
 560  2171.24
 561  2197.625
 562  2303.221
 563  2462.133
 564  2407.682
 565  2334.441
 566  2166.548
 567  2050.827
 568  2004.016
 569  2181.425
 570  2169.86
 571  2135.266
 572  2132.904
 573  2072.563
 574  1956.433
 575  1966.35
 576  2090.5
 577  2055.225
 578  2027.555
 579  2133.125
 580  2271.487
 581  2200.998
 582  2142.84
 583  2143.425
 584  2138.298
 585  2123.477
 586  2142.001
 587  2133.353
 588  2206.755
 589  2262.273
 590  2261.819
 591  2269.634
 592  2177.365
 593  2243.394
 594  2137.825
 595  2046.65
 596  2104.178
 597  2190.887
 598  2324.21
 599  2253.628
 600  2233.784
 601  2122.113
 602  2139.704
 603  2078.574
 604  2120.807
 605  1995.917
 606  2121.87
 607  2033.741
 608  2065.4
 609  1991.795
 610  2052.048
 611  2149.204
 612  2272.725
 613  2226.283
 614  2152.46
 615  2119.763
 616  2213.626
 617  2288.987
 618  2285.855
 619  2226.558
 620  2236.754
 621  2412.841
 622  2448.901
 623  2429.835
 624  2358.119
 625  2431.497
 626  2564.994
 627  2652.607
 628  2601.761
 629  2358.64
 630  2204.59
 631  2193.941
 632  2109.798
 633  2030.818
 634  1935.257
 635  1810.413
 636  1704.135
 637  1643.244
 638  1780.602
 639  2002.26
 640  2119.93
 641  2257.571
 642  2248.718
 643  2087.85
 644  1911.978
 645  1810.605
 646  1781.353
 647  1848.536
 648  1976.429
 649  2057.406
 650  1985.009
 651  2011.246
 652  2051.922
 653  2063.159
 654  2110.742
 655  2115.054
 656  2165.559
 657  2122.247
 658  2229.166
 659  2203.325
 660  2100.188
 661  2072.781
 662  2044.688
 663  2049.851
 664  1997.585
 665  1975.978
 666  2032.31
 667  1984.245
 668  1960.997
 669  2058.894
 670  2065.164
 671  2029.066
 672  1983.385
 673  1904.833
 674  1858.614
 675  1847.019
 676  1887.14
 677  1898.891
 678  1810.513
 679  1932.545
 680  1978.072
 681  1946.849
 682  2013.543
 683  2087.248
 684  2164.734
 685  2082.812
 686  2048.027
 687  2064.778
 688  2049.04
 689  1993.376
 690  1930.875
 691  1989.211
 692  1942.612
 693  1924.488
 694  1886.99
 695  2011.744
 696  2084.481
 697  2151.503
 698  2147.795
 699  2052.133
 700  1926.251
 701  1950.943
 702  1894.533
 703  1860.577
 704  1814.505
 705  2021.18
 706  2019.945
 707  1952.998
 708  1971.388
 709  2056.127
 710  2103.937
 711  2196.245
 712  2184.859
 713  2122.488
 714  2025.423
 715  1921.973
 716  1881.364
 717  1723.001
 718  1781.352
 719  1925.521
 720  2104.938
 721  2039.307
 722  1922.71
 723  1914.564
 724  1990.247
 725  2098.58
 726  2268.014
 727  2392.891
 728  2378.739
 729  2285.497
 730  2296.81
 731  2090.344
 732  1937.493
 733  1899.458
 734  1954.266
 735  1810.705
 736  1686.181
 737  1906.03
 738  2212.433
 739  2298.187
 740  2193.443
 741  2215.87
 742  2216.643
 743  2151.924
 744  2075.476
 745  2065.025
 746  2113.201
 747  2240.459
 748  2211.735
 749  2138.202
 750  2004.638
 751  2059.003
 752  2100.55
 753  1944.016
 754  1878.616
 755  1981.367
 756  2006.319
 757  2043.481
 758  1946.499
 759  1997.376
 760  1998.933
 761  1971.594
 762  1970.608
 763  1991.4
 764  2046.318
 765  2093.336
 766  1973.57
 767  1904.691
 768  1968.903
 769  2158.783
 770  2131.104
 771  2203.782
 772  2114.003
 773  2131.862
 774  2003.444
 775  1873.236
 776  1916.834
 777  1926.231
 778  1806.805
 779  1755.418
 780  1761.021
 781  1854.324
 782  1793.321
 783  1715.835
 784  1730.663
 785  1806.342
 786  1809.237
 787  1953.912
 788  2045.259
 789  1963.657
 790  1884.746
 791  1850.406
 792  2009.435
 793  2057.942
 794  2041.361
 795  2165.786
 796  2220.898
 797  2230.671
 798  2099.264
 799  1969.931
 800  2001.962
 801  2102.179
 802  2262.012
 803  2273.513
 804  2237.116
 805  2252.795
 806  2358.577
 807  2256.98
 808  2082.114
 809  2151.674
 810  2210.635
 811  2337.557
 812  2269.649
 813  2248.267
 814  2066.713
 815  2065.804
 816  2046.342
 817  2085.662
 818  2103.647
 819  2168.562
 820  2228.011
 821  2192.968
 822  2062.738
 823  1938.263
 824  2023.794
 825  2087.546
 826  2008.823
 827  1928.471
 828  1899.349
 829  1957.295
 830  1927.511
 831  1953.744
 832  1922.997
 833  2056.543
 834  2023.812
 835  1996.21
 836  1935.829
 837  1892.246
 838  1950.836
 839  1973.98
 840  1957.936
 841  2068.979
 842  2081.821
 843  2030.629
 844  1930.674
 845  1921.001
 846  2038.056
 847  1946.888
 848  2007.293
 849  2099.025
 850  2120.918
 851  1988.579
 852  2028.034
 853  2073.56
 854  2159.854
 855  2141.844
 856  2158.161
 857  2106.622
 858  2111.411
 859  2245.843
 860  2320.287
 861  2305.568
 862  2279.211
 863  2257.809
 864  2118.073
 865  2070.008
 866  2138.499
 867  2272.397
 868  2329.712
 869  2267.338
 870  2427.864
 871  2364.804
 872  2326.021
 873  2236.24
 874  2176.97
 875  2197.303
 876  2188.319
 877  2121.834
 878  2108.172
 879  2108.26
 880  2160.024
 881  2172.922
 882  2223.749
 883  2321.159
 884  2295.334
 885  2229.551
 886  2177.48
 887  2121.736
 888  2067.402
 889  2097.281
 890  2036.164
 891  1944.295
 892  2032.593
 893  2138.795
 894  2209.549
 895  2174.543
 896  2078.134
 897  2149.472
 898  2190.64
 899  2291.722
 900  2223.53
 901  2281.473
 902  2315.578
 903  2264.094
 904  2093.365
 905  2039.09
 906  1936.441
 907  1990.786
 908  2134.977
 909  2145.787
 910  2090.874
 911  2109.231
 912  2240.227
 913  2385.232
 914  2399.076
 915  2299.963
 916  2057.84
 917  1889.731
 918  1829.781
 919  1952.13
 920  1939.949
 921  1856.305
 922  1821.373
 923  1905.295
 924  2072.392
 925  2054.607
 926  2035.21
 927  2192.676
 928  2145.556
 929  2095.423
 930  2059.11
 931  2109.759
 932  2064.713
 933  1881.015
 934  1877.68
 935  1896.919
 936  1946.701
 937  1874.872
 938  1957.571
 939  1915.825
 940  1998.992
 941  2004.885
 942  1959.111
 943  1860.567
 944  1873.915
 945  2073.637
 946  2120.431
 947  2146.004
 948  2338.823
 949  2329.865
 950  2255.122
 951  2151.468
 952  2096.767
 953  1996.605
 954  2012.463
 955  2130.515
 956  2222.219
 957  2222.553
 958  2218.934
 959  2235.638
 960  2120.473
 961  2143.598
 962  2226.068
 963  2162.277
 964  1992.914
 965  1914.808
 966  1983.807
 967  2015.083
 968  1939.052
 969  2029.553
 970  2212.303
 971  2321.524
 972  2261.9
 973  2286.164
 974  2342.31
 975  2375.505
 976  2379.818
 977  2371.577
 978  2411.741
 979  2356.503
 980  2228.18
 981  2177.899
 982  2080.802
 983  2141.211
 984  2124.518
 985  2212.895
 986  2160.337
 987  2092.566
 988  2076.651
 989  2022.368
 990  1998.723
 991  2025.054
 992  2113.595
 993  2041.273
 994  1844.927
 995  1802.457
 996  1801.152
 997  1889.148
 998  1868.059
 999  1808.891
1000  1853.605
1001  1987.545
1002  2074.438
1003  1904.759
1004  1887.559
1005  1904.506
1006  1998.093
1007  1989.197
1008  1896.4
1009  1883.158
1010  1852.719
1011  1876.416
1012  1947.297
1013  2090.083
1014  2130.352
1015  2195.138
1016  2229.12
1017  2284.169
1018  2167.554
1019  1984.511
1020  1951.177
1021  2097.716
1022  2115.923
1023  2073.846
