# Input file       =  1197052844.123184_cleaned.dat
# Candidate        =  PSR_0332+5434
# Telescope        =  AR
# Epoch_topo       =  58098.778508370182
# Epoch_bary       =  N/A
# T_sample         =  0.002
# Data Folded      =  7340032
# Data Avg         =  0.281345873927681
# Data StdDev      =  4.97963710452262 
# Profile Bins     =  256
# Profile Avg      =  8058.08028132312 
# Profile StdDev   =  843.192409466662 
# Reduced chi-sqr  =  0.761
# Prob(Noise)      <  0.998   (~0.0 sigma)
# P_topo (ms)      =  714.53670312977   +/- 0.00012
# P'_topo (s/s)    =  -0                +/- 6.31e-11
# P''_topo (s/s^2) =  0                 +/- 2.79e-14
# P_bary (ms)      =  N/A
# P'_bary (s/s)    =  N/A
# P''_bary (s/s^2) =  N/A
# P_orb (s)        =  N/A
# asin(i)/c (s)    =  N/A
# eccentricity     =  N/A
# w (rad)          =  N/A
# T_peri           =  N/A
######################################################
   0  9137.921
   1  8991.403
   2  8133.401
   3  7858.916
   4  8272.163
   5  9339.336
   6  7966.071
   7  8594.073
   8  9082.543
   9  9212.63
  10  8185.394
  11  7936.139
  12  8513.118
  13  9002.96
  14  8089.754
  15  8462.494
  16  8786.989
  17  8038.65
  18  7600.424
  19  9273.822
  20  8305.396
  21  7393.214
  22  8412.862
  23  8317.352
  24  8599.102
  25  8528.946
  26  8655.1
  27  8325.996
  28  8228.924
  29  8467.749
  30  8473.459
  31  8230.139
  32  7557.384
  33  8067.98
  34  7982.442
  35  8508.794
  36  8131.007
  37  8013.063
  38  7974.788
  39  8651.22
  40  8283.79
  41  7793.766
  42  8136.48
  43  7126.625
  44  7033.286
  45  8261.839
  46  8185.606
  47  8088.388
  48  8263.857
  49  8276.878
  50  8689.862
  51  8125.475
  52  7906.756
  53  7559.276
  54  7301.354
  55  7667.999
  56  8069.348
  57  7452.167
  58  7627.357
  59  8166.245
  60  8222.07
  61  7062.785
  62  7565.015
  63  8019.894
  64  7915.777
  65  8182.694
  66  8033.149
  67  7886.063
  68  7351.857
  69  7239.541
  70  7980.824
  71  7571.819
  72  7773.899
  73  7231.267
  74  8193.195
  75  7193.087
  76  8119.793
  77  7495.21
  78  7326.657
  79  7443.905
  80  7498.415
  81  7891.223
  82  6141.072
  83  6981.302
  84  7437.297
  85  7427.258
  86  6970.078
  87  7328.901
  88  7798.828
  89  6512.157
  90  6942.249
  91  7143.952
  92  7542.45
  93  7639.923
  94  7647.492
  95  8094.402
  96  7889.754
  97  7436.803
  98  7345.25
  99  8083.975
 100  7382.212
 101  6757.09
 102  7299.119
 103  8105.694
 104  8010.624
 105  8054.583
 106  8387.618
 107  7777.076
 108  7949.678
 109  8164.182
 110  7981.768
 111  7609.014
 112  8081.534
 113  8246.938
 114  7494.025
 115  6690.161
 116  7282.59
 117  7389.781
 118  6787.162
 119  7195.444
 120  7157.031
 121  7756.983
 122  7843.916
 123  7179.701
 124  7869.451
 125  7646.553
 126  6481.309
 127  7128.125
 128  6980.498
 129  7120.184
 130  6564.413
 131  7216.709
 132  7478.095
 133  7136.239
 134  6958.917
 135  7844.801
 136  7635.237
 137  7900.911
 138  8400.514
 139  9028.109
 140  9010.758
 141  9160.506
 142  8477.477
 143  8157.116
 144  8229.573
 145  8777.631
 146  8552.982
 147  8909.519
 148  8741.419
 149  8750.195
 150  8663.412
 151  8318.37
 152  8149.349
 153  8805.648
 154  8961.464
 155  9457.7
 156  9881.416
 157  9585.966
 158  8097.257
 159  6988.939
 160  8724.715
 161  7430.216
 162  7948.881
 163  8294.977
 164  8682.976
 165  8336.539
 166  8010.295
 167  8121.311
 168  7673.53
 169  7472.44
 170  7928.762
 171  8380.728
 172  8024.105
 173  7741.949
 174  8436.947
 175  7751.67
 176  7716.825
 177  8225.007
 178  8394.354
 179  7274.308
 180  7998.598
 181  8523.479
 182  9227.393
 183  7741.026
 184  7821.408
 185  8878.717
 186  8433.484
 187  8498.661
 188  7949.544
 189  8011.008
 190  7910.233
 191  8088.644
 192  8273.656
 193  8313.018
 194  7479.024
 195  7133.122
 196  7158.436
 197  7788.163
 198  8118.616
 199  8632.678
 200  8477.589
 201  9149.514
 202  8734.929
 203  8776.048
 204  8332.351
 205  8554.5
 206  8043.432
 207  7731.104
 208  7993.87
 209  7721.927
 210  8136.9
 211  7892.071
 212  8193.803
 213  8308.426
 214  8549.171
 215  9196.181
 216  8564.829
 217  9376.042
 218  9039.84
 219  8506.627
 220  8801.577
 221  8916.554
 222  8246.241
 223  8416.582
 224  8655.745
 225  9105.869
 226  8181.465
 227  8419.366
 228  9289.783
 229  7853.294
 230  7526.551
 231  8249.412
 232  8454.377
 233  7795.292
 234  7709.111
 235  7871.907
 236  8030.537
 237  9105.3
 238  8230.842
 239  8836.152
 240  8715.314
 241  7954.726
 242  8358.886
 243  9247.469
 244  9550.578
 245  8712.761
 246  8603.014
 247  8158.656
 248  7925.69
 249  7358.694
 250  7793.388
 251  7703.551
 252  7539.979
 253  8227.923
 254  8782.737
 255  8179.193
