# Input file       =  1197407269.136531_cleaned.dat
# Candidate        =  PSR_0332+5434
# Telescope        =  AR
# Epoch_topo       =  58102.880649728366
# Epoch_bary       =  N/A
# T_sample         =  0.002
# Data Folded      =  7340032
# Data Avg         =  0.0582776629906075
# Data StdDev      =  0.999972112360673
# Profile Bins     =  512
# Profile Avg      =  835.531814628898 
# Profile StdDev   =  119.729697305032 
# Reduced chi-sqr  =  0.483
# Prob(Noise)      <  1   (~0.0 sigma)
# P_topo (ms)      =  714.541015096029  +/- 0.00148
# P'_topo (s/s)    =  -0                +/- 7.81e-10
# P''_topo (s/s^2) =  0                 +/- 3.45e-13
# P_bary (ms)      =  N/A
# P'_bary (s/s)    =  N/A
# P''_bary (s/s^2) =  N/A
# P_orb (s)        =  N/A
# asin(i)/c (s)    =  N/A
# eccentricity     =  N/A
# w (rad)          =  N/A
# T_peri           =  N/A
######################################################
   0  1100.575
   1  1021.682
   2  979.4811
   3  889.9507
   4  857.3508
   5  847.0928
   6  815.9578
   7  820.1044
   8  823.0497
   9  781.1237
  10  839.5488
  11  885.2974
  12  862.2765
  13  872.2936
  14  866.2376
  15  873.5928
  16  826.0417
  17  852.986
  18  847.8569
  19  774.2266
  20  867.6687
  21  902.7443
  22  814.7032
  23  780.3151
  24  810.8461
  25  800.8648
  26  832.2235
  27  842.1309
  28  818.9291
  29  859.9022
  30  889.5613
  31  864.037
  32  903.9521
  33  846.2122
  34  851.6214
  35  813.2758
  36  860.0021
  37  838.0068
  38  789.8783
  39  748.2941
  40  782.0809
  41  885.2817
  42  850.0144
  43  835.3981
  44  789.8381
  45  796.4436
  46  829.3277
  47  863.1464
  48  800.9539
  49  721.0591
  50  850.6274
  51  874.9978
  52  826.2357
  53  728.601
  54  802.6229
  55  785.0096
  56  789.1827
  57  798.5988
  58  763.2976
  59  765.4863
  60  893.097
  61  955.7998
  62  841.111
  63  763.2141
  64  777.6182
  65  779.6561
  66  766.7495
  67  863.7227
  68  812.0175
  69  790.7693
  70  845.0475
  71  793.8342
  72  682.8047
  73  749.6006
  74  786.2788
  75  848.683
  76  877.3059
  77  895.048
  78  859.2103
  79  899.9125
  80  908.9512
  81  867.6061
  82  820.3017
  83  743.7815
  84  837.5612
  85  939.637
  86  917.8203
  87  807.9282
  88  827.4194
  89  917.8665
  90  939.48
  91  807.6717
  92  868.5689
  93  850.5809
  94  808.8552
  95  848.6534
  96  798.132
  97  957.582
  98  918.8983
  99  939.9722
 100  916.7478
 101  935.7982
 102  889.179
 103  844.5961
 104  769.7117
 105  767.2908
 106  902.4042
 107  908.4592
 108  947.2097
 109  897.5386
 110  820.225
 111  762.3569
 112  799.0535
 113  840.6339
 114  942.5334
 115  831.8208
 116  893.4131
 117  908.8079
 118  931.5311
 119  937.2303
 120  877.6418
 121  818.4987
 122  862.3986
 123  887.9082
 124  829.9766
 125  822.4564
 126  811.5885
 127  869.5812
 128  814.6148
 129  853.8569
 130  864.3587
 131  839.0507
 132  888.2419
 133  887.7119
 134  839.0311
 135  780.4735
 136  784.7701
 137  775.1022
 138  757.5579
 139  779.7261
 140  769.5574
 141  791.7725
 142  835.8049
 143  877.0931
 144  803.1051
 145  828.9658
 146  935.7848
 147  841.1834
 148  808.6628
 149  780.1304
 150  905.5323
 151  905.4606
 152  880.9265
 153  838.7416
 154  803.8603
 155  789.6528
 156  721.2148
 157  748.6116
 158  760.7457
 159  762.2708
 160  806.7522
 161  779.3252
 162  767.5472
 163  733.4114
 164  809.264
 165  832.162
 166  812.1224
 167  870.7355
 168  849.106
 169  715.048
 170  687.1603
 171  707.0261
 172  803.9991
 173  771.5267
 174  696.5744
 175  802.946
 176  772.4791
 177  753.5336
 178  831.5891
 179  868.3367
 180  786.3464
 181  778.4739
 182  752.0517
 183  828.1323
 184  907.3
 185  868.158
 186  915.2026
 187  858.0287
 188  815.0233
 189  813.8636
 190  810.0362
 191  831.2228
 192  829.7709
 193  858.8957
 194  915.3143
 195  844.3619
 196  891.3489
 197  880.2228
 198  895.2519
 199  866.3276
 200  849.3541
 201  795.0466
 202  839.3433
 203  897.1807
 204  933.1161
 205  790.9282
 206  779.4753
 207  688.3353
 208  703.3632
 209  714.1138
 210  743.2927
 211  782.1795
 212  821.152
 213  859.6816
 214  862.8411
 215  853.9628
 216  785.4161
 217  735.1901
 218  812.313
 219  815.6746
 220  854.3172
 221  885.2979
 222  887.2939
 223  888.4433
 224  828.8903
 225  799.827
 226  752.5952
 227  786.9773
 228  851.7909
 229  840.434
 230  716.2819
 231  782.2642
 232  728.8957
 233  779.6676
 234  816.1799
 235  768.6797
 236  726.9165
 237  729.9249
 238  726.9852
 239  808.8591
 240  796.1539
 241  784.2664
 242  788.1683
 243  747.7898
 244  779.1893
 245  774.2495
 246  838.9464
 247  866.1301
 248  811.1129
 249  880.0307
 250  863.5392
 251  826.9033
 252  909.2662
 253  947.5461
 254  865.3326
 255  828.166
 256  756.2316
 257  770.7125
 258  845.5349
 259  765.8643
 260  816.1181
 261  782.3287
 262  774.9302
 263  741.4978
 264  727.9586
 265  753.3785
 266  802.6508
 267  803.5145
 268  868.8858
 269  814.8472
 270  756.7206
 271  733.1672
 272  807.8977
 273  870.6967
 274  842.5302
 275  877.1525
 276  913.5239
 277  842.0807
 278  866.9541
 279  860.1042
 280  822.4137
 281  697.2187
 282  730.9409
 283  744.1145
 284  827.8875
 285  823.7097
 286  823.3265
 287  794.8133
 288  792.8423
 289  872.9036
 290  885.2388
 291  917.9982
 292  925.8317
 293  854.1169
 294  798.1829
 295  845.5112
 296  847.3611
 297  855.2731
 298  842.5739
 299  787.2332
 300  811.4131
 301  785.7338
 302  786.1247
 303  831.0898
 304  792.4179
 305  816.5542
 306  811.8115
 307  833.2776
 308  861.3302
 309  794.9521
 310  759.4543
 311  814.0322
 312  788.9205
 313  859.1284
 314  959.1295
 315  973.2768
 316  895.9639
 317  876.3315
 318  888.0259
 319  792.1255
 320  737.3655
 321  854.0386
 322  943.1475
 323  894.8735
 324  910.2927
 325  873.783
 326  832.5945
 327  812.8573
 328  827.1224
 329  879.742
 330  855.6017
 331  833.8798
 332  795.8373
 333  889.6161
 334  893.569
 335  872.0092
 336  861.0565
 337  883.3712
 338  826.0316
 339  837.9478
 340  855.5099
 341  835.0745
 342  832.6707
 343  861.6673
 344  850.1418
 345  740.7383
 346  735.5016
 347  767.3682
 348  716.4323
 349  801.4963
 350  846.7465
 351  833.8932
 352  831.4481
 353  805.1837
 354  779.2802
 355  747.8886
 356  780.0466
 357  842.7487
 358  836.5936
 359  809.7456
 360  892.1931
 361  868.9254
 362  781.2498
 363  791.791
 364  829.0521
 365  861.4716
 366  913.5976
 367  868.7286
 368  792.596
 369  829.0159
 370  863.886
 371  869.8041
 372  858.1155
 373  810.4202
 374  861.2476
 375  851.0899
 376  943.8818
 377  829.8784
 378  742.4022
 379  920.8183
 380  853.0839
 381  878.9078
 382  828.1031
 383  900.9074
 384  888.7717
 385  928.6394
 386  943.614
 387  866.4491
 388  818.5273
 389  861.295
 390  931.2321
 391  941.3043
 392  931.4174
 393  930.3496
 394  887.5298
 395  896.3143
 396  807.6412
 397  760.1198
 398  786.9514
 399  859.9352
 400  933.106
 401  862.1753
 402  840.0449
 403  880.4553
 404  894.2234
 405  808.1334
 406  811.0031
 407  859.1431
 408  900.2682
 409  832.4206
 410  823.4844
 411  844.7406
 412  823.7059
 413  845.8776
 414  835.6857
 415  833.3633
 416  750.2997
 417  794.2023
 418  749.4411
 419  755.0118
 420  765.5773
 421  813.9796
 422  755.7842
 423  783.4276
 424  735.2061
 425  751.1174
 426  812.4432
 427  838.4463
 428  852.8912
 429  825.842
 430  745.1811
 431  715.2819
 432  840.2612
 433  791.9637
 434  779.8361
 435  837.2519
 436  903.6685
 437  881.0163
 438  842.7756
 439  812.6093
 440  864.5339
 441  824.9895
 442  859.9728
 443  836.409
 444  852.9759
 445  863.943
 446  807.8125
 447  833.2888
 448  792.4385
 449  852.134
 450  805.9757
 451  819.1624
 452  756.9594
 453  750.9455
 454  790.1469
 455  765.4968
 456  802.6811
 457  796.9515
 458  805.1261
 459  810.2618
 460  750.518
 461  801.003
 462  796.6575
 463  822.4627
 464  878.2662
 465  894.2604
 466  866.0984
 467  885.1717
 468  908.5801
 469  931.1237
 470  881.5773
 471  907.6197
 472  906.2366
 473  892.0978
 474  877.4574
 475  791.8359
 476  792.4636
 477  824.9674
 478  886.4718
 479  961.3219
 480  894.7565
 481  884.8848
 482  876.6395
 483  868.3815
 484  904.4503
 485  847.939
 486  863.4199
 487  844.5583
 488  823.6822
 489  890.655
 490  928.3271
 491  924.739
 492  880.708
 493  957.2876
 494  924.3353
 495  858.0913
 496  790.0491
 497  853.0196
 498  902.8373
 499  954.295
 500  907.5489
 501  858.2153
 502  814.9175
 503  791.3305
 504  822.4355
 505  912.8615
 506  984.4718
 507  1007.924
 508  939.6152
 509  944.8339
 510  960.626
 511  998.4103
