# Input file       =  1197842978.102469_cleaned.dat
# Candidate        =  PSR_0332+5434
# Telescope        =  AR
# Epoch_topo       =  58107.923577574875
# Epoch_bary       =  N/A
# T_sample         =  0.002
# Data Folded      =  7340032
# Data Avg         =  0.0940738871743503
# Data StdDev      =  3.48522035279033 
# Profile Bins     =  512
# Profile Avg      =  1348.80622198262 
# Profile StdDev   =  417.296015281691 
# Reduced chi-sqr  =  0.607
# Prob(Noise)      <  1   (~0.0 sigma)
# P_topo (ms)      =  714.546064243382  +/- 0.000219
# P'_topo (s/s)    =  -0                +/- 1.15e-10
# P''_topo (s/s^2) =  0                 +/- 5.09e-14
# P_bary (ms)      =  N/A
# P'_bary (s/s)    =  N/A
# P''_bary (s/s^2) =  N/A
# P_orb (s)        =  N/A
# asin(i)/c (s)    =  N/A
# eccentricity     =  N/A
# w (rad)          =  N/A
# T_peri           =  N/A
######################################################
   0  834.8969
   1  1036.965
   2  948.4131
   3  1308.031
   4  1488.354
   5  1733.746
   6  1269.616
   7  1204.392
   8  1502.359
   9  1132.124
  10  1127.405
  11  1164.807
  12  1437.575
  13  1701.663
  14  1646.115
  15  1672.011
  16  1597.641
  17  1501.284
  18  1440.639
  19  1473.37
  20  1184.334
  21  1080.918
  22  1128.244
  23  1137.97
  24  1370.081
  25  1314.784
  26  1144.624
  27  1240.884
  28  1455.261
  29  1629.577
  30  1392.539
  31  1123.328
  32  962.8411
  33  1192.347
  34  1365.161
  35  1230.745
  36  1396.899
  37  1293.796
  38  1450.753
  39  1174.403
  40  1245.387
  41  1395.275
  42  1408.001
  43  1118.541
  44  1560.719
  45  1137.216
  46  1043.463
  47  1791.775
  48  1635.198
  49  1456.847
  50  1346.491
  51  1464.385
  52  1446.25
  53  1330.57
  54  1409.083
  55  1472.355
  56  1665.067
  57  1586.99
  58  1519.586
  59  1497.047
  60  1392.746
  61  1380.065
  62  1580.141
  63  1747.217
  64  1477.234
  65  1554.131
  66  1817.185
  67  1530.547
  68  1341.422
  69  1446.45
  70  1232.596
  71  1364.889
  72  1478.894
  73  1264.961
  74  1113
  75  1093.801
  76  1464.409
  77  1643.243
  78  1411.271
  79  1262.545
  80  1270.191
  81  1239.864
  82  1654.207
  83  1529.573
  84  1354.449
  85  1416.087
  86  1555.251
  87  1434.883
  88  1480.294
  89  1127.012
  90  1283.153
  91  1131.226
  92  1029.589
  93  1229.093
  94  1119.354
  95  1421.008
  96  1336.022
  97  1122.1
  98  1162.62
  99  1183.295
 100  1022.585
 101  941.386
 102  1176.38
 103  1131.116
 104  1332.023
 105  1499.345
 106  1232.162
 107  1242.562
 108  1494.053
 109  1137.078
 110  1166.124
 111  1174.004
 112  1168.221
 113  1003.937
 114  1222.836
 115  1565.062
 116  1302.25
 117  1385.054
 118  1230.254
 119  1280.327
 120  1524.692
 121  1379.373
 122  980.8514
 123  1037.991
 124  858.3279
 125  961.886
 126  1258.439
 127  1323.883
 128  1508.722
 129  1668.656
 130  1640.044
 131  1310.628
 132  1095.608
 133  1157.195
 134  1072.507
 135  1005.756
 136  970.9352
 137  1036.747
 138  1254.033
 139  1466.985
 140  1759.658
 141  1586.929
 142  1261.452
 143  1277.949
 144  1707.767
 145  1603.333
 146  1394.657
 147  1430.139
 148  1169.202
 149  1070.903
 150  1385.935
 151  1616.558
 152  1207.73
 153  1101.547
 154  1072.632
 155  1141.969
 156  1202.59
 157  898.1832
 158  1199.778
 159  1100.604
 160  1174.904
 161  1263.604
 162  1331.762
 163  1610.727
 164  1325.768
 165  1339.651
 166  1504.506
 167  1761.089
 168  1399.764
 169  1284.425
 170  1579.098
 171  1396.769
 172  1209.162
 173  1284.074
 174  1155.976
 175  1278.119
 176  1381.131
 177  1636.465
 178  1591.348
 179  1512.011
 180  1161.297
 181  1381.126
 182  1203.211
 183  1603.288
 184  1468.947
 185  1699.39
 186  1588.444
 187  1517.366
 188  1672.531
 189  1508.266
 190  1774.872
 191  1590.747
 192  1279.458
 193  1222.962
 194  1571.047
 195  1468.887
 196  1687.167
 197  1362.891
 198  1234.996
 199  1347.785
 200  1498.928
 201  1376.237
 202  1280.171
 203  1386.966
 204  1419.223
 205  1135.964
 206  1420.702
 207  1592.721
 208  1614.999
 209  1753.855
 210  1553.018
 211  1398.061
 212  1442.089
 213  1445.366
 214  1448.397
 215  1173.113
 216  1118.194
 217  954.9395
 218  1366.913
 219  1429.248
 220  1158.567
 221  1233.881
 222  1453.792
 223  1426.521
 224  1223.328
 225  1253.433
 226  1616.085
 227  1757.255
 228  1698.149
 229  1811.201
 230  1483.733
 231  1255.92
 232  1186.125
 233  1425.858
 234  1350.21
 235  1386.868
 236  1316.886
 237  1294.388
 238  1293.42
 239  1195.534
 240  1319.423
 241  1300.142
 242  1025.935
 243  730.7254
 244  1112.848
 245  1265.491
 246  1460.5
 247  1298.214
 248  1608.524
 249  1399.612
 250  1322.004
 251  1261.839
 252  1079.659
 253  1371.078
 254  1362.999
 255  1500.499
 256  1527.733
 257  1519.151
 258  1443.939
 259  1281.532
 260  911.1548
 261  1080.85
 262  933.8453
 263  922.8051
 264  1068.935
 265  1501.093
 266  1689.983
 267  1376.263
 268  1076.352
 269  1119.189
 270  1044.837
 271  1401.982
 272  1572.477
 273  1317.784
 274  1337.224
 275  1405.017
 276  1377.584
 277  1336.084
 278  1698.581
 279  1518.753
 280  1361.802
 281  1434.876
 282  1177.992
 283  1300.47
 284  1433.143
 285  1207.952
 286  1429.87
 287  1621.291
 288  1550.016
 289  1306.212
 290  1282.723
 291  1231.715
 292  1302.333
 293  1413.353
 294  1527.379
 295  1597.938
 296  1203.922
 297  1148.312
 298  1300.771
 299  1163.976
 300  1059.597
 301  1249.93
 302  1052.92
 303  771.9684
 304  744.075
 305  1259.996
 306  1339.863
 307  1331.812
 308  1671.141
 309  1730.536
 310  1772.163
 311  1888.048
 312  2097.599
 313  1985.816
 314  1810.374
 315  1738.715
 316  1471.209
 317  1288.29
 318  1227.753
 319  1399.086
 320  1013.701
 321  1100.545
 322  1421.302
 323  1183.058
 324  1213.449
 325  1494.132
 326  1206.905
 327  1224.805
 328  1549.379
 329  1556.581
 330  1184.678
 331  1247.051
 332  1244.397
 333  863.8439
 334  1042.211
 335  1475.536
 336  1760.403
 337  1426.276
 338  1415.485
 339  1258.848
 340  1061.45
 341  1411.532
 342  1459.599
 343  1551.378
 344  1602.312
 345  1360.683
 346  1497.829
 347  1604.267
 348  1609.284
 349  1845.523
 350  1714.105
 351  1289.935
 352  1301.682
 353  1240.716
 354  1127.615
 355  1220.03
 356  1222.181
 357  1282.423
 358  1383.826
 359  1459.346
 360  1285.842
 361  1256.302
 362  1349.908
 363  1453.103
 364  1613.272
 365  2035.285
 366  2018.897
 367  1559.534
 368  1761.172
 369  1818.384
 370  1295.076
 371  1259.524
 372  1377.484
 373  1738.442
 374  2009.231
 375  1847.561
 376  1649.126
 377  1768.761
 378  1790.709
 379  1662.245
 380  1472.2
 381  1359.39
 382  1446.882
 383  1769.373
 384  1583.828
 385  1510.061
 386  1346.047
 387  1119.277
 388  1127.112
 389  1589.142
 390  1564.518
 391  1658.118
 392  1813.224
 393  1496.362
 394  1319.786
 395  1166.278
 396  1054.016
 397  989.2709
 398  1332.785
 399  1397.642
 400  946.1487
 401  1113.062
 402  1680.195
 403  1413.008
 404  1417.587
 405  1555.44
 406  1240.124
 407  1359.867
 408  1798.281
 409  1896.705
 410  1562.809
 411  1569.848
 412  1505.646
 413  1414.691
 414  1375.672
 415  1446.278
 416  1609.143
 417  1691.515
 418  1874.051
 419  1728.285
 420  1604.723
 421  1314.272
 422  1397.385
 423  1570.666
 424  1579.312
 425  1690.921
 426  1527.424
 427  1305.813
 428  1119.637
 429  1226.951
 430  1235.575
 431  1302.092
 432  1089.708
 433  906.209
 434  1142.351
 435  1304.619
 436  1306.764
 437  1564.768
 438  1397.766
 439  1414.258
 440  1270.372
 441  1372.84
 442  1587.142
 443  1126.762
 444  1088.831
 445  1282.526
 446  1454.836
 447  1299.152
 448  1359.789
 449  1424.001
 450  1283.579
 451  1290.586
 452  1387.75
 453  1467.938
 454  1296.253
 455  1387.574
 456  1438.976
 457  1601.583
 458  1652.637
 459  1485.337
 460  1278.35
 461  1150.631
 462  1200.035
 463  1086.51
 464  1054.63
 465  1464.151
 466  1297.516
 467  1090.589
 468  1187.524
 469  1089.08
 470  1316.802
 471  1059.17
 472  1114.434
 473  1256.475
 474  1174.031
 475  1084.425
 476  915.7421
 477  838.1171
 478  1058.571
 479  1078.098
 480  947.6509
 481  1016.615
 482  1113.301
 483  1352.807
 484  1416.368
 485  1377.159
 486  1331.873
 487  1246.705
 488  1200.505
 489  1225.421
 490  1139.381
 491  1099.94
 492  1394.035
 493  1397.29
 494  1228.772
 495  1426.871
 496  1326.193
 497  1124.134
 498  1031.468
 499  1179.358
 500  1042.931
 501  1097.447
 502  1541.119
 503  934.6061
 504  749.6548
 505  955.6727
 506  960.5655
 507  900.936
 508  1064.704
 509  1206.957
 510  766.0465
 511  574.3436
