# Input file       =  1197484280.100448_cleaned.dat
# Candidate        =  PSR_0332+5434
# Telescope        =  AR
# Epoch_topo       =  58103.771980329257
# Epoch_bary       =  N/A
# T_sample         =  0.002
# Data Folded      =  7340032
# Data Avg         =  0.244268330236082
# Data StdDev      =  4.3595799690333  
# Profile Bins     =  1024
# Profile Avg      =  1750.51355268527 
# Profile StdDev   =  369.099661400345 
# Reduced chi-sqr  =  0.543
# Prob(Noise)      <  1   (~0.0 sigma)
# P_topo (ms)      =  714.541705490974  +/- 0.000415
# P'_topo (s/s)    =  -0                +/- 2.19e-10
# P''_topo (s/s^2) =  0                 +/- 9.67e-14
# P_bary (ms)      =  N/A
# P'_bary (s/s)    =  N/A
# P''_bary (s/s^2) =  N/A
# P_orb (s)        =  N/A
# asin(i)/c (s)    =  N/A
# eccentricity     =  N/A
# w (rad)          =  N/A
# T_peri           =  N/A
######################################################
   0  1720.803
   1  1689.779
   2  1528.825
   3  1585.232
   4  1590.169
   5  1627.853
   6  1664.81
   7  1577.73
   8  1509.583
   9  1470.586
  10  1515.176
  11  1452.468
  12  1439.024
  13  1483.758
  14  1565.53
  15  1614.159
  16  1574.921
  17  1568.109
  18  1471.988
  19  1403.989
  20  1512.755
  21  1487.564
  22  1466.852
  23  1400.427
  24  1558.888
  25  1639.719
  26  1634.293
  27  1456.154
  28  1497.254
  29  1546.941
  30  1568.723
  31  1521.034
  32  1512.539
  33  1661.448
  34  1782.518
  35  1736.259
  36  1767.587
  37  1867.509
  38  1962.775
  39  1918.283
  40  1738.398
  41  1597.342
  42  1439.881
  43  1455.452
  44  1511.375
  45  1535.018
  46  1630.35
  47  1680.522
  48  1775.686
  49  1704.448
  50  1747.645
  51  1763.121
  52  1905.991
  53  1878.297
  54  1877.538
  55  1765.262
  56  1633.401
  57  1612.033
  58  1536.511
  59  1594.56
  60  1703.089
  61  1806.456
  62  1816.432
  63  1640.137
  64  1569.836
  65  1703.356
  66  1837.954
  67  1715.149
  68  1610.812
  69  1762.656
  70  2001.679
  71  2000.273
  72  1791.621
  73  1792.416
  74  1799.542
  75  1766.944
  76  1613.196
  77  1606.641
  78  1706.707
  79  1840.558
  80  2015.517
  81  2111.309
  82  1962.312
  83  1731.869
  84  1581.774
  85  1556.569
  86  1586.727
  87  1645.322
  88  1765.282
  89  1790.89
  90  1767.966
  91  1733.409
  92  1694.203
  93  1747.364
  94  1623.262
  95  1500.7
  96  1448.576
  97  1429.424
  98  1499.804
  99  1544.602
 100  1654.301
 101  1669.393
 102  1675.046
 103  1566.855
 104  1592.065
 105  1730.965
 106  1842.558
 107  1811.332
 108  1704.974
 109  1659.786
 110  1595.375
 111  1496.423
 112  1540.31
 113  1597.191
 114  1659.461
 115  1628.684
 116  1661.059
 117  1792.156
 118  1818.922
 119  1826.614
 120  1713.722
 121  1682.349
 122  1688.874
 123  1746.594
 124  1700.556
 125  1759.531
 126  1825.538
 127  1926.32
 128  1822.999
 129  1665.505
 130  1726.267
 131  1763.864
 132  1747.448
 133  1587.094
 134  1637.671
 135  1751.431
 136  1899.751
 137  1886.223
 138  1869.442
 139  1809.907
 140  1822.689
 141  1853.603
 142  1839.22
 143  1778.225
 144  1655.511
 145  1612.343
 146  1687.891
 147  1723.766
 148  1715.877
 149  1596.777
 150  1563.285
 151  1701.285
 152  1733.383
 153  1834.814
 154  1731.333
 155  1793.341
 156  1829.915
 157  1827.522
 158  1836.105
 159  1846.318
 160  1979.163
 161  1810.956
 162  1657.467
 163  1660.227
 164  1739.358
 165  1783.303
 166  1616.507
 167  1670.328
 168  1684.199
 169  1844.026
 170  1910.469
 171  2025.176
 172  1978.482
 173  1986.511
 174  1903.383
 175  1770.832
 176  1697.577
 177  1818.997
 178  1926.42
 179  1877.463
 180  1722.888
 181  1654.568
 182  1697.577
 183  1626.363
 184  1613.788
 185  1661.063
 186  1754.039
 187  1838.571
 188  1730.558
 189  1660.734
 190  1726.865
 191  1802.706
 192  1923.667
 193  1788.025
 194  1806.385
 195  1740.306
 196  1735.911
 197  1649.635
 198  1706.205
 199  1718.21
 200  1692.249
 201  1652.638
 202  1728.344
 203  1946.701
 204  1991.99
 205  1910.162
 206  1864.104
 207  1821.031
 208  1822.124
 209  1657.54
 210  1621.906
 211  1675.945
 212  1751.637
 213  1758.03
 214  1736.265
 215  1709.291
 216  1842.581
 217  1837.272
 218  1805.229
 219  1660.043
 220  1597.339
 221  1577.805
 222  1596.47
 223  1710.448
 224  1774.108
 225  1786.348
 226  1682.823
 227  1600.124
 228  1702.731
 229  1697.495
 230  1625.363
 231  1590.425
 232  1690.503
 233  1791.714
 234  1713.716
 235  1717.361
 236  1825.075
 237  1918.063
 238  1920.235
 239  1692.552
 240  1682.26
 241  1639.363
 242  1678.06
 243  1707.092
 244  1685.849
 245  1742.704
 246  1689.495
 247  1699.764
 248  1587.256
 249  1648.408
 250  1705.945
 251  1637.811
 252  1441.566
 253  1487.065
 254  1561.052
 255  1573.883
 256  1605.892
 257  1606.652
 258  1617.004
 259  1618.832
 260  1586.325
 261  1502.744
 262  1471.823
 263  1617.937
 264  1628.582
 265  1589.16
 266  1586.824
 267  1720.7
 268  1713.012
 269  1656.381
 270  1676.754
 271  1800.219
 272  1821.15
 273  1804.17
 274  1796.725
 275  1819.719
 276  1752.26
 277  1534.171
 278  1467.612
 279  1537.001
 280  1656.018
 281  1781.038
 282  1937.301
 283  2010.42
 284  1928.793
 285  1725.396
 286  1764.903
 287  1719.609
 288  1741.246
 289  1673.049
 290  1607.047
 291  1544.316
 292  1584.752
 293  1681.408
 294  1631.571
 295  1558.323
 296  1552.651
 297  1567.401
 298  1553.093
 299  1495.175
 300  1565.41
 301  1589.548
 302  1600.789
 303  1581.785
 304  1619.402
 305  1623.828
 306  1602.522
 307  1537.097
 308  1471.74
 309  1522.851
 310  1584.168
 311  1621.365
 312  1618.848
 313  1591.359
 314  1574.61
 315  1567.563
 316  1657.57
 317  1816.749
 318  1841.9
 319  1805.691
 320  1803.372
 321  1791.966
 322  1675.555
 323  1624.054
 324  1595.05
 325  1500.823
 326  1512.71
 327  1573.848
 328  1654.572
 329  1669.991
 330  1698.732
 331  1717.805
 332  1672.875
 333  1608.637
 334  1590.588
 335  1578.948
 336  1632.82
 337  1663.228
 338  1793.325
 339  1857.107
 340  1934.655
 341  1984.878
 342  1997.924
 343  1979.691
 344  1834.436
 345  1765.859
 346  1722.246
 347  1747.483
 348  1819.476
 349  1828.252
 350  1915.137
 351  1764.052
 352  1679.765
 353  1685.304
 354  1809.236
 355  1770.279
 356  1818.953
 357  1897.235
 358  1953.185
 359  1763.538
 360  1545.342
 361  1477.033
 362  1638.56
 363  1726.416
 364  1804.091
 365  1723.797
 366  1742.605
 367  1766.577
 368  1769.868
 369  1742.741
 370  1753.948
 371  1547.09
 372  1427.177
 373  1374.544
 374  1627.226
 375  1720.108
 376  1701.715
 377  1737.618
 378  1789.813
 379  1820.73
 380  1719.898
 381  1652.342
 382  1698.025
 383  1792.875
 384  1800.734
 385  1756.435
 386  1814.323
 387  1709.099
 388  1629.819
 389  1587.438
 390  1756.611
 391  1769.75
 392  1739.245
 393  1644.393
 394  1683.326
 395  1738.898
 396  1812.039
 397  1727.159
 398  1634.665
 399  1545.633
 400  1696.111
 401  1714.022
 402  1787.639
 403  1656.619
 404  1714.723
 405  1650.048
 406  1659.388
 407  1667.506
 408  1781.443
 409  1745.285
 410  1740.256
 411  1732.191
 412  1670.295
 413  1676.653
 414  1716.151
 415  1877.951
 416  1815.46
 417  1767.556
 418  1772.27
 419  1787.385
 420  1717.835
 421  1724.612
 422  1932.949
 423  2075.89
 424  2073.342
 425  1918.12
 426  1845.136
 427  1799.769
 428  1859.035
 429  1874.878
 430  1882.317
 431  1967.836
 432  1996.81
 433  2006.309
 434  1945.605
 435  1887.75
 436  1780.735
 437  1738.828
 438  1616.021
 439  1613.686
 440  1603.322
 441  1680.547
 442  1711.063
 443  1721.621
 444  1760.851
 445  1779.622
 446  1815.412
 447  1735.128
 448  1693.969
 449  1649.455
 450  1704.48
 451  1752.004
 452  1805.785
 453  1803.184
 454  1717.625
 455  1686.167
 456  1729.817
 457  1791.93
 458  1898.294
 459  1862.828
 460  1903.669
 461  2085.288
 462  2090.829
 463  2041.78
 464  1766.182
 465  1639.79
 466  1647.264
 467  1707.477
 468  1770.04
 469  1758.909
 470  1810.759
 471  1835.247
 472  1901.725
 473  1809.201
 474  1923.8
 475  1897.772
 476  2000.521
 477  2046.032
 478  2054.229
 479  1922.046
 480  1832.276
 481  1709.301
 482  1779.083
 483  1820.349
 484  1868.744
 485  1854.527
 486  1757.155
 487  1860.27
 488  1974.922
 489  1942.992
 490  1768.85
 491  1539.371
 492  1585.726
 493  1468.836
 494  1399.226
 495  1416.048
 496  1617.899
 497  1783.011
 498  1797.803
 499  1823.322
 500  1785.216
 501  1767.603
 502  1693.744
 503  1751.236
 504  1759.403
 505  1682.63
 506  1664.788
 507  1794.885
 508  1828.83
 509  1862.175
 510  1785.711
 511  1848.108
 512  1830.729
 513  1812.145
 514  1771.327
 515  1763.939
 516  1735.249
 517  1895.463
 518  1972.89
 519  1820.631
 520  1621.393
 521  1525.433
 522  1571.058
 523  1592.388
 524  1714.336
 525  1713.736
 526  1685.873
 527  1685.781
 528  1785.464
 529  1777.353
 530  1740.452
 531  1782.46
 532  1860.882
 533  1883.859
 534  1877.6
 535  1826.567
 536  1823.472
 537  1690.532
 538  1653.542
 539  1686.827
 540  1734.977
 541  1726.913
 542  1717.805
 543  1630.807
 544  1558.237
 545  1614.269
 546  1859.009
 547  1893.329
 548  1868.481
 549  1864.875
 550  1942.253
 551  1919.719
 552  1922.627
 553  1918.76
 554  1860.759
 555  1785.861
 556  1687.903
 557  1702.245
 558  1618.377
 559  1566.136
 560  1612.011
 561  1840.568
 562  1796.908
 563  1654.231
 564  1543.644
 565  1718.211
 566  1879.241
 567  1944.287
 568  2075.229
 569  2081.938
 570  1967.055
 571  1756.647
 572  1663.291
 573  1661.933
 574  1689.848
 575  1701.84
 576  1777.375
 577  1828.91
 578  1977.97
 579  2015.704
 580  2052.703
 581  2090.895
 582  2067.219
 583  2007.122
 584  1872.817
 585  1880.713
 586  1840.301
 587  1847.805
 588  1875.904
 589  2139.947
 590  2339.568
 591  2233.672
 592  2002.02
 593  1954.58
 594  1953.202
 595  1967.729
 596  1889.417
 597  1872.693
 598  1848.222
 599  1804.199
 600  1980.841
 601  1959.626
 602  1935.741
 603  1928.134
 604  1934.356
 605  1939.787
 606  1929.139
 607  1896.683
 608  1874.08
 609  1774.67
 610  1818.411
 611  1896.485
 612  1926.264
 613  1736.829
 614  1713.336
 615  1736.087
 616  1846.262
 617  1914.765
 618  1985.281
 619  2093.556
 620  2158.686
 621  2236.551
 622  2273.664
 623  2341.519
 624  2391.151
 625  2415.123
 626  2400.386
 627  2397.9
 628  2353.272
 629  2206.421
 630  2015.062
 631  1928.549
 632  1934.331
 633  1937.853
 634  1895.43
 635  1906.465
 636  1892.13
 637  1865.204
 638  1744.23
 639  1791.934
 640  1739.216
 641  1647.619
 642  1550.187
 643  1565.491
 644  1656.06
 645  1722.848
 646  1723.36
 647  1685.275
 648  1659.687
 649  1750.769
 650  1774.967
 651  1810.264
 652  1758.033
 653  1777.095
 654  1897.392
 655  1905.087
 656  1901.522
 657  1847.065
 658  1937.672
 659  1949.114
 660  1943.557
 661  1835.517
 662  1734.989
 663  1638.453
 664  1712.478
 665  1754.137
 666  1689.399
 667  1499.519
 668  1523.69
 669  1562.981
 670  1690.281
 671  1752.349
 672  1837.739
 673  1852.5
 674  1793.756
 675  1737.672
 676  1774.511
 677  1712.446
 678  1741.289
 679  1689.923
 680  1649.701
 681  1647.651
 682  1696.573
 683  1718.428
 684  1650.105
 685  1655.05
 686  1647.218
 687  1677.612
 688  1664.695
 689  1767.341
 690  1878.375
 691  1928.549
 692  1960.61
 693  1802.98
 694  1740.541
 695  1697.24
 696  1775.788
 697  1855.868
 698  1908.555
 699  1884.971
 700  1961.572
 701  1925.797
 702  1867.472
 703  1744.122
 704  1806.029
 705  1833.019
 706  1748.115
 707  1640.912
 708  1614.411
 709  1700.423
 710  1865.637
 711  2032.153
 712  1992.776
 713  1859.063
 714  1930.252
 715  1958.289
 716  1933.359
 717  1803.94
 718  1907.825
 719  1981.966
 720  2065.949
 721  1985.213
 722  2092.221
 723  2029.562
 724  1944.792
 725  1860.382
 726  1835.034
 727  1837.05
 728  1842.406
 729  1952.764
 730  1938.69
 731  1871.884
 732  1843.677
 733  1827.414
 734  1750.974
 735  1696.199
 736  1696.976
 737  1861.77
 738  1927.073
 739  1818.02
 740  1826.066
 741  1765.495
 742  1744.337
 743  1703.805
 744  1665.729
 745  1518.653
 746  1346.006
 747  1447.314
 748  1475.974
 749  1542.182
 750  1635.688
 751  1717.799
 752  1736.566
 753  1725.478
 754  1834.184
 755  1829.133
 756  1707.031
 757  1620.128
 758  1519.105
 759  1511.116
 760  1431.477
 761  1533.496
 762  1625.462
 763  1626.049
 764  1762.111
 765  1916.025
 766  1993.248
 767  1878.015
 768  1771.912
 769  1894.275
 770  1973.758
 771  2034.524
 772  1830.333
 773  1797.034
 774  1809.533
 775  1871.062
 776  1810.315
 777  1940.704
 778  1928.656
 779  1998.484
 780  1903.731
 781  1738.416
 782  1648.813
 783  1610.852
 784  1595.492
 785  1474.577
 786  1494.21
 787  1568.155
 788  1631.977
 789  1605.225
 790  1558.784
 791  1571.465
 792  1596.391
 793  1724.72
 794  1809.116
 795  1785.959
 796  1709.12
 797  1721.944
 798  1814.416
 799  1846.377
 800  1791.259
 801  1738.037
 802  1786.785
 803  1730.597
 804  1693.595
 805  1741.672
 806  1901.532
 807  1952.534
 808  1947.907
 809  1897.865
 810  1930.644
 811  1857.651
 812  1722.936
 813  1684.444
 814  1635.62
 815  1778.714
 816  1828.245
 817  1790.786
 818  1764.253
 819  1727.935
 820  1825.266
 821  1877.193
 822  2038.652
 823  1965.148
 824  1652.952
 825  1484.315
 826  1633.258
 827  1700.378
 828  1710.05
 829  1666.401
 830  1679.747
 831  1656.777
 832  1621.194
 833  1653.545
 834  1690.234
 835  1641.382
 836  1571.391
 837  1563.44
 838  1539.894
 839  1622.039
 840  1643.094
 841  1559.186
 842  1452.697
 843  1565.296
 844  1650.572
 845  1687.24
 846  1596.579
 847  1639.587
 848  1554.199
 849  1508.322
 850  1570.234
 851  1592.36
 852  1589.195
 853  1568.492
 854  1588.313
 855  1592.323
 856  1709.897
 857  1827.314
 858  1930.439
 859  1726.579
 860  1567.653
 861  1702.172
 862  1748.241
 863  1754.523
 864  1716.003
 865  1800.062
 866  1831.154
 867  1810.637
 868  1726.142
 869  1597.21
 870  1528.914
 871  1540.539
 872  1602.581
 873  1648.397
 874  1622.418
 875  1606.263
 876  1593.744
 877  1644.033
 878  1726.136
 879  1722.682
 880  1738.099
 881  1685.198
 882  1646.978
 883  1699.674
 884  1758.517
 885  1692.791
 886  1640.266
 887  1619.819
 888  1691.891
 889  1560.771
 890  1756.17
 891  1896.851
 892  1927.861
 893  1748.003
 894  1593.191
 895  1530.24
 896  1551.391
 897  1624.798
 898  1710.882
 899  1742.702
 900  1689.729
 901  1671.012
 902  1613.387
 903  1621.091
 904  1613.923
 905  1614.978
 906  1613.503
 907  1665.792
 908  1669.267
 909  1685.04
 910  1677.058
 911  1789.423
 912  1863.923
 913  1914.632
 914  1786.081
 915  1813.089
 916  1934.025
 917  1966.937
 918  1835.439
 919  1658.166
 920  1680.659
 921  1794.94
 922  1818.672
 923  1851.239
 924  1915.925
 925  2022.591
 926  1990.072
 927  1898.899
 928  1877.783
 929  1808.596
 930  1725.88
 931  1791.061
 932  1843.334
 933  1949.47
 934  1802.373
 935  1777.112
 936  1768.926
 937  1735.641
 938  1801.769
 939  1809.986
 940  1928.044
 941  2024.463
 942  2075.141
 943  1950.916
 944  1811.023
 945  1796.896
 946  1911.112
 947  1917.985
 948  1884.764
 949  1779.651
 950  1793.771
 951  1733.14
 952  1582.349
 953  1586.375
 954  1586.625
 955  1810.079
 956  1805.103
 957  1808.156
 958  1711.946
 959  1699.237
 960  1738.618
 961  1847.69
 962  1935.2
 963  2002.858
 964  1923.07
 965  1837.551
 966  1746.648
 967  1790.177
 968  1799.493
 969  1742.177
 970  1611.938
 971  1613.144
 972  1696.909
 973  1788.769
 974  1826.196
 975  1805.045
 976  1896.681
 977  1806.473
 978  1759.475
 979  1695.364
 980  1711.972
 981  1835.666
 982  1864.669
 983  1842.657
 984  1794.161
 985  1800.443
 986  1828.82
 987  1770.002
 988  1845.391
 989  1846.183
 990  1776.028
 991  1637.316
 992  1637.709
 993  1770.503
 994  1698.995
 995  1589.936
 996  1566.246
 997  1766.053
 998  1904.686
 999  1884.474
1000  1868.765
1001  1825.387
1002  1784.158
1003  1802.74
1004  1854.438
1005  1798.207
1006  1743.297
1007  1688.924
1008  1728.098
1009  1835.242
1010  1952.188
1011  1877.427
1012  1803.927
1013  1747.034
1014  1759.667
1015  1713.368
1016  1633.844
1017  1697.347
1018  1737.229
1019  1733.111
1020  1561.49
1021  1502.941
1022  1551.183
1023  1770.5
