# Input file       =  1197139048.114253_cleaned.dat
# Candidate        =  PSR_0332+5434
# Telescope        =  AR
# Epoch_topo       =  58099.776239748302
# Epoch_bary       =  N/A
# T_sample         =  0.002
# Data Folded      =  7340032
# Data Avg         =  0.304134313758238
# Data StdDev      =  5.082053346019   
# Profile Bins     =  256
# Profile Avg      =  8717.99126092718 
# Profile StdDev   =  860.534355400318 
# Reduced chi-sqr  =  0.596
# Prob(Noise)      <  1   (~0.0 sigma)
# P_topo (ms)      =  714.537710507439  +/- 0.00153
# P'_topo (s/s)    =  -0                +/- 8.1e-10
# P''_topo (s/s^2) =  0                 +/- 3.58e-13
# P_bary (ms)      =  N/A
# P'_bary (s/s)    =  N/A
# P''_bary (s/s^2) =  N/A
# P_orb (s)        =  N/A
# asin(i)/c (s)    =  N/A
# eccentricity     =  N/A
# w (rad)          =  N/A
# T_peri           =  N/A
######################################################
   0  8872.915
   1  8819.144
   2  8879.48
   3  8130.897
   4  7693.71
   5  8408.242
   6  8327.643
   7  8055.03
   8  8709.94
   9  8339.091
  10  8580.596
  11  8416.106
  12  9422.508
  13  8793.69
  14  9559.521
  15  9284.355
  16  9503.036
  17  9188.586
  18  9050.722
  19  8767.983
  20  8249.967
  21  8542.115
  22  8562.732
  23  8133.667
  24  8816.521
  25  8494.293
  26  9103.586
  27  8312.244
  28  8639.202
  29  8968.194
  30  8612.776
  31  8116.401
  32  9506.289
  33  8707.53
  34  8083.634
  35  8283.518
  36  8259.896
  37  8229.602
  38  8845.168
  39  8565.061
  40  7785.046
  41  7983.236
  42  7336.553
  43  8546.993
  44  8295.014
  45  8536.05
  46  7914.121
  47  8252.919
  48  8257.82
  49  9053.997
  50  8122.713
  51  8631.724
  52  8983.896
  53  9921.901
  54  9628.167
  55  8775.358
  56  8572.058
  57  9397.387
  58  9077.807
  59  9405.401
  60  8728.86
  61  8512.794
  62  9066.837
  63  8001.24
  64  7931.867
  65  8024.084
  66  8706.061
  67  9108.595
  68  9477.154
  69  8874.207
  70  8259.277
  71  9597.961
  72  9201.257
  73  9414.508
  74  9863.386
  75  8814.917
  76  9579.908
  77  9550.397
  78  9083.991
  79  8452.931
  80  8998.628
  81  9516.286
  82  9442.578
  83  9746.764
  84  9396.533
  85  9306.563
  86  9731.424
  87  8815.578
  88  8828.42
  89  9062.128
  90  9119.199
  91  9889.88
  92  9874.919
  93  8966.633
  94  9185.262
  95  9351.951
  96  9626.784
  97  8720.324
  98  8969.131
  99  8889.474
 100  9578.991
 101  9098.805
 102  8826.724
 103  9247.163
 104  8246.84
 105  8537.085
 106  8676.285
 107  8628.713
 108  8078.372
 109  8367.825
 110  8807.797
 111  8701.545
 112  8342.696
 113  8531.566
 114  8774.542
 115  8382.06
 116  8495.37
 117  8536.992
 118  7986.822
 119  8547.513
 120  8526.875
 121  7648.021
 122  8834.925
 123  8671.252
 124  9396.904
 125  9242.934
 126  9710.757
 127  9102.688
 128  9405.611
 129  9257.092
 130  9475.038
 131  8446.592
 132  8535.96
 133  8268.039
 134  8573.528
 135  8910.051
 136  8631.996
 137  8768.623
 138  9008.958
 139  8918.708
 140  7992.981
 141  7722.596
 142  7987.449
 143  8032.34
 144  7935.325
 145  8505.409
 146  9086.129
 147  8816.508
 148  8421.708
 149  8581.599
 150  8083.443
 151  7983.386
 152  8775.604
 153  8393.188
 154  8526.221
 155  9846.898
 156  11073.98
 157  10538.91
 158  8811.051
 159  8416.542
 160  8568.61
 161  8341.69
 162  9285.543
 163  9769.684
 164  10748.9
 165  9562.422
 166  8915.618
 167  9139.354
 168  7599.256
 169  8388.734
 170  8124.949
 171  8714.025
 172  9284.176
 173  9064.757
 174  8968.704
 175  9542.686
 176  9014.272
 177  8766.269
 178  8577.409
 179  8419.849
 180  8198.85
 181  8872.794
 182  8333.083
 183  7403.79
 184  8319.981
 185  8870.173
 186  8096.285
 187  8249.027
 188  8714.918
 189  8452.004
 190  8005.384
 191  8025.624
 192  7376.583
 193  8436.188
 194  8114.741
 195  7495.099
 196  8377.32
 197  8537.478
 198  8155.448
 199  7473.481
 200  7809.896
 201  8589.945
 202  8582.235
 203  8261.03
 204  8176.41
 205  7992.83
 206  8153.694
 207  8475.563
 208  8646.627
 209  8017.135
 210  8924.675
 211  8639.476
 212  8445.568
 213  8368.555
 214  8125.219
 215  8541.474
 216  8485.109
 217  8791.856
 218  9126.931
 219  7916.048
 220  8053.896
 221  8896.381
 222  9822.828
 223  9154.811
 224  8927.152
 225  8834.421
 226  7987.339
 227  8717.663
 228  8776.506
 229  8498.582
 230  8822.098
 231  8500.229
 232  8833.942
 233  8834.085
 234  8421.765
 235  8998.506
 236  9270.467
 237  8719.955
 238  8286.819
 239  9548.697
 240  9462.773
 241  8863.867
 242  8425.264
 243  8731.249
 244  8564.142
 245  8483.722
 246  8776.368
 247  8973.986
 248  8365.432
 249  8775.257
 250  8392.196
 251  8198.624
 252  9214.137
 253  9281.013
 254  9107.753
 255  8646.43
