# Input file       =  1197067746.109697_cleaned.dat
# Candidate        =  PSR_0332+5434
# Telescope        =  AR
# Epoch_topo       =  58098.950985065938
# Epoch_bary       =  N/A
# T_sample         =  0.002
# Data Folded      =  7340032
# Data Avg         =  0.285988995203558
# Data StdDev      =  4.92869457241355 
# Profile Bins     =  1024
# Profile Avg      =  2049.99465248001 
# Profile StdDev   =  417.283204057603 
# Reduced chi-sqr  =  0.539
# Prob(Noise)      <  1   (~0.0 sigma)
# P_topo (ms)      =  714.537212903552  +/- 0.000436
# P'_topo (s/s)    =  -0                +/- 2.3e-10
# P''_topo (s/s^2) =  0                 +/- 1.02e-13
# P_bary (ms)      =  N/A
# P'_bary (s/s)    =  N/A
# P''_bary (s/s^2) =  N/A
# P_orb (s)        =  N/A
# asin(i)/c (s)    =  N/A
# eccentricity     =  N/A
# w (rad)          =  N/A
# T_peri           =  N/A
######################################################
   0  2080.176
   1  2100.441
   2  2154.787
   3  2341.526
   4  2438.355
   5  2359.729
   6  2348.935
   7  2306.525
   8  2400.843
   9  2391.686
  10  2394.531
  11  2268.731
  12  2024.102
  13  2079.255
  14  2082.574
  15  2186.624
  16  2126.047
  17  2072.441
  18  2034.514
  19  2128.529
  20  2196.001
  21  2227.574
  22  2153.958
  23  2031.732
  24  1842.084
  25  1717.241
  26  1748.446
  27  1963.171
  28  1955.972
  29  1843.581
  30  1850.912
  31  1853.574
  32  1943.629
  33  1873.24
  34  1917.247
  35  1970.201
  36  2016.038
  37  1997.474
  38  2072.635
  39  1839.649
  40  1771.109
  41  1694.646
  42  1815.71
  43  1935.872
  44  1932.584
  45  1996.175
  46  1797.754
  47  1848.718
  48  1888.251
  49  2031.04
  50  1997.547
  51  1932.482
  52  1929.31
  53  2008.932
  54  2147.08
  55  2056.499
  56  1911.736
  57  1787.159
  58  1838.36
  59  1755.23
  60  1871.158
  61  2065.316
  62  2094.822
  63  2135.69
  64  1986.601
  65  1917.375
  66  1866.56
  67  1952.89
  68  2099.781
  69  2119.412
  70  2089.43
  71  2008.778
  72  2016.24
  73  2222.099
  74  2371.531
  75  2406.02
  76  2246.545
  77  2140.519
  78  2204.196
  79  2232.621
  80  2236.574
  81  2001.542
  82  2019.828
  83  1996.42
  84  2043.182
  85  1926.783
  86  1983.514
  87  2059.48
  88  2218.624
  89  2192.415
  90  2134.224
  91  1942.646
  92  1950.383
  93  1929.62
  94  2106.385
  95  2072.939
  96  2084.934
  97  2078.127
  98  2177.741
  99  2159.175
 100  1978.755
 101  1888.162
 102  1978.257
 103  2196.553
 104  2244.031
 105  2168.733
 106  1947.335
 107  1875.831
 108  1830.212
 109  1889.787
 110  2006.093
 111  2042.813
 112  1989.745
 113  1950.523
 114  1989.625
 115  2046.131
 116  2178.848
 117  2262.175
 118  2366.634
 119  2300.016
 120  2207.171
 121  2238.429
 122  2236.238
 123  2347.597
 124  2112.83
 125  2081.973
 126  2069.528
 127  2112.352
 128  2101.098
 129  2078.221
 130  2140.495
 131  2108.531
 132  2189.019
 133  2156.906
 134  2139.327
 135  2140.372
 136  2158.66
 137  2207.416
 138  2126.416
 139  1947.394
 140  2043.218
 141  2061.66
 142  2133.576
 143  2062.674
 144  2173.711
 145  2401.361
 146  2347.771
 147  2315.425
 148  2338.317
 149  2261.784
 150  2234.854
 151  2221.87
 152  2312.717
 153  2295.917
 154  2133.998
 155  2056.395
 156  2009.082
 157  1899.521
 158  1860.008
 159  1904.562
 160  1950.822
 161  1951.301
 162  1831.174
 163  1939.6
 164  1743.766
 165  1813.006
 166  1831.692
 167  1992.635
 168  1958.742
 169  1802.892
 170  1771.851
 171  1658.585
 172  1767.57
 173  1794.473
 174  1721.267
 175  1660.024
 176  1569.122
 177  1776.259
 178  2034.559
 179  2196.485
 180  2127.01
 181  2020.77
 182  1945.058
 183  2054.761
 184  2043.869
 185  2043.358
 186  1902.561
 187  1895.308
 188  1950.73
 189  1925.82
 190  2037.488
 191  2033.478
 192  2004.322
 193  2107.046
 194  2237.209
 195  2201.75
 196  2002.519
 197  1917.245
 198  1951.327
 199  2047.462
 200  2031.802
 201  2052.768
 202  2165.109
 203  2280.846
 204  2270.408
 205  2039.498
 206  1879.031
 207  1898.067
 208  1958.208
 209  1955.638
 210  1964.064
 211  1921.39
 212  2059.833
 213  1980.79
 214  1913.373
 215  1835.592
 216  1883.286
 217  2089.942
 218  2179.341
 219  2213.002
 220  2102.323
 221  2105.55
 222  2129.636
 223  2166.657
 224  2068.134
 225  2015.661
 226  2081.569
 227  2157.074
 228  2254.866
 229  2168.175
 230  2099.389
 231  2020.422
 232  1896.501
 233  1884.729
 234  1914.024
 235  2020.086
 236  2052.562
 237  2049.246
 238  2063.719
 239  2046.815
 240  1993.258
 241  2017.044
 242  1900.162
 243  1950.517
 244  1849.009
 245  1924.042
 246  1869.513
 247  2019.195
 248  2063.261
 249  2032.982
 250  1866.518
 251  1897.201
 252  1998.024
 253  1971.696
 254  1905.537
 255  1841.96
 256  1972.965
 257  1996.065
 258  1974.885
 259  1992.047
 260  1920.777
 261  2038.245
 262  2064.048
 263  2275.686
 264  2167.817
 265  2147.629
 266  2202.01
 267  2160.753
 268  2068.949
 269  1941.067
 270  1971.516
 271  2007.166
 272  1938.677
 273  2111.266
 274  2174.115
 275  2195.901
 276  2047.151
 277  2038.111
 278  2038.285
 279  1990.882
 280  2064.463
 281  2126.718
 282  2103.079
 283  1950.16
 284  1817.626
 285  1975.826
 286  2109.291
 287  2188.401
 288  2136.017
 289  1959.175
 290  1958.062
 291  1975.662
 292  1995.013
 293  2103.897
 294  2228.588
 295  2502.295
 296  2532.846
 297  2389.176
 298  2220.546
 299  2119.052
 300  2107.823
 301  2080.137
 302  2018.576
 303  2005.069
 304  1896.037
 305  2031.309
 306  2058.076
 307  2071.279
 308  1957.246
 309  2021.547
 310  2055.523
 311  2173.883
 312  2285.042
 313  2382.821
 314  2334.194
 315  2092.635
 316  2068.358
 317  2105.062
 318  2210.765
 319  2151.448
 320  2171.749
 321  2242.224
 322  2081.883
 323  2073.251
 324  2165.178
 325  2389.563
 326  2363.627
 327  2366.671
 328  2288.225
 329  2249.725
 330  2139.859
 331  2130.6
 332  2189.997
 333  2157.957
 334  2134.783
 335  2115.82
 336  2120.513
 337  2080.783
 338  2145.84
 339  2229.497
 340  2252.821
 341  2279.616
 342  2222.713
 343  2225.329
 344  2128.154
 345  2192.336
 346  2058.345
 347  2038.068
 348  2067.913
 349  2296.607
 350  2389.956
 351  2228.883
 352  2035.922
 353  1908.992
 354  2003.287
 355  2151.207
 356  2213.727
 357  2299.399
 358  2398.494
 359  2473.198
 360  2478.224
 361  2319.52
 362  2284.319
 363  2222.716
 364  2204.743
 365  2241.317
 366  2131.47
 367  2017.72
 368  2007.413
 369  2279.027
 370  2389.058
 371  2462.71
 372  2175.59
 373  2241.644
 374  2222.402
 375  2210.554
 376  2206.052
 377  2136.964
 378  2077.757
 379  1986.538
 380  1953.896
 381  1962.683
 382  1885.633
 383  1913.099
 384  2147.105
 385  2392.281
 386  2423.832
 387  2310.863
 388  2260.408
 389  2337.801
 390  2369.753
 391  2293.573
 392  2120.687
 393  2143.992
 394  2281.362
 395  2434.948
 396  2305.156
 397  2085.08
 398  1933.784
 399  1903.59
 400  1888.575
 401  1938.262
 402  1947.512
 403  1981.166
 404  1798.297
 405  1642.722
 406  1626.992
 407  1757.506
 408  1889.563
 409  2002.234
 410  1950.409
 411  2048.206
 412  2219.532
 413  2197.346
 414  2220.309
 415  2208.202
 416  2306.27
 417  2154.763
 418  2013.053
 419  2035.062
 420  2000.464
 421  1962.638
 422  1878.505
 423  1867.679
 424  1922.916
 425  1921.679
 426  1978.781
 427  2032.559
 428  2022.506
 429  2010.056
 430  2065.837
 431  2041.132
 432  1801.705
 433  1655.568
 434  1656.664
 435  1733.052
 436  1841.531
 437  1803.868
 438  1924.246
 439  1992.575
 440  1874.865
 441  1731.746
 442  1600.61
 443  1774.818
 444  1768.809
 445  1897.198
 446  1965.366
 447  2055.437
 448  2043.628
 449  2033.581
 450  1874.537
 451  1803.255
 452  1820.883
 453  1942.439
 454  2042.197
 455  1920.051
 456  1931.312
 457  1874.646
 458  1832.014
 459  1894.965
 460  1975.12
 461  2056.341
 462  2138.285
 463  2025.778
 464  2023.795
 465  2053.412
 466  2049.552
 467  2135.519
 468  2171.508
 469  2191.615
 470  1934.389
 471  1908.578
 472  1946.594
 473  2064.103
 474  2110.702
 475  2144.971
 476  2117.661
 477  2073.241
 478  2003.395
 479  2001.734
 480  1947.958
 481  2012.748
 482  1876.053
 483  1976.514
 484  2030.588
 485  2060.539
 486  2075.498
 487  2038.862
 488  2235.552
 489  2268.374
 490  2286.087
 491  2213.87
 492  2094.074
 493  2127.807
 494  1965.531
 495  1824.515
 496  1790.47
 497  1747.918
 498  1704.38
 499  1665.886
 500  1839.889
 501  1980.77
 502  2111.932
 503  2061.168
 504  2094.304
 505  2021.912
 506  2105.371
 507  2040.138
 508  2204.722
 509  2218.4
 510  2293.011
 511  2327.927
 512  2154.712
 513  2032.37
 514  2075.201
 515  2121.642
 516  2017.054
 517  1855.049
 518  1900.457
 519  2002.229
 520  1954.972
 521  1891.294
 522  2079.008
 523  2194.745
 524  2384.882
 525  2427.815
 526  2293.152
 527  2110.677
 528  1938.605
 529  2170.067
 530  2222.747
 531  2153.875
 532  2052.72
 533  1981.57
 534  2097.538
 535  2194.493
 536  2370.962
 537  2474.927
 538  2368.834
 539  2139.502
 540  1923.58
 541  1992.144
 542  2078.91
 543  2307.32
 544  2340.429
 545  2406.617
 546  2276.892
 547  1990.645
 548  1811.707
 549  1699.126
 550  1885.382
 551  2082.641
 552  2276.368
 553  2298.263
 554  2148.026
 555  1934.534
 556  1991.446
 557  2065.642
 558  2247.302
 559  2211.175
 560  1964.035
 561  1938.969
 562  1885.696
 563  1974.118
 564  1830.527
 565  1849.423
 566  1873.813
 567  1916.443
 568  1844.113
 569  1906.584
 570  1977.732
 571  1954.799
 572  1879.424
 573  1821.034
 574  1765.111
 575  1739.911
 576  1712.991
 577  1617.185
 578  1516.129
 579  1633.002
 580  1690.978
 581  1716.508
 582  1713.037
 583  1801.928
 584  1912.848
 585  1956.719
 586  1964.266
 587  1947.049
 588  1891.206
 589  1875.517
 590  1751.807
 591  1801.533
 592  1821.138
 593  1763.081
 594  1774.63
 595  1821.509
 596  1908.746
 597  1871.273
 598  1761.029
 599  1889.781
 600  1938.979
 601  1876.415
 602  1764.654
 603  1792.652
 604  1939.262
 605  2055.309
 606  1972.442
 607  2001.432
 608  1952.809
 609  2025.988
 610  2043.263
 611  2202.961
 612  2335.105
 613  2346.63
 614  2053.426
 615  1950.723
 616  2047.39
 617  2179.646
 618  2412.896
 619  2174.432
 620  2097.199
 621  2096.364
 622  2280.467
 623  2430.407
 624  2505.218
 625  2541.725
 626  2516.519
 627  2618.556
 628  2623.874
 629  2581.905
 630  2235.146
 631  2134.071
 632  2007.442
 633  1924.792
 634  1922.462
 635  1933.391
 636  1946.502
 637  1841.334
 638  1709.586
 639  1694.773
 640  1734.928
 641  1670.409
 642  1764.831
 643  1818.497
 644  1941.512
 645  1943.727
 646  1833.867
 647  1927.927
 648  1974.203
 649  2041.736
 650  1993.186
 651  2002.86
 652  2089.581
 653  2136.606
 654  1978.571
 655  1875.297
 656  1933.379
 657  1992.272
 658  2128.855
 659  2107.971
 660  2233.456
 661  2196.072
 662  2220.406
 663  2047.113
 664  2149.566
 665  2059.365
 666  2053.824
 667  2042.174
 668  2090.917
 669  2144.107
 670  2271.891
 671  2329.697
 672  2319.75
 673  1957.199
 674  1813.774
 675  1718.013
 676  1806.771
 677  1872.761
 678  1928.786
 679  2009.848
 680  2084.571
 681  2089.346
 682  2063.662
 683  2012.164
 684  1990.961
 685  2149.924
 686  2256.402
 687  2244.189
 688  2170.281
 689  2230.186
 690  2221.243
 691  2092.744
 692  1964.954
 693  2052.474
 694  2155.36
 695  2224.755
 696  2422.945
 697  2518.525
 698  2302.715
 699  2138.707
 700  2189.387
 701  2169.318
 702  2015.193
 703  1987.429
 704  2119.341
 705  2007.955
 706  1892.313
 707  1918.036
 708  1949.354
 709  1900.665
 710  1950.094
 711  1959.909
 712  2126.437
 713  2101.219
 714  2126.288
 715  2133.882
 716  2081.901
 717  2040.607
 718  2062.67
 719  1980.437
 720  1957.599
 721  1679.51
 722  1582.839
 723  1669.607
 724  1964.992
 725  2189.409
 726  2155.695
 727  1916.661
 728  1941.865
 729  1932.504
 730  1989.264
 731  1921.489
 732  1939.548
 733  2050.51
 734  2116.027
 735  2104.603
 736  1976.773
 737  1909.36
 738  1931.573
 739  2089.531
 740  2189.935
 741  2234.36
 742  2263.072
 743  2121.658
 744  2043.457
 745  1887.363
 746  1998.597
 747  2050.44
 748  2052.369
 749  2172.368
 750  2192.392
 751  2064.101
 752  1833.683
 753  1903.628
 754  2084.383
 755  2195.195
 756  2151.771
 757  2056.067
 758  2069.038
 759  2044.932
 760  2190.863
 761  2164.007
 762  2064.069
 763  1897.801
 764  1950.543
 765  1905.294
 766  1990.5
 767  1987.72
 768  2140.04
 769  2135.879
 770  2140.209
 771  2097.998
 772  2078.168
 773  1990.494
 774  2043.446
 775  2052.467
 776  1986.327
 777  1975.674
 778  1985.32
 779  2071.802
 780  2020.563
 781  1903.333
 782  1911.383
 783  2050.063
 784  2139.893
 785  1988.063
 786  1665.544
 787  1646.849
 788  1618.667
 789  1795.014
 790  1868.067
 791  1908.114
 792  1928.537
 793  2047.126
 794  2038.551
 795  2238.079
 796  2220.147
 797  2252.454
 798  2268.56
 799  2165.727
 800  2176.761
 801  2197.171
 802  2111.258
 803  2089.844
 804  2061.934
 805  2087.545
 806  1921.889
 807  1856.002
 808  1966.667
 809  2206.514
 810  2213.803
 811  2252.543
 812  2159.808
 813  2074.117
 814  2015.593
 815  2069.576
 816  2113.187
 817  2125.555
 818  2062.523
 819  1867.188
 820  1714.65
 821  1704.614
 822  1819.802
 823  1988.612
 824  1917.196
 825  2028.461
 826  2030.42
 827  2023.725
 828  1977.329
 829  1805.106
 830  1960.437
 831  1981.447
 832  2171.741
 833  2099.248
 834  1939.628
 835  1854.054
 836  1937.702
 837  2141.042
 838  2148.61
 839  2180.39
 840  2298.646
 841  2212.744
 842  2011.698
 843  1826.365
 844  1884.148
 845  2026.843
 846  2043.132
 847  1978.97
 848  1878.848
 849  1884.717
 850  1984.934
 851  2133.856
 852  2366.225
 853  2423.23
 854  2367.793
 855  2182.159
 856  2133.836
 857  2151.109
 858  2125.552
 859  1918.185
 860  1871.721
 861  1876.052
 862  1792.954
 863  1862.03
 864  1852.475
 865  1886.756
 866  1756.275
 867  1832.456
 868  1955.72
 869  2073.533
 870  2057.297
 871  2059.294
 872  1979.497
 873  1977.999
 874  2045.523
 875  2222.775
 876  2155.434
 877  2039.692
 878  2009.032
 879  2141.872
 880  2106.92
 881  2058.291
 882  2215.78
 883  2289.513
 884  2323.739
 885  2252.513
 886  2192.477
 887  2166.632
 888  2034.314
 889  2179.603
 890  2182.242
 891  2007.596
 892  1866.808
 893  2009.079
 894  2133.836
 895  2059.583
 896  2012.483
 897  2112.863
 898  2152.656
 899  2033.432
 900  2052.354
 901  2148.621
 902  1980.466
 903  1918.196
 904  1905.071
 905  2018.191
 906  2082.415
 907  2052.757
 908  2118.537
 909  2151.564
 910  2117.165
 911  2090.998
 912  1971.782
 913  2055.92
 914  2021.839
 915  1996.338
 916  1910.794
 917  1863.907
 918  1830.141
 919  1928.526
 920  2043.75
 921  2070.708
 922  2095.027
 923  2118.982
 924  2123.62
 925  2037.537
 926  1942.767
 927  1982.531
 928  2079.506
 929  2098.084
 930  2101.898
 931  2045.067
 932  2106.829
 933  2268.086
 934  2466.997
 935  2362.349
 936  2010.708
 937  1806.121
 938  1720.372
 939  1875.16
 940  2004.934
 941  2066.372
 942  2061.205
 943  2063.631
 944  2114.693
 945  2102.646
 946  2142.678
 947  2240.475
 948  2178.452
 949  2065.915
 950  1958.009
 951  2039.271
 952  2114.572
 953  2045.972
 954  2158.708
 955  2142.036
 956  2187.287
 957  2093.973
 958  2132.857
 959  2175.21
 960  2205.494
 961  2292.556
 962  2356.689
 963  2212.184
 964  1961.228
 965  1994.634
 966  2032.313
 967  2058.024
 968  2063.11
 969  2039.577
 970  1999.621
 971  1891.495
 972  1831.38
 973  1890.12
 974  1909.128
 975  2086.802
 976  2228.83
 977  2270.99
 978  2047.291
 979  1887.193
 980  1875.299
 981  1979.167
 982  1935.627
 983  1953.246
 984  2036.5
 985  2083.302
 986  2063.263
 987  2077.34
 988  2104.219
 989  2277.893
 990  2275.296
 991  2266.307
 992  2178.827
 993  2110.583
 994  2074.768
 995  2041.664
 996  2031.994
 997  1878.283
 998  1704.693
 999  1667.715
1000  1765.297
1001  1949.229
1002  2215.204
1003  2248.37
1004  2137.355
1005  2006.869
1006  1956.424
1007  1951.18
1008  2065.398
1009  2253.513
1010  2228.387
1011  2138.841
1012  2166.215
1013  2177.032
1014  2159.667
1015  2254.284
1016  2223.719
1017  2173.019
1018  2119.363
1019  2080.404
1020  2092.469
1021  1990.073
1022  1965.343
1023  2133.739
