# Input file       =  1197139048.114253_cleaned.dat
# Candidate        =  PSR_0332+5434
# Telescope        =  AR
# Epoch_topo       =  58099.776239748302
# Epoch_bary       =  N/A
# T_sample         =  0.002
# Data Folded      =  7340032
# Data Avg         =  0.304134313758238
# Data StdDev      =  5.082053346019   
# Profile Bins     =  512
# Profile Avg      =  4358.99563046359 
# Profile StdDev   =  608.489678147559 
# Reduced chi-sqr  =  0.488
# Prob(Noise)      <  1   (~0.0 sigma)
# P_topo (ms)      =  714.537710507439  +/- 0.00153
# P'_topo (s/s)    =  -0                +/- 8.06e-10
# P''_topo (s/s^2) =  0                 +/- 3.56e-13
# P_bary (ms)      =  N/A
# P'_bary (s/s)    =  N/A
# P''_bary (s/s^2) =  N/A
# P_orb (s)        =  N/A
# asin(i)/c (s)    =  N/A
# eccentricity     =  N/A
# w (rad)          =  N/A
# T_peri           =  N/A
######################################################
   0  4497.013
   1  4375.901
   2  4406.276
   3  4412.868
   4  4624.609
   5  4254.872
   6  4052.004
   7  4078.894
   8  3893.837
   9  3799.873
  10  4068.803
  11  4339.439
  12  4195.925
  13  4131.717
  14  3894.579
  15  4160.452
  16  4414.776
  17  4295.164
  18  4292.421
  19  4046.67
  20  4169.262
  21  4411.334
  22  4104.744
  23  4311.362
  24  4600.736
  25  4821.772
  26  4349.546
  27  4444.145
  28  4666.567
  29  4892.953
  30  4696.726
  31  4587.63
  32  4680.881
  33  4822.155
  34  4562.519
  35  4626.067
  36  4532.829
  37  4517.893
  38  4431.399
  39  4336.584
  40  4141.123
  41  4108.845
  42  4238.639
  43  4303.476
  44  4318.83
  45  4243.903
  46  3893.402
  47  4240.266
  48  4383.989
  49  4432.533
  50  4235.14
  51  4259.153
  52  4673.651
  53  4429.935
  54  4169.462
  55  4142.782
  56  4339.739
  57  4299.463
  58  4627.149
  59  4341.045
  60  4583.432
  61  4029.344
  62  3876.446
  63  4239.955
  64  4784.949
  65  4721.34
  66  4476.304
  67  4231.226
  68  4147.097
  69  3936.537
  70  4079.81
  71  4203.708
  72  4382.987
  73  3876.909
  74  4116.171
  75  4113.431
  76  4378.857
  77  4466.31
  78  4480.91
  79  4084.151
  80  3966.407
  81  3818.639
  82  3923.622
  83  4059.615
  84  3655.441
  85  3681.111
  86  4258.071
  87  4288.922
  88  4169.875
  89  4125.139
  90  4480.322
  91  4055.728
  92  3822.689
  93  4091.432
  94  4130.764
  95  4122.155
  96  3871.055
  97  4386.765
  98  4655.535
  99  4398.462
 100  4122.474
 101  4000.24
 102  4041.107
 103  4590.617
 104  4424.036
 105  4559.86
 106  4761.592
 107  5160.31
 108  5015.783
 109  4612.384
 110  4452.539
 111  4322.819
 112  4162.197
 113  4409.861
 114  4541.922
 115  4855.464
 116  4537.534
 117  4540.273
 118  4700.04
 119  4705.362
 120  4450.954
 121  4277.907
 122  4218.058
 123  4294.737
 124  4368.486
 125  4698.352
 126  4203.72
 127  3797.521
 128  4008.932
 129  3922.936
 130  3975.793
 131  4048.291
 132  4500.118
 133  4205.943
 134  4520.18
 135  4588.415
 136  4762.838
 137  4714.316
 138  4403.195
 139  4471.013
 140  4136.902
 141  4122.375
 142  4642.085
 143  4955.876
 144  4743.232
 145  4458.024
 146  4691.843
 147  4722.665
 148  4761.316
 149  5102.069
 150  4475.694
 151  4339.223
 152  4561.895
 153  5018.013
 154  4961.784
 155  4588.613
 156  4512.915
 157  4571.076
 158  4198.069
 159  4254.861
 160  4341.786
 161  4656.842
 162  4758.708
 163  4757.579
 164  4654.94
 165  4787.637
 166  4867.731
 167  4879.032
 168  4739.537
 169  4656.997
 170  4679.102
 171  4627.462
 172  4842.151
 173  4889.272
 174  4449.454
 175  4366.124
 176  4285.044
 177  4543.375
 178  4601.801
 179  4460.328
 180  4467.369
 181  4651.831
 182  4894.29
 183  4995.59
 184  4961.197
 185  4913.722
 186  4539.819
 187  4426.814
 188  4561.804
 189  4623.458
 190  4539.605
 191  4812.346
 192  4917.211
 193  4709.573
 194  4462.305
 195  4258.02
 196  4447.187
 197  4521.944
 198  4456.145
 199  4433.329
 200  4564.048
 201  5014.943
 202  4700.593
 203  4398.211
 204  4397.942
 205  4428.781
 206  4543.991
 207  4703.172
 208  4086.06
 209  4160.78
 210  4406.812
 211  4130.273
 212  4194.586
 213  4481.699
 214  4127.223
 215  4501.491
 216  4107.089
 217  3971.283
 218  4109.745
 219  4258.081
 220  4561.339
 221  4246.458
 222  4438.229
 223  4263.316
 224  4208.102
 225  4134.595
 226  4250.949
 227  4280.617
 228  4526.098
 229  4248.444
 230  4174.208
 231  4207.852
 232  4174.048
 233  4321.321
 234  4346.045
 235  4190.947
 236  4096.181
 237  3890.641
 238  4223.442
 239  4324.071
 240  4442.421
 241  4084.454
 242  3589.464
 243  4058.558
 244  4482.124
 245  4352.8
 246  4294.889
 247  4376.363
 248  4642.11
 249  4754.794
 250  4578.751
 251  4664.182
 252  4825.874
 253  4884.883
 254  4576.153
 255  4526.535
 256  4656.986
 257  4748.625
 258  4505.351
 259  4751.741
 260  4783.259
 261  4691.779
 262  4293.043
 263  4153.549
 264  4213.007
 265  4322.954
 266  4269.2
 267  3998.839
 268  4158.595
 269  4414.933
 270  4303.59
 271  4606.461
 272  4421.737
 273  4210.259
 274  4480.449
 275  4288.173
 276  4467.01
 277  4541.948
 278  4612.971
 279  4305.737
 280  4073.908
 281  3919.074
 282  3935.179
 283  3787.416
 284  3910.245
 285  4077.204
 286  4088.892
 287  3943.449
 288  3830.248
 289  4105.077
 290  4283.747
 291  4221.663
 292  4562.214
 293  4523.915
 294  4507.946
 295  4308.562
 296  4295.987
 297  4125.721
 298  4320.53
 299  4261.069
 300  4027.024
 301  4056.419
 302  4172.205
 303  3811.181
 304  4448.789
 305  4326.816
 306  4266.861
 307  4126.327
 308  4185.437
 309  4340.784
 310  4740.783
 311  5106.115
 312  5545.213
 313  5528.767
 314  5526.552
 315  5012.361
 316  4552.147
 317  4258.904
 318  4110.946
 319  4305.597
 320  4165.499
 321  4403.111
 322  4198.83
 323  4142.86
 324  4687.634
 325  4597.909
 326  4483.966
 327  5285.717
 328  5647.777
 329  5101.119
 330  4714.279
 331  4848.143
 332  4358.149
 333  4557.47
 334  4797.872
 335  4341.482
 336  3919.9
 337  3679.355
 338  4114.563
 339  4274.17
 340  4042.606
 341  4082.343
 342  4261.419
 343  4452.607
 344  4686.426
 345  4597.75
 346  4582.159
 347  4482.598
 348  4284.704
 349  4684
 350  4887.281
 351  4655.404
 352  4619.89
 353  4394.383
 354  4407.425
 355  4358.843
 356  4236.734
 357  4340.675
 358  4309.59
 359  4110.258
 360  4201.198
 361  3997.651
 362  4294.564
 363  4578.229
 364  4326.006
 365  4007.077
 366  3684.38
 367  3719.41
 368  4199.965
 369  4120.016
 370  4389.182
 371  4480.991
 372  4352.181
 373  3744.103
 374  3922.52
 375  4326.507
 376  4613.363
 377  4101.556
 378  4128.981
 379  4323.022
 380  4146.794
 381  3858.59
 382  4054.572
 383  3971.052
 384  3799.789
 385  3576.794
 386  4070.479
 387  4365.708
 388  3994.267
 389  4120.474
 390  3800.256
 391  3694.842
 392  4091.802
 393  4285.519
 394  4242.815
 395  4294.663
 396  4197.393
 397  3958.055
 398  3616.792
 399  3856.689
 400  3824.258
 401  3985.638
 402  4130.711
 403  4459.234
 404  4354.551
 405  4227.685
 406  4150.833
 407  4110.198
 408  4309.075
 409  3867.335
 410  4084.366
 411  3908.464
 412  3986.812
 413  4166.882
 414  4266.002
 415  4209.562
 416  4456.749
 417  4189.878
 418  4041.933
 419  3975.201
 420  4497.521
 421  4427.154
 422  4145.315
 423  4494.161
 424  4402.058
 425  4043.51
 426  4153.67
 427  4214.884
 428  4105.324
 429  4019.895
 430  4173.787
 431  4367.687
 432  4393.65
 433  4091.459
 434  4365.453
 435  4426.404
 436  4489.851
 437  4637.08
 438  4097.334
 439  3818.714
 440  3905.64
 441  4148.257
 442  4422.01
 443  4474.37
 444  4814.927
 445  5007.9
 446  4735.229
 447  4419.581
 448  4444.376
 449  4482.776
 450  4401.993
 451  4432.427
 452  3978.652
 453  4008.687
 454  4469.756
 455  4247.908
 456  4397.773
 457  4378.733
 458  4140.893
 459  4357.689
 460  4318.245
 461  4503.853
 462  4286.489
 463  4213.74
 464  4400.612
 465  4433.331
 466  4424.818
 467  4409.267
 468  4290.514
 469  4131.25
 470  4359.608
 471  4638.898
 472  4585.633
 473  4684.834
 474  4308.462
 475  4411.493
 476  4159.401
 477  4127.418
 478  4677.867
 479  4870.831
 480  4897.254
 481  4565.52
 482  4467.466
 483  4396.4
 484  4450.189
 485  3975.074
 486  4373.63
 487  4357.619
 488  4285.305
 489  4278.837
 490  4141.484
 491  4342.237
 492  4309.27
 493  4467.099
 494  4719.325
 495  4254.662
 496  4069.176
 497  4296.255
 498  4418.146
 499  4357.11
 500  4250.728
 501  4141.468
 502  3999.659
 503  4198.965
 504  4584.571
 505  4629.566
 506  4670.607
 507  4610.405
 508  4525.96
 509  4581.793
 510  4294.227
 511  4352.203
