# Input file       =  1197555195.115929_cleaned.dat
# Candidate        =  PSR_0332+5434
# Telescope        =  AR
# Epoch_topo       =  58104.592755971396
# Epoch_bary       =  N/A
# T_sample         =  0.002
# Data Folded      =  7405568
# Data Avg         =  0.265503965853919
# Data StdDev      =  4.08994524575852 
# Profile Bins     =  256
# Profile Avg      =  7680.51495007635 
# Profile StdDev   =  695.627429256223 
# Reduced chi-sqr  =  0.989
# Prob(Noise)      <  0.538   (~0.0 sigma)
# P_topo (ms)      =  714.542488812201  +/- 8.41e-05
# P'_topo (s/s)    =  -0                +/- 4.4e-11
# P''_topo (s/s^2) =  0                 +/- 1.92e-14
# P_bary (ms)      =  N/A
# P'_bary (s/s)    =  N/A
# P''_bary (s/s^2) =  N/A
# P_orb (s)        =  N/A
# asin(i)/c (s)    =  N/A
# eccentricity     =  N/A
# w (rad)          =  N/A
# T_peri           =  N/A
######################################################
   0  7572.669
   1  7643.249
   2  8044.64
   3  7234.127
   4  7893.992
   5  7490.398
   6  7512.739
   7  7529.864
   8  7283.315
   9  7284.878
  10  8246.72
  11  7554.642
  12  7636.149
  13  8132.527
  14  8405.528
  15  7425.882
  16  7840.284
  17  7451.367
  18  8048.986
  19  8073.707
  20  7916.014
  21  7749.366
  22  7855.903
  23  8594.345
  24  6760.092
  25  6579.527
  26  8137.216
  27  6879.371
  28  6045.827
  29  7488.978
  30  7428.075
  31  7729.7
  32  6810.506
  33  7770.366
  34  7295.065
  35  7370.817
  36  7039.787
  37  6718.025
  38  8209.442
  39  8523.446
  40  8118.33
  41  7203.773
  42  7692.764
  43  7765.208
  44  7170.777
  45  7651.362
  46  7591.693
  47  8381.482
  48  6759.682
  49  6690.74
  50  7702.148
  51  7242.24
  52  7239.891
  53  7257.696
  54  7367.669
  55  7238.793
  56  7483.275
  57  7195.444
  58  7061.399
  59  7849.633
  60  7879.388
  61  7082.121
  62  6709.886
  63  5949.366
  64  6796.292
  65  6804.497
  66  7293.398
  67  7177.518
  68  7316.659
  69  7219.043
  70  7711.479
  71  8440.825
  72  7848.693
  73  7465.94
  74  7825.748
  75  7367.254
  76  7674.203
  77  7146.741
  78  7227.097
  79  8162.993
  80  7842.361
  81  7471.736
  82  6508.644
  83  7219.344
  84  7763.186
  85  6140.376
  86  7049.009
  87  8241.571
  88  8820.883
  89  8362.966
  90  8375.186
  91  7103.529
  92  6794.933
  93  8210.817
  94  7357.216
  95  7109.045
  96  8162.237
  97  8134.197
  98  7574.099
  99  7350.246
 100  8221.415
 101  8693.604
 102  6977.682
 103  7342.734
 104  8199.197
 105  7669.232
 106  6796.483
 107  7793.355
 108  7274.311
 109  6884.294
 110  6873.716
 111  7602.993
 112  8072.027
 113  7984.175
 114  7329.246
 115  7470.949
 116  6080.33
 117  7620.834
 118  6636.102
 119  7145.646
 120  7378.024
 121  7547.246
 122  7971.194
 123  7413.138
 124  7711.886
 125  8037.799
 126  8474.59
 127  7874.433
 128  7591.816
 129  9148.764
 130  9310.374
 131  8787.688
 132  7750.018
 133  8236.644
 134  7224.663
 135  7109.934
 136  7390.578
 137  7643.248
 138  8482.671
 139  8459.639
 140  7553.59
 141  7822.188
 142  7543.814
 143  7158.424
 144  7408.609
 145  7297.816
 146  8307.554
 147  7803.886
 148  6828.553
 149  6704.605
 150  7625.703
 151  8178.507
 152  7820.93
 153  8344.385
 154  9039.825
 155  9960.959
 156  9365.003
 157  8740.427
 158  7757.168
 159  7149.154
 160  7459.465
 161  8009.849
 162  8500.735
 163  8162.045
 164  7405.891
 165  7356.157
 166  7563.378
 167  7551.188
 168  8098.221
 169  7574.724
 170  7697.1
 171  8608.769
 172  8429.823
 173  7814.166
 174  8588.033
 175  8459.345
 176  7567.507
 177  7773.012
 178  8247.648
 179  9123.3
 180  9182.634
 181  7920.542
 182  7493.964
 183  7870.605
 184  8555.353
 185  8093.633
 186  7881.079
 187  7729.833
 188  7895.556
 189  7680.975
 190  6915.042
 191  7401.515
 192  8060.646
 193  7213.796
 194  7785.281
 195  8279.55
 196  8776.56
 197  7571.5
 198  6726.077
 199  7874.807
 200  7831.858
 201  7049.641
 202  6731.812
 203  7616.562
 204  8079.253
 205  7287.084
 206  7137.134
 207  6998.752
 208  7766.79
 209  7274.374
 210  8448.876
 211  7387.343
 212  7715.604
 213  7757.772
 214  8237.631
 215  8193.605
 216  7724.488
 217  7510.244
 218  7268.45
 219  7754.319
 220  9046.365
 221  7652.388
 222  7113.275
 223  7226.105
 224  7623.163
 225  7670.479
 226  7682.138
 227  7664.387
 228  8059.854
 229  7978.303
 230  7983.652
 231  7905.56
 232  8148.165
 233  7735.994
 234  8081.659
 235  7406.312
 236  7728.636
 237  8899.88
 238  8068.355
 239  7715.006
 240  7947.815
 241  7050.171
 242  7416.005
 243  7280.653
 244  8083.918
 245  7922.738
 246  7588.392
 247  7225.421
 248  7372.162
 249  7940.743
 250  7744.848
 251  7580.944
 252  7578.531
 253  8507.354
 254  8210.77
 255  7514.768
