# Input file       =  1197641248.109297_cleaned.dat
# Candidate        =  PSR_0332+5434
# Telescope        =  AR
# Epoch_topo       =  58105.588739690938
# Epoch_bary       =  N/A
# T_sample         =  0.002
# Data Folded      =  7143424
# Data Avg         =  0.276863756255298
# Data StdDev      =  5.70938821216296 
# Profile Bins     =  1024
# Profile Avg      =  1931.38546790179 
# Profile StdDev   =  476.862103306737 
# Reduced chi-sqr  =  1.123
# Prob(Noise)      <  0.00362   (~2.7 sigma)
# P_topo (ms)      =  714.543464591296  +/- 2.46e-05
# P'_topo (s/s)    =  -0                +/- 1.33e-11
# P''_topo (s/s^2) =  0                 +/- 6.05e-15
# P_bary (ms)      =  N/A
# P'_bary (s/s)    =  N/A
# P''_bary (s/s^2) =  N/A
# P_orb (s)        =  N/A
# asin(i)/c (s)    =  N/A
# eccentricity     =  N/A
# w (rad)          =  N/A
# T_peri           =  N/A
######################################################
   0  1475.141
   1  1406.305
   2  1603.663
   3  1727.052
   4  1717.418
   5  1769.679
   6  1857.642
   7  2102.344
   8  1981.617
   9  2068.229
  10  2162.784
  11  1932.255
  12  1778.097
  13  1782.993
  14  1621.772
  15  1634.595
  16  1527.733
  17  1833.549
  18  1744.747
  19  1570.405
  20  1863.739
  21  1979.58
  22  2109.72
  23  1979.581
  24  2020.393
  25  2042.076
  26  1940.785
  27  2042.914
  28  2191.666
  29  2008.612
  30  1829.617
  31  1635.856
  32  1564.213
  33  1500.672
  34  1325.186
  35  1667.463
  36  1623.561
  37  1648.943
  38  1604.515
  39  1765.565
  40  1945.653
  41  1975.894
  42  2172.916
  43  2371.015
  44  2161.221
  45  2144.26
  46  1902.018
  47  1665.239
  48  1331.954
  49  1365.834
  50  1726.186
  51  1565.794
  52  1793.086
  53  1878.063
  54  1832.211
  55  1806.951
  56  1983.187
  57  2284.402
  58  2251.862
  59  2089.244
  60  2250.921
  61  2093.269
  62  2066.754
  63  2055.478
  64  1974.887
  65  1793.629
  66  1538.735
  67  1612.829
  68  1611.652
  69  1327.386
  70  1387.871
  71  1592.068
  72  1745.757
  73  1893.84
  74  2037.71
  75  2301.104
  76  2210.614
  77  2202.603
  78  2185.511
  79  1915.646
  80  1726.167
  81  1567.058
  82  1683.857
  83  1677.041
  84  1636.02
  85  1837.219
  86  1668.911
  87  1641.229
  88  1706.153
  89  1974.485
  90  2162.08
  91  2071.676
  92  2333.829
  93  2557.888
  94  2260.082
  95  2173.995
  96  1970.94
  97  1884.343
  98  1820.556
  99  1895.634
 100  2214.016
 101  1911.005
 102  1672.831
 103  1692.804
 104  1516.946
 105  1529.361
 106  1698.413
 107  2064.182
 108  2247.086
 109  2216.526
 110  2281.492
 111  2088.255
 112  1743.743
 113  1449.254
 114  1510.458
 115  1627.613
 116  1703.737
 117  1730.651
 118  1707.527
 119  1583.432
 120  1553.65
 121  1767.822
 122  1885.674
 123  1998.1
 124  1939.774
 125  1970.421
 126  1784.296
 127  1761.475
 128  2014.515
 129  1868.936
 130  1770.808
 131  1667.827
 132  1756.523
 133  1653.775
 134  1442.272
 135  1683.433
 136  1832.702
 137  1532.625
 138  1657.326
 139  1828.16
 140  2193.506
 141  2040.268
 142  1985.695
 143  2192.507
 144  2092.8
 145  1965.957
 146  1915.666
 147  1849.938
 148  1769.243
 149  1627.431
 150  2023.991
 151  2024.665
 152  1796.225
 153  1814.302
 154  1880.579
 155  2061.47
 156  2053.93
 157  2343.257
 158  2493.328
 159  2407.192
 160  2371.999
 161  2110.897
 162  1825.156
 163  1700.298
 164  1764.693
 165  2038.949
 166  1992.466
 167  1798.066
 168  2112.076
 169  2047.56
 170  1936.593
 171  1839.742
 172  1887.57
 173  2155.724
 174  1927.785
 175  2021.275
 176  2034.158
 177  1943.735
 178  1958.592
 179  1989.521
 180  1864.038
 181  1624.363
 182  1685.906
 183  2045.583
 184  1948.646
 185  1945.027
 186  2083.189
 187  2386.754
 188  2257.049
 189  2250.894
 190  2327.548
 191  2445.14
 192  2267.879
 193  2278.082
 194  2092.31
 195  1975.695
 196  1813.43
 197  1767.987
 198  1796.484
 199  1653.903
 200  1777.865
 201  1820.265
 202  1799.505
 203  1969.604
 204  2143.191
 205  2443.513
 206  2368.68
 207  2263.891
 208  2413.681
 209  2284.045
 210  2152.273
 211  2063.808
 212  1825.432
 213  1723.744
 214  1593.368
 215  1728.099
 216  1753.927
 217  1577.107
 218  1749.044
 219  1830.342
 220  1854.26
 221  2009.632
 222  2060.527
 223  2190.494
 224  2087.325
 225  2191.119
 226  2376.498
 227  2122.542
 228  1972.295
 229  1779.212
 230  1774.112
 231  1455.134
 232  1329.692
 233  1459.219
 234  1428.987
 235  1285.63
 236  1379.702
 237  1408.736
 238  1637.213
 239  1669.278
 240  2045.585
 241  2302.795
 242  2168.02
 243  2133.494
 244  2054.785
 245  1799.159
 246  1582.922
 247  1561.231
 248  1705.813
 249  1568.214
 250  1608.182
 251  1917.278
 252  1918.574
 253  1817.318
 254  1881.491
 255  2138.102
 256  2368.758
 257  2265.186
 258  2323.627
 259  2311.056
 260  2137.557
 261  1857.515
 262  1598.575
 263  1528.384
 264  1603.083
 265  1707.402
 266  1818.718
 267  1708.748
 268  1654.505
 269  1666.311
 270  1607.733
 271  1783.194
 272  1802.759
 273  2128.033
 274  2080
 275  2143.106
 276  2078.982
 277  1809.349
 278  1766.12
 279  1855.08
 280  1862.865
 281  1789.932
 282  1493.089
 283  1732.51
 284  1700.805
 285  1686.699
 286  1731.027
 287  1848.987
 288  1831.098
 289  1793.298
 290  1852.542
 291  2245.522
 292  2210.772
 293  2260.935
 294  2296.33
 295  2118.867
 296  2031.383
 297  1737.63
 298  1745.569
 299  1747.733
 300  1698.516
 301  1809.169
 302  1559.724
 303  1633.535
 304  1708.749
 305  1991.636
 306  2191.159
 307  2214.046
 308  2269.478
 309  2179.866
 310  1982.223
 311  1925.74
 312  1907.423
 313  1750.619
 314  1719.745
 315  1655.352
 316  2037.559
 317  1881.896
 318  1828.061
 319  1932.304
 320  2008.2
 321  2155.2
 322  2070.325
 323  2155.028
 324  2223.421
 325  1914.556
 326  1889.476
 327  1585.619
 328  1482.403
 329  1381.431
 330  1424.023
 331  1532.065
 332  1627.895
 333  1601.834
 334  1992.699
 335  1982.778
 336  2177.714
 337  2089.095
 338  2225.961
 339  2185.327
 340  2064.18
 341  1960.459
 342  1829.195
 343  1512.722
 344  1232.03
 345  1244.674
 346  1392.971
 347  1455.99
 348  1741.497
 349  1791.28
 350  1785.74
 351  1986.049
 352  2100.986
 353  2147.5
 354  2050.88
 355  2176.414
 356  2281.12
 357  2108.074
 358  2062.03
 359  2063.71
 360  1729.116
 361  1500.842
 362  1413.1
 363  1552.718
 364  1706.876
 365  1634.19
 366  1685.836
 367  1675.028
 368  1532.073
 369  1805.23
 370  1789.639
 371  2141.892
 372  2219.362
 373  2255.976
 374  2214.04
 375  1965.115
 376  1955.962
 377  1865.713
 378  1701.312
 379  1671.64
 380  1751.702
 381  1748.429
 382  1543.54
 383  1440.899
 384  1668.729
 385  1864.803
 386  1944.669
 387  2098.516
 388  2334.653
 389  2397.639
 390  2254.78
 391  2254.349
 392  2183.93
 393  1907.03
 394  1767.474
 395  1617.141
 396  1556.777
 397  1274.427
 398  1183.885
 399  1388.917
 400  1415.708
 401  1591.556
 402  1792.179
 403  1965.106
 404  2268.086
 405  2332.522
 406  2514.28
 407  2453.125
 408  2122.544
 409  1952.757
 410  1853.9
 411  1685.76
 412  1447.558
 413  1397.091
 414  1669.874
 415  1570.911
 416  1730.423
 417  1807.02
 418  1961.066
 419  1862.398
 420  1940.187
 421  2218.834
 422  2369.438
 423  2528.712
 424  2592.896
 425  2318.235
 426  2164.973
 427  1913.438
 428  1678.875
 429  1641.206
 430  1520.387
 431  1734.777
 432  1710.192
 433  1517.216
 434  1668.382
 435  1571.356
 436  1805.677
 437  1896.441
 438  1915.209
 439  2089.01
 440  1928.419
 441  2035.443
 442  1951.291
 443  1762.149
 444  1742.731
 445  1733.132
 446  1732.053
 447  1703.405
 448  1685.156
 449  1946.392
 450  1937.095
 451  1937.426
 452  1993.023
 453  2121.983
 454  2233.155
 455  2205.168
 456  2410.112
 457  2305.724
 458  1977.003
 459  1900.393
 460  1920.153
 461  1879.864
 462  1750.407
 463  1585.715
 464  1667.17
 465  1565.246
 466  1551.919
 467  1763.864
 468  1670.579
 469  1903.67
 470  1770.299
 471  1946.921
 472  2042.474
 473  1991.044
 474  2119.041
 475  2102.23
 476  1960.773
 477  1769.429
 478  1644.211
 479  1794.262
 480  1834.454
 481  1884.111
 482  2023.199
 483  1906.405
 484  1908.444
 485  1814.635
 486  1945.646
 487  2001.333
 488  2275.909
 489  2365.64
 490  2244.628
 491  1764.247
 492  1759.373
 493  1763.99
 494  1848.271
 495  1629.032
 496  1623.468
 497  1702.978
 498  1606.882
 499  1692.311
 500  1787.628
 501  1951.771
 502  2051.628
 503  1964.98
 504  2231.464
 505  2168.455
 506  2192.871
 507  2076.8
 508  1799.107
 509  1700.596
 510  1639.163
 511  1592.838
 512  1514.353
 513  1416.909
 514  1846.348
 515  2100.193
 516  2111.539
 517  2303.552
 518  2438.33
 519  2480.108
 520  2401.03
 521  2524.07
 522  2741.087
 523  2534.15
 524  2292.698
 525  2108.657
 526  1852.332
 527  1774.115
 528  1663.68
 529  1830.631
 530  1788.826
 531  1669.924
 532  1802.772
 533  1778.296
 534  1830.372
 535  2026.289
 536  2309.364
 537  2589.655
 538  2366.635
 539  2292.432
 540  2157.125
 541  2043.304
 542  2012.824
 543  2032.716
 544  2105.975
 545  1925.086
 546  1824.84
 547  1987.796
 548  1959.8
 549  2010.742
 550  2115.751
 551  2331.823
 552  2487.398
 553  2504.384
 554  2544.421
 555  2589.611
 556  2357.825
 557  2423.521
 558  2286.955
 559  2121.033
 560  1900.675
 561  1677.968
 562  1804.421
 563  1707.149
 564  1786.039
 565  1879.051
 566  1873.415
 567  2018.477
 568  2246.077
 569  2463.504
 570  2520.998
 571  2221.212
 572  2426.417
 573  2262.582
 574  2127.627
 575  1999.287
 576  1855.373
 577  1794.523
 578  1601.19
 579  1815.433
 580  1962.182
 581  1693.337
 582  1865.975
 583  1844.401
 584  1996.938
 585  2126.357
 586  2365.226
 587  2606.584
 588  2346.636
 589  2401.812
 590  2466.067
 591  2146.656
 592  1788.022
 593  1651.1
 594  1919.14
 595  1834.895
 596  1553.168
 597  1670.809
 598  1686.275
 599  1643.194
 600  1750.32
 601  1998.117
 602  2250.27
 603  2332.442
 604  2439.726
 605  2468.845
 606  2210.049
 607  2262.321
 608  2206.994
 609  2066.319
 610  1915.072
 611  2006.726
 612  2083.952
 613  1997.307
 614  2074.28
 615  2408.267
 616  2317.413
 617  2213.663
 618  2087.577
 619  2381.043
 620  2547.988
 621  2697.115
 622  3032.582
 623  2904.162
 624  2576.912
 625  2453.433
 626  2327.117
 627  2302.645
 628  2076.465
 629  2109.473
 630  2163.961
 631  2003.941
 632  2096.266
 633  2214.875
 634  2210.492
 635  2303.635
 636  2234.857
 637  2455.488
 638  2346.241
 639  2275.979
 640  2327.238
 641  2260.457
 642  2095.998
 643  1959.022
 644  2099.156
 645  2071.675
 646  1898.756
 647  1966.161
 648  1997.171
 649  1790.033
 650  1897.372
 651  2192.774
 652  2310.17
 653  2199.389
 654  2156.288
 655  2304.308
 656  1945.571
 657  1902.098
 658  1950.382
 659  1851.672
 660  1796.901
 661  1589.171
 662  1904.013
 663  2087.761
 664  1991.578
 665  2132.472
 666  1946.636
 667  2070.33
 668  2133.337
 669  2200.508
 670  2244.065
 671  2006.372
 672  2170.462
 673  2292.374
 674  1948.57
 675  1752.022
 676  1737.622
 677  1812.721
 678  1775.318
 679  1637.696
 680  1945.659
 681  2003.261
 682  1997.822
 683  1863.222
 684  1955.659
 685  2003.188
 686  2056.905
 687  2348.838
 688  2411.57
 689  2187.932
 690  2042.047
 691  1851.943
 692  1798.215
 693  1616.612
 694  1582.057
 695  1688.221
 696  1687.117
 697  1830.746
 698  1955.895
 699  1767.643
 700  1845.585
 701  1914.37
 702  2273.615
 703  2421.403
 704  2263.045
 705  2285.729
 706  2105.709
 707  1836.459
 708  1800.121
 709  1658.329
 710  1602.925
 711  1483.141
 712  1626.854
 713  1811.565
 714  1602.86
 715  1759.687
 716  1930.388
 717  2041.97
 718  2092.357
 719  2163.802
 720  2266.114
 721  2115.764
 722  2090.913
 723  2130.887
 724  1875.578
 725  1597.659
 726  1318.022
 727  1261.395
 728  1240.832
 729  1214.897
 730  1540.466
 731  1682.628
 732  1818.859
 733  1903.295
 734  2045.003
 735  2249.511
 736  2144.255
 737  2105.142
 738  2248.786
 739  2003.486
 740  1868.957
 741  1697.213
 742  1775.576
 743  1702.161
 744  1647.679
 745  1821.289
 746  1899.712
 747  1864.174
 748  1982.31
 749  1926.62
 750  1913.716
 751  1917.685
 752  2198.852
 753  2365.936
 754  2159.73
 755  2157.656
 756  2090.408
 757  1876.913
 758  1833.483
 759  1724.912
 760  1804.935
 761  1474.612
 762  1551.445
 763  1840.13
 764  1732.321
 765  1748.118
 766  1885.824
 767  2231.027
 768  2303.746
 769  2100.575
 770  2268.515
 771  2254.139
 772  2074.781
 773  1966.291
 774  1798.107
 775  1722.693
 776  1468.503
 777  1644.299
 778  1926.492
 779  1970.125
 780  1963.717
 781  2034.667
 782  1967.289
 783  1923.491
 784  2076.305
 785  2297.439
 786  2358.052
 787  2257.676
 788  2359.619
 789  2005.148
 790  1657.182
 791  1594.081
 792  1664.178
 793  1795.945
 794  1618.979
 795  1806.881
 796  1745.049
 797  1708.666
 798  1688.424
 799  1836.346
 800  1953.025
 801  2134.665
 802  2355.652
 803  2662.345
 804  2371.643
 805  2192.717
 806  2010.181
 807  1633.851
 808  1378.042
 809  1304.869
 810  1629.868
 811  1708.447
 812  1660.375
 813  1961.826
 814  1973.082
 815  2037.609
 816  2054.426
 817  2219.976
 818  2296.089
 819  2190.403
 820  2256.086
 821  2414.37
 822  2206.541
 823  2197.231
 824  1819.135
 825  1697.001
 826  1581.977
 827  1673.664
 828  1978.11
 829  1820.446
 830  1842.828
 831  1868.027
 832  2005.597
 833  2311.444
 834  2250.8
 835  2214.886
 836  2120.695
 837  2177.116
 838  2176.647
 839  1937.897
 840  1786.867
 841  1658.659
 842  1808.426
 843  2000.483
 844  1950.365
 845  2030.071
 846  2034.652
 847  1906.904
 848  1987.73
 849  2127.414
 850  2300.711
 851  2251.628
 852  2128.791
 853  2355.356
 854  2191.421
 855  2028.641
 856  1973.401
 857  1721.15
 858  1682.61
 859  1461.482
 860  1624.175
 861  1942.941
 862  1792.83
 863  1887.572
 864  1832.579
 865  2128.72
 866  2183.571
 867  2303.981
 868  2503.229
 869  2348.608
 870  2034.954
 871  1960.828
 872  1837.823
 873  1793.712
 874  1738.744
 875  1873.024
 876  1710.046
 877  1505.052
 878  1829.442
 879  2013.533
 880  2107.547
 881  2028.377
 882  2194.335
 883  2355.186
 884  2267.035
 885  2337.602
 886  2365.82
 887  2189.458
 888  2069.459
 889  1902.515
 890  1742.977
 891  1514.736
 892  1321.186
 893  1586.355
 894  1536.891
 895  1453.909
 896  1709.945
 897  1775.462
 898  1818.861
 899  1651.435
 900  1886.142
 901  2256.981
 902  2125.667
 903  2212.136
 904  2386.567
 905  2304.154
 906  1992.005
 907  1668.97
 908  1759.491
 909  1515.693
 910  1587.072
 911  1583.356
 912  1584.188
 913  1465.354
 914  1650.99
 915  2006.341
 916  2203.252
 917  2171.61
 918  2363.658
 919  2354.706
 920  2267.206
 921  2147.288
 922  1960.171
 923  1885.263
 924  1682.144
 925  1668.964
 926  1816.207
 927  1673.006
 928  1597.383
 929  1621.103
 930  1888.017
 931  2123.452
 932  2163.108
 933  2246.892
 934  2265.737
 935  2119.807
 936  2273.113
 937  2047.108
 938  1879.965
 939  1694.15
 940  1584.153
 941  1464.057
 942  1356.785
 943  1675.891
 944  1786.924
 945  1735.123
 946  1679.243
 947  1707.017
 948  1796.879
 949  1804.851
 950  2050.568
 951  2311.367
 952  2258.12
 953  2114.457
 954  2117.369
 955  1922.311
 956  1746.955
 957  1423.96
 958  1701.472
 959  1666.877
 960  1534.786
 961  1683.971
 962  1428.939
 963  1291.725
 964  1273.388
 965  1640.355
 966  1880.536
 967  1743.65
 968  1886.02
 969  2076.007
 970  1954.351
 971  1878.648
 972  1742.447
 973  1840.788
 974  1871.007
 975  1957.142
 976  1980.299
 977  1860.683
 978  1686.273
 979  1838.709
 980  2022.613
 981  2294.149
 982  2293.969
 983  2413.31
 984  2437.734
 985  2344.343
 986  2433.115
 987  2228.073
 988  2084.057
 989  1951.025
 990  1935.936
 991  1981.362
 992  1878.349
 993  1779.295
 994  1901.49
 995  1883.011
 996  2013.721
 997  1860.08
 998  1829.272
 999  1857.372
1000  1828.235
1001  2110.603
1002  2193.22
1003  2156.948
1004  2022.799
1005  1765.473
1006  1649.037
1007  1424.69
1008  1585.846
1009  1701.505
1010  1848.78
1011  1939.807
1012  2088.33
1013  1929.474
1014  1942.681
1015  2021.296
1016  2166.854
1017  2239.152
1018  2156.992
1019  2179.672
1020  1844.537
1021  1721.799
1022  1556.182
1023  1637.058
