# Input file       =  1197929750.11364_cleaned.dat
# Candidate        =  PSR_0332+5434
# Telescope        =  AR
# Epoch_topo       =  58108.927883259727
# Epoch_bary       =  N/A
# T_sample         =  0.002
# Data Folded      =  7340032
# Data Avg         =  0.108025077875936
# Data StdDev      =  4.12030067593492 
# Profile Bins     =  512
# Profile Avg      =  1548.54097451688 
# Profile StdDev   =  493.33611071493  
# Reduced chi-sqr  =  0.568
# Prob(Noise)      <  1   (~0.0 sigma)
# P_topo (ms)      =  714.547037595185  +/- 0.00144
# P'_topo (s/s)    =  -0                +/- 7.58e-10
# P''_topo (s/s^2) =  0                 +/- 3.35e-13
# P_bary (ms)      =  N/A
# P'_bary (s/s)    =  N/A
# P''_bary (s/s^2) =  N/A
# P_orb (s)        =  N/A
# asin(i)/c (s)    =  N/A
# eccentricity     =  N/A
# w (rad)          =  N/A
# T_peri           =  N/A
######################################################
   0  1617.223
   1  1528.808
   2  1611.991
   3  1280.217
   4  991.0156
   5  823.5355
   6  1294.086
   7  1616.306
   8  1568.382
   9  1194.926
  10  1417.246
  11  1519.466
  12  1450.166
  13  1377.87
  14  1337.077
  15  1546.163
  16  1295.541
  17  1208.373
  18  1045.713
  19  1052.521
  20  1362.51
  21  1321.663
  22  1586.468
  23  1750.802
  24  1502.008
  25  1515.797
  26  1191.068
  27  1231.179
  28  1423.892
  29  1511.53
  30  1563.551
  31  1396.866
  32  1207.961
  33  1319.773
  34  1605.223
  35  1514.281
  36  1453.376
  37  1317.667
  38  1284.234
  39  1266.651
  40  1345.214
  41  1538.037
  42  1547.939
  43  1443.784
  44  1451.014
  45  1239.883
  46  1421.199
  47  1434.777
  48  1407.4
  49  1718.469
  50  1450.218
  51  1637.205
  52  1406.833
  53  1328.023
  54  1444.548
  55  1461.603
  56  1425.253
  57  1266.53
  58  1435.872
  59  1846.13
  60  2023.301
  61  1382.952
  62  1446.023
  63  1471.378
  64  1416.365
  65  1612.515
  66  1911.238
  67  1967.902
  68  2107.275
  69  1727.606
  70  1457.288
  71  1555.347
  72  1821.408
  73  1756.378
  74  2094.437
  75  2127.989
  76  1835.238
  77  1708.378
  78  1578.783
  79  1553.755
  80  1219.962
  81  1027.866
  82  1056.163
  83  1047.79
  84  1345.226
  85  1217.609
  86  1326.717
  87  1346.507
  88  1240.518
  89  1502.855
  90  1844.349
  91  1406.311
  92  1244.572
  93  1416.692
  94  1412.764
  95  1642.464
  96  1453.158
  97  1571.929
  98  1620.075
  99  1584.279
 100  1372.267
 101  1331.793
 102  1669.099
 103  1440.71
 104  1328.027
 105  1514.812
 106  1687.668
 107  1518.189
 108  1559.372
 109  1315.582
 110  1225.817
 111  1387.729
 112  1502.352
 113  1385.458
 114  1550.429
 115  1319.4
 116  1047.494
 117  1161.984
 118  1227.533
 119  1299.862
 120  1326.172
 121  1381.534
 122  1783.141
 123  1897.208
 124  1788.021
 125  1517.819
 126  1547.981
 127  1372.761
 128  1146.259
 129  1338.948
 130  1380.258
 131  1483.403
 132  1744.654
 133  1595.676
 134  1248.427
 135  1223.107
 136  1435.301
 137  1490.54
 138  1744.138
 139  1546.361
 140  1483.563
 141  1483.313
 142  1317.098
 143  1763.721
 144  1787.661
 145  1456.01
 146  1562.627
 147  1586.759
 148  1595.535
 149  1657.556
 150  1620.474
 151  1776.251
 152  1813.707
 153  1751.052
 154  1308.455
 155  1669.29
 156  1570.454
 157  1451.574
 158  1495.701
 159  1635.791
 160  1586.443
 161  1596.269
 162  1516.972
 163  1577.842
 164  1670.947
 165  1786.967
 166  1832.442
 167  1864.726
 168  1784.577
 169  1474.293
 170  1702.897
 171  1699.586
 172  1500.48
 173  1534.438
 174  1498.117
 175  1557.991
 176  1315.613
 177  1724.199
 178  2072.647
 179  1684.873
 180  1492.04
 181  1546.672
 182  1487.984
 183  1074.366
 184  1794.096
 185  1769.363
 186  1643.187
 187  1707.068
 188  1352.874
 189  1446.32
 190  1696.75
 191  1330.155
 192  1376.786
 193  1611.621
 194  1783.514
 195  1710.795
 196  1782.689
 197  1715.718
 198  1101.98
 199  925.1335
 200  1448.223
 201  1373.065
 202  1517.232
 203  1491.734
 204  1325.239
 205  1642.952
 206  1566.781
 207  1108.001
 208  1196.166
 209  1382.627
 210  1566.225
 211  1494.713
 212  1585.234
 213  1642.164
 214  1465.376
 215  1635.525
 216  1426.753
 217  1550.927
 218  1891.92
 219  1930.454
 220  1806.695
 221  1494.764
 222  1583.511
 223  1631.529
 224  1368.456
 225  1357.706
 226  1324.446
 227  1309.636
 228  1333.535
 229  1287.447
 230  1144.612
 231  904.4611
 232  862.7565
 233  1138.688
 234  1420.861
 235  1553.702
 236  1497.424
 237  1205.918
 238  1419.433
 239  1477.547
 240  1677.082
 241  1689.994
 242  1855.046
 243  1674.678
 244  1535.875
 245  1464.074
 246  1194.866
 247  1551.746
 248  1947.707
 249  1690.496
 250  1626.302
 251  1404.537
 252  1502.342
 253  1358.233
 254  1352.113
 255  1741.719
 256  1420.198
 257  1311.376
 258  1470.42
 259  1594.929
 260  1240.192
 261  1561.645
 262  1687.399
 263  1398.711
 264  1244.085
 265  1241.516
 266  1225.076
 267  1340.32
 268  1780.924
 269  1738.631
 270  1502.926
 271  1273.307
 272  1529.722
 273  1395.865
 274  1595.978
 275  2099.099
 276  2401.835
 277  1923.53
 278  1587.801
 279  1314.723
 280  1170.261
 281  1749.484
 282  1673.033
 283  1534.587
 284  1687.303
 285  1668.276
 286  1407.765
 287  1496.173
 288  1868.191
 289  1865.618
 290  2057.721
 291  2269.642
 292  2307.324
 293  2197.864
 294  2001.72
 295  1479.583
 296  1406.582
 297  1681.904
 298  1537.074
 299  1615.328
 300  2049.625
 301  2119.604
 302  1860.264
 303  2129.884
 304  1919.306
 305  2003.083
 306  2274.304
 307  1854.368
 308  2050.374
 309  2178.82
 310  2396.058
 311  2826.978
 312  2985.205
 313  2777.913
 314  2074.044
 315  1528.91
 316  1355.548
 317  1474.567
 318  1637.201
 319  1556.324
 320  1331.429
 321  1488.709
 322  1730.02
 323  1757.396
 324  1582.147
 325  1844.948
 326  2003.262
 327  1780.925
 328  1484.865
 329  1484.127
 330  1840.508
 331  1705.864
 332  1744.005
 333  1609.468
 334  1734.464
 335  1598.917
 336  1545.864
 337  1344.598
 338  1136.65
 339  1329.442
 340  1272.973
 341  1283.726
 342  1578.136
 343  1472.089
 344  1281.953
 345  1336.669
 346  1275.586
 347  1227.317
 348  1471.238
 349  1782.319
 350  1882.162
 351  1541.097
 352  1454.359
 353  1393.65
 354  1569.413
 355  1628.209
 356  1525.49
 357  1479.416
 358  1344.211
 359  1432.376
 360  1243.575
 361  1492.499
 362  1301.362
 363  1247.375
 364  1604.425
 365  2034.034
 366  1699.466
 367  1248.277
 368  1449.028
 369  1553.043
 370  1518.793
 371  1751.673
 372  1390.983
 373  1727.551
 374  1836.292
 375  1993.012
 376  1875.786
 377  1378.705
 378  1512.5
 379  1496.068
 380  1380.11
 381  1687.124
 382  1653.661
 383  1533.738
 384  1689.237
 385  1562.029
 386  1673.715
 387  1925.9
 388  1805.661
 389  1517.655
 390  1337.909
 391  1680.656
 392  1977.605
 393  1726.716
 394  1555.9
 395  2037.854
 396  1972.055
 397  2171.533
 398  1670.458
 399  1670.566
 400  1472.232
 401  1289.414
 402  1709.678
 403  1988.367
 404  2066.205
 405  1759.629
 406  1677.708
 407  1798.026
 408  1443.953
 409  1407.858
 410  1398.22
 411  1740.837
 412  1862.094
 413  1915.063
 414  1929.767
 415  1840.948
 416  1839.21
 417  1851.786
 418  1665.106
 419  2038.304
 420  1878.769
 421  1777.347
 422  1734.446
 423  2032.792
 424  1944.911
 425  1574.383
 426  1553.675
 427  1502.089
 428  1490.598
 429  1621.187
 430  1687.916
 431  1682.749
 432  1513.832
 433  1612.936
 434  1442.162
 435  1527.28
 436  1262.717
 437  1293.529
 438  1322.955
 439  1252.54
 440  1391.213
 441  1450.056
 442  1470.002
 443  1474.739
 444  1530.022
 445  1534.305
 446  1402.584
 447  1206.713
 448  1416.329
 449  1517.396
 450  1468.751
 451  1538.984
 452  1755.581
 453  1673.495
 454  1714.186
 455  1515.215
 456  1467.826
 457  1538.974
 458  1572.22
 459  1524.836
 460  1403.639
 461  1156.803
 462  1193.663
 463  1464.837
 464  1369.574
 465  1162.676
 466  1293.15
 467  1395.756
 468  1411.665
 469  1253.382
 470  1314.709
 471  1377.077
 472  1679.703
 473  1666.766
 474  1377.454
 475  1136.426
 476  1196.97
 477  1276.996
 478  1221.614
 479  1212.463
 480  1545.273
 481  1530.964
 482  1440.283
 483  1314.365
 484  1220.051
 485  1386.403
 486  1310.513
 487  951.746
 488  1169.422
 489  1296.411
 490  1364.839
 491  1571.867
 492  1089.992
 493  1293.99
 494  1505.24
 495  1558.438
 496  1397.444
 497  1660.782
 498  1721.033
 499  1725.901
 500  1623.43
 501  1930.65
 502  1875.962
 503  1595.624
 504  1311.645
 505  1667.695
 506  1587.366
 507  1811.817
 508  1703.062
 509  1698.529
 510  1693.089
 511  1641.671
