# Input file       =  1197469409.100829-PSRB0329-2ms-sampling-dd.dat
# Candidate        =  PSR_0332+5434
# Telescope        =  AR
# Epoch_topo       =  58103.599862278112
# Epoch_bary       =  N/A
# T_sample         =  0.002
# Data Folded      =  7340032
# Data Avg         =  -1.22512082102092e-09
# Data StdDev      =  15.0196725589747 
# Profile Bins     =  512
# Profile Avg      =  0.510836269962837
# Profile StdDev   =  1798.35100087083 
# Reduced chi-sqr  =  0.914
# Prob(Noise)      <  0.918   (~0.0 sigma)
# P_topo (ms)      =  714.541506076875  +/- 0.000111
# P'_topo (s/s)    =  -0                +/- 5.85e-11
# P''_topo (s/s^2) =  0                 +/- 2.58e-14
# P_bary (ms)      =  N/A
# P'_bary (s/s)    =  N/A
# P''_bary (s/s^2) =  N/A
# P_orb (s)        =  N/A
# asin(i)/c (s)    =  N/A
# eccentricity     =  N/A
# w (rad)          =  N/A
# T_peri           =  N/A
######################################################
   0  841.0765
   1  1040.477
   2  -86.88899
   3  -69.63425
   4  -767.9683
   5  -262.6306
   6  296.6465
   7  1925.903
   8  1964.816
   9  -35.05275
  10  -795.7819
  11  -1110.38
  12  98.16312
  13  1044.272
  14  2600.29
  15  1805.889
  16  365.3961
  17  458.2473
  18  59.66994
  19  543.4886
  20  614.6934
  21  750.6022
  22  574.9825
  23  -170.8177
  24  -867.1852
  25  -488.2572
  26  -832.7132
  27  -1486.24
  28  381.1457
  29  839.8975
  30  1054.306
  31  916.9412
  32  120.5726
  33  -324.3573
  34  -592.2428
  35  893.3464
  36  1160.27
  37  855.652
  38  -832.8737
  39  -778.7615
  40  -1351.514
  41  -1426.634
  42  -1883.626
  43  -2034.08
  44  -1065.503
  45  -1288.225
  46  -187.9145
  47  -187.3295
  48  -528.9167
  49  -774.3643
  50  -461.4287
  51  -273.8951
  52  -661.5169
  53  -25.96764
  54  2.117474
  55  -672.6191
  56  -945.9178
  57  -1171.414
  58  -1077.741
  59  231.7409
  60  1966.318
  61  2503.013
  62  2767.725
  63  1816.374
  64  824.4001
  65  305.7897
  66  864.3066
  67  639.6343
  68  647.492
  69  1043.129
  70  -553.4891
  71  -1381.712
  72  -1821.169
  73  -1608.786
  74  -1410.938
  75  -1334.602
  76  -880.7213
  77  -318.0091
  78  501.6258
  79  5.361906
  80  649.6504
  81  -193.8566
  82  13.7903
  83  -533.0847
  84  -2029.137
  85  -1469.883
  86  -1254.998
  87  1239.028
  88  253.1444
  89  952.3562
  90  78.33685
  91  62.31444
  92  -356.6798
  93  89.65044
  94  390.4256
  95  -318.1773
  96  531.0473
  97  -69.25805
  98  515.3405
  99  -165.5059
 100  5.426206
 101  52.12614
 102  1032.512
 103  -50.21116
 104  -523.596
 105  694.6667
 106  1187.265
 107  1880.398
 108  259.9893
 109  399.9248
 110  -220.7844
 111  658.3937
 112  894.8214
 113  442.1056
 114  1184.424
 115  -680.514
 116  -1301.565
 117  -1600.968
 118  -771.017
 119  263.0851
 120  66.28729
 121  475.7042
 122  707.7171
 123  51.25579
 124  -1583.315
 125  -1769.312
 126  -573.2184
 127  1520.224
 128  3223.101
 129  3119.553
 130  1849.51
 131  56.56972
 132  151.3993
 133  303.225
 134  1857.937
 135  2994.328
 136  3271.683
 137  2721.758
 138  291.6505
 139  -34.35725
 140  291.7927
 141  -6.326948
 142  621.4515
 143  716.5787
 144  1219.55
 145  804.4003
 146  1878.569
 147  932.5454
 148  748.9308
 149  -33.18824
 150  990.0898
 151  -306.0771
 152  -333.6588
 153  -665.739
 154  -413.8021
 155  -411.6578
 156  -906.3989
 157  -1597.609
 158  -1326.61
 159  -1469.355
 160  -1381.332
 161  -726.9468
 162  616.6385
 163  -65.83256
 164  833.067
 165  -814.588
 166  -2080.955
 167  -2116.212
 168  -1470.635
 169  -731.7538
 170  182.7047
 171  560.8551
 172  758.1123
 173  539.2552
 174  -337.6727
 175  -1366.921
 176  -882.4445
 177  161.9101
 178  -175.8566
 179  -106.5874
 180  -373.3576
 181  -390.2254
 182  1165.835
 183  1537.209
 184  1270.958
 185  1131.505
 186  1572.671
 187  1859.843
 188  1586.852
 189  1440.821
 190  1004.267
 191  404.5898
 192  151.9218
 193  649.6949
 194  428.2039
 195  105.9924
 196  580.4554
 197  885.7723
 198  619.0834
 199  -226.3335
 200  261.2073
 201  -0.4192154
 202  110.8976
 203  852.4203
 204  1217.587
 205  1486.987
 206  1599.968
 207  2855.541
 208  3111.265
 209  2881.586
 210  1845.727
 211  2772.244
 212  3455.106
 213  3180.752
 214  3037.381
 215  2557.653
 216  2099.903
 217  1651.473
 218  2083.212
 219  1621.686
 220  1419.382
 221  390.603
 222  308.9901
 223  -195.474
 224  3.559568
 225  1339.402
 226  2161.033
 227  1554.927
 228  364.6622
 229  476.5909
 230  46.28275
 231  5.012013
 232  236.3605
 233  1122.325
 234  -511.1884
 235  -2331.289
 236  -2583.565
 237  -2490.787
 238  -2374.15
 239  -2650.3
 240  -2773.039
 241  -2434.387
 242  -2435.639
 243  -1206.444
 244  -501.2509
 245  -34.90168
 246  -76.41279
 247  47.65331
 248  -449.5284
 249  -2253.6
 250  -1068.256
 251  -872.2796
 252  -286.9602
 253  -616.2294
 254  -322.2365
 255  -20.15566
 256  -1035.824
 257  -507.4332
 258  -314.2548
 259  -53.90804
 260  -1268.099
 261  -695.0062
 262  -196.0022
 263  120.8546
 264  101.3525
 265  -287.206
 266  -969.3785
 267  -1302.798
 268  -994.7109
 269  -494.101
 270  -425.0437
 271  -474.8904
 272  -1470.081
 273  -2297.869
 274  -1955.835
 275  -1406.598
 276  -2097.653
 277  -874.5287
 278  -620.2896
 279  -640.3285
 280  -1894.277
 281  -2827.166
 282  -2452.31
 283  -1915.185
 284  -884.4122
 285  -696.4332
 286  943.957
 287  894.0886
 288  2073.786
 289  2552.993
 290  2507.525
 291  1867.123
 292  880.1078
 293  2547.557
 294  2395.917
 295  3939.993
 296  3580.657
 297  2706.291
 298  2131.869
 299  552.6544
 300  346.8931
 301  122.4739
 302  295.6953
 303  21.3364
 304  383.8427
 305  319.4281
 306  -300.7072
 307  -320.6324
 308  -338.3261
 309  265.1835
 310  780.2847
 311  1518.291
 312  802.6547
 313  81.525
 314  -539.5471
 315  132.8952
 316  1304.999
 317  1564.707
 318  2491.021
 319  2216.03
 320  821.503
 321  -576.7323
 322  -1347.415
 323  -1586.285
 324  -1508.983
 325  -258.4025
 326  1174.026
 327  1541.72
 328  569.375
 329  464.4002
 330  37.34762
 331  362.0974
 332  1239.942
 333  1930.378
 334  1846.87
 335  371.1563
 336  1041.682
 337  1122.025
 338  606.6776
 339  -136.6345
 340  -371.9091
 341  -64.8106
 342  -189.715
 343  187.6194
 344  359.3131
 345  926.7189
 346  466.4773
 347  -462.8414
 348  -1542.501
 349  -944.9257
 350  -1082.691
 351  -888.681
 352  202.1184
 353  -199.1823
 354  8.889905
 355  -434.7511
 356  -372.0078
 357  -916.0886
 358  115.0714
 359  214.4652
 360  -697.217
 361  -1335.113
 362  -1226.868
 363  -1687.563
 364  -2059.614
 365  -2061.123
 366  -1181.346
 367  -1138.804
 368  -370.4541
 369  -375.0307
 370  570.4802
 371  289.7955
 372  -36.23851
 373  -889.9232
 374  -545.2766
 375  1458.62
 376  2030.56
 377  2014.246
 378  644.6615
 379  94.21724
 380  -391.2321
 381  401.1518
 382  534.6429
 383  1171.169
 384  1951.121
 385  595.8771
 386  -438.2221
 387  -2249.697
 388  -1069.589
 389  -14.46582
 390  509.7975
 391  886.8342
 392  819.3244
 393  552.2683
 394  761.9432
 395  771.3355
 396  -607.8055
 397  -1020.187
 398  -396.6692
 399  -272.8546
 400  -265.1452
 401  -507.2987
 402  -193.7408
 403  -1081.533
 404  -145.24
 405  -549.9275
 406  23.43585
 407  -64.86465
 408  894.1132
 409  254.8519
 410  -385.4027
 411  -2055.684
 412  -2166.42
 413  -1933.405
 414  -1925.667
 415  -1890.344
 416  -1394.332
 417  -1995.583
 418  -2576.07
 419  -2198.283
 420  -2518.021
 421  -2957.017
 422  -2719.75
 423  -1731.923
 424  -151.4791
 425  813.3192
 426  859.1758
 427  6.841071
 428  -961.5334
 429  -1076.049
 430  -2208.956
 431  -2292.889
 432  -909.9424
 433  62.8713
 434  204.1328
 435  -1068.795
 436  -1150.946
 437  -361.8589
 438  -1482.066
 439  -2358.088
 440  -1610.019
 441  -1732.515
 442  -1476.698
 443  -245.3552
 444  376.5313
 445  -32.53426
 446  -468.5673
 447  -303.7405
 448  -293.5875
 449  -1128.946
 450  -794.0389
 451  -380.3044
 452  -41.65123
 453  -606.1506
 454  -1723.539
 455  -2410.575
 456  -2945.909
 457  -2437.039
 458  -502.0823
 459  14.57579
 460  -74.78431
 461  273.6659
 462  -117.5804
 463  -825.8292
 464  -1938.988
 465  -862.4999
 466  -494.0223
 467  -141.3285
 468  529.6743
 469  145.787
 470  -670.804
 471  -415.855
 472  735.0681
 473  -388.2288
 474  452.3621
 475  533.6572
 476  1309.958
 477  981.8915
 478  400.942
 479  -499.1992
 480  -1746.308
 481  -1405.313
 482  -693.952
 483  253.7315
 484  1090.852
 485  951.3342
 486  782.9596
 487  -38.08954
 488  -313.3755
 489  -413.079
 490  617.0453
 491  1296.081
 492  2332.286
 493  1885.795
 494  277.6862
 495  -92.26057
 496  -1271.563
 497  -1198.124
 498  -830.6664
 499  -306.8519
 500  -56.95513
 501  -158.1019
 502  -212.7093
 503  -797.3953
 504  348.2216
 505  -106.9377
 506  1160.881
 507  993.3591
 508  1346.576
 509  941.8954
 510  228.7281
 511  158.7699
