# Input file       =  1197570344.120679_cleaned.dat
# Candidate        =  PSR_0332+5434
# Telescope        =  AR
# Epoch_topo       =  58104.768091674523
# Epoch_bary       =  N/A
# T_sample         =  0.002
# Data Folded      =  7340032
# Data Avg         =  0.163015067801878
# Data StdDev      =  4.28140493535002 
# Profile Bins     =  1024
# Profile Avg      =  1168.47503352152 
# Profile StdDev   =  362.481047068823 
# Reduced chi-sqr  =  0.500
# Prob(Noise)      <  1   (~0.0 sigma)
# P_topo (ms)      =  714.54268384622   +/- 0.000391
# P'_topo (s/s)    =  -0                +/- 2.07e-10
# P''_topo (s/s^2) =  0                 +/- 9.12e-14
# P_bary (ms)      =  N/A
# P'_bary (s/s)    =  N/A
# P''_bary (s/s^2) =  N/A
# P_orb (s)        =  N/A
# asin(i)/c (s)    =  N/A
# eccentricity     =  N/A
# w (rad)          =  N/A
# T_peri           =  N/A
######################################################
   0  1476.801
   1  1324.061
   2  1135.899
   3  1065.996
   4  1119.935
   5  1053.937
   6  1050.531
   7  1107.41
   8  1083.841
   9  922.2102
  10  881.7017
  11  1049.419
  12  1297.839
  13  1331.864
  14  1262.272
  15  1192.04
  16  1097.49
  17  1175.034
  18  1204.634
  19  1210.088
  20  1189.675
  21  1082.014
  22  1055.988
  23  1034.503
  24  1041.64
  25  1181.992
  26  1216.886
  27  1254.502
  28  1170.142
  29  1180.978
  30  1165.675
  31  1061.807
  32  1058.421
  33  1160.097
  34  1208.314
  35  1182.859
  36  1154.775
  37  1103.863
  38  1183.238
  39  1193.673
  40  1362.141
  41  1372.685
  42  1365.515
  43  1335.397
  44  1253.907
  45  1207.816
  46  1162.366
  47  1098.796
  48  1082.172
  49  1170.589
  50  1210.888
  51  1266.428
  52  1198.268
  53  1241.597
  54  1231.426
  55  1283.809
  56  1223.686
  57  1281.057
  58  1192.472
  59  1165.724
  60  1123.48
  61  1215.588
  62  1324.505
  63  1346.777
  64  1405.896
  65  1434.665
  66  1407.328
  67  1227.122
  68  1142.209
  69  1083.736
  70  1107.093
  71  1175.535
  72  1275.875
  73  1242.221
  74  1088.254
  75  939.705
  76  972.436
  77  1043.165
  78  1130.851
  79  1144.772
  80  1169.175
  81  1162.911
  82  1270.203
  83  1234.072
  84  1218.39
  85  1126.884
  86  1143.168
  87  1220.25
  88  1284.778
  89  1288.158
  90  1334.825
  91  1351.535
  92  1253.082
  93  1253.729
  94  1239.939
  95  1207.183
  96  1156.163
  97  1230.425
  98  1401.74
  99  1337.619
 100  1279.659
 101  1197.275
 102  1207.211
 103  1129.835
 104  1188.869
 105  1285.425
 106  1391.588
 107  1405.381
 108  1451.752
 109  1470.984
 110  1368.25
 111  1315.892
 112  1235.335
 113  1214.931
 114  1087.624
 115  1071.915
 116  1051.373
 117  992.6765
 118  961.6664
 119  878.8914
 120  856.3036
 121  891.7703
 122  997.855
 123  1102.721
 124  1060.344
 125  1206.674
 126  1150.774
 127  1068.203
 128  864.5715
 129  940.8133
 130  967.0394
 131  1007.175
 132  983.4219
 133  1110.391
 134  997.1567
 135  876.2318
 136  799.8983
 137  878.5227
 138  904.1556
 139  943.9022
 140  1071.323
 141  1147.458
 142  1197.997
 143  1304.814
 144  1265.003
 145  1198.016
 146  1178.83
 147  1249.372
 148  1279.54
 149  1237.872
 150  1179.349
 151  1176.922
 152  1100.773
 153  1087.852
 154  1070.321
 155  1007.169
 156  948.3672
 157  892.1187
 158  991.3633
 159  915.8372
 160  931.2977
 161  912.4684
 162  1021.965
 163  1086.513
 164  1116.331
 165  1125.484
 166  1018.149
 167  948.6917
 168  968.3666
 169  1127.789
 170  1353.798
 171  1385.833
 172  1298.432
 173  1135.793
 174  1104.382
 175  994.7477
 176  1090.568
 177  1181.352
 178  1387.128
 179  1331.461
 180  1250.943
 181  1206.657
 182  1176.16
 183  1165.064
 184  1108.569
 185  1084.552
 186  1216.911
 187  1324.991
 188  1441.794
 189  1383.03
 190  1322.09
 191  1168.918
 192  1110.238
 193  1080.873
 194  1176.197
 195  1196.953
 196  1185.425
 197  1175.815
 198  1166.19
 199  1144.938
 200  1180.631
 201  1133.748
 202  1136.036
 203  1113.709
 204  1155.048
 205  1266.232
 206  1212.776
 207  1161.132
 208  1206.238
 209  1446.705
 210  1446.904
 211  1221.853
 212  1106.267
 213  1241.741
 214  1311.608
 215  1211.693
 216  1182.782
 217  1163.893
 218  1181.064
 219  1201.498
 220  1085.03
 221  1130.436
 222  1033.887
 223  1138.221
 224  1168.735
 225  1126.602
 226  1043.116
 227  1028.683
 228  1072.273
 229  1112.72
 230  1080.852
 231  1045.261
 232  1057.502
 233  1196.704
 234  1224.106
 235  1247.851
 236  1143.727
 237  1108.086
 238  1105.685
 239  1168.487
 240  1189.199
 241  1111.832
 242  1068.227
 243  1186.111
 244  1128.397
 245  1058.042
 246  1008.352
 247  1127.451
 248  1242.38
 249  1256.081
 250  1076.437
 251  1060.931
 252  1091.671
 253  1274.278
 254  1352.33
 255  1356.636
 256  1297.578
 257  1297.168
 258  1309.717
 259  1244.84
 260  1168.515
 261  1129.977
 262  1100.375
 263  1040.417
 264  963.6677
 265  1029.478
 266  1069.858
 267  1075.231
 268  1163.288
 269  1127.185
 270  1122.523
 271  1071.891
 272  1170.535
 273  1254.736
 274  1245.078
 275  1285.96
 276  1259.876
 277  1300.097
 278  1274.072
 279  1304.619
 280  1252.291
 281  1194.733
 282  1251.444
 283  1275.082
 284  1278.539
 285  1089.029
 286  1006.553
 287  973.4826
 288  1021.201
 289  1074.447
 290  1042.333
 291  974.7055
 292  1122.867
 293  1234.621
 294  1155.778
 295  988.3573
 296  916.0028
 297  919.8939
 298  925.0061
 299  1044.812
 300  1141.769
 301  1153.562
 302  1068.901
 303  1025.333
 304  1003.533
 305  1042.846
 306  1100.166
 307  1063.512
 308  1033.488
 309  1028.066
 310  1019.125
 311  1009.601
 312  957.0282
 313  1037.037
 314  1078.393
 315  1043.062
 316  990.5126
 317  956.3931
 318  1064.3
 319  1071.28
 320  1038.281
 321  1081.216
 322  1104.9
 323  1127.953
 324  1099.047
 325  1091.946
 326  973.6674
 327  875.6505
 328  866.0801
 329  972.5917
 330  1118.406
 331  1246.926
 332  1393.75
 333  1348.316
 334  1210.831
 335  1256.411
 336  1399.576
 337  1418.858
 338  1337.121
 339  1315.376
 340  1312.665
 341  1253.59
 342  1193.787
 343  1199.862
 344  1205.044
 345  1151.341
 346  1145.638
 347  1188.367
 348  1187.498
 349  1133.91
 350  1091.59
 351  1065.812
 352  1006.304
 353  1078.086
 354  1104.628
 355  1041.583
 356  993.5995
 357  1169.87
 358  1243.19
 359  1269.304
 360  1115.861
 361  1176.043
 362  1139.063
 363  1234.351
 364  1338.365
 365  1407.579
 366  1427.079
 367  1343.76
 368  1305.677
 369  1229.88
 370  1149.977
 371  1143.015
 372  1165.109
 373  1153.655
 374  1124.276
 375  1116.224
 376  1183.469
 377  1316.554
 378  1459.41
 379  1527.36
 380  1445.308
 381  1305.35
 382  1304.688
 383  1256.543
 384  1216.71
 385  1169.813
 386  1269.807
 387  1263.374
 388  1195.248
 389  1183.731
 390  1182.87
 391  1310.978
 392  1335.415
 393  1363.135
 394  1268.64
 395  1143.364
 396  1050.317
 397  1080.607
 398  1101.325
 399  1108.737
 400  1040.956
 401  1096.342
 402  1027.892
 403  970.649
 404  900.1562
 405  934.4015
 406  856.8868
 407  855.9365
 408  911.8787
 409  1004.946
 410  1097.584
 411  1030.011
 412  960.2911
 413  963.8154
 414  939.6927
 415  922.4631
 416  848.0205
 417  1019.434
 418  1092.736
 419  1142.681
 420  1063.332
 421  1127.622
 422  1135.155
 423  1058.103
 424  994.1102
 425  976.188
 426  991.5632
 427  1100.692
 428  1231.506
 429  1212.122
 430  1139.25
 431  1151.296
 432  1164.736
 433  1106.656
 434  1042.587
 435  1004.187
 436  1089.036
 437  1151.275
 438  1183.478
 439  1187.08
 440  1093.984
 441  1071.461
 442  897.3969
 443  830.345
 444  916.1208
 445  1016.326
 446  1105.045
 447  1173.447
 448  1209.446
 449  1183.964
 450  1097.735
 451  1099
 452  1083.439
 453  987.0767
 454  932.1661
 455  939.9818
 456  1073.785
 457  991.0656
 458  909.7118
 459  869.4738
 460  904.6261
 461  904.1081
 462  961.2747
 463  978.8201
 464  909.6606
 465  921.9041
 466  1091.739
 467  1115.153
 468  1088.453
 469  1063.062
 470  1133.823
 471  1121.614
 472  1198.021
 473  1155.734
 474  1169.865
 475  1118.111
 476  1138.619
 477  1130.672
 478  1172.788
 479  1216.701
 480  1197.668
 481  1159.585
 482  1163.546
 483  1369.882
 484  1375.352
 485  1438.139
 486  1355.105
 487  1404.862
 488  1361.613
 489  1387.948
 490  1282.325
 491  1171.282
 492  1178.665
 493  1253.621
 494  1364.424
 495  1302.68
 496  1276.167
 497  1202.114
 498  1083.204
 499  1018.75
 500  1178.264
 501  1219.668
 502  1172.366
 503  1033.051
 504  1157.319
 505  1157.103
 506  1112.842
 507  1094.117
 508  1123.256
 509  1099.646
 510  1187.219
 511  1145.379
 512  1151.535
 513  977.4575
 514  1119.682
 515  1135.334
 516  1044.704
 517  957.2975
 518  1086.65
 519  1281.322
 520  1245.533
 521  1154.743
 522  1101.663
 523  1254.097
 524  1238.418
 525  1229.618
 526  1238.678
 527  1256.339
 528  1241.992
 529  1172.767
 530  1120.055
 531  1156.162
 532  1135.098
 533  1275.432
 534  1242.28
 535  1114.364
 536  980.3929
 537  939.4421
 538  999.6458
 539  1084.387
 540  1133.237
 541  1177.677
 542  1205.453
 543  1227.811
 544  1221.536
 545  995.9916
 546  994.3983
 547  1038.675
 548  1249.288
 549  1281.127
 550  1342.421
 551  1285.261
 552  1306.576
 553  1173.986
 554  1111.378
 555  1007.09
 556  997.8651
 557  1047.518
 558  984.9363
 559  921.509
 560  876.5983
 561  925.9089
 562  1035.821
 563  1075.21
 564  1135.501
 565  1161.018
 566  1177.808
 567  1201.051
 568  1164.642
 569  1092.326
 570  994.3176
 571  1127.096
 572  1254.892
 573  1278.663
 574  1120.562
 575  1049.334
 576  1147.112
 577  1217.378
 578  1276.435
 579  1300.5
 580  1319.761
 581  1357.615
 582  1391.931
 583  1400.416
 584  1215.858
 585  1140.708
 586  1227.852
 587  1295.892
 588  1248.324
 589  1157.751
 590  1135.109
 591  1139.373
 592  1108.767
 593  1170.875
 594  1245.24
 595  1249.16
 596  1195.86
 597  1156.289
 598  1130.621
 599  1068.219
 600  1070.938
 601  1080.172
 602  942.4608
 603  826.2352
 604  959.3987
 605  1130.179
 606  1151.432
 607  1098.585
 608  1149.349
 609  1068.373
 610  1037.926
 611  1090.7
 612  1354.94
 613  1312.696
 614  1180.094
 615  1028.507
 616  1049.286
 617  1148.909
 618  1276.505
 619  1460.212
 620  1574.104
 621  1727.441
 622  1800.235
 623  1751.736
 624  1764.481
 625  1846.515
 626  1930.317
 627  1899.831
 628  1705.337
 629  1612.222
 630  1534.72
 631  1477.337
 632  1512.932
 633  1521.595
 634  1510.152
 635  1407.186
 636  1419.291
 637  1374.083
 638  1351.333
 639  1239.16
 640  1219.4
 641  1085.165
 642  991.1913
 643  1011.284
 644  1102.229
 645  1111.728
 646  1030.687
 647  1034.622
 648  1137.056
 649  1229.531
 650  1332.663
 651  1397.673
 652  1411.101
 653  1210.408
 654  1181.156
 655  1192.554
 656  1356.222
 657  1308.542
 658  1246.396
 659  1194.61
 660  1189.582
 661  1168.698
 662  1273.42
 663  1270.701
 664  1312.581
 665  1288.816
 666  1335.323
 667  1187.043
 668  1189.76
 669  1183.866
 670  1353.678
 671  1397.382
 672  1452.107
 673  1399.58
 674  1390.95
 675  1289.947
 676  1227.119
 677  1199.599
 678  1252.619
 679  1328.224
 680  1327.907
 681  1268.633
 682  1158.16
 683  1160.276
 684  1200.371
 685  1242.731
 686  1285.287
 687  1377.031
 688  1337.582
 689  1234.43
 690  1168.353
 691  1202.582
 692  1255.89
 693  1259.025
 694  1276.148
 695  1338.625
 696  1204.232
 697  1054.255
 698  1096.227
 699  1154.787
 700  1189.568
 701  1133.355
 702  1086.118
 703  1052.186
 704  1051.119
 705  1027.995
 706  1030.956
 707  917.4245
 708  1027.912
 709  1051.794
 710  1067.892
 711  1086.249
 712  1225.09
 713  1327.49
 714  1249.521
 715  1198.763
 716  1256.136
 717  1210.863
 718  1109.381
 719  1101.795
 720  1105.298
 721  1180.304
 722  1163.171
 723  1228.625
 724  1293.664
 725  1210.612
 726  1066.066
 727  1079.594
 728  1073.65
 729  1197.457
 730  1312.494
 731  1325.825
 732  1306.336
 733  1272.852
 734  1386.751
 735  1359.611
 736  1250.64
 737  1275.965
 738  1206.369
 739  1146.386
 740  1020.662
 741  1137.818
 742  1280.234
 743  1234.23
 744  1155.456
 745  1069.307
 746  1078.772
 747  1053.075
 748  1151.36
 749  1139.896
 750  1074.178
 751  1173.975
 752  1272.775
 753  1262.037
 754  1111.392
 755  1062.629
 756  1096.089
 757  1020.629
 758  1019.551
 759  1099.046
 760  1142.352
 761  1205.888
 762  1159.034
 763  1091.145
 764  1033.663
 765  1037.355
 766  1031.773
 767  1002.241
 768  983.2695
 769  1046.49
 770  1107.604
 771  1138.974
 772  1101.941
 773  1164.658
 774  1268.57
 775  1249.298
 776  1173.506
 777  1134.349
 778  1022.283
 779  905.872
 780  1019.277
 781  1099.821
 782  1121.708
 783  1146.908
 784  1290.392
 785  1243.738
 786  1165.472
 787  1077.115
 788  1112.561
 789  1181.743
 790  1075.991
 791  1160.771
 792  1241.733
 793  1409.115
 794  1473.172
 795  1400.764
 796  1404.113
 797  1377.005
 798  1375.115
 799  1296.229
 800  1211.631
 801  1129.385
 802  1093.478
 803  1140.67
 804  1040.133
 805  994.5669
 806  967.2016
 807  1022.842
 808  1140.699
 809  1266.258
 810  1429.174
 811  1371.226
 812  1284.112
 813  1193.642
 814  1138.546
 815  1222.935
 816  1300.783
 817  1221.819
 818  1125.929
 819  1152.887
 820  1362.797
 821  1285.962
 822  1218.68
 823  1190.313
 824  1199.713
 825  1263.109
 826  1216.02
 827  1267.587
 828  1212.283
 829  1171.544
 830  1202.808
 831  1132.855
 832  1069.003
 833  1014.517
 834  1197.68
 835  1283.075
 836  1235.958
 837  1268.975
 838  1283.16
 839  1209.704
 840  1329.345
 841  1448.217
 842  1414.898
 843  1072.231
 844  957.8309
 845  1042.41
 846  1228.562
 847  1245.63
 848  1186.234
 849  1143.968
 850  1076.413
 851  1088.158
 852  1140.692
 853  1103.322
 854  978.7504
 855  936.4774
 856  1084.685
 857  1063.658
 858  933.9614
 859  1000.632
 860  1068.469
 861  1214.745
 862  1218.05
 863  1270.34
 864  1270.51
 865  1137.552
 866  1264.452
 867  1326.683
 868  1326.674
 869  1266.441
 870  1167.187
 871  1115.474
 872  960.4116
 873  954.925
 874  1008.896
 875  1044.594
 876  1138.22
 877  1140.979
 878  1155.552
 879  1139.784
 880  1206.556
 881  1257.034
 882  1148.429
 883  1055.194
 884  1057.625
 885  1136.896
 886  1112.986
 887  953.1467
 888  1092.863
 889  1193.207
 890  1274.915
 891  1233.493
 892  1271.958
 893  1198.513
 894  1141.364
 895  1158.355
 896  1283.788
 897  1208.743
 898  1141.14
 899  1235.229
 900  1216.342
 901  1305.027
 902  1363.284
 903  1505.194
 904  1406.573
 905  1300.947
 906  1201.328
 907  1149.295
 908  1030.763
 909  1091.548
 910  1133.995
 911  1125.124
 912  1053.704
 913  1128.221
 914  1230.524
 915  1303.021
 916  1307.213
 917  1234.031
 918  1071.393
 919  1076.768
 920  1212.952
 921  1247.452
 922  1035.248
 923  1077.832
 924  1191.876
 925  1147.667
 926  1086.014
 927  1174.244
 928  1329.545
 929  1269.774
 930  1231.487
 931  1248.77
 932  1193.588
 933  1117.838
 934  1041.524
 935  1093.94
 936  1192.982
 937  1222.129
 938  1250.433
 939  1254.15
 940  1283.263
 941  1234.432
 942  1253.932
 943  1260.459
 944  1133.991
 945  1163.632
 946  1218.696
 947  1195.744
 948  1079.479
 949  1034.949
 950  1089.624
 951  1290.937
 952  1410.78
 953  1434.035
 954  1283.397
 955  1331.159
 956  1251.4
 957  1147.691
 958  991.3027
 959  1146.198
 960  1305.515
 961  1358.452
 962  1177.177
 963  1146.056
 964  1168.256
 965  1169.251
 966  1197.377
 967  1255.645
 968  1295.803
 969  1140.001
 970  1118.703
 971  1113.127
 972  1099.874
 973  1036.212
 974  1076.846
 975  980.162
 976  945.917
 977  866.6048
 978  900.9332
 979  950.1782
 980  976.4191
 981  1101.848
 982  1138.138
 983  1075.168
 984  1074.299
 985  1086.831
 986  1060.314
 987  967.6945
 988  1074.717
 989  1168.985
 990  1185
 991  1128.454
 992  1311.628
 993  1408.934
 994  1343.357
 995  1208.684
 996  1177.685
 997  1281.853
 998  1210.008
 999  1232.548
1000  1176.892
1001  1093.794
1002  1093.354
1003  1158.876
1004  1174.09
1005  1196.288
1006  1170.182
1007  1128.198
1008  1041.027
1009  1136.575
1010  1294.73
1011  1263.781
1012  1140.845
1013  1161.226
1014  1254.195
1015  1182.697
1016  1133.222
1017  1099.882
1018  1167.324
1019  1161.624
1020  1295.197
1021  1413.251
1022  1536.363
1023  1563.207
