# Input file       =  1197914847.107016_cleaned.dat
# Candidate        =  PSR_0332+5434
# Telescope        =  AR
# Epoch_topo       =  58108.755394757129
# Epoch_bary       =  N/A
# T_sample         =  0.002
# Data Folded      =  7340032
# Data Avg         =  0.040556798249679
# Data StdDev      =  1.00002700387227 
# Profile Bins     =  512
# Profile Avg      =  581.413441941338 
# Profile StdDev   =  119.736269632386 
# Reduced chi-sqr  =  0.739
# Prob(Noise)      <  1   (~0.0 sigma)
# P_topo (ms)      =  714.546533922277  +/- 0.000187
# P'_topo (s/s)    =  -0                +/- 9.88e-11
# P''_topo (s/s^2) =  0                 +/- 4.36e-14
# P_bary (ms)      =  N/A
# P'_bary (s/s)    =  N/A
# P''_bary (s/s^2) =  N/A
# P_orb (s)        =  N/A
# asin(i)/c (s)    =  N/A
# eccentricity     =  N/A
# w (rad)          =  N/A
# T_peri           =  N/A
######################################################
   0  514.2497
   1  593.389
   2  602.8497
   3  588.5098
   4  604.6122
   5  585.5785
   6  591.2795
   7  529.1105
   8  553.2676
   9  554.6674
  10  583.5597
  11  658.0151
  12  746.6283
  13  697.1147
  14  557.8607
  15  620.6984
  16  630.866
  17  654.317
  18  588.6196
  19  588.699
  20  515.796
  21  528.5057
  22  567.9121
  23  530.4225
  24  484.9774
  25  464.9001
  26  614.396
  27  596.0549
  28  604.4653
  29  623.9503
  30  647.1447
  31  643.6763
  32  554.6902
  33  501.5047
  34  574.5621
  35  594.3422
  36  665.4138
  37  658.4489
  38  551.6725
  39  589.874
  40  692.0706
  41  568.4
  42  642.3334
  43  598.8074
  44  598.2114
  45  520.8348
  46  553.7285
  47  507.0273
  48  501.7216
  49  638.3325
  50  626.0084
  51  572.9908
  52  571.6987
  53  523.6714
  54  586.1748
  55  681.0008
  56  822.5955
  57  850.6909
  58  841.6151
  59  869.2368
  60  819.2394
  61  724.7448
  62  812.3484
  63  762.6238
  64  672.7976
  65  600.6839
  66  545.299
  67  563.5267
  68  690.3685
  69  668.6451
  70  605.0935
  71  423.9229
  72  543.5353
  73  603.6511
  74  387.6015
  75  458.8199
  76  653.0452
  77  655.8702
  78  584.1104
  79  585.8844
  80  617.7745
  81  492.8944
  82  468.1001
  83  610.623
  84  670.6489
  85  643.3041
  86  633.1603
  87  686.179
  88  646.3126
  89  623.0234
  90  635.3226
  91  572.0192
  92  579.3381
  93  613.3492
  94  716.5228
  95  636.1096
  96  696.0262
  97  671.0489
  98  674.4212
  99  639.5922
 100  687.2595
 101  651.2928
 102  519.7098
 103  518.7734
 104  492.8195
 105  589.1404
 106  560.8662
 107  542.5594
 108  482.1438
 109  556.3986
 110  552.0754
 111  578.3661
 112  582.4389
 113  616.3262
 114  594.42
 115  628.4851
 116  625.6887
 117  602.5819
 118  693.8298
 119  664.0003
 120  625.273
 121  637.2762
 122  606.946
 123  588.8052
 124  550.654
 125  619.2969
 126  639.4208
 127  484.2175
 128  495.6384
 129  577.926
 130  471.565
 131  517.7582
 132  520.5177
 133  588.3683
 134  529.9308
 135  452.0594
 136  482.7671
 137  554.5063
 138  625.9715
 139  506.9346
 140  500.0901
 141  471.0677
 142  468.8524
 143  418.2205
 144  478.0392
 145  406.1606
 146  411.3553
 147  539.7058
 148  629.5258
 149  551.7482
 150  487.2826
 151  483.3115
 152  504.0641
 153  529.5491
 154  562.2307
 155  600.8531
 156  581.6851
 157  489.1739
 158  532.7233
 159  540.9166
 160  480.4153
 161  591.6738
 162  682.2996
 163  554.0731
 164  556.4979
 165  561.5395
 166  620.8853
 167  627.5291
 168  566.0417
 169  554.3749
 170  542.4836
 171  495.5551
 172  467.8256
 173  438.7775
 174  591.0505
 175  586.1225
 176  568.7132
 177  523.2359
 178  422.7258
 179  546.9543
 180  590.4155
 181  503.0761
 182  583.6725
 183  653.6704
 184  544.9036
 185  652.2003
 186  616.7824
 187  658.8848
 188  582.715
 189  501.0058
 190  529.313
 191  555.9225
 192  569.8832
 193  481.8493
 194  514.7009
 195  618.5185
 196  525.5607
 197  542.9573
 198  578.0533
 199  684.5777
 200  592.5614
 201  491.9254
 202  461.6985
 203  441.2168
 204  491.2369
 205  569.7333
 206  487.7076
 207  432.0425
 208  457.674
 209  414.1367
 210  526.3446
 211  492.0843
 212  599.756
 213  715.6183
 214  518.9015
 215  494.29
 216  621.4262
 217  601.5637
 218  666.9528
 219  662.2468
 220  559.625
 221  646.0663
 222  599.7314
 223  473.3982
 224  534.9083
 225  601.1442
 226  501.0434
 227  516.4349
 228  617.3395
 229  576.0781
 230  604.0145
 231  442.6692
 232  455.7835
 233  503.2721
 234  580.0532
 235  674.0183
 236  594.1404
 237  580.4725
 238  611.3992
 239  536.4979
 240  583.8722
 241  677.4987
 242  579.4756
 243  555.0919
 244  661.9722
 245  612.1146
 246  523.243
 247  507.6166
 248  453.522
 249  426.315
 250  519.7732
 251  539.1617
 252  541.2835
 253  470.3113
 254  490.1185
 255  562.7472
 256  574.6138
 257  527.4262
 258  559.7977
 259  508.5571
 260  431.4183
 261  526.8807
 262  611.3527
 263  583.3605
 264  508.7852
 265  566.6688
 266  573.6914
 267  522.2293
 268  479.1319
 269  523.451
 270  526.3831
 271  638.1349
 272  617.5038
 273  565.9069
 274  523.7657
 275  544.2098
 276  603.2589
 277  587.1121
 278  496.4551
 279  436.8676
 280  468.015
 281  538.5435
 282  598.2166
 283  554.2434
 284  498.6656
 285  521.7365
 286  482.0136
 287  567.2613
 288  538.8991
 289  546.9833
 290  531.4785
 291  613.2109
 292  616.872
 293  599.9148
 294  659.804
 295  573.3625
 296  560.9297
 297  632.3191
 298  640.3485
 299  635.7071
 300  603.3672
 301  673.385
 302  619.2486
 303  583.1743
 304  573.4775
 305  525.4089
 306  628.8345
 307  723.4266
 308  709.162
 309  618.2678
 310  584.7549
 311  589.692
 312  471.0379
 313  518.9588
 314  603.2249
 315  644.5461
 316  567.835
 317  611.4753
 318  617.3177
 319  542.9238
 320  506.2737
 321  577.1478
 322  551.4466
 323  659.0422
 324  629.6346
 325  548.1205
 326  468.1101
 327  565.6242
 328  522.0018
 329  479.5817
 330  466.0073
 331  673.2585
 332  644.0071
 333  531.0612
 334  539.8068
 335  454.583
 336  519.4609
 337  538.2219
 338  637.7388
 339  715.6113
 340  595.6388
 341  647.647
 342  639.6411
 343  586.876
 344  630.077
 345  584.9639
 346  567.2296
 347  546.5195
 348  624.7685
 349  637.3443
 350  600.3703
 351  597.2192
 352  670.4334
 353  710.6002
 354  639.139
 355  608.478
 356  484.3578
 357  612.0108
 358  563.4728
 359  543.3521
 360  596.8626
 361  661.801
 362  757.5015
 363  610.2513
 364  567.5345
 365  642.5494
 366  675.8644
 367  623.1522
 368  697.761
 369  600.3082
 370  602.0193
 371  630.885
 372  592.8335
 373  568.0209
 374  551.8313
 375  578.0336
 376  606.0247
 377  563.4861
 378  572.5523
 379  579.0449
 380  609.916
 381  702.3131
 382  600.5134
 383  616.2065
 384  651.907
 385  583.5484
 386  491.5543
 387  615.3215
 388  594.1164
 389  557.2761
 390  456.205
 391  493.0564
 392  603.7244
 393  577.7175
 394  547.4138
 395  498.6759
 396  502.1484
 397  580.4567
 398  636.9905
 399  621.6306
 400  687.5732
 401  667.9747
 402  588.9575
 403  538.9252
 404  480.4875
 405  631.3381
 406  602.7625
 407  524.5599
 408  601.6252
 409  682.4005
 410  671.7734
 411  651.1194
 412  566.6552
 413  516.1453
 414  515.7164
 415  537.1752
 416  636.5438
 417  588.0006
 418  640.2736
 419  639.6642
 420  536.7194
 421  510.4854
 422  623.5682
 423  662.6912
 424  530.6734
 425  547.7854
 426  617.4936
 427  634.1196
 428  586.3665
 429  610.1721
 430  627.059
 431  593.7768
 432  581.8074
 433  485.7888
 434  580.4342
 435  526.7234
 436  504.9655
 437  566.4236
 438  603.1026
 439  550.0048
 440  538.7817
 441  645.7899
 442  665.8886
 443  664.1542
 444  644.7657
 445  530.1154
 446  534.5359
 447  637.3608
 448  617.2641
 449  581.5842
 450  555.723
 451  553.6042
 452  559.2514
 453  587.2985
 454  493.2569
 455  590.9813
 456  625.6558
 457  625.2518
 458  700.6059
 459  655.2034
 460  690.1422
 461  669.6628
 462  598.1786
 463  638.018
 464  563.4003
 465  535.051
 466  666.9752
 467  639.1343
 468  661.5616
 469  663.9427
 470  515.2934
 471  368.5398
 472  431.2353
 473  596.8713
 474  721.7266
 475  697.7947
 476  586.9916
 477  563.782
 478  524.8492
 479  513.746
 480  583.6568
 481  638.7024
 482  563.0601
 483  466.8723
 484  556.8134
 485  541.4055
 486  666.9357
 487  757.1375
 488  812.0916
 489  669.6755
 490  565.2655
 491  525.692
 492  611.3511
 493  634.097
 494  557.4628
 495  591.2839
 496  561.5394
 497  513.5649
 498  457.5316
 499  493.4037
 500  611.8176
 501  596.5029
 502  714.2637
 503  704.7002
 504  602.6323
 505  541.5184
 506  591.7761
 507  619.1679
 508  706.4842
 509  740.4829
 510  653.2864
 511  637.1509
