# Input file       =  1197756875.120159_cleaned.dat
# Candidate        =  PSR_0332+5434
# Telescope        =  AR
# Epoch_topo       =  58106.927015279616
# Epoch_bary       =  N/A
# T_sample         =  0.002
# Data Folded      =  7340032
# Data Avg         =  0.0965767566293445
# Data StdDev      =  3.91739124053967 
# Profile Bins     =  512
# Profile Avg      =  1384.27871731758 
# Profile StdDev   =  469.041147905561 
# Reduced chi-sqr  =  0.616
# Prob(Noise)      <  1   (~0.0 sigma)
# P_topo (ms)      =  714.545107804992  +/- 0.000147
# P'_topo (s/s)    =  -0                +/- 7.77e-11
# P''_topo (s/s^2) =  0                 +/- 3.43e-14
# P_bary (ms)      =  N/A
# P'_bary (s/s)    =  N/A
# P''_bary (s/s^2) =  N/A
# P_orb (s)        =  N/A
# asin(i)/c (s)    =  N/A
# eccentricity     =  N/A
# w (rad)          =  N/A
# T_peri           =  N/A
######################################################
   0  1130.768
   1  1112.963
   2  1551.807
   3  1503.892
   4  1520.62
   5  1657.304
   6  1700.795
   7  1741.679
   8  1578.034
   9  1366.545
  10  1590.451
  11  852.3971
  12  924.603
  13  1415.37
  14  1464.376
  15  1367.327
  16  1389.149
  17  1254.355
  18  1088.51
  19  1147.461
  20  1486.681
  21  1220.61
  22  1233.702
  23  1354.91
  24  1392.923
  25  1144.994
  26  1187.125
  27  1060.633
  28  1352.454
  29  1619.196
  30  1536.102
  31  1378.24
  32  1360.463
  33  1636.222
  34  1215.431
  35  1315.874
  36  1438.114
  37  1167.932
  38  1261.122
  39  1362.058
  40  1675.098
  41  1527.937
  42  1708.065
  43  1140.093
  44  849.6418
  45  833.866
  46  1588.238
  47  1818.5
  48  1608.521
  49  1412.351
  50  1259.489
  51  1319.639
  52  1323.114
  53  1435.94
  54  1395.986
  55  1660.975
  56  1998.846
  57  1738.148
  58  1835.732
  59  1487.053
  60  1160.938
  61  1313.327
  62  1238.519
  63  1456.519
  64  1437.639
  65  1553.818
  66  1540.392
  67  1468.415
  68  1461.929
  69  1788.769
  70  1865.88
  71  1252.062
  72  993.5663
  73  1113.044
  74  1217.876
  75  1317.337
  76  1786.551
  77  1479.332
  78  1086.001
  79  1346.12
  80  1714.033
  81  1411.837
  82  1463.884
  83  1732.014
  84  1603.803
  85  1532.767
  86  1455.245
  87  1708.026
  88  1989.789
  89  2010.758
  90  1983.208
  91  1566.555
  92  1606.963
  93  1311.069
  94  1200.486
  95  1637.251
  96  1809.196
  97  1606.909
  98  1629.109
  99  1601.041
 100  1617.305
 101  1490.662
 102  1315.741
 103  1480.151
 104  1789.373
 105  2157.271
 106  1662.395
 107  1505.055
 108  1444.077
 109  1180.07
 110  1461.484
 111  1485.4
 112  1577.124
 113  1437.818
 114  1218.863
 115  1315.535
 116  1211.906
 117  1251.372
 118  1428.062
 119  1746.364
 120  1675.942
 121  1670.693
 122  1226.439
 123  1303.42
 124  1173.861
 125  1382.342
 126  1202.302
 127  1084.533
 128  1143.785
 129  1145.524
 130  974.0153
 131  1176.558
 132  1361.202
 133  1311.978
 134  1650.678
 135  1560.715
 136  1280.673
 137  1363.675
 138  1350.966
 139  1488.935
 140  1465.14
 141  1560.51
 142  1594.178
 143  1531.459
 144  963.3078
 145  935.9976
 146  1246.3
 147  1342.8
 148  1704.003
 149  1700.704
 150  1206.516
 151  1743.724
 152  1500.875
 153  1397.78
 154  1217.436
 155  1609.787
 156  1473.913
 157  1380.98
 158  1366.943
 159  1198.135
 160  1331.491
 161  1015.337
 162  1243.521
 163  1363.69
 164  1552.932
 165  1407.596
 166  1567.869
 167  1461.068
 168  1222.12
 169  1210.908
 170  1248.348
 171  1473.62
 172  1570.568
 173  1828.944
 174  1360.173
 175  983.699
 176  1313.803
 177  1378.929
 178  1624.28
 179  1711.766
 180  1365.529
 181  1174.977
 182  1124.361
 183  882.3237
 184  1287.597
 185  1576.614
 186  1328.141
 187  1227.09
 188  1372.987
 189  1314.107
 190  1299.742
 191  1096.582
 192  1591.028
 193  1379.568
 194  1300.501
 195  1328.37
 196  1308.181
 197  1132.086
 198  1599.971
 199  1860.068
 200  1476.774
 201  995.2829
 202  1291.766
 203  1455.547
 204  1220.757
 205  1629.644
 206  1715.316
 207  1529.386
 208  1616.165
 209  1623.732
 210  1410.697
 211  1336.107
 212  1543.302
 213  1783.448
 214  1834.345
 215  1916.609
 216  1536.728
 217  1346.349
 218  1556.46
 219  1784.68
 220  1626.898
 221  1618.246
 222  1433.917
 223  1346.772
 224  1131.294
 225  1457.662
 226  1334.629
 227  1567.428
 228  1730.372
 229  1348.403
 230  1545.05
 231  1414.186
 232  1450.735
 233  1374.958
 234  1398.976
 235  1666.598
 236  1216.639
 237  1399.157
 238  1340.666
 239  1311.521
 240  1295.395
 241  1327.437
 242  1482.882
 243  1640.533
 244  1500.787
 245  1413.506
 246  1891.5
 247  1594.159
 248  1960.142
 249  1247.564
 250  924.7783
 251  1441.345
 252  1497.501
 253  1552.724
 254  1284.113
 255  1238.508
 256  1444.415
 257  1510.158
 258  1134.178
 259  1474.621
 260  1807.779
 261  1628.101
 262  1342.074
 263  1344.747
 264  1314.209
 265  1739.078
 266  1616.714
 267  1359.644
 268  1391.327
 269  1070.829
 270  783.1179
 271  1014.07
 272  1285.709
 273  1516.308
 274  1629.241
 275  1826.634
 276  1397.356
 277  1461.753
 278  1548.605
 279  1447.658
 280  1354.587
 281  1254.994
 282  1182.551
 283  1191.713
 284  1171.844
 285  1363.48
 286  1438.134
 287  1417.412
 288  1146.558
 289  1114.087
 290  1368.707
 291  1212.772
 292  1262.266
 293  1338.937
 294  1535.944
 295  1655.395
 296  1472.986
 297  1291.518
 298  1117.482
 299  1148.23
 300  1529.831
 301  1577.362
 302  1344.584
 303  1291.699
 304  1285.696
 305  1543.343
 306  1818.262
 307  2074.449
 308  1942.016
 309  2206.851
 310  2184.188
 311  2174.13
 312  2172.271
 313  2090.409
 314  1917.663
 315  1770.987
 316  1896.106
 317  1656.97
 318  1441.012
 319  1547.48
 320  1622.34
 321  1452.95
 322  1492.812
 323  1684.51
 324  1593.622
 325  1344.59
 326  1294.703
 327  1186.663
 328  1497.744
 329  1534.413
 330  1513.449
 331  1490.147
 332  1141.266
 333  1194.493
 334  1285.358
 335  968.0222
 336  1142.169
 337  1583.406
 338  1766.774
 339  1610.853
 340  1538.944
 341  1516.754
 342  1365.635
 343  1180.757
 344  1496.091
 345  1365.308
 346  1568.58
 347  1520.385
 348  1458.924
 349  1405.151
 350  1042.06
 351  1399.164
 352  1736.535
 353  1295.224
 354  1277.214
 355  1100.328
 356  1023.987
 357  966.0409
 358  968.3704
 359  1569.446
 360  1868.655
 361  1395.93
 362  947.3647
 363  1194.254
 364  1287.422
 365  1142.974
 366  1223.291
 367  1125.374
 368  1482.959
 369  964.2477
 370  1021.448
 371  1330.686
 372  1090.218
 373  1150.192
 374  1263.948
 375  962.8718
 376  743.5336
 377  782.1596
 378  1170.471
 379  981.7716
 380  960.4574
 381  1143.28
 382  1295.658
 383  855.315
 384  982.1555
 385  1007.58
 386  773.0203
 387  867.4297
 388  1219.686
 389  1449.558
 390  1592.269
 391  1190.774
 392  989.8125
 393  1103.143
 394  1524.942
 395  1606.186
 396  1366.933
 397  941.7735
 398  839.9361
 399  777.1194
 400  1087.056
 401  885.7997
 402  1090.04
 403  1497.918
 404  1150.475
 405  1167.615
 406  1023.016
 407  1251.751
 408  1248.455
 409  1192.673
 410  1275.374
 411  1326.909
 412  1379.036
 413  1414.749
 414  1214.619
 415  944.4628
 416  1049.918
 417  999.2593
 418  942.7254
 419  1317.491
 420  1638.788
 421  2039.411
 422  1603.997
 423  1487.133
 424  1251.504
 425  1023.591
 426  1047.438
 427  1291.975
 428  717.146
 429  821.5699
 430  1236.34
 431  1453.462
 432  1618.82
 433  1490.694
 434  1651.604
 435  1670.781
 436  1500.172
 437  1232.025
 438  984.1856
 439  1041.446
 440  1130.982
 441  1259.532
 442  1663.536
 443  1574.16
 444  1328.453
 445  1191.2
 446  1072.25
 447  894.4671
 448  992.6362
 449  1197.45
 450  1372.492
 451  1084.099
 452  862.4803
 453  1137.484
 454  1439.34
 455  1428.546
 456  1580.797
 457  1444.037
 458  1107.006
 459  1361.907
 460  1268.064
 461  1523.485
 462  1443.58
 463  1280.021
 464  1173.82
 465  963.2862
 466  1316.965
 467  1464.706
 468  1341.832
 469  1244.307
 470  986.4078
 471  1148.37
 472  1578.148
 473  1631.56
 474  1498.717
 475  1542.85
 476  1656.93
 477  1438.904
 478  1554.343
 479  1237.805
 480  1589.094
 481  1507.005
 482  1225.859
 483  921.6632
 484  1353.878
 485  1347.96
 486  1710.446
 487  1644.186
 488  1683.485
 489  2031.301
 490  1685.905
 491  1481.262
 492  1770.025
 493  1967.185
 494  1648.147
 495  1217.354
 496  935.3649
 497  1078.792
 498  1228.654
 499  1516.948
 500  1407.635
 501  1410.866
 502  1253.164
 503  1137.13
 504  940.1669
 505  1009.033
 506  1176.651
 507  1084.716
 508  1228.774
 509  1214.468
 510  1346.171
 511  1286.102
