# Input file       =  1197585260.104582_cleaned.dat
# Candidate        =  PSR_0332+5434
# Telescope        =  AR
# Epoch_topo       =  58104.940730377108
# Epoch_bary       =  N/A
# T_sample         =  0.002
# Data Folded      =  7340032
# Data Avg         =  0.144268066646223
# Data StdDev      =  3.7846681052033  
# Profile Bins     =  512
# Profile Avg      =  2068.2180929762  
# Profile StdDev   =  453.149803914294 
# Reduced chi-sqr  =  0.790
# Prob(Noise)      <  1   (~0.0 sigma)
# P_topo (ms)      =  714.543194755029  +/- 0.000179
# P'_topo (s/s)    =  -0                +/- 9.45e-11
# P''_topo (s/s^2) =  0                 +/- 4.17e-14
# P_bary (ms)      =  N/A
# P'_bary (s/s)    =  N/A
# P''_bary (s/s^2) =  N/A
# P_orb (s)        =  N/A
# asin(i)/c (s)    =  N/A
# eccentricity     =  N/A
# w (rad)          =  N/A
# T_peri           =  N/A
######################################################
   0  1809.688
   1  1690.511
   2  1906.248
   3  2240.044
   4  2194.393
   5  1952.667
   6  1973.648
   7  2310.621
   8  2143.015
   9  1569.254
  10  1907.654
  11  2255.123
  12  1824.781
  13  1997.475
  14  1992.667
  15  2041.625
  16  2250.719
  17  2332.207
  18  1777.837
  19  1659.846
  20  2053.892
  21  2123.919
  22  2168.658
  23  2389.048
  24  2030.243
  25  1900.998
  26  1673.823
  27  1835.901
  28  1978.71
  29  1887.86
  30  1890.402
  31  2165.241
  32  2149.808
  33  1935.191
  34  1603.953
  35  1575.052
  36  1849.702
  37  1615.354
  38  1531.746
  39  1607.872
  40  2189.341
  41  2289.526
  42  1998.657
  43  1819.119
  44  1765.735
  45  1629.054
  46  1479.323
  47  1772.166
  48  2169.45
  49  2182.813
  50  2007.901
  51  1964.626
  52  2409.344
  53  2322.285
  54  2380.136
  55  2234.407
  56  2055.147
  57  1972.355
  58  1972.226
  59  2059.757
  60  1961.309
  61  1938.358
  62  1986.674
  63  1968.059
  64  2038.732
  65  1818.795
  66  2215.83
  67  2283.616
  68  2371.387
  69  2478.113
  70  1981.493
  71  1836.221
  72  1918.019
  73  2145.57
  74  2080.963
  75  2116.374
  76  2252.101
  77  2136.239
  78  2087.463
  79  2124.029
  80  1960.8
  81  2016.151
  82  2061.004
  83  2214.094
  84  2155.034
  85  2112.954
  86  1774.63
  87  1866.298
  88  1991.784
  89  1873.706
  90  2283.901
  91  2448.675
  92  2028.286
  93  2068.899
  94  2256.076
  95  2140.652
  96  1888.709
  97  2115.524
  98  2355.535
  99  2264.568
 100  2279.251
 101  2157.778
 102  2151.495
 103  2116.667
 104  2142.738
 105  2090.227
 106  2468.196
 107  2190.282
 108  2177.844
 109  2097.296
 110  1928.184
 111  2423.906
 112  2287.855
 113  1953.414
 114  2025.594
 115  1938.462
 116  2335.804
 117  2135.744
 118  1893.385
 119  2283.234
 120  2323.113
 121  2099.176
 122  2283.014
 123  2508.099
 124  2186.294
 125  1898.395
 126  2072.454
 127  2519.072
 128  2255.422
 129  2243.659
 130  2380.897
 131  2590.98
 132  2717.233
 133  2386.961
 134  2116.214
 135  1840.164
 136  2017.011
 137  1960.127
 138  1721.199
 139  1750.991
 140  2299.358
 141  2405.919
 142  2455.231
 143  2484.954
 144  2211.518
 145  2396.073
 146  1893.813
 147  2291.399
 148  2310.131
 149  1949.964
 150  2021.707
 151  2160.83
 152  1898.801
 153  1858.689
 154  1620.801
 155  1815.54
 156  1911.697
 157  2016.112
 158  1913.369
 159  2152.738
 160  2403.3
 161  2348.158
 162  2031.758
 163  1631.052
 164  2148.725
 165  2260.272
 166  2001.729
 167  1963.573
 168  1858.723
 169  1775.834
 170  2022.094
 171  2330.367
 172  2151.269
 173  1978.114
 174  2399.103
 175  2713.834
 176  2535.536
 177  2209.126
 178  1973.6
 179  1699.648
 180  2108.215
 181  2359.691
 182  2177.438
 183  2119.146
 184  2207.147
 185  1940.72
 186  2032.04
 187  1935.69
 188  2066.675
 189  2013.831
 190  1942.971
 191  1866.558
 192  1450.496
 193  1906.436
 194  2168.134
 195  2397
 196  2390.536
 197  2061.41
 198  2019.908
 199  1825.029
 200  2076.093
 201  2181.811
 202  2246.49
 203  2076.25
 204  2090.47
 205  2153.363
 206  1948.894
 207  1829.493
 208  1871.742
 209  2198.048
 210  2635.881
 211  2319.186
 212  2406.812
 213  2324.396
 214  2093.755
 215  2356.913
 216  2256.084
 217  2013.653
 218  1981.133
 219  2073.175
 220  2121.627
 221  1698.654
 222  1934.095
 223  2038.159
 224  2308.197
 225  2221.987
 226  2233.844
 227  2173.971
 228  2241.968
 229  2309.546
 230  2438.1
 231  2610.521
 232  2354.235
 233  2134.333
 234  1929.436
 235  1690.546
 236  1660.667
 237  2109.973
 238  2665.704
 239  2813.849
 240  2634.634
 241  2408.653
 242  2245.925
 243  2252.834
 244  2782.432
 245  3518.294
 246  3312.18
 247  3273.867
 248  3162.238
 249  2833.195
 250  2392.698
 251  2074.437
 252  1972.427
 253  2050.729
 254  2329.826
 255  1959.397
 256  1878.722
 257  1608.442
 258  1568.165
 259  1684.021
 260  1772.766
 261  1719.133
 262  1888.312
 263  2019.142
 264  1919.07
 265  2056.68
 266  1784.048
 267  1975.032
 268  2191.285
 269  2366.386
 270  2136.909
 271  1888.89
 272  1907.616
 273  2047.443
 274  2160.277
 275  2040.863
 276  1883.099
 277  1969.824
 278  1978.915
 279  1705.166
 280  1758.001
 281  1860.093
 282  2219.412
 283  2021.292
 284  1650.17
 285  1922.86
 286  1657.402
 287  1381.3
 288  1891.843
 289  1730.936
 290  1871.42
 291  1658.995
 292  1478.419
 293  1710.811
 294  1701.082
 295  1630.904
 296  1874.136
 297  1968.208
 298  1984.738
 299  1684.967
 300  1456.056
 301  1749.143
 302  1774.695
 303  1768.448
 304  1833.965
 305  1834.295
 306  1724.548
 307  1517.31
 308  1484.351
 309  1886.983
 310  1886.996
 311  1808.594
 312  2154.512
 313  2145.2
 314  1955.837
 315  1819.998
 316  2213.613
 317  2386.746
 318  2223.344
 319  2013.021
 320  2313.344
 321  2078.739
 322  1938.749
 323  1738.029
 324  1550.946
 325  1983.277
 326  2302.484
 327  2172.086
 328  2032.613
 329  1950.837
 330  1938.929
 331  1610.311
 332  1713.056
 333  1861.213
 334  1828.525
 335  1672.413
 336  2142.511
 337  1988.275
 338  1948.295
 339  1850.53
 340  1648.932
 341  1577.66
 342  1925.613
 343  1834.334
 344  1711.43
 345  1903.572
 346  1824.817
 347  1471.252
 348  1489.922
 349  1927.813
 350  1820.828
 351  1587.425
 352  1248.558
 353  1690.423
 354  1880.807
 355  1894.214
 356  1946.17
 357  1914.229
 358  2117.589
 359  2101.123
 360  2117.564
 361  2295.26
 362  2007.42
 363  2237.783
 364  2461.962
 365  2371.151
 366  1975.236
 367  1851.218
 368  1913.135
 369  1739.698
 370  1843.209
 371  2107.794
 372  2507.02
 373  2350.553
 374  2046.865
 375  2035.83
 376  2048.768
 377  1951.511
 378  1693.603
 379  1699.311
 380  1639.653
 381  1723.055
 382  2086.992
 383  1920.297
 384  1687.651
 385  1933.175
 386  1846.098
 387  1743.443
 388  1878.929
 389  2060.715
 390  1901.325
 391  2082.061
 392  2020.763
 393  2065.389
 394  2217.824
 395  2366.364
 396  2110.098
 397  1662.083
 398  1951.073
 399  1679.154
 400  1915.374
 401  1804.916
 402  1915.871
 403  2308.008
 404  1936.05
 405  1684.421
 406  1873.107
 407  2432.414
 408  2263.066
 409  2474.566
 410  2275.336
 411  2003.916
 412  2092.252
 413  2168.698
 414  2094.199
 415  2142.893
 416  2166.093
 417  2399.529
 418  2377.138
 419  2054.359
 420  2066.396
 421  2139.46
 422  1783.577
 423  1848.675
 424  2497.299
 425  2442.531
 426  2140.171
 427  2498.336
 428  2885.155
 429  2685.431
 430  2485.523
 431  2386.183
 432  2546.884
 433  2679.338
 434  3003.506
 435  2824.84
 436  2568.095
 437  2149.857
 438  2064.61
 439  2133.587
 440  2591.009
 441  2431.088
 442  2340.101
 443  2211.442
 444  1787.119
 445  1967.635
 446  2363.38
 447  2301.416
 448  1909.272
 449  1815.752
 450  2431.056
 451  2121.114
 452  1900.548
 453  1811.913
 454  1957.231
 455  1959.77
 456  2095.23
 457  2108.117
 458  2039.242
 459  2359.784
 460  2359.26
 461  2707.057
 462  2824.913
 463  2485.457
 464  2454.546
 465  2329.692
 466  2309.286
 467  2378.541
 468  2553.066
 469  2433.49
 470  1994.87
 471  2357.823
 472  2458.77
 473  2088.988
 474  2077.757
 475  2076.75
 476  1794.819
 477  2027.24
 478  1980.187
 479  1985.43
 480  1746.851
 481  1834.023
 482  1868.187
 483  1918.618
 484  2089.949
 485  2143.144
 486  1887.824
 487  1835.333
 488  1642.276
 489  1727.954
 490  2189.295
 491  2299.846
 492  2127.789
 493  1789.539
 494  1959.931
 495  1941.381
 496  1800.058
 497  2154.871
 498  2119.389
 499  2143.888
 500  2114.158
 501  2059.814
 502  2125.016
 503  2407.651
 504  2192.972
 505  1953.808
 506  2121.312
 507  2161.482
 508  2007.154
 509  2149.094
 510  2236.648
 511  1823.269
