# Input file       =  1197052844.123184_cleaned.dat
# Candidate        =  PSR_0332+5434
# Telescope        =  AR
# Epoch_topo       =  58098.778508370182
# Epoch_bary       =  N/A
# T_sample         =  0.002
# Data Folded      =  7340032
# Data Avg         =  0.0574370177729787
# Data StdDev      =  1.00018148777514 
# Profile Bins     =  512
# Profile Avg      =  822.771141633012 
# Profile StdDev   =  119.754766459149 
# Reduced chi-sqr  =  0.740
# Prob(Noise)      <  1   (~0.0 sigma)
# P_topo (ms)      =  714.536703005238  +/- 7.68e-05
# P'_topo (s/s)    =  -0                +/- 4.05e-11
# P''_topo (s/s^2) =  0                 +/- 1.79e-14
# P_bary (ms)      =  N/A
# P'_bary (s/s)    =  N/A
# P''_bary (s/s^2) =  N/A
# P_orb (s)        =  N/A
# asin(i)/c (s)    =  N/A
# eccentricity     =  N/A
# w (rad)          =  N/A
# T_peri           =  N/A
######################################################
   0  932.4457
   1  864.819
   2  751.2112
   3  835.678
   4  923.2972
   5  840.491
   6  959.3191
   7  861.0122
   8  809.3943
   9  748.617
  10  832.07
  11  806.7549
  12  735.2697
  13  770.5844
  14  872.0499
  15  929.2725
  16  853.241
  17  828.6987
  18  810.792
  19  828.6101
  20  783.7462
  21  759.9273
  22  878.5561
  23  957.5765
  24  831.3323
  25  849.07
  26  840.462
  27  820.1016
  28  863.9165
  29  875.7136
  30  749.4829
  31  691.744
  32  708.3711
  33  680.2704
  34  750.9955
  35  856.6051
  36  962.5466
  37  823.9765
  38  779.8723
  39  816.5872
  40  799.2197
  41  851.183
  42  859.2601
  43  821.076
  44  904.6982
  45  930.8133
  46  862.8838
  47  888.74
  48  798.9353
  49  776.7934
  50  812.514
  51  736.6849
  52  692.4849
  53  716.985
  54  769.827
  55  727.0988
  56  776.2459
  57  802.5995
  58  821.0418
  59  756.8757
  60  799.6474
  61  828.4708
  62  749.1939
  63  827.1655
  64  830.4045
  65  879.7954
  66  770.6777
  67  687.6429
  68  728.7277
  69  766.6376
  70  823.7516
  71  784.4781
  72  878.3378
  73  847.2048
  74  805.199
  75  861.6995
  76  930.1486
  77  853.4122
  78  828.9807
  79  872.2136
  80  838.2308
  81  785.4358
  82  764.7734
  83  762.2272
  84  842.9723
  85  834.0853
  86  833.3509
  87  757.4856
  88  832.03
  89  837.3472
  90  752.3488
  91  725.745
  92  885.9178
  93  943.0375
  94  823.1658
  95  735.2017
  96  743.1218
  97  817.2759
  98  913.2239
  99  818.0815
 100  678.6758
 101  745.4699
 102  736.9426
 103  751.5743
 104  778.334
 105  797.0372
 106  746.4858
 107  899.6713
 108  795.2689
 109  622.1003
 110  623.3781
 111  738.9097
 112  812.1235
 113  761.545
 114  890.1409
 115  855.4117
 116  793.2919
 117  781.3987
 118  723.6533
 119  768.0273
 120  775.0858
 121  855.3571
 122  871.5154
 123  681.1659
 124  587.932
 125  691.1445
 126  794.5233
 127  713.0595
 128  742.0244
 129  776.3432
 130  800.934
 131  845.4152
 132  781.1631
 133  762.4435
 134  841.2313
 135  872.3476
 136  849.1473
 137  824.5722
 138  796.4379
 139  730.1731
 140  778.4678
 141  782.8981
 142  764.927
 143  879.4765
 144  847.5555
 145  832.8405
 146  762.6318
 147  740.4326
 148  675.194
 149  701.6714
 150  804.2876
 151  870.7361
 152  909.0681
 153  825.9099
 154  808.1635
 155  822.6443
 156  850.2245
 157  850.4484
 158  913.0087
 159  834.1041
 160  768.8072
 161  832.4758
 162  759.2732
 163  786.3273
 164  815.2686
 165  840.6561
 166  792.2678
 167  782.36
 168  757.3023
 169  818.3147
 170  825.5342
 171  825.3624
 172  901.4304
 173  831.2568
 174  691.486
 175  687.7066
 176  745.642
 177  786.6575
 178  755.7969
 179  781.6932
 180  782.642
 181  718.193
 182  689.1163
 183  770.661
 184  751.6404
 185  708.7028
 186  745.1573
 187  841.6666
 188  887.905
 189  865.3126
 190  776.089
 191  658.8286
 192  806.5715
 193  820.8657
 194  886.5845
 195  845.7973
 196  683.1212
 197  649.1151
 198  689.9451
 199  765.5143
 200  730.7408
 201  703.7577
 202  729.3367
 203  694.9612
 204  707.609
 205  629.5596
 206  613.4518
 207  714.2975
 208  802.1881
 209  787.9769
 210  723.3605
 211  773.6942
 212  707.9672
 213  636.9614
 214  754.6251
 215  797.5358
 216  783.6086
 217  789.3968
 218  730.6829
 219  796.6802
 220  746.9141
 221  815.2943
 222  865.463
 223  929.6978
 224  876.6928
 225  840.9217
 226  963.5497
 227  935.3095
 228  798.2351
 229  831.2311
 230  877.5324
 231  870.6152
 232  806.6338
 233  835.8154
 234  806.6044
 235  896.147
 236  871.6888
 237  872.6973
 238  884.4258
 239  946.4515
 240  968.0848
 241  905.495
 242  831.7133
 243  863.3865
 244  906.5446
 245  867.5475
 246  822.3398
 247  848.3911
 248  837.2731
 249  780.8242
 250  799.538
 251  919.9234
 252  861.9535
 253  900.9616
 254  922.8729
 255  979.6431
 256  1012.37
 257  992.3008
 258  1070.481
 259  992.7677
 260  842.8209
 261  809.7653
 262  767.4775
 263  643.4737
 264  735.2513
 265  836.8871
 266  827.9184
 267  679.7335
 268  705.1421
 269  859.3441
 270  865.4057
 271  854.5433
 272  870.0997
 273  896.8715
 274  916.6576
 275  825.9188
 276  835.9247
 277  817.074
 278  806.9913
 279  818.3577
 280  849.1074
 281  792.6714
 282  757.2959
 283  785.6686
 284  777.4925
 285  779.5605
 286  803.8938
 287  822.3395
 288  841.5503
 289  836.4913
 290  796.7338
 291  785.5942
 292  753.5974
 293  864.2362
 294  826.512
 295  730.9609
 296  740.1951
 297  754.0417
 298  829.6512
 299  839.176
 300  918.6193
 301  958.9655
 302  882.0731
 303  798.9338
 304  798.997
 305  890.5544
 306  789.3376
 307  846.632
 308  995.6035
 309  1000.517
 310  914.8568
 311  780.9736
 312  743.4363
 313  710.8113
 314  954.7585
 315  887.1178
 316  902.6746
 317  832.2025
 318  843.3193
 319  861.0612
 320  823.3331
 321  787.7181
 322  769.4821
 323  830.0544
 324  779.2729
 325  790.2068
 326  772.3827
 327  822.8259
 328  762.7961
 329  831.0146
 330  882.6606
 331  830.1567
 332  753.8047
 333  773.0856
 334  694.9386
 335  726.8747
 336  747.7346
 337  697.6204
 338  739.4493
 339  835.7645
 340  767.5997
 341  838.731
 342  848.7529
 343  941.8468
 344  838.4294
 345  819.9705
 346  899.8347
 347  883.3616
 348  898.133
 349  878.3557
 350  957.2009
 351  926.9034
 352  856.5784
 353  823.2378
 354  841.7974
 355  921.9708
 356  864.397
 357  906.6353
 358  878.9303
 359  825.7293
 360  803.4316
 361  839.4827
 362  840.0073
 363  794.8864
 364  821.1971
 365  845.2759
 366  850.0656
 367  768.9487
 368  828.7942
 369  857.675
 370  902.7951
 371  864.1101
 372  899.645
 373  872.6509
 374  956.0244
 375  1023.562
 376  992.7249
 377  880.7294
 378  929.1629
 379  984.6949
 380  998.2177
 381  929.6853
 382  881.4006
 383  845.7961
 384  809.9832
 385  865.5939
 386  929.4042
 387  905.733
 388  842.3712
 389  814.9243
 390  786.1892
 391  828.0126
 392  822.618
 393  819.5165
 394  911.8571
 395  920.1464
 396  926.7465
 397  765.0067
 398  747.2165
 399  835.674
 400  823.1812
 401  906.2242
 402  961.7048
 403  780.4127
 404  732.1125
 405  773.6791
 406  748.3428
 407  861.7448
 408  863.4143
 409  869.0735
 410  812.9587
 411  770.8217
 412  775.2354
 413  773.11
 414  809.8691
 415  826.5407
 416  747.8615
 417  784.0577
 418  861.9305
 419  995.1003
 420  895.6236
 421  795.6389
 422  845.0196
 423  895.4473
 424  889.8055
 425  844.8298
 426  882.7553
 427  808.459
 428  874.6915
 429  794.6167
 430  874.8253
 431  870.6339
 432  978.4559
 433  985.8188
 434  981.9387
 435  893.5191
 436  845.704
 437  893.8997
 438  875.4215
 439  787.0063
 440  788.3987
 441  869.6595
 442  738.7708
 443  746.5941
 444  720.9348
 445  753.8448
 446  853.3383
 447  774.516
 448  800.793
 449  776.3047
 450  718.877
 451  794.8821
 452  883.4793
 453  926.6607
 454  819.1924
 455  798.4247
 456  803.6437
 457  899.4911
 458  950.8942
 459  902.2993
 460  912.7332
 461  823.1634
 462  781.329
 463  780.4694
 464  825.9623
 465  790.5116
 466  852.6789
 467  897.624
 468  921.0369
 469  720.9052
 470  755.7117
 471  828.3972
 472  832.4617
 473  874.4286
 474  844.8007
 475  894.4484
 476  897.2698
 477  834.4072
 478  782.9037
 479  736.6354
 480  794.1486
 481  905.5494
 482  833.551
 483  921.8236
 484  908.1741
 485  866.1166
 486  876.1682
 487  855.2147
 488  919.6912
 489  885.041
 490  880.4426
 491  868.9058
 492  672.0426
 493  663.8022
 494  800.0031
 495  962.8779
 496  949.6874
 497  818.2146
 498  790.6423
 499  719.4471
 500  744.3636
 501  814.8092
 502  892.6339
 503  838.9692
 504  795.2238
 505  872.9866
 506  846.9954
 507  834.6473
 508  851.2024
 509  890.3723
 510  888.5784
 511  871.5234
