# Input file       =  1197986379.106846_cleaned.dat
# Candidate        =  PSR_0332+5434
# Telescope        =  AR
# Epoch_topo       =  58109.583311421833
# Epoch_bary       =  N/A
# T_sample         =  0.002
# Data Folded      =  7143424
# Data Avg         =  0.182903424235395
# Data StdDev      =  4.9738604505729  
# Profile Bins     =  1024
# Profile Avg      =  1275.93386104545 
# Profile StdDev   =  415.429021092232 
# Reduced chi-sqr  =  0.448
# Prob(Noise)      <  1   (~0.0 sigma)
# P_topo (ms)      =  714.547292758884  +/- 0.00105
# P'_topo (s/s)    =  -0                +/- 5.69e-10
# P''_topo (s/s^2) =  0                 +/- 2.58e-13
# P_bary (ms)      =  N/A
# P'_bary (s/s)    =  N/A
# P''_bary (s/s^2) =  N/A
# P_orb (s)        =  N/A
# asin(i)/c (s)    =  N/A
# eccentricity     =  N/A
# w (rad)          =  N/A
# T_peri           =  N/A
######################################################
   0  1501.95
   1  1334.818
   2  1173.039
   3  1279.669
   4  1550.308
   5  1520.357
   6  1484.476
   7  1178.526
   8  1179.739
   9  1398.004
  10  1447.391
  11  1416.926
  12  1265.844
  13  1210.327
  14  1182.514
  15  1062.995
  16  1069.994
  17  1048.489
  18  1238.678
  19  1341.693
  20  1160.891
  21  1077.851
  22  931.0404
  23  1161.184
  24  1215.228
  25  1204.552
  26  1251.222
  27  1192.356
  28  1213.133
  29  993.814
  30  919.2415
  31  1009.316
  32  891.0844
  33  891.6522
  34  909.283
  35  1069.442
  36  1119.67
  37  1166.717
  38  978.3791
  39  915.9577
  40  872.1054
  41  1063.411
  42  1168.619
  43  1149.248
  44  1216.211
  45  1268.913
  46  1188.73
  47  1204.683
  48  1202.943
  49  1179.987
  50  1032.691
  51  1060.506
  52  1168.779
  53  1164.782
  54  1049.64
  55  1011.417
  56  1046.125
  57  1235.858
  58  1389.576
  59  1391.615
  60  1294.738
  61  1270.668
  62  1293.736
  63  1120.198
  64  1225.903
  65  1200.952
  66  1350.743
  67  1178.939
  68  1371.416
  69  1497.646
  70  1565.374
  71  1298.311
  72  1186.008
  73  1131.475
  74  1349.376
  75  1316.253
  76  1193.995
  77  1090.071
  78  1201.958
  79  1258.247
  80  1297.387
  81  1188.437
  82  1239.677
  83  1216.768
  84  1270.521
  85  1252.014
  86  1234.022
  87  1191.069
  88  1231.388
  89  1205.892
  90  1045.702
  91  1149.585
  92  1092.718
  93  1110.47
  94  1033.144
  95  1101.762
  96  1061.799
  97  1088.068
  98  1135.566
  99  1392.258
 100  1381.454
 101  1434.539
 102  1440.204
 103  1367.81
 104  1282.817
 105  1346.748
 106  1254.79
 107  1218.833
 108  1047.085
 109  1279.273
 110  1294.948
 111  1210.589
 112  1209.761
 113  1302.321
 114  1252.462
 115  1148.206
 116  1073.9
 117  1246.31
 118  1199.036
 119  1349.562
 120  1260.944
 121  1120.123
 122  1085.332
 123  1206.273
 124  1303.184
 125  1154.14
 126  1193.674
 127  1284.091
 128  1180.205
 129  1313.998
 130  1272.003
 131  1259.175
 132  1178.087
 133  1099.83
 134  1252.542
 135  1108.184
 136  1104.232
 137  1081.329
 138  1169.162
 139  1158.868
 140  1236.843
 141  1198.644
 142  1255.354
 143  1214.823
 144  1315.641
 145  1388.762
 146  1227.024
 147  1134.574
 148  1130.174
 149  1135.945
 150  1083.162
 151  1210.271
 152  1321.568
 153  1357.638
 154  1234.713
 155  1155.812
 156  1206.186
 157  1227.762
 158  1270.526
 159  1318.311
 160  1323.067
 161  1328.627
 162  1431.212
 163  1301.699
 164  1325.083
 165  1317.424
 166  1517.152
 167  1693.818
 168  1457.356
 169  1420.084
 170  1427.402
 171  1234.353
 172  1265.595
 173  1135.023
 174  1319.521
 175  1356.416
 176  1255.537
 177  1251.633
 178  1055.567
 179  935.9699
 180  1025.248
 181  1212.529
 182  1273.753
 183  1250.801
 184  1280.899
 185  1285.19
 186  1258.517
 187  1248.317
 188  1321.945
 189  1375.311
 190  1245.451
 191  1294.191
 192  1250.567
 193  1155.134
 194  1044.402
 195  946.8962
 196  939.4346
 197  1009.645
 198  1136.26
 199  1442.878
 200  1399.873
 201  1116.011
 202  1102.147
 203  1239.034
 204  1309.016
 205  1510.36
 206  1536.201
 207  1571.839
 208  1350.075
 209  1283.001
 210  1430.718
 211  1319.213
 212  1361.028
 213  1437.535
 214  1399.082
 215  1258.907
 216  1095.266
 217  1093.193
 218  964.0048
 219  988.3213
 220  1031.719
 221  1227.334
 222  1288.639
 223  1343.516
 224  1472.708
 225  1359.034
 226  1265.288
 227  1302.573
 228  1168.118
 229  1094.933
 230  1040.19
 231  1002.854
 232  1143.482
 233  1029.725
 234  1102.434
 235  1153.934
 236  1032.6
 237  1112.29
 238  1162.967
 239  1284.074
 240  1356.66
 241  1416.495
 242  1535.694
 243  1532.217
 244  1289.596
 245  1389.125
 246  1327.857
 247  1304.394
 248  1094.594
 249  1184.876
 250  1168.947
 251  1054.803
 252  1008.211
 253  968.0071
 254  982.8928
 255  1125.855
 256  1237.725
 257  1270.858
 258  1165.721
 259  1312.695
 260  1471.089
 261  1314.564
 262  1283.062
 263  1143.932
 264  1219.931
 265  1288.458
 266  1329.653
 267  1249.364
 268  1212.135
 269  1229.378
 270  1381.612
 271  1360.25
 272  1369.656
 273  1393.273
 274  1302.445
 275  1320.863
 276  1294.581
 277  1479.038
 278  1421.608
 279  1246.327
 280  1145.122
 281  1266.138
 282  1232.038
 283  1265.712
 284  1344.977
 285  1501.905
 286  1377.404
 287  1263.923
 288  1359.854
 289  1404.395
 290  1289.034
 291  1334.246
 292  1511.583
 293  1380.687
 294  1144.55
 295  1289.416
 296  1399.324
 297  1349.488
 298  1245.827
 299  1478.157
 300  1642.09
 301  1515.121
 302  1474.041
 303  1352.976
 304  1136.163
 305  1232.848
 306  1395.981
 307  1458.8
 308  1429.929
 309  1302.761
 310  1321.237
 311  1167.813
 312  1114.224
 313  1234.832
 314  1323.714
 315  1356.822
 316  1246.195
 317  1269.93
 318  1131.233
 319  1115.647
 320  1192.991
 321  1179.41
 322  1150.609
 323  1102.97
 324  1273.324
 325  1272.307
 326  1100.61
 327  1138.196
 328  1206.275
 329  1220.462
 330  1162.747
 331  1092.863
 332  1120.587
 333  1139.182
 334  1211.728
 335  1228.672
 336  1190.812
 337  1118.197
 338  1211.933
 339  1199.423
 340  1292.38
 341  1345.253
 342  1356.881
 343  1275.299
 344  1022.808
 345  1085.809
 346  1133.181
 347  1273.27
 348  1248.656
 349  1376.76
 350  1386.289
 351  1235.858
 352  1223.1
 353  1260.685
 354  1379.91
 355  1403.669
 356  1282.133
 357  1230.968
 358  1006.136
 359  1144.132
 360  1227.599
 361  1142.634
 362  1022.338
 363  1133.45
 364  1086.297
 365  1094.806
 366  1056.805
 367  1161.377
 368  1134.742
 369  980.5335
 370  1130.457
 371  1196.144
 372  1081.273
 373  1010.925
 374  1032.518
 375  1186.31
 376  1076.866
 377  1026.614
 378  1200.416
 379  1197.726
 380  1179.853
 381  1269.617
 382  1215.17
 383  1095.763
 384  977.504
 385  1260.261
 386  1254.386
 387  1224.355
 388  1307.672
 389  1289.044
 390  1351.009
 391  1211.46
 392  1240.777
 393  1166.319
 394  988.585
 395  1165.284
 396  1335.215
 397  1379.568
 398  1317.378
 399  1056.432
 400  1138.475
 401  1139.094
 402  1159.847
 403  1143.115
 404  1048.119
 405  1093.775
 406  1356.184
 407  1403.63
 408  1456.126
 409  1302.553
 410  1323.477
 411  1301.048
 412  1216.021
 413  1153.905
 414  1175.531
 415  1124.463
 416  1114.09
 417  1248.173
 418  1207.625
 419  1069.829
 420  1002.72
 421  988.5277
 422  1183.426
 423  1285.858
 424  1426.668
 425  1420.17
 426  1289.467
 427  1227.029
 428  1402.879
 429  1278.317
 430  1246.67
 431  1155.565
 432  1175.927
 433  1199.183
 434  1039.977
 435  1175.424
 436  1259.257
 437  1327.82
 438  1535.927
 439  1509.171
 440  1409.118
 441  1364.401
 442  1316.439
 443  1397.537
 444  1259.309
 445  1180.578
 446  1209.019
 447  1280.967
 448  1276.136
 449  1380.577
 450  1419.357
 451  1453.178
 452  1435.295
 453  1536.808
 454  1365.303
 455  1335.257
 456  1255.627
 457  1301.181
 458  1242.418
 459  1036.942
 460  1270.232
 461  1440.445
 462  1440.765
 463  1388.702
 464  1253.551
 465  1206.883
 466  1257.569
 467  1128.288
 468  1346.307
 469  1269.662
 470  1393.218
 471  1422.4
 472  1266.69
 473  1292.59
 474  1303.12
 475  1344.909
 476  1303.338
 477  1378.74
 478  1467.912
 479  1463.503
 480  1329.454
 481  1259.19
 482  1229.753
 483  1247.701
 484  1192.192
 485  1313.557
 486  1279.573
 487  1374.41
 488  1407.307
 489  1290.302
 490  1238.5
 491  1158.433
 492  1347.86
 493  1378.408
 494  1216.768
 495  1231.533
 496  1402.363
 497  1421.337
 498  1472.203
 499  1449.053
 500  1331.327
 501  1267.868
 502  1154.088
 503  1448.763
 504  1440.448
 505  1354.237
 506  1335.742
 507  1134.964
 508  1145.704
 509  1061.138
 510  1036.23
 511  995.8009
 512  1002.108
 513  1142.157
 514  1217.009
 515  1206.652
 516  1244.668
 517  1273.478
 518  1364.089
 519  1347.728
 520  1308.255
 521  1321.654
 522  1235.382
 523  1194.51
 524  1121.79
 525  1066.506
 526  1082.728
 527  1117.55
 528  1319.17
 529  1328.512
 530  1194.956
 531  1374.113
 532  1489.257
 533  1527.138
 534  1272.985
 535  1187.277
 536  1326.133
 537  1351.586
 538  1300.749
 539  1456.541
 540  1371.152
 541  1452.966
 542  1281.034
 543  1283.117
 544  1203.775
 545  1229.605
 546  1392.516
 547  1352.358
 548  1309.461
 549  1382.191
 550  1446.006
 551  1356.35
 552  1324.346
 553  1474.168
 554  1400.666
 555  1342.385
 556  1383.958
 557  1441.731
 558  1454.345
 559  1508.282
 560  1525.079
 561  1453.555
 562  1179.937
 563  1284.867
 564  1354.635
 565  1138.39
 566  1178.858
 567  1186.574
 568  1460.173
 569  1384.063
 570  1414.882
 571  1558
 572  1656.039
 573  1558.595
 574  1442.441
 575  1292.832
 576  1457.008
 577  1371.282
 578  1414.281
 579  1287.286
 580  1293.449
 581  1301.702
 582  1228.135
 583  1129.705
 584  1093.673
 585  1250.659
 586  1539.917
 587  1479.965
 588  1493.715
 589  1404.185
 590  1334.277
 591  1449.621
 592  1322.56
 593  1338.231
 594  1308.36
 595  1336.463
 596  1539.285
 597  1457.035
 598  1554.034
 599  1644.778
 600  1651.48
 601  1569.29
 602  1454.365
 603  1510.051
 604  1635.203
 605  1591.548
 606  1592.264
 607  1587.452
 608  1574.216
 609  1618.935
 610  1617.801
 611  1637.431
 612  1607.966
 613  1603.631
 614  1604.314
 615  1441.34
 616  1362.248
 617  1396.331
 618  1543.359
 619  1502.473
 620  1543.176
 621  1774.891
 622  1744.361
 623  1672.074
 624  1712.046
 625  1770.538
 626  1753.655
 627  1548.539
 628  1488.412
 629  1529.12
 630  1312.242
 631  1361.714
 632  1239.679
 633  1263.569
 634  1276.365
 635  1373.489
 636  1505.572
 637  1372.949
 638  1350.643
 639  1392.728
 640  1477.291
 641  1494.569
 642  1555.41
 643  1614.06
 644  1523.79
 645  1407.098
 646  1409.936
 647  1353.931
 648  1240.414
 649  1093.722
 650  1127.732
 651  1276.957
 652  1286.911
 653  1296.781
 654  1356.783
 655  1242.075
 656  1336.012
 657  1181.179
 658  1150.238
 659  1268.934
 660  1266.548
 661  1344.706
 662  1174.106
 663  1273.479
 664  1522.612
 665  1452.887
 666  1307.915
 667  1157.867
 668  1105.137
 669  1125.572
 670  1123.233
 671  1176.445
 672  1188.205
 673  1106.419
 674  1083.633
 675  972.1065
 676  929.6986
 677  1102.375
 678  1378.129
 679  1245.678
 680  1063.32
 681  863.1137
 682  1026.773
 683  1129.403
 684  1047.578
 685  977.1389
 686  1094.683
 687  1125.396
 688  1138.689
 689  1258.536
 690  1229.714
 691  1355.939
 692  1314.898
 693  1314.408
 694  1152.902
 695  1027.913
 696  1302.491
 697  1385.306
 698  1084.409
 699  1067.551
 700  1107.105
 701  1106.274
 702  922.0514
 703  955.6776
 704  1231.625
 705  1203.727
 706  1174.371
 707  1222.954
 708  1147.734
 709  1044.592
 710  1104.004
 711  1194.212
 712  1099.521
 713  1138.215
 714  1150.352
 715  1071.135
 716  928.8216
 717  959.5657
 718  1127.813
 719  1193.005
 720  1175.499
 721  1303.063
 722  1148.824
 723  1074.226
 724  1187.892
 725  1173.579
 726  1170.943
 727  1080.601
 728  1274.425
 729  1391.074
 730  986.9158
 731  842.7316
 732  1031.867
 733  940.6208
 734  935.9062
 735  1026.879
 736  1353.876
 737  1578.209
 738  1483.036
 739  1439.732
 740  1389
 741  1418.626
 742  1530.876
 743  1407.69
 744  1281.247
 745  1174.883
 746  1237.564
 747  1255.351
 748  1268.809
 749  1308.019
 750  1347.371
 751  1363.834
 752  1336.158
 753  1492.696
 754  1682.593
 755  1606.424
 756  1657.852
 757  1584.621
 758  1368.679
 759  1236.241
 760  1246.967
 761  1453.944
 762  1450.272
 763  1283.807
 764  1272.427
 765  1299.327
 766  1325.652
 767  1370.541
 768  1219.74
 769  1306.849
 770  1099.853
 771  1000.446
 772  1041.6
 773  1082.416
 774  1150.891
 775  1254.359
 776  1291.451
 777  1311.51
 778  1387.205
 779  1604.285
 780  1578.112
 781  1433.069
 782  1353.65
 783  1410.477
 784  1543.887
 785  1390.745
 786  1341.986
 787  1326.922
 788  1336.216
 789  1385.265
 790  1266.121
 791  1260.773
 792  1309.336
 793  1436.612
 794  1473.41
 795  1259.768
 796  1150.968
 797  1220.893
 798  1165.175
 799  1238.499
 800  1343.978
 801  1427.53
 802  1329.624
 803  1345.712
 804  1396.474
 805  1453.901
 806  1272.425
 807  1358.724
 808  1372.979
 809  1310.709
 810  1201.954
 811  1383.754
 812  1432.155
 813  1396.279
 814  1336.654
 815  1474.896
 816  1506.546
 817  1414.902
 818  1347.287
 819  1366.992
 820  1303.114
 821  1323.039
 822  1308.845
 823  1341.774
 824  1439.4
 825  1430.63
 826  1375.923
 827  1280.849
 828  1162.092
 829  1304.039
 830  1348.518
 831  1433.747
 832  1396.589
 833  1475.122
 834  1457.774
 835  1495.294
 836  1477.231
 837  1383.919
 838  1189.668
 839  1256.832
 840  1374.749
 841  1291.768
 842  1194.456
 843  1218.578
 844  1434.548
 845  1394.848
 846  1447.329
 847  1402.741
 848  1445.706
 849  1314.303
 850  1289.535
 851  1179.952
 852  1314.721
 853  1196.336
 854  1313.249
 855  1151.83
 856  1055.114
 857  1164.639
 858  1163.749
 859  1256.421
 860  1186.318
 861  1196.238
 862  1108.431
 863  1027.511
 864  983.4606
 865  1131.221
 866  1131.18
 867  1284.423
 868  1278.25
 869  1301.665
 870  1226.974
 871  1069.332
 872  976.3279
 873  909.7557
 874  969.7827
 875  1175.81
 876  1173.495
 877  1122.875
 878  997.5
 879  1121.606
 880  1132.66
 881  1139.059
 882  1162.664
 883  1333.371
 884  1423.824
 885  1388.195
 886  1428.369
 887  1497.542
 888  1272.939
 889  1052.92
 890  1013.43
 891  984.0236
 892  1157.173
 893  1255.987
 894  1416.865
 895  1315.797
 896  1272.791
 897  1277.476
 898  1285.77
 899  1191.551
 900  1300.222
 901  1388.448
 902  1322.178
 903  1357.155
 904  1404.251
 905  1475.495
 906  1382.82
 907  1378.988
 908  1400.728
 909  1351.493
 910  1220.52
 911  1269.778
 912  1307.428
 913  1307.892
 914  1338.771
 915  1315.482
 916  1356.294
 917  1424.112
 918  1396.018
 919  1224.819
 920  1108.151
 921  1087.1
 922  1441.8
 923  1466.371
 924  1393.087
 925  1443.058
 926  1381.97
 927  1385.791
 928  1247.011
 929  1195.757
 930  1440.379
 931  1429.829
 932  1507.596
 933  1460.075
 934  1320.92
 935  1284.296
 936  1298.119
 937  1276.537
 938  1243.308
 939  1278.23
 940  1327.008
 941  1415.544
 942  1322.545
 943  1357.287
 944  1411.652
 945  1352.306
 946  1357.052
 947  1350.859
 948  1279.313
 949  1247.245
 950  1280.33
 951  1341.803
 952  1267.577
 953  1177.821
 954  1287.845
 955  1354.04
 956  1179.187
 957  1261.537
 958  1257.653
 959  1144.294
 960  1144.059
 961  1220.062
 962  1316.573
 963  1355.652
 964  1228.895
 965  1337.548
 966  1221.686
 967  1232.739
 968  1283.226
 969  1286.789
 970  1198.454
 971  1326.711
 972  1357.452
 973  1334.356
 974  1193.34
 975  1171.076
 976  1182.552
 977  1294.874
 978  1331.098
 979  1398.366
 980  1223.388
 981  1228.248
 982  1393.656
 983  1445.836
 984  1424.798
 985  1465.961
 986  1410.771
 987  1559.015
 988  1316.309
 989  1146.307
 990  1258.784
 991  1274.843
 992  1413.414
 993  1494.659
 994  1512.971
 995  1484.256
 996  1268.554
 997  1303.372
 998  1412.34
 999  1360.334
1000  1516.185
1001  1395.318
1002  1283.845
1003  1249.289
1004  1340.696
1005  1360.317
1006  1338.217
1007  1260.462
1008  1471.754
1009  1708.242
1010  1740.294
1011  1575.838
1012  1509.098
1013  1353.017
1014  1384.132
1015  1322.999
1016  1369.918
1017  1179.25
1018  1246.696
1019  1303.182
1020  1315.459
1021  1128.512
1022  1263.187
1023  1523.608
