# Input file       =  1197570344.120679_cleaned.dat
# Candidate        =  PSR_0332+5434
# Telescope        =  AR
# Epoch_topo       =  58104.768091674523
# Epoch_bary       =  N/A
# T_sample         =  0.002
# Data Folded      =  7340032
# Data Avg         =  0.163015067801878
# Data StdDev      =  4.28140493535002 
# Profile Bins     =  512
# Profile Avg      =  2336.95006707206 
# Profile StdDev   =  512.625612867929 
# Reduced chi-sqr  =  0.540
# Prob(Noise)      <  1   (~0.0 sigma)
# P_topo (ms)      =  714.542684073616  +/- 0.000393
# P'_topo (s/s)    =  -0                +/- 2.07e-10
# P''_topo (s/s^2) =  0                 +/- 9.15e-14
# P_bary (ms)      =  N/A
# P'_bary (s/s)    =  N/A
# P''_bary (s/s^2) =  N/A
# P_orb (s)        =  N/A
# asin(i)/c (s)    =  N/A
# eccentricity     =  N/A
# w (rad)          =  N/A
# T_peri           =  N/A
######################################################
   0  2933.49
   1  2308.979
   2  2186.175
   3  2113.28
   4  2140.167
   5  1813.905
   6  2514.706
   7  2518.72
   8  2299.573
   9  2390.879
  10  2332.461
  11  2103.454
  12  2137.827
  13  2454.947
  14  2378.893
  15  2290.997
  16  2161.267
  17  2397.03
  18  2311.398
  19  2304.535
  20  2655.852
  21  2729.587
  22  2524.251
  23  2313.879
  24  2189.575
  25  2442.733
  26  2462.858
  27  2495.378
  28  2501.282
  29  2429.385
  30  2283.408
  31  2600.805
  32  2809.926
  33  2777.673
  34  2262.219
  35  2231.546
  36  2523.889
  37  2159.435
  38  1945.46
  39  2237.481
  40  2321.118
  41  2470.539
  42  2384.192
  43  2315.096
  44  2537.615
  45  2665.918
  46  2547.198
  47  2490.507
  48  2341.054
  49  2742.164
  50  2515.4
  51  2366.613
  52  2389.188
  53  2771.009
  54  2884.536
  55  2755.572
  56  2503.064
  57  2214.838
  58  2084.899
  59  1908.9
  60  1706.373
  61  2004.925
  62  2222.009
  63  2325.552
  64  1834.063
  65  1940.018
  66  2036.474
  67  2032.813
  68  1626.967
  69  1810.543
  70  2119.795
  71  2438.7
  72  2528.739
  73  2393.892
  74  2531.846
  75  2391.136
  76  2226.285
  77  2120.347
  78  1876.342
  79  1925.039
  80  1823.482
  81  2036.93
  82  2222.838
  83  2063.638
  84  1969.699
  85  2649.675
  86  2558.322
  87  2158.665
  88  2151.577
  89  2664.225
  90  2514.171
  91  2368.877
  92  2224.645
  93  2397.572
  94  2833.669
  95  2608.548
  96  2217.683
  97  2322.051
  98  2371.253
  99  2313.843
 100  2324.56
 101  2265.414
 102  2356.288
 103  2437.915
 104  2471.63
 105  2840.239
 106  2288.369
 107  2567.75
 108  2325.985
 109  2379.143
 110  2250.481
 111  2153.566
 112  2303.015
 113  2135.949
 114  2156.085
 115  2150.279
 116  2167.103
 117  2489.212
 118  2299.945
 119  2209.617
 120  2350.04
 121  2201.749
 122  2282.842
 123  2064.965
 124  2460.573
 125  2231.606
 126  2242.322
 127  2691.566
 128  2598.551
 129  2611.715
 130  2347.462
 131  2192.175
 132  1963.364
 133  2141.65
 134  2285.457
 135  2211.308
 136  2330.988
 137  2520.73
 138  2520.476
 139  2598.76
 140  2488.694
 141  2501.338
 142  2499.357
 143  1996.718
 144  2041.997
 145  2060.106
 146  2235.524
 147  2285.098
 148  1848.046
 149  1903.834
 150  2270.875
 151  2146.961
 152  2028.085
 153  2159.353
 154  2070.737
 155  2060.144
 156  1964.682
 157  2128.401
 158  1953.686
 159  2101.044
 160  2103.551
 161  2240.869
 162  2185.086
 163  1975.942
 164  1768.368
 165  2231.414
 166  2709.907
 167  2464.964
 168  2755.409
 169  2719.947
 170  2613.907
 171  2404.859
 172  2392.721
 173  2316.77
 174  2352.586
 175  2165.365
 176  2064.377
 177  2204.918
 178  2070.08
 179  2481.29
 180  2322.195
 181  2337.699
 182  2662.831
 183  2825.344
 184  2586.336
 185  2312.959
 186  2329.979
 187  2245.134
 188  2393.085
 189  2915.666
 190  2852.575
 191  2573.414
 192  2447.398
 193  2484.865
 194  2396.868
 195  2436.261
 196  2681.793
 197  2532.496
 198  2148.447
 199  2202.901
 200  2137.81
 201  2073.024
 202  1854.585
 203  1732.16
 204  1837.911
 205  2143.718
 206  1947.338
 207  1891.562
 208  1781.176
 209  2193.353
 210  2190.097
 211  2250.516
 212  2002.759
 213  2005.005
 214  2416.116
 215  2313.318
 216  2315.876
 217  2074.48
 218  2168.129
 219  2366.014
 220  2217.852
 221  1840.506
 222  1837.167
 223  2203.071
 224  2394.716
 225  2216.689
 226  2152.416
 227  1872.648
 228  2047.904
 229  1844
 230  1791.76
 231  1920.118
 232  1851.726
 233  2128.705
 234  2157.511
 235  2226.211
 236  2334.752
 237  2309.252
 238  2267.44
 239  2333.648
 240  2399.993
 241  2404.505
 242  2813.466
 243  2760.411
 244  2754.518
 245  2562.252
 246  2376.942
 247  2663.115
 248  2530.56
 249  2177.521
 250  2325.452
 251  2285.469
 252  2258.044
 253  2208.589
 254  2235.858
 255  2312.708
 256  2204.162
 257  2183.157
 258  2104.411
 259  2201.259
 260  2488.251
 261  2258.756
 262  2506.768
 263  2481.945
 264  2445.333
 265  2267.299
 266  2361.594
 267  2461.75
 268  1994.591
 269  1994.057
 270  2268.937
 271  2405.082
 272  2362.053
 273  1975.516
 274  2429.681
 275  2624.168
 276  2550.646
 277  2189.319
 278  2028.085
 279  1957.334
 280  1794.838
 281  2037.96
 282  2262.325
 283  2363.638
 284  2315.426
 285  2070.68
 286  2484.759
 287  2262.697
 288  2295.738
 289  2539.097
 290  2658.792
 291  2784.137
 292  2470.021
 293  2421.633
 294  2481.104
 295  2284.464
 296  2278.587
 297  2452.236
 298  2396.203
 299  2237.87
 300  2156.96
 301  1887.725
 302  1939.611
 303  2265.959
 304  2254.91
 305  2067.425
 306  2610.685
 307  2341.024
 308  2103.897
 309  2578.132
 310  3185.153
 311  3551.33
 312  3542.884
 313  3826.641
 314  3460.184
 315  3067.906
 316  3011.489
 317  2992.301
 318  2799.343
 319  2668.61
 320  2386.269
 321  1994.913
 322  2176.325
 323  2099.926
 324  2282.365
 325  2656.03
 326  2730.949
 327  2330.453
 328  2656.13
 329  2488.345
 330  2369.932
 331  2471.133
 332  2605.359
 333  2588.687
 334  2348.682
 335  2648.09
 336  2865.44
 337  2745.502
 338  2453.1
 339  2503.34
 340  2658.806
 341  2363.724
 342  2392.834
 343  2585.034
 344  2667.027
 345  2344.917
 346  2521.247
 347  2571.836
 348  2424.273
 349  2169.781
 350  2356.914
 351  2151.547
 352  2103.548
 353  2005.665
 354  2018.214
 355  2109.4
 356  2456.397
 357  2504.315
 358  2470.488
 359  2258.201
 360  2241.775
 361  2347.421
 362  2534.583
 363  2187.977
 364  2219.988
 365  2594.147
 366  2589.672
 367  2725.952
 368  2545.395
 369  2445.69
 370  2132.962
 371  2488.202
 372  2300.297
 373  2129.969
 374  2253.849
 375  2219.273
 376  2537.284
 377  2256.616
 378  2137.117
 379  2067.016
 380  2296.731
 381  2311.132
 382  2085.658
 383  2068.247
 384  1981.384
 385  2221.627
 386  2243.831
 387  2494.71
 388  2373.1
 389  2024.66
 390  2014.144
 391  2234.666
 392  2512.133
 393  2305.408
 394  2237.252
 395  2249.984
 396  2529.508
 397  2866.051
 398  2789.973
 399  2730.495
 400  2431.768
 401  2219.677
 402  2129.095
 403  1952.679
 404  2273.097
 405  2771.955
 406  2563.412
 407  2313.258
 408  2566.952
 409  2271.546
 410  2609.948
 411  2458.605
 412  2423.82
 413  2487.52
 414  2431.803
 415  2366.048
 416  2108.753
 417  2361.732
 418  2504.714
 419  2535.208
 420  2641.191
 421  2717.962
 422  1962.562
 423  2393.424
 424  2380.397
 425  2188.083
 426  2261.693
 427  1992.92
 428  2084.096
 429  1935.757
 430  2204.871
 431  2461.846
 432  2488.432
 433  2480.195
 434  2633.425
 435  2360.582
 436  1968.326
 437  2003.021
 438  2233.452
 439  2293.921
 440  2417.701
 441  2316.632
 442  2118.475
 443  2186.184
 444  2159.848
 445  2485.152
 446  2507.974
 447  2293.722
 448  2489.936
 449  2343.541
 450  2489.201
 451  2770.154
 452  2815.63
 453  2418.056
 454  2130.423
 455  2282.153
 456  2149.712
 457  2475.127
 458  2591.858
 459  2188.429
 460  2384.411
 461  2175.403
 462  2339.444
 463  2204.308
 464  2607.54
 465  2475.84
 466  2387.814
 467  2101.662
 468  2357.044
 469  2507.781
 470  2523.944
 471  2520.938
 472  2325.67
 473  2406.813
 474  2170.456
 475  2248.201
 476  2814.358
 477  2644.278
 478  2521.411
 479  2063.884
 480  2607.771
 481  2438.953
 482  2319.733
 483  2402.529
 484  2508.354
 485  2249.682
 486  2169.156
 487  2080.265
 488  1862.335
 489  1809.325
 490  1989.508
 491  2249.315
 492  2141.21
 493  2100.063
 494  2133.886
 495  2333.086
 496  2580.225
 497  2664.403
 498  2397.865
 499  2479.676
 500  2337.275
 501  2209.731
 502  2359.08
 503  2350.852
 504  2145.598
 505  2547.295
 506  2302.737
 507  2430.549
 508  2276.439
 509  2298.581
 510  2566.401
 511  3057.677
