# Input file       =  1197555195.115929_cleaned.dat
# Candidate        =  PSR_0332+5434
# Telescope        =  AR
# Epoch_topo       =  58104.592755971396
# Epoch_bary       =  N/A
# T_sample         =  0.002
# Data Folded      =  7405568
# Data Avg         =  0.265503965853919
# Data StdDev      =  4.08994524575852 
# Profile Bins     =  1024
# Profile Avg      =  1920.12873744934 
# Profile StdDev   =  347.813714628111 
# Reduced chi-sqr  =  0.803
# Prob(Noise)      <  1   (~0.0 sigma)
# P_topo (ms)      =  714.542488800939  +/- 7.39e-05
# P'_topo (s/s)    =  -0                +/- 3.86e-11
# P''_topo (s/s^2) =  0                 +/- 1.69e-14
# P_bary (ms)      =  N/A
# P'_bary (s/s)    =  N/A
# P''_bary (s/s^2) =  N/A
# P_orb (s)        =  N/A
# asin(i)/c (s)    =  N/A
# eccentricity     =  N/A
# w (rad)          =  N/A
# T_peri           =  N/A
######################################################
   0  1863.676
   1  1958.073
   2  1909.075
   3  1859.982
   4  1930.814
   5  1916.842
   6  1891.624
   7  1915.933
   8  1924.028
   9  2104.825
  10  2072.323
  11  1972.89
  12  1912.49
  13  1823.473
  14  1658.73
  15  1758.146
  16  1934.849
  17  2028.66
  18  2015.349
  19  2063.171
  20  2064.823
  21  1755.395
  22  1764.539
  23  1735.285
  24  1812.238
  25  1878.318
  26  1981.83
  27  1861.781
  28  1778.878
  29  1948.488
  30  1963.305
  31  1852.032
  32  1875.387
  33  1875.057
  34  1824.764
  35  1621.428
  36  1782.285
  37  1838.839
  38  1862.136
  39  1937.473
  40  2066.38
  41  2099.343
  42  2095.46
  43  2006.216
  44  2002.025
  45  1891.494
  46  1785.714
  47  1826.152
  48  1946.209
  49  2007.473
  50  1839.358
  51  1799.25
  52  1982.329
  53  2039.227
  54  2127.437
  55  2198.551
  56  2152.414
  57  2134.47
  58  2046.136
  59  1933.391
  60  1704.279
  61  1782.859
  62  1963.769
  63  2023.103
  64  2042.676
  65  2024.812
  66  1916.3
  67  1697.064
  68  1759.395
  69  1984.485
  70  1920.662
  71  1903.435
  72  1954.111
  73  2052.925
  74  2057.018
  75  2060.431
  76  2018.094
  77  1994.028
  78  1988.581
  79  2072.789
  80  2164.513
  81  1986.536
  82  1843.345
  83  1812.024
  84  1912.051
  85  1997.897
  86  1903.405
  87  1987.068
  88  1912.878
  89  1822.936
  90  2053.386
  91  2217.198
  92  2196.81
  93  2085.559
  94  2082.695
  95  2075.57
  96  1744.843
  97  1634.995
  98  1620.327
  99  1562.433
 100  1468.455
 101  1617.409
 102  1736.737
 103  1937.432
 104  1993.559
 105  1999.552
 106  2112.515
 107  2095.362
 108  1890.239
 109  1645.395
 110  1513.322
 111  1553.944
 112  1521.082
 113  1446.599
 114  1555.138
 115  1588.952
 116  1794.375
 117  1916.271
 118  1925.552
 119  2030.564
 120  1965.178
 121  1743.396
 122  1772.631
 123  2004.272
 124  2120.961
 125  1958.795
 126  1734.635
 127  1657.78
 128  1602.034
 129  1681.015
 130  1827.242
 131  1801.133
 132  1861.374
 133  2051.769
 134  2004.25
 135  1881.819
 136  1765.245
 137  1803.142
 138  1885.856
 139  1847.987
 140  1878.219
 141  1754.788
 142  1874.799
 143  1835.564
 144  1768.82
 145  1769.091
 146  1757.624
 147  1674.35
 148  1592.801
 149  1638.986
 150  1738.09
 151  1811.521
 152  1975.258
 153  2082.626
 154  2171.263
 155  2137.743
 156  2093.105
 157  2110.25
 158  2149.275
 159  2218.5
 160  2228.946
 161  2025.776
 162  1860.642
 163  1811.052
 164  1780.218
 165  1807.315
 166  1807.654
 167  1761.239
 168  1936.703
 169  2018.665
 170  1941.737
 171  1871.065
 172  1873.477
 173  2001.141
 174  1972.226
 175  1958.391
 176  1917.036
 177  1783.757
 178  1646.776
 179  1672.239
 180  1721.217
 181  2035.162
 182  2085.76
 183  1916.663
 184  1828.745
 185  1862.299
 186  1973.652
 187  2011.719
 188  2174.104
 189  2200.37
 190  2037.352
 191  1843.317
 192  1786.612
 193  1646.814
 194  1614.777
 195  1630.819
 196  1649.467
 197  1582.12
 198  1759.415
 199  1785.738
 200  1922.75
 201  1907.187
 202  1990.624
 203  1924.714
 204  1852.01
 205  1801.378
 206  1788.687
 207  1731.064
 208  1763.744
 209  1766.904
 210  1872.259
 211  1875.394
 212  1774.074
 213  1827.041
 214  1843.573
 215  1741.335
 216  1710.966
 217  1902.198
 218  1930.037
 219  1890.504
 220  1808.064
 221  1886.53
 222  1784.611
 223  1690.552
 224  1825.774
 225  2001.699
 226  1902.878
 227  1828.591
 228  1806.675
 229  1751.268
 230  1807.415
 231  1891.613
 232  1837.776
 233  1716.19
 234  1645.224
 235  1789.891
 236  1893.907
 237  1957.177
 238  2097.639
 239  2019.89
 240  2040.408
 241  1965.855
 242  1908.112
 243  1838.294
 244  1675.572
 245  1690.481
 246  1880.484
 247  1859.434
 248  1679.314
 249  1625.004
 250  1678.702
 251  1575.241
 252  1511.568
 253  1521.183
 254  1438.392
 255  1455.145
 256  1655.443
 257  1826.463
 258  1729.053
 259  1675.009
 260  1816.357
 261  1694.225
 262  1634.733
 263  1666.568
 264  1754.407
 265  1862.456
 266  1865.879
 267  1850.754
 268  1726.25
 269  1654.004
 270  1911.957
 271  2000.803
 272  1892.736
 273  1834.933
 274  1685.269
 275  1788.945
 276  1713.936
 277  1770.552
 278  1910.468
 279  1922.039
 280  1896.038
 281  1898.265
 282  1928.261
 283  2018.656
 284  2058.114
 285  2209.398
 286  2136.229
 287  2028.977
 288  1963.459
 289  1995.947
 290  1950.312
 291  1822.711
 292  1910.024
 293  1834.596
 294  1874.366
 295  1978.014
 296  2032.898
 297  1956.677
 298  1859.844
 299  1946.775
 300  1943.08
 301  1806.904
 302  1757.3
 303  1799.522
 304  1943.912
 305  1975.443
 306  1902.984
 307  1830.217
 308  1857.271
 309  1820.951
 310  1703.002
 311  1762.822
 312  1826.032
 313  1787.238
 314  1761.214
 315  1937.867
 316  2112.708
 317  1980.981
 318  2030.488
 319  2118.685
 320  2036.918
 321  1911.9
 322  1840.481
 323  2021.19
 324  2027.216
 325  1970.233
 326  1670.611
 327  1595.107
 328  1637.676
 329  1604.935
 330  1610.309
 331  1653.843
 332  1765.422
 333  1852.483
 334  1817.597
 335  1950.267
 336  1954.404
 337  2062.257
 338  1883.862
 339  1662.735
 340  1582.646
 341  1516.285
 342  1455.795
 343  1653.536
 344  1834.566
 345  1806.162
 346  1692.673
 347  1776.292
 348  2040.089
 349  2039.977
 350  2122.788
 351  2236.947
 352  2231.942
 353  2195.39
 354  2209.421
 355  2106.722
 356  2040.695
 357  2060.895
 358  2089.216
 359  2223.467
 360  2161.581
 361  2179.242
 362  1994.875
 363  1864.206
 364  1826.524
 365  1815.87
 366  1703.406
 367  1652.494
 368  1665.222
 369  1701.64
 370  1741.726
 371  1790.662
 372  1975.439
 373  2107.783
 374  2147.792
 375  2092.964
 376  1967.001
 377  1806.073
 378  1688.219
 379  1740.419
 380  1828.112
 381  1789.225
 382  1685.932
 383  1937.418
 384  2087.128
 385  2070.342
 386  1994.629
 387  1975.035
 388  1901.895
 389  2041.593
 390  2135.714
 391  2054.875
 392  1764.337
 393  1898.448
 394  1973.401
 395  1901.74
 396  1771.033
 397  1874.251
 398  1833.272
 399  1850.542
 400  1971.552
 401  2116.82
 402  2169.393
 403  2162.295
 404  2285.086
 405  2242.997
 406  2085.533
 407  1865.337
 408  1790.412
 409  1754.433
 410  1700.159
 411  1719.362
 412  1795.403
 413  1896.13
 414  1837.805
 415  1928.564
 416  2031.774
 417  1987.006
 418  2130.649
 419  2131.358
 420  1974.404
 421  1831.662
 422  1845.33
 423  1821.49
 424  1599.819
 425  1500.096
 426  1836.355
 427  1975.188
 428  2015.488
 429  1953.258
 430  1872.594
 431  1871.267
 432  1743.683
 433  1816.222
 434  1878.848
 435  1821.245
 436  1757.006
 437  1626.252
 438  1698.723
 439  1767.575
 440  1772.351
 441  1711.976
 442  1717.193
 443  1615.348
 444  1825.26
 445  1957.011
 446  2032.918
 447  1880.903
 448  2004.401
 449  2059.184
 450  2039.849
 451  2095.048
 452  1989.958
 453  1973.626
 454  1995.407
 455  1971.672
 456  1811.682
 457  1668.162
 458  1881.396
 459  2011.318
 460  1991.147
 461  1871.486
 462  1747.996
 463  1585.433
 464  1369.281
 465  1441.321
 466  1619.287
 467  1889.916
 468  1984.445
 469  1986.778
 470  1808.504
 471  1695.219
 472  1637.131
 473  1628.9
 474  1690.592
 475  1703.481
 476  1714.242
 477  1767.123
 478  1854.896
 479  1853.45
 480  1847.713
 481  1852.333
 482  1839.419
 483  1905.887
 484  1897.331
 485  1885.921
 486  1813.831
 487  1963.743
 488  2010.148
 489  1998.159
 490  1949.858
 491  2100.838
 492  1929.858
 493  1764.005
 494  1746.536
 495  1775.951
 496  1966.55
 497  1960.682
 498  1966.057
 499  1822.903
 500  1847.782
 501  2044.44
 502  2189.263
 503  2126.314
 504  2210.614
 505  2078.576
 506  2121.104
 507  1991.242
 508  1972.65
 509  1956.621
 510  2006.723
 511  1864.868
 512  1924.086
 513  1893.606
 514  1869.494
 515  2035.936
 516  2286.012
 517  2376.578
 518  2315.985
 519  2318.24
 520  2479.635
 521  2367.757
 522  2208.342
 523  2171.696
 524  2242.819
 525  2210.714
 526  2145.909
 527  2164.9
 528  2049.354
 529  1923.993
 530  1793.78
 531  1877.044
 532  2036.046
 533  2049.877
 534  2177.499
 535  1995.916
 536  1949.974
 537  1690.414
 538  1695.691
 539  1777.066
 540  1720.788
 541  1762.162
 542  1824.58
 543  1796.126
 544  1667.78
 545  1801.65
 546  1988.818
 547  2026.628
 548  1909.574
 549  1943.588
 550  1888.23
 551  1866.704
 552  2006.102
 553  2202.561
 554  2198.916
 555  2282.408
 556  2286.756
 557  2147.958
 558  1927.929
 559  1875.145
 560  1853.335
 561  1857.538
 562  1923.553
 563  1962.991
 564  1972.307
 565  1929.885
 566  1998.02
 567  1867.927
 568  1804.659
 569  1899.365
 570  1929.572
 571  1980.429
 572  1861.023
 573  1680.42
 574  1751.151
 575  1774.813
 576  1811.199
 577  1850.021
 578  1861.63
 579  1926.651
 580  1706.451
 581  1791.266
 582  1951.299
 583  1875.58
 584  1995.982
 585  2157.823
 586  2158.591
 587  2028.143
 588  2017.187
 589  2042.599
 590  1887.004
 591  1794.167
 592  1675.349
 593  1692.581
 594  1678.375
 595  1709.114
 596  1614.585
 597  1585.637
 598  1732.712
 599  1833.108
 600  1767.111
 601  1906.144
 602  1958.801
 603  2127.262
 604  2115.864
 605  2009.743
 606  2039.187
 607  1953.862
 608  2011.196
 609  1966.188
 610  1905.929
 611  1876.007
 612  1938.26
 613  2000.582
 614  2305.844
 615  2328.297
 616  2258.288
 617  2240.979
 618  2214.15
 619  2328.496
 620  2473.807
 621  2647.723
 622  2480.624
 623  2355.348
 624  2331.253
 625  2424.935
 626  2269.35
 627  2333.323
 628  2248.334
 629  2149.502
 630  2161.212
 631  2078.592
 632  1971.663
 633  1872.292
 634  1886.396
 635  1879.35
 636  1844.055
 637  1856.891
 638  1686.556
 639  1754.762
 640  1721.56
 641  1928.747
 642  1939.501
 643  1960.649
 644  1978.532
 645  1928.478
 646  2058.17
 647  2139.206
 648  2115.207
 649  2142.529
 650  2135.147
 651  2059.646
 652  2043.651
 653  2075.439
 654  2045.896
 655  1956.443
 656  1929.704
 657  1906.913
 658  1737.169
 659  1680.222
 660  1805.198
 661  1821.84
 662  1924.217
 663  1970.262
 664  2026.604
 665  1865.334
 666  1789.381
 667  1775.714
 668  1898.746
 669  1924.34
 670  1941.974
 671  1822.385
 672  1966.782
 673  2020.404
 674  2111.392
 675  2068.784
 676  2061.918
 677  1844.979
 678  1739.079
 679  1864.227
 680  1835.72
 681  1904.081
 682  1985.357
 683  2034.116
 684  2138.609
 685  2144.522
 686  2229.371
 687  2152.236
 688  2153.095
 689  2206.281
 690  2066.459
 691  1879.609
 692  2000.721
 693  1976.093
 694  1987.701
 695  1861.865
 696  2073.331
 697  2233.613
 698  2271.137
 699  2119.416
 700  2140.712
 701  2130.087
 702  2103.289
 703  2037.736
 704  2011.088
 705  1872.348
 706  1806.593
 707  1736.458
 708  1924.585
 709  1937.951
 710  2006.095
 711  2059.751
 712  2139.336
 713  2063.049
 714  2012.73
 715  2006.796
 716  2095.073
 717  2328.774
 718  2433.693
 719  2483.344
 720  2306.165
 721  2364.618
 722  2259.473
 723  2039.143
 724  1957.826
 725  2017.945
 726  1977.414
 727  1903.199
 728  1897.654
 729  1873.925
 730  1873.257
 731  1844.222
 732  1909.881
 733  1949.734
 734  2011.806
 735  2075.777
 736  2031.872
 737  2107.305
 738  2283.839
 739  2270.843
 740  2227.906
 741  2031.589
 742  1825.548
 743  1748.355
 744  1977.041
 745  2022.405
 746  2003.602
 747  1992.953
 748  2005.252
 749  1907.211
 750  1868.907
 751  1884.484
 752  1888.867
 753  1892.943
 754  2121.289
 755  2111.912
 756  1992.658
 757  1933.675
 758  1825.321
 759  1723.218
 760  1621.554
 761  1714.911
 762  1838.686
 763  1762.263
 764  1707.67
 765  1808.206
 766  1998.086
 767  2029.013
 768  2070.388
 769  1964.712
 770  2065.228
 771  1888.278
 772  1827.756
 773  1743.671
 774  1801.123
 775  1818.945
 776  1975.225
 777  1957.977
 778  1965.252
 779  1932.976
 780  2077.327
 781  2036.525
 782  2071.486
 783  2199.671
 784  2315.385
 785  2214.597
 786  2134.476
 787  2007.042
 788  1765.339
 789  1798.728
 790  1990.373
 791  1995.902
 792  1800.041
 793  1537.676
 794  1583.944
 795  1799.843
 796  1983.803
 797  2068.412
 798  1922.349
 799  1924.128
 800  2032.736
 801  1995.48
 802  1928.568
 803  1786.201
 804  1665.575
 805  1759.41
 806  1818.766
 807  1819.889
 808  1786.663
 809  1627.749
 810  1613.591
 811  1700.85
 812  1821.233
 813  1935.937
 814  1920.453
 815  2106.426
 816  2147.778
 817  2027.869
 818  1932.73
 819  1868.312
 820  1824.225
 821  1735.751
 822  1824.009
 823  1864.445
 824  1873.08
 825  1769.159
 826  1728.712
 827  1752.146
 828  1746.256
 829  1725.321
 830  1727.729
 831  1868.867
 832  2004.035
 833  2011.318
 834  1844.051
 835  1856.036
 836  1789.002
 837  1809.864
 838  1859.325
 839  1789.457
 840  1959.804
 841  2126.179
 842  2331.949
 843  2165.111
 844  1864.462
 845  1846.753
 846  1753.934
 847  1808.201
 848  1872.657
 849  1951.568
 850  1960.362
 851  2015.645
 852  1893.18
 853  1863.264
 854  1918.688
 855  2160.705
 856  2079.306
 857  2050.72
 858  2037.772
 859  1963.699
 860  1946.337
 861  2058.625
 862  2148.354
 863  2115.157
 864  1967.969
 865  1888.71
 866  1831.241
 867  2034.457
 868  1952.978
 869  1827.895
 870  1762.771
 871  1834.919
 872  1801.89
 873  1865.808
 874  1784.47
 875  1786.772
 876  1702.456
 877  1928.326
 878  2173.304
 879  2169.741
 880  2351.637
 881  2304.182
 882  2236.95
 883  2085.338
 884  1927.731
 885  1904.594
 886  1878.333
 887  1837.036
 888  1786.081
 889  1717.802
 890  1767.28
 891  1839.451
 892  1722.137
 893  1794.128
 894  1881.989
 895  1765.324
 896  1700.023
 897  1838.381
 898  2162.193
 899  2080.422
 900  1940.19
 901  1842.047
 902  1925.888
 903  1872.757
 904  1874.118
 905  1932.824
 906  1965.747
 907  1936.795
 908  1803.607
 909  1899.611
 910  1971.283
 911  2048.286
 912  1974.102
 913  2088.391
 914  1992.479
 915  1964.976
 916  2050.854
 917  2016.892
 918  1993.052
 919  1943.344
 920  2144.38
 921  2012.164
 922  1922.143
 923  1840.802
 924  1851.606
 925  1888.62
 926  2132.17
 927  2180.194
 928  2106.824
 929  1991.03
 930  1968.155
 931  1978.787
 932  1964.343
 933  1887.96
 934  1899.375
 935  2006.562
 936  2045.305
 937  2027.808
 938  1999.278
 939  1962.387
 940  1883.673
 941  1856.983
 942  1815.153
 943  1798.437
 944  1730.827
 945  1909.026
 946  2077.175
 947  2237.544
 948  2312.771
 949  2265.344
 950  2178.261
 951  2001.873
 952  2002.616
 953  2047.209
 954  2011.553
 955  2003.014
 956  2016.547
 957  1874.938
 958  1887.612
 959  1945.192
 960  2037.261
 961  2013.738
 962  1924.486
 963  1897.258
 964  1792.723
 965  1695.516
 966  1774.391
 967  1779.776
 968  1854.862
 969  1813.076
 970  1841.156
 971  1968.778
 972  1931.87
 973  1767.568
 974  1719.467
 975  1846.314
 976  1926.272
 977  2030.711
 978  2114.427
 979  2077.547
 980  1991.611
 981  2006.481
 982  1975.851
 983  1889.736
 984  1894.519
 985  2008.565
 986  1829.835
 987  1763.45
 988  1868.259
 989  1783.036
 990  1808.079
 991  1862.285
 992  1966.818
 993  1836.697
 994  1728.44
 995  1774.711
 996  1940.403
 997  2027.639
 998  2033.908
 999  2070.36
1000  1986.592
1001  1972.793
1002  1833.689
1003  1832.583
1004  1826.302
1005  1879.067
1006  1967.418
1007  1981.316
1008  1903.125
1009  1786.076
1010  1866.707
1011  2046.514
1012  2091.562
1013  2115.122
1014  2212.109
1015  2126.299
1016  2064.028
1017  2028.316
1018  2065.649
1019  1935.572
1020  1992.778
1021  1982.128
1022  1773.218
1023  1755.221
