# Input file       =  1197914847.107016_cleaned.dat
# Candidate        =  PSR_0332+5434
# Telescope        =  AR
# Epoch_topo       =  58108.755394757129
# Epoch_bary       =  N/A
# T_sample         =  0.002
# Data Folded      =  7340032
# Data Avg         =  0.040556798249679
# Data StdDev      =  1.00002700387227 
# Profile Bins     =  512
# Profile Avg      =  581.413427396913 
# Profile StdDev   =  119.736269632386 
# Reduced chi-sqr  =  0.740
# Prob(Noise)      <  1   (~0.0 sigma)
# P_topo (ms)      =  714.546532700795  +/- 0.000295
# P'_topo (s/s)    =  -0                +/- 1.56e-10
# P''_topo (s/s^2) =  0                 +/- 6.87e-14
# P_bary (ms)      =  N/A
# P'_bary (s/s)    =  N/A
# P''_bary (s/s^2) =  N/A
# P_orb (s)        =  N/A
# asin(i)/c (s)    =  N/A
# eccentricity     =  N/A
# w (rad)          =  N/A
# T_peri           =  N/A
######################################################
   0  858.4078
   1  739.1681
   2  788.7351
   3  776.9668
   4  714.6439
   5  604.1614
   6  580.611
   7  535.1725
   8  657.2648
   9  678.6429
  10  648.5052
  11  468.484
  12  475.6887
  13  627.7928
  14  457.2232
  15  380.331
  16  613.8553
  17  658.5588
  18  631.5888
  19  547.7954
  20  643.0152
  21  521.8045
  22  459.1616
  23  559.2737
  24  667.5403
  25  663.0804
  26  621.1372
  27  679.8855
  28  656.9852
  29  627.9271
  30  627.7493
  31  595.1152
  32  571.3895
  33  588.3428
  34  705.5021
  35  661.7474
  36  673.1694
  37  683.2736
  38  669.4227
  39  655.8773
  40  662.4267
  41  698.4731
  42  532.8499
  43  541.517
  44  470.2181
  45  574.1147
  46  561.6283
  47  559.6595
  48  488.0503
  49  529.1198
  50  564.3338
  51  554.5542
  52  599.0021
  53  588.6814
  54  630.78
  55  597.0032
  56  644.0154
  57  580.9318
  58  668.9876
  59  681.207
  60  635.6813
  61  632.4509
  62  621.365
  63  592.2545
  64  569.4739
  65  581.1235
  66  653.2882
  67  536.9321
  68  470.7727
  69  573.655
  70  505.9651
  71  484.1104
  72  523.8383
  73  554.3907
  74  579.2858
  75  446.8292
  76  490.4582
  77  516.7869
  78  626.9919
  79  538.3764
  80  500.848
  81  477.2758
  82  472.7686
  83  420.2719
  84  463.3407
  85  440.7387
  86  392.0959
  87  494.7384
  88  623.3008
  89  588.7461
  90  498.6086
  91  480.7327
  92  490.7605
  93  518.1098
  94  545.1364
  95  595.5994
  96  601.368
  97  507.3357
  98  508.3549
  99  550.1883
 100  505.1014
 101  520.682
 102  695.8298
 103  579.1365
 104  562.6971
 105  544.2798
 106  606.1921
 107  638.4454
 108  588.1085
 109  547.3125
 110  551.1923
 111  506.3455
 112  493.4899
 113  422.1358
 114  540.9384
 115  598.7344
 116  569.2444
 117  553.0373
 118  444.4939
 119  493.2329
 120  596.387
 121  532.1416
 122  532.9839
 123  655.7369
 124  579.4456
 125  602.5992
 126  651.8151
 127  628.7454
 128  623.3279
 129  505.6831
 130  525.8671
 131  555.8677
 132  564.0573
 133  521.2846
 134  465.9954
 135  608.1601
 136  571.6017
 137  504.8495
 138  584.4815
 139  629.9278
 140  661.0968
 141  498.2378
 142  476.6816
 143  447.2966
 144  455.4739
 145  561.142
 146  525.4224
 147  439.4967
 148  457.1359
 149  417.8026
 150  484.541
 151  523.965
 152  536.9684
 153  714.2461
 154  587.9666
 155  464.6281
 156  584.3833
 157  633.556
 158  620.103
 159  697.804
 160  558.3449
 161  613.6277
 162  652.7031
 163  500.9782
 164  500.4648
 165  593.7315
 166  533.4739
 167  483.7314
 168  601.0194
 169  588.0846
 170  606.8461
 171  507.1537
 172  423.4375
 173  502.1321
 174  525.7732
 175  670.8785
 176  615.5568
 177  575.2167
 178  616.1602
 179  568.0259
 180  539.4521
 181  667.3058
 182  620.4293
 183  549.4659
 184  613.7685
 185  674.9332
 186  523.4601
 187  519.9402
 188  470.8189
 189  416.2968
 190  497.23
 191  538.2316
 192  532.2546
 193  504.6569
 194  454.7285
 195  553.6102
 196  575.2288
 197  552.8726
 198  541.8167
 199  547.0274
 200  422.3903
 201  497.6786
 202  590.7811
 203  611.695
 204  508.741
 205  555.6569
 206  563.9174
 207  556.0997
 208  471.1106
 209  523.1977
 210  514.3749
 211  603.1534
 212  639.2698
 213  590.7971
 214  524.1434
 215  543.1414
 216  573.1295
 217  602.8106
 218  529.2792
 219  438.7108
 220  455.5094
 221  515.5995
 222  586.3133
 223  588.7123
 224  497.9292
 225  519.7993
 226  493.1855
 227  528.5258
 228  562.1273
 229  537.3814
 230  524.1667
 231  582.8002
 232  641.6406
 233  588.2831
 234  659.3473
 235  604.2567
 236  550.6769
 237  610.9857
 238  641.2639
 239  639.3732
 240  608.3727
 241  638.1475
 242  664.5874
 243  572.9443
 244  594.1812
 245  536.4191
 246  571.7245
 247  704.2346
 248  718.9848
 249  658.2678
 250  577.1505
 251  615.2983
 252  498.2465
 253  498.2296
 254  562.4643
 255  646.8487
 256  586.0921
 257  579.7172
 258  635.8914
 259  562.0316
 260  516.2459
 261  549.0932
 262  577.8345
 263  599.5316
 264  668.9076
 265  571.5154
 266  469.6592
 267  553.0697
 268  527.3641
 269  528.3503
 270  421.749
 271  619.4437
 272  664.1057
 273  557.8071
 274  547.1131
 275  481.1471
 276  490.1485
 277  529.0366
 278  581.9427
 279  725.2128
 280  631.8776
 281  625.1265
 282  648.7991
 283  605.0069
 284  604.2914
 285  615.8649
 286  554.2798
 287  565.2603
 288  580.687
 289  663.5075
 290  590.4817
 291  620.1783
 292  616.7297
 293  722.025
 294  649.3864
 295  643.5117
 296  501.9804
 297  558.9371
 298  605.2195
 299  527.662
 300  593.6935
 301  620.0856
 302  753.1729
 303  660.4323
 304  566.5567
 305  609.0357
 306  690.7605
 307  613.6776
 308  681.9361
 309  650.0171
 310  576.1965
 311  639.0541
 312  591.3757
 313  583.994
 314  556.3958
 315  570.4327
 316  604.4541
 317  576.4053
 318  552.957
 319  597.8585
 320  569.6418
 321  712.0627
 322  621.9975
 323  604.3799
 324  644.3737
 325  616.6006
 326  500.5418
 327  564.5576
 328  630.9203
 329  554.2734
 330  503.6735
 331  448.5465
 332  588.1732
 333  588.4003
 334  557.2532
 335  507.2008
 336  502.9248
 337  537.1435
 338  650.5976
 339  599.284
 340  675.8671
 341  671.312
 342  626.451
 343  552.1899
 344  488.0008
 345  578.2176
 346  637.3334
 347  527.7159
 348  564.4052
 349  681.0519
 350  672.8818
 351  662.6527
 352  598.1406
 353  514.3477
 354  530.452
 355  503.771
 356  616.8047
 357  602.6133
 358  619.9134
 359  657.1193
 360  569.4949
 361  510.5247
 362  561.6244
 363  697.3163
 364  553.8696
 365  538.6298
 366  598.0112
 367  627.9863
 368  615.0078
 369  580.1552
 370  643.6255
 371  595.2261
 372  602.7955
 373  501.8524
 374  551.0248
 375  554.3413
 376  492.8979
 377  546.3228
 378  597.3795
 379  567.9364
 380  525.3245
 381  607.3812
 382  686.5251
 383  646.1756
 384  675.6198
 385  569.5165
 386  498.7352
 387  619.9418
 388  621.567
 389  614.0003
 390  551.6411
 391  561.2248
 392  541.2585
 393  594.5877
 394  510.4344
 395  539.1853
 396  641.8345
 397  614.4309
 398  681.5798
 399  672.9486
 400  661.1089
 401  703.3462
 402  611.8883
 403  625.1338
 404  609.3049
 405  511.5059
 406  631.36
 407  646.4252
 408  659.9547
 409  661.4831
 410  582.7692
 411  393.7069
 412  395.1194
 413  545.7042
 414  689.1397
 415  721.8453
 416  625.8947
 417  570.8573
 418  539.023
 419  502.2062
 420  549.2532
 421  637.8662
 422  609.3211
 423  476.0771
 424  536.9121
 425  528.3105
 426  622.3149
 427  717.1883
 428  827.002
 429  707.1272
 430  608.9393
 431  510.6138
 432  595.413
 433  627.6803
 434  588.4575
 435  562.6985
 436  585.6257
 437  533.2381
 438  474.6245
 439  468.2323
 440  577.5263
 441  603.7764
 442  661.0485
 443  739.2906
 444  625.8011
 445  564.8393
 446  571.9341
 447  600.9369
 448  674.9764
 449  743.9116
 450  682.5316
 451  653.4946
 452  543.8564
 453  553.2634
 454  605.0236
 455  591.8563
 456  591.1315
 457  602.7871
 458  589.6802
 459  557.4162
 460  532.9112
 461  562.2263
 462  558.9933
 463  635.2478
 464  715.064
 465  755.9227
 466  569.3766
 467  601.9658
 468  628.5675
 469  645.3879
 470  621.8069
 471  582.8656
 472  553.3035
 473  500.1357
 474  570.3781
 475  536.3558
 476  500.3626
 477  460.0617
 478  553.2703
 479  635.6951
 480  578.4954
 481  631.8959
 482  632.4487
 483  661.5355
 484  578.502
 485  505.7436
 486  542.7669
 487  606.2168
 488  627.8754
 489  686.9485
 490  576.1388
 491  549.966
 492  683.9227
 493  605.2131
 494  617.2227
 495  616.7413
 496  601.3413
 497  538.9711
 498  549.949
 499  525.4774
 500  481.7268
 501  596.6184
 502  655.9718
 503  570.1928
 504  584.3246
 505  527.8952
 506  562.9547
 507  641.8776
 508  786.3296
 509  840.7948
 510  851.0929
 511  849.4701
