# Input file       =  1197038256.128744_cleaned.dat
# Candidate        =  PSR_0332+5434
# Telescope        =  AR
# Epoch_topo       =  58098.609665841941
# Epoch_bary       =  N/A
# T_sample         =  0.002
# Data Folded      =  7143424
# Data Avg         =  0.829681763231087
# Data StdDev      =  7.61716768139351 
# Profile Bins     =  1024
# Profile Avg      =  5787.6932466876  
# Profile StdDev   =  636.204522588126 
# Reduced chi-sqr  =  0.616
# Prob(Noise)      <  1   (~0.0 sigma)
# P_topo (ms)      =  714.536516373774  +/- 8.13e-05
# P'_topo (s/s)    =  -0                +/- 4.41e-11
# P''_topo (s/s^2) =  0                 +/- 2e-14
# P_bary (ms)      =  N/A
# P'_bary (s/s)    =  N/A
# P''_bary (s/s^2) =  N/A
# P_orb (s)        =  N/A
# asin(i)/c (s)    =  N/A
# eccentricity     =  N/A
# w (rad)          =  N/A
# T_peri           =  N/A
######################################################
   0  5517.218
   1  5687.331
   2  5645.76
   3  5734.316
   4  5658.002
   5  5544.304
   6  5796.087
   7  5880.979
   8  5800.458
   9  5871.784
  10  5661.82
  11  5767.102
  12  6020.781
  13  6000.782
  14  5854.271
  15  5622.845
  16  5645.292
  17  5676.115
  18  5762.052
  19  6031.077
  20  6228.597
  21  6067.277
  22  5994.622
  23  6083.532
  24  6161.792
  25  6414.398
  26  6302.941
  27  6244.865
  28  6210.816
  29  6321.541
  30  6552.693
  31  6353.354
  32  6073.884
  33  5814.797
  34  5485.017
  35  5644.149
  36  5787.309
  37  5779.285
  38  5671.571
  39  5724.32
  40  6084.837
  41  5924.636
  42  5743.956
  43  5898.206
  44  6099.836
  45  6220.121
  46  6070.815
  47  5851.742
  48  5757.564
  49  5713.269
  50  5707.233
  51  5510.896
  52  5510.042
  53  5740.492
  54  5962.915
  55  6041.153
  56  6103.037
  57  6163.651
  58  6315.669
  59  6311.646
  60  6399.961
  61  6155.329
  62  5971.128
  63  5965.538
  64  6015.084
  65  5867.225
  66  5743.586
  67  5663.388
  68  5715.818
  69  5548.378
  70  5350.74
  71  5516.597
  72  5764.271
  73  5838.111
  74  6112.932
  75  6050.709
  76  6523.266
  77  6699.252
  78  6578.873
  79  6222.062
  80  5853.506
  81  5745.646
  82  5617.681
  83  5430.945
  84  5683.992
  85  5901.901
  86  6039.827
  87  6164.562
  88  5954.961
  89  5862.399
  90  6029.716
  91  5974.854
  92  6194.459
  93  6187.126
  94  6210.022
  95  6078.592
  96  5569.666
  97  5550.159
  98  5554.511
  99  5534.636
 100  5624.081
 101  5768.267
 102  6101.369
 103  6318.026
 104  6184.873
 105  6028.893
 106  6127.116
 107  6243.278
 108  6361.322
 109  6291.369
 110  6103.999
 111  6122.488
 112  5934.104
 113  5968.065
 114  5870.929
 115  5726.587
 116  5709.067
 117  5635.165
 118  5488.306
 119  5592.835
 120  5609.209
 121  5966.441
 122  6127.065
 123  6070.79
 124  6206.5
 125  6080.046
 126  6190.263
 127  6159.998
 128  6116.539
 129  6237.079
 130  6029.079
 131  5847.621
 132  5595.324
 133  5813.828
 134  5906.999
 135  5885.218
 136  5634.365
 137  5741.481
 138  5770.665
 139  5708.621
 140  5596.64
 141  5869.702
 142  6127.129
 143  6135.006
 144  5951.259
 145  5864.167
 146  5892.107
 147  5807.468
 148  5590.78
 149  5550.82
 150  5647.879
 151  5779.318
 152  6013.384
 153  5889.633
 154  6047.476
 155  6134.924
 156  6040.197
 157  5855.08
 158  5619.687
 159  5818.523
 160  6071.126
 161  5926.396
 162  6078.555
 163  5860.953
 164  5782.188
 165  5580.286
 166  5626.685
 167  5883.679
 168  6105.281
 169  6113.067
 170  6029.597
 171  5798.43
 172  5763.575
 173  5862.605
 174  6041.14
 175  6016.002
 176  5980.659
 177  5653.119
 178  5652.807
 179  5757.575
 180  5869.854
 181  6201.852
 182  6204.814
 183  6228.942
 184  6186.117
 185  5976.68
 186  6217.201
 187  5933.571
 188  5783.541
 189  5917.734
 190  5854.191
 191  5935.5
 192  5978.083
 193  5859.414
 194  5896.472
 195  5932.396
 196  6065.51
 197  6254.446
 198  6145.092
 199  6246.828
 200  6291.717
 201  6106.179
 202  6133.299
 203  5922.641
 204  5807.678
 205  5701.624
 206  5576.423
 207  5899.685
 208  5864.524
 209  5862.177
 210  5599.68
 211  5755.056
 212  5745.748
 213  5942.488
 214  5772.917
 215  5740.121
 216  5798.898
 217  5719.876
 218  5774.51
 219  5649.504
 220  5657.836
 221  5658.413
 222  5396.374
 223  5378.265
 224  5343.291
 225  5098.173
 226  5044.67
 227  5153.528
 228  5427.205
 229  5357.562
 230  5430.042
 231  5391.291
 232  5359.716
 233  5291.683
 234  5011.94
 235  5028.727
 236  5122.521
 237  5426.08
 238  5551.896
 239  5242.552
 240  5495.923
 241  5719.11
 242  5911.938
 243  5964.657
 244  5860.025
 245  5937.385
 246  5857.203
 247  5549.89
 248  5551.505
 249  5583.431
 250  5649.162
 251  5607.843
 252  5425.257
 253  5460.72
 254  5617.819
 255  5572.116
 256  5923.471
 257  5875.614
 258  5650.476
 259  5626.311
 260  5617.183
 261  5703.606
 262  5530.658
 263  5310.222
 264  5268.592
 265  5179.499
 266  5416.693
 267  5547.468
 268  5484.616
 269  5375.156
 270  5546.561
 271  5712.679
 272  5956.368
 273  5900.201
 274  5879.546
 275  6171.398
 276  6109.604
 277  5989.958
 278  5764.23
 279  5766.77
 280  5680.685
 281  5538.672
 282  5500.208
 283  5600.787
 284  5732.222
 285  5835.179
 286  5859.285
 287  5811.473
 288  6098.05
 289  6013.577
 290  5996.346
 291  6011.917
 292  6084.737
 293  5949.881
 294  5806.088
 295  5821.75
 296  5700.548
 297  5669.359
 298  5537.77
 299  5616.252
 300  5307.146
 301  5224.088
 302  5220.361
 303  5475.84
 304  5457.006
 305  5531.844
 306  5643
 307  5633.483
 308  5594.865
 309  5569.834
 310  5674.203
 311  5750.155
 312  5881.577
 313  5888.574
 314  5561.034
 315  5440.743
 316  5334.584
 317  5603.609
 318  5915.494
 319  6048.115
 320  5968.16
 321  6021.776
 322  6057.169
 323  6123.855
 324  5768.169
 325  5555.799
 326  5513.27
 327  5708.786
 328  5652.421
 329  5548.919
 330  5474.184
 331  5504.514
 332  5813.495
 333  5614.042
 334  5687.372
 335  5861.603
 336  5870.214
 337  5927.544
 338  5733.65
 339  5696.788
 340  5577.894
 341  5254.625
 342  5386.331
 343  5330.664
 344  5123.831
 345  5271.168
 346  5303.328
 347  5531.134
 348  5604.641
 349  5344.32
 350  5579.971
 351  5812.471
 352  5897.01
 353  6060.368
 354  5831.039
 355  5900.417
 356  6032.107
 357  5935.336
 358  5811.252
 359  5483.638
 360  5419.188
 361  5699.793
 362  5784.003
 363  5886.558
 364  6037.535
 365  5834.987
 366  5683.251
 367  5565.471
 368  5542.761
 369  5533.754
 370  5639.688
 371  5926.383
 372  6389.602
 373  6025.863
 374  6020.663
 375  5919.986
 376  5874.128
 377  5631.668
 378  5383.591
 379  5454.054
 380  5269.96
 381  4998.937
 382  4857.306
 383  4976.077
 384  5183.325
 385  5698.771
 386  6010.496
 387  6064.689
 388  5924.08
 389  6027.758
 390  6001.966
 391  6147.395
 392  6097.69
 393  6054.124
 394  5837.865
 395  5768.84
 396  5685.211
 397  5524.52
 398  5162.514
 399  5195.372
 400  5383.474
 401  5565.561
 402  5703.547
 403  5658.058
 404  5840.569
 405  5772.577
 406  5744.501
 407  5600.721
 408  5603.011
 409  5733.668
 410  5852.794
 411  5799.275
 412  5953.536
 413  5895.07
 414  5705.393
 415  5484.282
 416  5492.432
 417  5902.648
 418  6116.534
 419  5912.868
 420  5869.384
 421  6244.679
 422  6385.524
 423  6310.259
 424  6150.032
 425  5969.24
 426  5680.7
 427  5499.826
 428  5685.182
 429  5731.715
 430  5373.144
 431  5469.927
 432  5463.506
 433  5711.13
 434  5940.341
 435  5901.117
 436  6167.837
 437  6040.477
 438  5946.01
 439  6114.024
 440  6255.09
 441  6349.453
 442  6280.844
 443  6100.708
 444  6096.058
 445  5836.782
 446  5629.874
 447  5576.29
 448  5619.849
 449  5721.143
 450  5876.864
 451  5927.8
 452  6143.884
 453  6079.758
 454  5977.63
 455  6071.851
 456  5858.211
 457  5468.821
 458  5367.158
 459  5394.662
 460  5585.552
 461  5516.22
 462  5367.101
 463  5380.699
 464  5253.766
 465  5471.156
 466  5705.402
 467  5882.753
 468  5879.747
 469  5980.556
 470  5955.636
 471  5969.237
 472  5899.171
 473  5848.231
 474  5822.856
 475  5754.733
 476  5900.539
 477  5942.18
 478  6056.504
 479  6062.639
 480  6058.675
 481  5918.634
 482  5827.562
 483  5600.465
 484  5553.295
 485  5630.134
 486  5829.872
 487  5797.313
 488  5816.529
 489  5605.839
 490  5814.85
 491  5849.468
 492  5827.376
 493  5803.791
 494  5761.167
 495  5759.888
 496  5801.011
 497  5557.579
 498  5726.892
 499  5593.089
 500  5659.853
 501  5630.857
 502  5479.866
 503  5580.475
 504  5595.566
 505  5733.969
 506  6018.694
 507  6256.901
 508  6149.622
 509  6060.532
 510  6117.43
 511  6103.885
 512  5939.015
 513  5676.939
 514  5759.937
 515  5673.454
 516  5323.929
 517  5452.964
 518  5480.69
 519  5788.823
 520  5810.96
 521  5781.249
 522  5759.963
 523  5795.39
 524  5977.959
 525  6121.687
 526  5695.322
 527  5580.773
 528  5759.189
 529  5766.559
 530  5953.067
 531  5621.278
 532  5621.06
 533  5663.928
 534  5610.498
 535  5646.757
 536  5506.917
 537  5579.949
 538  5806.668
 539  5907.654
 540  5819.412
 541  5827.264
 542  5848.32
 543  5979.687
 544  6087.458
 545  6042.636
 546  6210.442
 547  6361.539
 548  6325.041
 549  6022.644
 550  5802.459
 551  5889.636
 552  6083.374
 553  5994.101
 554  5929.781
 555  5929.947
 556  5950.023
 557  5948.703
 558  5691.796
 559  5529.356
 560  5490.996
 561  5695.325
 562  5700.97
 563  5484.727
 564  5587.547
 565  5836.299
 566  5892.422
 567  5601.405
 568  5568.766
 569  5590.992
 570  5515.264
 571  5581.667
 572  5742.621
 573  5881.413
 574  5945.609
 575  5835.862
 576  5917.787
 577  5725.676
 578  5355.096
 579  5433.2
 580  5362.373
 581  5408.077
 582  5371.771
 583  5209.508
 584  5341.203
 585  5598.651
 586  5879.918
 587  5856.963
 588  5667.346
 589  5645.096
 590  5934.243
 591  5953.041
 592  6018.257
 593  5922.882
 594  5721.178
 595  5729.692
 596  5445.457
 597  5591.161
 598  5881.583
 599  5806.316
 600  5832.191
 601  5735.283
 602  5910.944
 603  6067.677
 604  6107.058
 605  6174.624
 606  6147.313
 607  6000.037
 608  5945.682
 609  5958.647
 610  5874.132
 611  5887.574
 612  5732.571
 613  5612.853
 614  5781.278
 615  5997.663
 616  6175.162
 617  6232.065
 618  5993.029
 619  6075.225
 620  5826.742
 621  6015.354
 622  6159.662
 623  5942.642
 624  6183.558
 625  6361.117
 626  6420.641
 627  6322.75
 628  5976.784
 629  6106.845
 630  5904.575
 631  5737.862
 632  5677.086
 633  5647.349
 634  5767.95
 635  5702.657
 636  5686.716
 637  5769.461
 638  5915.052
 639  6052.662
 640  6004.631
 641  5990.082
 642  5796.326
 643  5893.621
 644  5653.107
 645  5677.652
 646  5683.886
 647  5710.908
 648  5454.099
 649  5351.015
 650  5290.756
 651  5409.542
 652  5464.537
 653  5589.786
 654  5719.486
 655  5753.104
 656  5794.708
 657  5632.259
 658  5640.208
 659  5545.783
 660  5569.416
 661  5529.362
 662  5702.713
 663  5783.333
 664  5732.727
 665  5749.822
 666  6026.199
 667  6348.999
 668  6278.826
 669  5836.98
 670  5663.964
 671  5931.071
 672  5966.301
 673  6190.562
 674  6165.407
 675  6069.117
 676  6132.805
 677  5802.821
 678  5897.769
 679  5864.051
 680  5973.2
 681  6255.444
 682  6336.732
 683  6334.966
 684  6353.088
 685  5822.101
 686  5837.207
 687  5748.565
 688  5878.305
 689  5823.444
 690  5622.952
 691  5788.977
 692  5745.65
 693  5537.324
 694  5598.575
 695  5756.361
 696  5831.405
 697  5903.346
 698  5883.449
 699  6085.549
 700  6450.553
 701  6423.657
 702  6381.256
 703  6006.461
 704  5915.042
 705  6114.086
 706  5987.923
 707  5895.414
 708  5827.556
 709  5764.285
 710  5768.696
 711  5718.343
 712  5800.925
 713  6010.468
 714  6104.976
 715  6091.307
 716  6266.881
 717  6328.68
 718  6458.822
 719  6177.101
 720  5812.756
 721  5691.761
 722  5691.179
 723  6103.133
 724  6082.804
 725  6019.054
 726  5790.644
 727  5699.748
 728  5734.563
 729  5610.266
 730  5501.081
 731  5450.639
 732  5687.119
 733  5823.426
 734  5675.429
 735  5675.875
 736  5802.987
 737  5756.219
 738  5661.817
 739  5553.148
 740  5812.14
 741  5811.006
 742  5555.053
 743  5478.466
 744  5502.027
 745  5585.757
 746  5598.803
 747  5543.822
 748  5644.171
 749  5720.885
 750  5619.965
 751  5630.686
 752  5563.749
 753  5723.449
 754  5858.766
 755  5646.029
 756  5374.226
 757  5154.98
 758  5133.487
 759  5398.73
 760  5274.584
 761  5502.109
 762  5694.066
 763  5650.897
 764  5454.223
 765  5430.781
 766  5672.442
 767  5948.34
 768  6060.203
 769  6040.944
 770  6149.58
 771  5786.717
 772  5795.766
 773  5707.643
 774  5705.361
 775  5807.608
 776  5582.217
 777  5788.652
 778  5868.53
 779  5713.171
 780  5905.051
 781  5902.486
 782  5827.522
 783  5802.687
 784  6003.501
 785  6297.251
 786  6258.636
 787  6096.585
 788  6113.734
 789  5882.187
 790  5499.295
 791  5358.432
 792  5230.276
 793  5312.468
 794  5400.731
 795  5354.286
 796  5515.209
 797  5692.209
 798  5872.603
 799  6076.434
 800  6171.561
 801  6089.611
 802  6310.953
 803  6111.791
 804  6040.84
 805  5944.339
 806  5925.984
 807  5746.949
 808  5427.619
 809  5453.939
 810  5791.109
 811  5952.562
 812  5903.423
 813  6007.686
 814  6083.13
 815  6372.196
 816  6355.907
 817  6225.196
 818  6151.44
 819  6018.754
 820  5982.998
 821  5774.879
 822  5871.985
 823  5970.336
 824  5963.537
 825  5813.471
 826  5842.069
 827  5900.287
 828  5571.561
 829  5556.641
 830  5771.552
 831  5946.57
 832  5941.104
 833  5890.702
 834  6172.933
 835  6146.008
 836  5846.487
 837  5878.349
 838  5912.92
 839  5831.989
 840  5697.862
 841  5341.59
 842  5533.879
 843  5698.974
 844  5937.533
 845  5972.847
 846  5708.477
 847  5780.579
 848  5903.291
 849  5880.724
 850  6041.81
 851  5945.515
 852  5796.297
 853  5804.463
 854  5752.402
 855  5843.81
 856  5978.747
 857  5759.751
 858  5678.589
 859  5580.412
 860  5467.328
 861  5641.424
 862  5684.672
 863  5751.215
 864  5736.75
 865  5651.048
 866  6097.62
 867  6296.947
 868  6103.227
 869  6079.862
 870  5910.652
 871  5956.708
 872  5884.753
 873  5793.852
 874  5911.362
 875  5616.629
 876  5632.899
 877  5698.807
 878  5734.612
 879  5482.814
 880  5502.58
 881  5504.409
 882  5744.086
 883  5639.201
 884  5666.268
 885  5705.195
 886  5576.51
 887  5493.375
 888  5411.946
 889  5541.812
 890  5727.801
 891  5809.106
 892  5873.812
 893  5715.049
 894  5484.599
 895  5358.784
 896  5366.655
 897  5434.567
 898  5583.52
 899  5663.328
 900  5732.979
 901  5951.735
 902  5840.52
 903  5786.149
 904  5720.072
 905  5781.675
 906  5967.002
 907  6068.746
 908  5741.013
 909  5587.498
 910  5631.439
 911  5956.16
 912  5949.637
 913  5799.901
 914  5706.944
 915  5794.589
 916  6046.835
 917  5951.105
 918  5713.216
 919  5555.012
 920  5538.468
 921  5556.007
 922  5461.062
 923  5633.669
 924  5424.209
 925  5439.234
 926  5470.995
 927  5223.402
 928  5138.544
 929  5298.698
 930  5385.736
 931  5562.83
 932  5530.29
 933  5547.972
 934  5410.026
 935  5007.091
 936  5118.603
 937  5394.188
 938  5714.349
 939  5959.059
 940  5873.993
 941  5749.287
 942  5668.165
 943  5332.944
 944  5326.578
 945  5082.855
 946  5202.075
 947  5194.703
 948  5216.186
 949  5300.771
 950  5302.87
 951  5478.837
 952  5680.378
 953  5866.668
 954  5856.881
 955  5944.971
 956  6012.507
 957  5807.301
 958  5583.682
 959  5367.41
 960  5591.21
 961  5694.444
 962  5487.405
 963  5926.837
 964  6060.169
 965  6240.364
 966  6192.69
 967  6146.911
 968  6535.508
 969  6394.689
 970  6260.092
 971  6255.392
 972  5867.992
 973  5849.813
 974  5516.333
 975  5570.678
 976  5675.022
 977  5717.489
 978  5850.539
 979  5867.302
 980  5787.662
 981  5820.945
 982  5944.302
 983  6018.157
 984  5631.803
 985  5504.55
 986  5494.357
 987  5602.054
 988  5550.803
 989  5619.693
 990  5782.101
 991  5457.537
 992  5207.854
 993  5114.213
 994  5378.792
 995  5497.458
 996  5523.343
 997  5536.094
 998  5705.726
 999  5537.495
1000  5386.244
1001  5333.974
1002  5492.924
1003  5576.897
1004  5628.43
1005  5485.728
1006  5447.163
1007  5702.438
1008  5972.77
1009  6197.615
1010  6065.339
1011  5997.816
1012  6109.536
1013  5977.244
1014  5999.527
1015  6011.26
1016  5859.009
1017  6041.819
1018  5784.156
1019  5636.438
1020  5680.532
1021  5763.256
1022  5958.011
1023  5805.862
