# Input file       =  1197555195.115929_cleaned.dat
# Candidate        =  PSR_0332+5434
# Telescope        =  AR
# Epoch_topo       =  58104.592755971396
# Epoch_bary       =  N/A
# T_sample         =  0.002
# Data Folded      =  7405568
# Data Avg         =  0.0577336637278543
# Data StdDev      =  1.00001703064204 
# Profile Bins     =  512
# Profile Avg      =  835.063167005949 
# Profile StdDev   =  120.268419240498 
# Reduced chi-sqr  =  0.958
# Prob(Noise)      <  0.745   (~0.0 sigma)
# P_topo (ms)      =  714.542487325212  +/- 0.000177
# P'_topo (s/s)    =  -0                +/- 9.25e-11
# P''_topo (s/s^2) =  0                 +/- 4.05e-14
# P_bary (ms)      =  N/A
# P'_bary (s/s)    =  N/A
# P''_bary (s/s^2) =  N/A
# P_orb (s)        =  N/A
# asin(i)/c (s)    =  N/A
# eccentricity     =  N/A
# w (rad)          =  N/A
# T_peri           =  N/A
######################################################
   0  1132.276
   1  1157.942
   2  1066.152
   3  920.3398
   4  836.6532
   5  815.9526
   6  832.3914
   7  766.4431
   8  816.0214
   9  842.2308
  10  753.5181
  11  837.8103
  12  820.375
  13  797.4563
  14  867.8096
  15  839.2514
  16  812.5848
  17  742.8629
  18  766.2925
  19  811.3364
  20  721.3649
  21  681.7432
  22  760.611
  23  760.3861
  24  879.1935
  25  940.272
  26  807.0292
  27  745.7557
  28  787.6001
  29  836.3702
  30  923.3505
  31  939.1057
  32  952.1227
  33  842.1473
  34  816.0431
  35  795.3038
  36  949.6175
  37  955.3788
  38  923.0206
  39  861.2681
  40  790.4469
  41  794.0421
  42  956.1674
  43  971.6633
  44  942.9022
  45  869.8682
  46  948.6858
  47  1041.828
  48  1049.177
  49  966.7397
  50  926.4853
  51  880.0666
  52  881.8206
  53  864.8976
  54  850.7489
  55  892.4421
  56  914.5493
  57  1040.655
  58  938.0751
  59  785.2737
  60  876.3079
  61  870.907
  62  803.9469
  63  825.543
  64  839.2905
  65  896.3748
  66  838.2537
  67  751.7094
  68  704.491
  69  756.043
  70  736.5886
  71  882.2466
  72  889.5797
  73  840.1379
  74  770.1066
  75  787.8573
  76  827.7509
  77  844.4086
  78  939.0003
  79  976.6347
  80  1015.298
  81  915.5703
  82  791.1755
  83  892.7903
  84  744.7798
  85  776.0154
  86  929.3894
  87  886.8195
  88  977.4263
  89  883.3068
  90  803.2816
  91  823.7933
  92  775.5146
  93  730.3133
  94  821.3355
  95  882.0385
  96  903.431
  97  807.7871
  98  687.4472
  99  752.8785
 100  767.5483
 101  746.908
 102  740.595
 103  745.8249
 104  812.7503
 105  702.2111
 106  724.6366
 107  808.7364
 108  939.6039
 109  962.9506
 110  721.0138
 111  695.0291
 112  802.9835
 113  840.4225
 114  766.3097
 115  905.1589
 116  939.4969
 117  843.3852
 118  860.9917
 119  957.6591
 120  817.6657
 121  800.0976
 122  719.6649
 123  711.8605
 124  831.7067
 125  832.5669
 126  812.7369
 127  942.2791
 128  1020.294
 129  889.1941
 130  806.9841
 131  812.2015
 132  770.747
 133  848.4811
 134  814.5918
 135  797.3736
 136  751.4136
 137  958.8177
 138  916.7473
 139  887.6759
 140  817.3098
 141  854.9233
 142  867.1214
 143  885.9322
 144  870.072
 145  842.2682
 146  866.8008
 147  863.9299
 148  881.7279
 149  842.4671
 150  863.6908
 151  989.8466
 152  901.413
 153  869.6958
 154  851.0341
 155  903.7248
 156  939.2833
 157  894.9534
 158  890.1511
 159  815.9282
 160  870.3277
 161  992.5485
 162  1078.036
 163  912.4359
 164  862.272
 165  882.6366
 166  848.2347
 167  896.5685
 168  919.5087
 169  840.3447
 170  738.8079
 171  721.6448
 172  751.9316
 173  843.5231
 174  814.4019
 175  779.6261
 176  877.4859
 177  959.9446
 178  964.334
 179  891.2526
 180  819.5042
 181  752.3135
 182  770.0164
 183  798.8846
 184  836.501
 185  819.0514
 186  944.2597
 187  970.0206
 188  906.6815
 189  807.3147
 190  890.9296
 191  960.145
 192  800.7162
 193  830.9219
 194  880.8891
 195  915.7363
 196  910.9499
 197  896.945
 198  906.5911
 199  758.7435
 200  868.1794
 201  832.0884
 202  856.8908
 203  833.7442
 204  920.7635
 205  950.617
 206  897.6439
 207  807.311
 208  873.1121
 209  942.0243
 210  835.2296
 211  745.2188
 212  807.8541
 213  770.673
 214  794.598
 215  827.0529
 216  865.3134
 217  697.8632
 218  741.7283
 219  838.0608
 220  974.0013
 221  901.2177
 222  828.7117
 223  848.422
 224  916.4265
 225  807.2987
 226  829.6277
 227  894.2747
 228  910.4257
 229  809.5676
 230  769.6188
 231  922.1902
 232  951.5977
 233  779.7827
 234  867.0229
 235  922.1916
 236  916.1243
 237  884.447
 238  854.4118
 239  894.8649
 240  919.82
 241  902.2287
 242  936.5504
 243  930.1172
 244  815.5623
 245  942.1344
 246  919.4037
 247  869.0972
 248  765.7242
 249  724.1573
 250  755.0068
 251  865.6493
 252  926.0057
 253  913.647
 254  727.1586
 255  667.1619
 256  657.0784
 257  742.1647
 258  835.0716
 259  844.6744
 260  784.6268
 261  872.8843
 262  923.1631
 263  755.3283
 264  794.9204
 265  854.8204
 266  868.5674
 267  833.1859
 268  844.7512
 269  813.7363
 270  798.8446
 271  817.2264
 272  790.2066
 273  723.4746
 274  695.7938
 275  770.0148
 276  822.2006
 277  879.5941
 278  857.6572
 279  919.5446
 280  875.0555
 281  700.3387
 282  778.585
 283  765.4949
 284  929.7051
 285  881.2931
 286  843.9943
 287  889.5671
 288  845.2634
 289  723.5483
 290  858.344
 291  846.4318
 292  779.7683
 293  833.5022
 294  965.8126
 295  835.4044
 296  680.9825
 297  713.4304
 298  697.6517
 299  743.4528
 300  834.9879
 301  885.6281
 302  766.3431
 303  736.7254
 304  780.3416
 305  807.1576
 306  844.3501
 307  805.0636
 308  803.9609
 309  795.2996
 310  766.6322
 311  720.2032
 312  812.5901
 313  840.6877
 314  814.1134
 315  859.5675
 316  744.5231
 317  781.0811
 318  835.4068
 319  891.2161
 320  848.9305
 321  786.3244
 322  717.6379
 323  825.8207
 324  713.6572
 325  696.8104
 326  634.7732
 327  613.5062
 328  758.4744
 329  768.2139
 330  787.1188
 331  748.9587
 332  834.6555
 333  866.188
 334  740.4282
 335  898.5972
 336  832.8478
 337  791.4705
 338  791.6047
 339  835.4377
 340  818.0553
 341  844.6893
 342  961.3832
 343  907.9677
 344  857.6025
 345  820.6371
 346  787.3481
 347  835.2549
 348  837.9341
 349  819.8525
 350  805.2394
 351  751.6021
 352  832.5047
 353  789.0215
 354  777.9488
 355  739.4906
 356  764.9425
 357  758.1954
 358  896.6288
 359  927.0847
 360  835.3267
 361  894.9833
 362  901.9487
 363  703.1353
 364  698.5521
 365  720.0154
 366  746.1576
 367  741.8103
 368  880.8598
 369  725.2947
 370  634.035
 371  684.0472
 372  790.0848
 373  759.1412
 374  912.0945
 375  981.6298
 376  952.4926
 377  890.259
 378  835.4165
 379  855.1926
 380  921.3663
 381  801.4708
 382  792.8538
 383  700.8279
 384  685.7871
 385  754.0838
 386  917.7878
 387  921.5705
 388  769.8794
 389  778.4073
 390  780.4444
 391  761.9641
 392  835.3987
 393  756.136
 394  775.5985
 395  823.6078
 396  739.6224
 397  804.8018
 398  812.5726
 399  840.375
 400  882.2775
 401  936.9937
 402  1029.089
 403  875.5265
 404  744.0126
 405  715.3914
 406  771.3038
 407  771.1015
 408  834.968
 409  874.273
 410  820.1503
 411  818.205
 412  685.2253
 413  875.0513
 414  873.778
 415  787.0099
 416  765.7955
 417  831.2493
 418  750.0072
 419  734.5726
 420  757.1951
 421  693.9976
 422  817.0587
 423  817.6747
 424  893.8087
 425  927.3552
 426  881.1495
 427  846.6566
 428  727.0684
 429  873.1113
 430  835.2263
 431  642.4924
 432  541.8805
 433  745.1476
 434  797.6403
 435  667.6965
 436  699.6914
 437  727.3539
 438  722.8052
 439  831.0743
 440  783.5515
 441  747.7265
 442  809.8553
 443  843.3994
 444  861.5231
 445  852.7591
 446  736.5599
 447  738.1835
 448  865.6331
 449  774.4744
 450  797.7363
 451  890.7105
 452  930.5054
 453  855.3019
 454  851.312
 455  914.5601
 456  879.5888
 457  821.4518
 458  955.6193
 459  951.7733
 460  1029.042
 461  937.8037
 462  920.0386
 463  959.1664
 464  795.7566
 465  709.0385
 466  845.0524
 467  897.5694
 468  759.3518
 469  739.8917
 470  785.4053
 471  749.4915
 472  731.8998
 473  886.7133
 474  830.7806
 475  734.8134
 476  885.6136
 477  1001.223
 478  966.9236
 479  797.1675
 480  788.9871
 481  826.6078
 482  796.4153
 483  801.8032
 484  789.478
 485  873.3184
 486  749.5646
 487  737.0633
 488  787.1149
 489  808.2872
 490  685.6003
 491  765.238
 492  885.2703
 493  896.6372
 494  864.4678
 495  772.5774
 496  697.5541
 497  760.2931
 498  730.3601
 499  812.5213
 500  786.3321
 501  875.204
 502  903.1307
 503  854.6597
 504  880.3833
 505  833.8202
 506  890.0548
 507  1013.699
 508  965.7247
 509  993.5879
 510  1188.939
 511  1128.029
