# Input file       =  1197756875.120159-PSRB0329-2ms-sampling-dd.dat
# Candidate        =  PSR_0332+5434
# Telescope        =  AR
# Epoch_topo       =  58106.927015279616
# Epoch_bary       =  N/A
# T_sample         =  0.002
# Data Folded      =  7340032
# Data Avg         =  6.92444459513453e-11
# Data StdDev      =  19.3432079417882 
# Profile Bins     =  512
# Profile Avg      =  -0.226992797686211
# Profile StdDev   =  2316.02102013748 
# Reduced chi-sqr  =  0.960
# Prob(Noise)      <  0.736   (~0.0 sigma)
# P_topo (ms)      =  714.545107715723  +/- 0.000228
# P'_topo (s/s)    =  -0                +/- 1.2e-10
# P''_topo (s/s^2) =  0                 +/- 5.32e-14
# P_bary (ms)      =  N/A
# P'_bary (s/s)    =  N/A
# P''_bary (s/s^2) =  N/A
# P_orb (s)        =  N/A
# asin(i)/c (s)    =  N/A
# eccentricity     =  N/A
# w (rad)          =  N/A
# T_peri           =  N/A
######################################################
   0  728.162
   1  -336.1081
   2  -1216.674
   3  -412.268
   4  578.9781
   5  1166.68
   6  1389.033
   7  1152.379
   8  -259.2299
   9  -1349.965
  10  -1555.309
  11  -1119.895
  12  -1008.43
  13  -629.246
  14  -774.9191
  15  -1295.659
  16  -596.1917
  17  -843.7354
  18  -1142.743
  19  -1297.093
  20  -647.5846
  21  -669.6475
  22  -669.6081
  23  -665.2708
  24  -938.6019
  25  -1132.138
  26  -1505.271
  27  -1291.932
  28  -903.3521
  29  -756.589
  30  -619.2039
  31  215.4254
  32  2041.885
  33  2660.691
  34  3090.969
  35  2296.048
  36  1758.567
  37  908.5065
  38  1077.904
  39  2240.294
  40  3047.093
  41  4210.392
  42  3138.327
  43  2340.538
  44  397.2209
  45  -761.8649
  46  -1262.608
  47  -1590.346
  48  -1861.785
  49  -1363.285
  50  -826.4318
  51  -818.2125
  52  -713.9506
  53  -617.2206
  54  -727.393
  55  -1013.359
  56  -1156.339
  57  -640.8817
  58  -922.9977
  59  -1104.436
  60  -1318.842
  61  -985.5551
  62  -1371.972
  63  -986.0423
  64  -801.2102
  65  -782.9256
  66  -1246.103
  67  -1025.203
  68  -1027.463
  69  -1183.806
  70  -593.3304
  71  -446.3879
  72  -700.8344
  73  -716.8496
  74  -828.5332
  75  -1038.265
  76  -1198.254
  77  -841.8399
  78  -568.1954
  79  -387.6882
  80  -291.71
  81  -1123.327
  82  -1242.32
  83  -926.0444
  84  -565.9945
  85  -698.9803
  86  -386.4484
  87  -571.886
  88  -799.7974
  89  -1150.271
  90  -982.4434
  91  -1128.086
  92  -828.3237
  93  -625.9465
  94  -1034.197
  95  -837.3192
  96  -984.1603
  97  -912.7986
  98  -1013.546
  99  -1192.155
 100  -593.8336
 101  112.0915
 102  584.5384
 103  891.0673
 104  1286.85
 105  1550.14
 106  992.65
 107  1564.137
 108  2132.548
 109  1174.291
 110  1263.053
 111  1667.042
 112  2175.755
 113  1846.729
 114  963.2575
 115  183.2887
 116  -752.4702
 117  -756.6708
 118  -575.4331
 119  -641.5785
 120  -312.5071
 121  755.4024
 122  1076.132
 123  830.4158
 124  887.3676
 125  356.0487
 126  -137.1191
 127  132.5876
 128  966.4512
 129  1442.828
 130  2068.551
 131  1168.389
 132  104.3498
 133  -877.8417
 134  -735.3878
 135  596.5538
 136  1364.637
 137  1904.983
 138  1631.842
 139  826.3095
 140  -136.5341
 141  -593.1091
 142  796.2291
 143  1798.055
 144  1978.279
 145  1289.726
 146  386.6771
 147  -931.6472
 148  -1219.671
 149  -1178.501
 150  -1045.778
 151  -1008.4
 152  -1298.341
 153  -1247.718
 154  -1049.61
 155  -559.7847
 156  -469.3876
 157  -379.896
 158  -624.0861
 159  -657.8264
 160  -589.542
 161  -630.8933
 162  -617.2147
 163  -614.6515
 164  -491.4218
 165  -432.0614
 166  -517.9822
 167  -793.2961
 168  -917.5808
 169  -976.5615
 170  -813.5931
 171  -578.838
 172  -486.0701
 173  -560.5602
 174  -228.3785
 175  -216.1931
 176  -146.3183
 177  -328.5629
 178  -635.7029
 179  -691.3076
 180  -682.6047
 181  -543.3508
 182  -801.6608
 183  -958.6443
 184  -778.4753
 185  -903.1125
 186  -826.2011
 187  -614.6974
 188  -359.9373
 189  -479.3678
 190  -880.8066
 191  -1003.102
 192  -1329.69
 193  -973.1593
 194  -835.5375
 195  -331.0018
 196  1174.642
 197  2331.536
 198  4504.251
 199  4001.102
 200  3403.221
 201  2107.881
 202  867.6709
 203  2229.47
 204  3688.775
 205  5750.812
 206  5326.442
 207  4444.524
 208  1572.658
 209  35.98267
 210  -964.6964
 211  -1047.609
 212  -1065.792
 213  -852.0934
 214  -869.1244
 215  -1170.82
 216  -757.0453
 217  -343.5973
 218  -903.6191
 219  -1072.57
 220  -1294.458
 221  -1214.076
 222  -1320.374
 223  -1193.743
 224  -780.3331
 225  -657.6347
 226  -1102.241
 227  -1764.848
 228  -1389.306
 229  -1096.594
 230  -955.0819
 231  -906.9137
 232  -1026.74
 233  -621.4772
 234  -1287.378
 235  -1218.296
 236  -1057.54
 237  -974.6627
 238  -988.9374
 239  -978.4268
 240  -1219.794
 241  -1430.626
 242  -1330.708
 243  -1154.891
 244  -1217.453
 245  -1371.339
 246  -1261.246
 247  -1251.818
 248  -1685.373
 249  -1314.853
 250  -1134.36
 251  -1260.129
 252  -1507.217
 253  -1241.016
 254  -908.4017
 255  -673.3688
 256  -1094.271
 257  -1131.138
 258  -997.6618
 259  -802.7655
 260  -751.3411
 261  -983.291
 262  -1263.429
 263  -1212.678
 264  -1174.634
 265  -570.7195
 266  -803.3303
 267  -195.0092
 268  264.6405
 269  -38.20295
 270  200.1614
 271  -123.3545
 272  -222.2318
 273  -605.4189
 274  -26.87876
 275  155.5392
 276  474.452
 277  297.9209
 278  -223.3321
 279  -466.2857
 280  -1181.87
 281  -1107.769
 282  -1273.381
 283  -1185.766
 284  -691.6065
 285  -653.7309
 286  -401.3773
 287  -819.5555
 288  -771.9225
 289  -1144.162
 290  -1395.031
 291  -1367.771
 292  -1026.67
 293  -1539.1
 294  -1490.809
 295  -895.1526
 296  -613.0956
 297  -675.9462
 298  -911.8168
 299  -752.4744
 300  -711.1486
 301  -994.8071
 302  -1188.973
 303  -1342.283
 304  -954.5598
 305  -978.2971
 306  -847.5768
 307  -620.4637
 308  -841.2158
 309  -872.853
 310  -1200.975
 311  -1161.385
 312  -1147.798
 313  -1214.499
 314  -976.4191
 315  -905.4577
 316  -1089.194
 317  -1406.478
 318  247.5449
 319  3251.864
 320  5546.491
 321  6709.859
 322  6154.039
 323  4266.744
 324  515.4675
 325  1866.336
 326  4460.792
 327  7921.574
 328  8678.785
 329  7146.817
 330  4896.456
 331  -542.6577
 332  -220.2658
 333  60.41322
 334  818.6444
 335  596.7867
 336  636.5161
 337  478.3456
 338  -692.0241
 339  -508.9348
 340  85.80872
 341  2297.687
 342  2495.113
 343  2757.461
 344  1757.236
 345  519.7891
 346  668.1482
 347  1540.314
 348  4135.83
 349  5094.935
 350  5466.174
 351  3004.99
 352  1466.792
 353  668.4378
 354  1462.775
 355  1968.702
 356  2027.338
 357  2085.812
 358  1123.8
 359  171.9426
 360  -922.2333
 361  -1472.56
 362  -877.7842
 363  -400.3972
 364  -233.0643
 365  -55.74052
 366  -188.2664
 367  -748.5276
 368  -625.4436
 369  -600.9511
 370  -224.924
 371  -255.272
 372  -335.8629
 373  -370.6067
 374  -800.2898
 375  -595.4379
 376  -590.7035
 377  -1000.316
 378  -1001.149
 379  -826.7092
 380  -1094.908
 381  -1176.64
 382  -1039.816
 383  -594.405
 384  -528.6235
 385  -608.2308
 386  -1140.002
 387  -1015.388
 388  -1650.275
 389  -1630.936
 390  -885.0007
 391  -813.929
 392  -742.91
 393  -980.8427
 394  -1370.363
 395  -1473.802
 396  -1417.146
 397  -1065.504
 398  -1178.409
 399  -751.5768
 400  -641.5973
 401  1400.842
 402  2914.882
 403  5083.087
 404  4848.572
 405  4147.875
 406  1622.28
 407  526.1423
 408  1698.637
 409  4336.811
 410  5758.737
 411  4944.227
 412  4759.428
 413  723.2007
 414  51.1121
 415  -219.056
 416  85.856
 417  323.4584
 418  -880.2338
 419  -631.3574
 420  -891.9276
 421  -636.86
 422  -296.9247
 423  613.3154
 424  571.7676
 425  -387.8546
 426  -717.8549
 427  46.45259
 428  1565.47
 429  1947.792
 430  1949.443
 431  988.4186
 432  215.3786
 433  83.34621
 434  1472.961
 435  3481.325
 436  4240.393
 437  4399.655
 438  3552.344
 439  2061.61
 440  519.5326
 441  349.1743
 442  832.4205
 443  1081.497
 444  2060.537
 445  2134.367
 446  1834.339
 447  837.0513
 448  -182.0939
 449  -698.1824
 450  -1068.02
 451  -888.1945
 452  -938.6196
 453  -649.9265
 454  -1000.769
 455  -1584.263
 456  -1212.908
 457  -682.2512
 458  -915.6035
 459  -741.0568
 460  -666.0508
 461  -695.3924
 462  -890.1398
 463  -1125.769
 464  -951.9897
 465  -493.7483
 466  25.58796
 467  -209.555
 468  -332.0027
 469  -475.7028
 470  -701.5421
 471  -927.2638
 472  -715.9358
 473  -330.6051
 474  -581.1564
 475  -432.3431
 476  -740.9226
 477  -805.8167
 478  -868.6615
 479  -1226.268
 480  -995.713
 481  -358.9529
 482  243.5631
 483  -250.2698
 484  -596.455
 485  -865.4471
 486  -1225.77
 487  -1150.561
 488  -1092.646
 489  -886.0225
 490  -732.1649
 491  -642.1037
 492  -628.405
 493  -990.6563
 494  -1094.178
 495  -1040.32
 496  -693.1473
 497  -858.2981
 498  -634.1617
 499  -851.5804
 500  -578.3881
 501  -967.3108
 502  -973.3527
 503  -763.5696
 504  -1036.721
 505  -809.2267
 506  -1010.055
 507  -1362.057
 508  -559.9938
 509  98.80265
 510  744.4302
 511  1159.869
