# Input file       =  1197555195.115929_cleaned.dat
# Candidate        =  PSR_0332+5434
# Telescope        =  AR
# Epoch_topo       =  58104.592755971396
# Epoch_bary       =  N/A
# T_sample         =  0.002
# Data Folded      =  7405568
# Data Avg         =  0.0577336637278543
# Data StdDev      =  1.00001703064204 
# Profile Bins     =  512
# Profile Avg      =  835.063182969173 
# Profile StdDev   =  120.268419240498 
# Reduced chi-sqr  =  0.958
# Prob(Noise)      <  0.744   (~0.0 sigma)
# P_topo (ms)      =  714.542488800939  +/- 0.000177
# P'_topo (s/s)    =  -0                +/- 9.24e-11
# P''_topo (s/s^2) =  0                 +/- 4.04e-14
# P_bary (ms)      =  N/A
# P'_bary (s/s)    =  N/A
# P''_bary (s/s^2) =  N/A
# P_orb (s)        =  N/A
# asin(i)/c (s)    =  N/A
# eccentricity     =  N/A
# w (rad)          =  N/A
# T_peri           =  N/A
######################################################
   0  821.0498
   1  787.9238
   2  836.1058
   3  837.6471
   4  819.2203
   5  805.2769
   6  751.0173
   7  832.6669
   8  789.0637
   9  778.1771
  10  740.4065
  11  763.9337
  12  758.0452
  13  897.0604
  14  926.6008
  15  834.9871
  16  895.8784
  17  901.5236
  18  702.7113
  19  697.9731
  20  720.3704
  21  747.009
  22  741.4485
  23  881.1136
  24  724.8726
  25  633.6785
  26  684.6883
  27  790.8457
  28  757.7493
  29  912.1923
  30  981.9502
  31  952.5624
  32  890.3812
  33  835.389
  34  856.0552
  35  921.0026
  36  801.1036
  37  792.7169
  38  700.657
  39  686.4268
  40  753
  41  918.6357
  42  921.239
  43  769.9135
  44  778.3563
  45  780.7913
  46  761.7025
  47  835.3347
  48  756.2161
  49  775.2879
  50  823.5459
  51  740.3948
  52  805.0518
  53  811.8954
  54  840.303
  55  882.7753
  56  936.7305
  57  1028.815
  58  875.1888
  59  744.7375
  60  715.2077
  61  770.5352
  62  770.4633
  63  835.0583
  64  874.6259
  65  820.1123
  66  818.701
  67  685.2119
  68  875.4135
  69  874.8777
  70  786.2865
  71  765.1595
  72  831.5071
  73  749.6864
  74  735.1391
  75  757.3262
  76  694.1205
  77  817.1176
  78  818.0258
  79  893.342
  80  926.827
  81  881.183
  82  846.3231
  83  727.1283
  84  873.8965
  85  835.0543
  86  641.8626
  87  542.0247
  88  746.1609
  89  797.8162
  90  666.3967
  91  699.8561
  92  728.4681
  93  722.0304
  94  831.1304
  95  783.5055
  96  747.4159
  97  810.0219
  98  843.72
  99  861.4878
 100  852.5894
 101  736.4866
 102  738.6906
 103  865.5929
 104  773.9579
 105  797.4484
 106  890.7794
 107  930.8536
 108  856.1824
 109  851.1199
 110  914.3629
 111  879.6658
 112  821.876
 113  955.1675
 114  951.5364
 115  1029.326
 116  938.21
 117  920.3307
 118  959.4724
 119  795.3406
 120  708.1884
 121  844.8113
 122  897.2999
 123  759.3542
 124  739.4373
 125  785.6228
 126  750.6829
 127  731.5393
 128  886.2867
 129  830.1859
 130  734.8438
 131  886.427
 132  1000.583
 133  967.7408
 134  796.9171
 135  789.2462
 136  826.563
 137  796.0545
 138  802.2563
 139  789.5319
 140  872.2814
 141  749.929
 142  737.3331
 143  786.8691
 144  807.6726
 145  686.2136
 146  765.944
 147  884.34
 148  896.4879
 149  865.4126
 150  772.2158
 151  697.6945
 152  759.9499
 153  730.7734
 154  812.72
 155  786.6765
 156  875.4309
 157  902.8503
 158  854.8406
 159  879.9544
 160  833.3336
 161  890.2016
 162  1014.346
 163  965.4
 164  994.0572
 165  1188.696
 166  1128.814
 167  1131.75
 168  1157.63
 169  1065.833
 170  919.7957
 171  836.8596
 172  815.395
 173  832.5908
 174  767.353
 175  816.6274
 176  841.3373
 177  753.8496
 178  836.8462
 179  820.4047
 180  797.4533
 181  868.5311
 182  839.3909
 183  811.7902
 184  743.3118
 185  766.9157
 186  810.7302
 187  721.008
 188  681.5965
 189  760.4944
 190  760.7668
 191  879.7344
 192  941.0338
 193  806.4076
 194  745.8107
 195  787.3784
 196  835.8774
 197  923.5079
 198  939.1485
 199  952.1586
 200  842.6066
 201  815.7853
 202  795.1205
 203  950.3862
 204  954.5671
 205  923.5929
 206  860.871
 207  790.7386
 208  793.7612
 209  956.5617
 210  970.596
 211  943.0892
 212  869.4752
 213  949.2392
 214  1041.56
 215  1048.859
 216  968.1346
 217  926.5303
 218  879.8842
 219  881.4287
 220  864.7174
 221  850.4159
 222  892.3755
 223  914.7649
 224  1042.01
 225  937.47
 226  784.9199
 227  876.3384
 228  870.4335
 229  803.7913
 230  825.0413
 231  839.9713
 232  896.5196
 233  837.4347
 234  751.8352
 235  705.0614
 236  756.7083
 237  736.8037
 238  882.9302
 239  888.913
 240  839.4053
 241  770.0438
 242  788.2299
 243  828.1505
 244  843.7716
 245  938.7016
 246  977.3352
 247  1015.178
 248  915.2048
 249  791.1951
 250  893.0305
 251  744.0535
 252  777.0767
 253  929.9628
 254  886.866
 255  976.096
 256  884.0438
 257  803.8559
 258  823.3323
 259  774.9797
 260  730.0381
 261  820.9589
 262  881.7601
 263  904.2111
 264  807.459
 265  687.469
 266  752.2812
 267  767.9531
 268  746.885
 269  740.6174
 270  745.6217
 271  813.3889
 272  701.556
 273  724.4811
 274  810.1315
 275  939.1492
 276  963.5816
 277  720.0651
 278  694.7184
 279  803.6369
 280  839.946
 281  766.3596
 282  905.4647
 283  939.7924
 284  843.6634
 285  860.6215
 286  956.8234
 287  817.7275
 288  800.4884
 289  720.0603
 290  711.6592
 291  831.4138
 292  833.3094
 293  812.3896
 294  941.978
 295  1019.658
 296  888.5037
 297  807.6271
 298  811.9366
 299  771.951
 300  848.3525
 301  814.6965
 302  797.5125
 303  751.6376
 304  958.656
 305  916.2985
 306  887.7499
 307  817.6742
 308  854.7042
 309  867.0685
 310  886.3167
 311  869.4427
 312  842.7428
 313  866.7489
 314  863.8928
 315  881.3243
 316  842.043
 317  864.8
 318  991.174
 319  899.8318
 320  869.0491
 321  850.9123
 322  903.9967
 323  939.1884
 324  896.2181
 325  890.0474
 326  815.4022
 327  870.6508
 328  992.6934
 329  1077.705
 330  912.7652
 331  862.22
 332  882.4756
 333  848.1617
 334  896.2469
 335  919.2905
 336  840.5783
 337  738.9855
 338  722.1082
 339  751.5345
 340  843.4567
 341  814.6997
 342  779.7509
 343  876.8712
 344  959.6251
 345  964.0278
 346  892.4523
 347  818.8853
 348  751.9035
 349  770.0538
 350  799.175
 351  836.3433
 352  819.3312
 353  944.4634
 354  970.4522
 355  906.8156
 356  807.304
 357  890.4882
 358  959.1216
 359  800.7274
 360  831.7546
 361  880.7437
 362  916.0729
 363  910.5148
 364  896.634
 365  906.1782
 366  759.3442
 367  868.4175
 368  832.4485
 369  857.3492
 370  833.1725
 371  920.8555
 372  950.3683
 373  898.6069
 374  806.2471
 375  873.4985
 376  941.0771
 377  834.9028
 378  745.6685
 379  807.9159
 380  771.1653
 381  794.5937
 382  827.765
 383  865.058
 384  697.7074
 385  742.4044
 386  836.9069
 387  974.4289
 388  901.3324
 389  829.3516
 390  848.2363
 391  916.2313
 392  806.9186
 393  829.7061
 394  894.3893
 395  909.9915
 396  809.5194
 397  769.6988
 398  922.5944
 399  951.4241
 400  780.218
 401  866.7796
 402  921.5065
 403  916.9973
 404  884.4544
 405  854.136
 406  895.2524
 407  919.1982
 408  901.7843
 409  937.324
 410  929.9086
 411  815.3079
 412  941.8397
 413  919.6622
 414  870.092
 415  765.0068
 416  723.6697
 417  755.2106
 418  866.2524
 419  926.0987
 420  913.6172
 421  726.9001
 422  667.2238
 423  657.2676
 424  742.212
 425  834.6289
 426  843.9664
 427  785.1146
 428  873.0441
 429  922.3677
 430  754.915
 431  794.9515
 432  855.5632
 433  869.3723
 434  832.757
 435  844.8503
 436  814.0543
 437  798.8954
 438  817.3134
 439  789.8546
 440  722.7158
 441  696.1196
 442  769.8278
 443  823.1959
 444  878.5248
 445  858.3602
 446  919.5878
 447  875.2516
 448  699.442
 449  778.5118
 450  765.5612
 451  930.1526
 452  881.664
 453  843.7513
 454  889.1531
 455  845.6156
 456  723.8931
 457  858.6608
 458  845.8376
 459  779.0354
 460  833.0726
 461  966.2341
 462  835.2667
 463  681.59
 464  712.7752
 465  698.056
 466  743.9617
 467  835.1666
 468  885.0019
 469  765.9206
 470  737.439
 471  780.7109
 472  807.8345
 473  843.685
 474  804.6966
 475  803.9461
 476  794.4934
 477  766.6802
 478  720.461
 479  812.8915
 480  840.404
 481  814.7352
 482  859.6816
 483  744.032
 484  780.7792
 485  835.8525
 486  892.0336
 487  848.5616
 488  786.0461
 489  717.8563
 490  825.4965
 491  713.1988
 492  696.5637
 493  634.6377
 494  614.0117
 495  758.3008
 496  768.6175
 497  787.4203
 498  748.4278
 499  835.066
 500  865.9479
 501  739.8805
 502  899.2471
 503  832.5851
 504  791.8015
 505  790.9658
 506  835.7363
 507  817.8847
 508  844.7573
 509  961.993
 510  907.7121
 511  856.7278
