# Input file       =  1197407269.136531_cleaned.dat
# Candidate        =  PSR_0332+5434
# Telescope        =  AR
# Epoch_topo       =  58102.880649728366
# Epoch_bary       =  N/A
# T_sample         =  0.002
# Data Folded      =  7340032
# Data Avg         =  0.331038113212605
# Data StdDev      =  5.46858030137397 
# Profile Bins     =  512
# Profile Avg      =  4746.26104526821 
# Profile StdDev   =  654.769724153676 
# Reduced chi-sqr  =  0.455
# Prob(Noise)      <  1   (~0.0 sigma)
# P_topo (ms)      =  714.541016462229  +/- 0.000895
# P'_topo (s/s)    =  -0                +/- 4.72e-10
# P''_topo (s/s^2) =  0                 +/- 2.09e-13
# P_bary (ms)      =  N/A
# P'_bary (s/s)    =  N/A
# P''_bary (s/s^2) =  N/A
# P_orb (s)        =  N/A
# asin(i)/c (s)    =  N/A
# eccentricity     =  N/A
# w (rad)          =  N/A
# T_peri           =  N/A
######################################################
   0  4506.551
   1  4813.085
   2  4584.93
   3  4758.237
   4  4662.834
   5  4577.931
   6  4729.77
   7  4713.139
   8  4993.179
   9  5017.71
  10  4405.135
  11  4561.988
  12  4447.173
  13  4641.413
  14  5232.851
  15  5494.699
  16  5312.041
  17  4975.255
  18  4924.839
  19  4490.218
  20  4299.747
  21  4383.195
  22  5079.144
  23  5036.169
  24  4795.175
  25  4708.346
  26  4607.318
  27  4450.52
  28  4605.256
  29  5025.754
  30  4969.412
  31  4818.571
  32  4588.559
  33  4968.376
  34  4972.831
  35  5082.616
  36  4948.757
  37  5041.694
  38  4888.934
  39  4687.604
  40  4985.385
  41  4894.95
  42  4873.894
  43  4778.133
  44  4792.069
  45  4313.652
  46  4121.042
  47  4266.232
  48  4286.515
  49  4375.449
  50  5095.035
  51  5074.241
  52  4811.06
  53  4856.027
  54  4553.223
  55  4554.739
  56  4371.789
  57  4575.32
  58  4942.255
  59  4977.268
  60  5040.728
  61  5052.953
  62  4677.86
  63  4447.115
  64  4887.064
  65  5081.897
  66  5447.933
  67  5279.336
  68  4854.028
  69  4873.287
  70  5109.582
  71  5363.838
  72  5055.859
  73  4985.265
  74  4973.344
  75  5301.138
  76  5316.676
  77  5239.01
  78  4545.07
  79  5082.952
  80  5136.873
  81  4934.731
  82  4805.393
  83  5054.86
  84  5243.926
  85  5274.447
  86  5231.581
  87  5246.297
  88  4925.754
  89  5018.452
  90  5236.642
  91  5452.75
  92  5335.605
  93  5480.369
  94  5433.796
  95  5414.389
  96  4993.822
  97  4571.216
  98  4519.836
  99  4847.712
 100  5265.333
 101  5234.501
 102  4976.247
 103  5056.934
 104  4920.815
 105  4758.356
 106  4615.236
 107  4873.525
 108  5196.459
 109  5029.507
 110  4630.126
 111  4588.094
 112  4604.409
 113  4708.174
 114  4683.202
 115  4731.975
 116  4723.527
 117  4604.856
 118  4681.562
 119  4451.634
 120  4354.474
 121  4563.557
 122  4496.998
 123  4295.123
 124  4226.313
 125  4065.006
 126  4541.337
 127  4556.558
 128  4821.663
 129  4599.684
 130  4643.365
 131  4080.433
 132  4692.715
 133  4763.497
 134  4601.207
 135  4678.36
 136  5072.668
 137  5041.272
 138  4904.872
 139  4539.707
 140  4915.804
 141  5030.039
 142  5183.583
 143  4908.667
 144  4714.85
 145  4762.542
 146  4641.788
 147  4665.883
 148  4547.274
 149  4876.644
 150  4787.168
 151  4628.323
 152  4671.124
 153  4232.64
 154  4414.255
 155  4362.573
 156  4296.604
 157  4626.125
 158  4511.595
 159  4767.535
 160  4339.949
 161  4362.347
 162  4361.621
 163  4417.84
 164  4626.284
 165  5157.558
 166  4937.175
 167  5007.396
 168  4944.384
 169  5216.068
 170  5006.575
 171  5137.905
 172  5370.792
 173  5236.089
 174  5227.704
 175  4955.921
 176  4843.129
 177  4810.706
 178  5043.1
 179  5318.718
 180  5278.606
 181  4995.412
 182  5121.678
 183  5195.387
 184  5484.579
 185  5279.581
 186  5106.73
 187  5054.042
 188  4815.3
 189  5076.452
 190  5224.32
 191  5257.775
 192  4883.598
 193  4973.602
 194  5293.476
 195  4757.839
 196  4454.423
 197  4547.365
 198  5039.887
 199  5020.758
 200  5364.236
 201  5061.925
 202  4800.681
 203  4642.434
 204  4639.833
 205  4948.623
 206  5199.441
 207  5467.42
 208  5433.06
 209  5067.131
 210  5078.816
 211  5046.862
 212  5539.668
 213  5426.796
 214  5279.088
 215  5146.393
 216  4946.329
 217  4690.362
 218  4600.746
 219  4589.595
 220  4618.241
 221  4548.386
 222  4621.761
 223  5017.25
 224  4844.068
 225  4838.216
 226  4830.34
 227  4652.263
 228  4610.185
 229  4687.296
 230  4710.115
 231  4423.415
 232  4588.193
 233  4847.774
 234  4576.026
 235  4042.766
 236  4235.346
 237  4421.611
 238  4488.402
 239  4860.735
 240  4594.641
 241  4627.623
 242  4600.764
 243  4865.648
 244  4747.146
 245  4855.144
 246  4465.146
 247  4545.671
 248  4557.803
 249  4784.34
 250  4619.08
 251  4536.075
 252  4332.213
 253  4554.566
 254  4708.196
 255  4525.734
 256  4438.118
 257  4498.118
 258  4635.499
 259  4835.557
 260  4664.488
 261  4126.129
 262  4271.413
 263  4444.594
 264  4590.545
 265  4386.622
 266  4246.665
 267  4435.134
 268  4281.536
 269  4340.747
 270  4313.339
 271  4304.999
 272  4652.526
 273  5036.26
 274  5002.185
 275  4464.253
 276  4357.27
 277  4574.797
 278  4540.678
 279  5032.585
 280  5037.994
 281  4577.992
 282  4773.552
 283  4626.762
 284  4395.22
 285  4278.86
 286  4410.928
 287  4471.289
 288  4595.471
 289  4744.897
 290  4897.01
 291  4650.596
 292  5134.658
 293  4978.458
 294  4815.843
 295  4457.565
 296  4352.605
 297  4696.798
 298  4924.555
 299  4757.382
 300  4673.855
 301  5114.944
 302  5360.959
 303  4807.788
 304  4539.869
 305  4714.483
 306  4489.63
 307  4727.97
 308  4776.809
 309  4952.448
 310  5228.909
 311  4972.922
 312  5307.12
 313  5179.75
 314  5204.327
 315  4995.922
 316  4836.145
 317  4495.392
 318  4755.833
 319  4971.505
 320  5151.545
 321  5326.514
 322  4967.271
 323  4557.45
 324  4540.311
 325  4406.495
 326  4765.997
 327  4820.714
 328  4626.592
 329  4981.9
 330  4982.699
 331  5267.539
 332  5093.366
 333  4793.276
 334  4749.283
 335  4923.995
 336  4860.243
 337  4931.14
 338  4845.439
 339  4791.765
 340  4876.956
 341  5028.158
 342  5037.312
 343  4943.721
 344  5040.965
 345  5121.083
 346  4637.229
 347  4653.801
 348  4693.781
 349  4670.695
 350  4304.476
 351  4331.162
 352  4513.74
 353  4552.392
 354  4817.08
 355  4864.734
 356  4667.073
 357  4467.405
 358  4931.857
 359  4973.831
 360  4644.799
 361  4843.746
 362  4752.222
 363  5095.787
 364  4764.947
 365  4813.206
 366  4692.902
 367  4645.63
 368  4387.941
 369  3993.26
 370  4144.353
 371  4198.357
 372  4303.711
 373  4492.997
 374  4436.803
 375  4344.972
 376  4250.283
 377  4491.623
 378  4536.29
 379  4690.307
 380  4955.311
 381  4394.638
 382  4044.417
 383  4049.861
 384  4358.622
 385  4637.055
 386  4342.078
 387  4446.982
 388  4718.301
 389  4195.794
 390  4647.342
 391  4833.397
 392  4665.535
 393  4504.771
 394  4237.925
 395  4611.352
 396  4714.778
 397  5164.36
 398  4892.089
 399  5026.598
 400  4807.159
 401  4829.157
 402  4931.208
 403  4873.04
 404  4913.729
 405  4787.796
 406  5229.304
 407  5012.978
 408  4918.42
 409  4961.595
 410  4871.762
 411  4916.82
 412  4813.351
 413  4752.87
 414  4623.084
 415  5133.549
 416  5286.857
 417  4931.503
 418  4313.75
 419  4212.027
 420  3992.127
 421  4099.054
 422  4276.904
 423  4607.58
 424  4724.298
 425  4695.992
 426  4775.089
 427  4576.287
 428  4562.473
 429  4196.68
 430  4289.68
 431  4560.736
 432  4686.79
 433  5040.917
 434  5094.186
 435  4987.949
 436  4566.769
 437  4501.083
 438  4502.979
 439  4280.645
 440  4556.494
 441  4800.691
 442  4387.499
 443  4234.879
 444  4275.224
 445  4234.091
 446  4584.429
 447  4528.004
 448  4388.202
 449  4154.62
 450  3986.492
 451  4173.727
 452  4459.251
 453  4167.688
 454  4488.912
 455  4163.753
 456  4173.685
 457  4294.648
 458  4556.094
 459  4816.886
 460  4716.448
 461  4377.279
 462  4787.239
 463  4777.094
 464  5000.981
 465  5367.836
 466  5169.16
 467  4888.785
 468  4621.354
 469  4370.374
 470  4997.111
 471  4898.451
 472  4741.816
 473  4484.119
 474  4486.264
 475  4308.763
 476  4298.81
 477  4366.116
 478  4527.732
 479  4621.378
 480  4949.104
 481  4959.93
 482  4405.258
 483  4032.963
 484  4161.132
 485  4655.185
 486  4772.492
 487  4729.673
 488  5043.272
 489  4978.584
 490  4778.707
 491  4930.299
 492  4637.892
 493  4131.783
 494  4077.566
 495  4370.892
 496  4690.228
 497  4803.684
 498  4864.461
 499  4499.408
 500  4540.971
 501  4940.761
 502  5124.277
 503  5071.759
 504  5067.351
 505  4856.82
 506  4611.654
 507  4619.098
 508  4741.536
 509  4755.674
 510  4637.982
 511  4614.707
