# Input file       =  1197670746.104753_cleaned.dat
# Candidate        =  PSR_0332+5434
# Telescope        =  AR
# Epoch_topo       =  58105.930151675384
# Epoch_bary       =  N/A
# T_sample         =  0.002
# Data Folded      =  7340032
# Data Avg         =  0.110195002569526
# Data StdDev      =  3.95179162575184 
# Profile Bins     =  512
# Profile Avg      =  1579.98039499488 
# Profile StdDev   =  473.160010479545 
# Reduced chi-sqr  =  0.684
# Prob(Noise)      <  1   (~0.0 sigma)
# P_topo (ms)      =  714.544142806383  +/- 0.000625
# P'_topo (s/s)    =  -0                +/- 3.3e-10
# P''_topo (s/s^2) =  0                 +/- 1.46e-13
# P_bary (ms)      =  N/A
# P'_bary (s/s)    =  N/A
# P''_bary (s/s^2) =  N/A
# P_orb (s)        =  N/A
# asin(i)/c (s)    =  N/A
# eccentricity     =  N/A
# w (rad)          =  N/A
# T_peri           =  N/A
######################################################
   0  1679.457
   1  1543.442
   2  1551.809
   3  1323.899
   4  1361.396
   5  1179.691
   6  663.2371
   7  888.6392
   8  1292.214
   9  1775.183
  10  1661.819
  11  1430.747
  12  1557.76
  13  1238.303
  14  1268.412
  15  1346.534
  16  1762.252
  17  1905.773
  18  1753.152
  19  1446.129
  20  1310.744
  21  1411.491
  22  1627.604
  23  2008.733
  24  1798.25
  25  1430.487
  26  1365.823
  27  1902.977
  28  1903.89
  29  2111.163
  30  2028.75
  31  1934.706
  32  1768.458
  33  1742.817
  34  1824.329
  35  1662.36
  36  1963.655
  37  1903.86
  38  1882.177
  39  1991.294
  40  2055.65
  41  1947.23
  42  1762.072
  43  1773.34
  44  1298.752
  45  1566.103
  46  1869.527
  47  1783.774
  48  1797.543
  49  1844.873
  50  1713.708
  51  1671.88
  52  1824.676
  53  1642.279
  54  1984.976
  55  1878.845
  56  1586.74
  57  1679.327
  58  1536.586
  59  1428.545
  60  1583.281
  61  1672.092
  62  1813.73
  63  1954.883
  64  1827.123
  65  1777.073
  66  1968.281
  67  1761.936
  68  1735.146
  69  1963.033
  70  2262.433
  71  1911.972
  72  1840.184
  73  1867.25
  74  1500.004
  75  1669.739
  76  1698.64
  77  1342.859
  78  1427.616
  79  1550.525
  80  1346.801
  81  1443.756
  82  1692.277
  83  1566.988
  84  1491.578
  85  1635.515
  86  1631.747
  87  1179.424
  88  1328.481
  89  1245.69
  90  1285.263
  91  1602.696
  92  1700.629
  93  1358.815
  94  1538.38
  95  1574.984
  96  1623.241
  97  1789.708
  98  2182.146
  99  1908.129
 100  1517.592
 101  1782.806
 102  1760.783
 103  1695.281
 104  1668.597
 105  1724.568
 106  1222.725
 107  1169.241
 108  1168.549
 109  1204.319
 110  1220.343
 111  1434.425
 112  1285.477
 113  1035.998
 114  1281.784
 115  1610.34
 116  1580.58
 117  1404.221
 118  1329.48
 119  954.6394
 120  634.4583
 121  818.0448
 122  1529.088
 123  1596.89
 124  1404.044
 125  1526.23
 126  1652.447
 127  1581.014
 128  1412.63
 129  1521.085
 130  1448.665
 131  1135.569
 132  1159.714
 133  1162.913
 134  1267.292
 135  1336.626
 136  1303.885
 137  1399.347
 138  1507.399
 139  1847.818
 140  1642.753
 141  1991.816
 142  2513.541
 143  2951.073
 144  2233.493
 145  2372.048
 146  2084.824
 147  1787.333
 148  1818.342
 149  1639.001
 150  1737.231
 151  1710.434
 152  1481.795
 153  1513.216
 154  1634.97
 155  1755.642
 156  1602.494
 157  1519.885
 158  1995.647
 159  1846.05
 160  1944.488
 161  2143.72
 162  1429.401
 163  1635.942
 164  1783.295
 165  2106.74
 166  1839.665
 167  1448.227
 168  1440.422
 169  1578.222
 170  1379.845
 171  1013.411
 172  1014.902
 173  1607.009
 174  1870.665
 175  1747.116
 176  1535.732
 177  1332.676
 178  1261.963
 179  1667.877
 180  1679.617
 181  1691.749
 182  1470.101
 183  1516.611
 184  1711.649
 185  1524.649
 186  1140.458
 187  1395.022
 188  1581.183
 189  1584.487
 190  1555.102
 191  1640.724
 192  1309.747
 193  1429.231
 194  1867.039
 195  1591.63
 196  1318.232
 197  1547.206
 198  1470.918
 199  1715.216
 200  1571.69
 201  1608.446
 202  1579.414
 203  1182.6
 204  1200.73
 205  1288.134
 206  1758.857
 207  1826.252
 208  1832.642
 209  1810.826
 210  1331.527
 211  1499.036
 212  1506.072
 213  1672.746
 214  1481.829
 215  1662.559
 216  1758.408
 217  2179.5
 218  1932.31
 219  1801.984
 220  1533.322
 221  1190.06
 222  1406.223
 223  1405.185
 224  1689.011
 225  1533.623
 226  1500.76
 227  1244.441
 228  1590.508
 229  1685.517
 230  1655.821
 231  1705.491
 232  1745.897
 233  1512.87
 234  1525.929
 235  1638.597
 236  1546.606
 237  1829.547
 238  1695.139
 239  1481.53
 240  1689.711
 241  1685.945
 242  1739.965
 243  1877.645
 244  1786.665
 245  1564.035
 246  1490.24
 247  1770.497
 248  1855.633
 249  1658.189
 250  1413.418
 251  1700.362
 252  1617.539
 253  1331.81
 254  1445.049
 255  1447.372
 256  1694.148
 257  1926.099
 258  2100.93
 259  1963.14
 260  1480.329
 261  1669.151
 262  1618.692
 263  2012.301
 264  2171.523
 265  2143.48
 266  2115.907
 267  1879.482
 268  1634.285
 269  1852.071
 270  2472.753
 271  2082.889
 272  1651.039
 273  1615.325
 274  1549.213
 275  1844.806
 276  1771.096
 277  1839.768
 278  2099.02
 279  1942.638
 280  2183.662
 281  1948.467
 282  1901.4
 283  2075.012
 284  2069.713
 285  1996.769
 286  1990.23
 287  1769.896
 288  1631.676
 289  1859.293
 290  1982.488
 291  1907.362
 292  2316.66
 293  1727.499
 294  1871.864
 295  1658.073
 296  1742.822
 297  1786.188
 298  1707.005
 299  1819.195
 300  1578.986
 301  1624.25
 302  2021.373
 303  1919.542
 304  2019.453
 305  1834.771
 306  1712.918
 307  1828.251
 308  1899.521
 309  1969.391
 310  1268.062
 311  1392.411
 312  1618.842
 313  1582.917
 314  1662.059
 315  1224.057
 316  1714.095
 317  1589.804
 318  1274.436
 319  1206.663
 320  1813.976
 321  1529.139
 322  1445.973
 323  1108.317
 324  1093.28
 325  1427.69
 326  1546.326
 327  1585.733
 328  1499.221
 329  1433.675
 330  1435.173
 331  1215.045
 332  1581.839
 333  1525.932
 334  1332.413
 335  1743.953
 336  1523.488
 337  1618.358
 338  1481.807
 339  1382.429
 340  1705.801
 341  1638.295
 342  1666.017
 343  1817.912
 344  1580.801
 345  1677.417
 346  1917.072
 347  1691.841
 348  1834.657
 349  1921.291
 350  2007.727
 351  1855.977
 352  1443.207
 353  1634.246
 354  1394.147
 355  1462.29
 356  1221.402
 357  1310.845
 358  1360.705
 359  1566.541
 360  1227.672
 361  1084.257
 362  990.375
 363  1349.922
 364  1421.784
 365  1705.813
 366  1455.848
 367  1172.552
 368  1535.005
 369  1664.656
 370  1555.948
 371  1471.538
 372  1273.659
 373  1551.638
 374  1350.529
 375  1226.894
 376  1206.027
 377  1135.801
 378  1310.058
 379  1650.913
 380  1735.804
 381  1397.776
 382  1422.331
 383  1277.467
 384  1098.368
 385  1307.195
 386  1290.731
 387  1824.076
 388  1378.799
 389  1085.177
 390  1155.609
 391  1090.262
 392  1439.057
 393  1302.243
 394  1253.704
 395  1672.054
 396  1925.556
 397  1793.65
 398  1566.552
 399  1433.906
 400  1528.36
 401  1691.055
 402  1468.571
 403  1283.834
 404  1189.62
 405  1537.73
 406  1605.787
 407  1591.013
 408  1309.497
 409  1452.672
 410  1513.76
 411  1040.365
 412  873.4293
 413  1425.589
 414  1594.899
 415  1625.661
 416  1409.802
 417  1198.419
 418  1358.857
 419  1913.639
 420  2030.093
 421  1641.877
 422  1366.531
 423  1422.561
 424  1560.535
 425  1930.71
 426  1906.535
 427  1691.831
 428  1725.397
 429  1504.172
 430  1729.907
 431  1677.575
 432  1186.099
 433  1304.119
 434  1312.402
 435  1266.174
 436  1422.043
 437  1635.878
 438  1614.068
 439  1713.964
 440  1141.962
 441  1070.341
 442  1518.457
 443  1613.648
 444  1469.344
 445  1653.475
 446  1660.708
 447  1427.071
 448  1145.407
 449  1301.373
 450  1351.64
 451  1594.545
 452  1510.822
 453  1357.474
 454  1115.934
 455  1201.457
 456  985.0406
 457  1295.222
 458  1588.917
 459  1600.642
 460  1565.42
 461  1468.12
 462  1552.964
 463  1562.224
 464  1139.924
 465  1409.012
 466  1414.34
 467  1881.93
 468  1753.171
 469  2018.814
 470  1606.479
 471  1625.392
 472  1249.727
 473  1270.901
 474  1010.92
 475  1230.346
 476  1330.928
 477  1641.86
 478  1591.597
 479  1375.103
 480  1523.23
 481  1463.958
 482  1271.739
 483  1338.047
 484  1532.439
 485  1279.193
 486  1505.951
 487  1429.356
 488  1302.664
 489  1401.526
 490  1870.742
 491  1800.435
 492  1640.849
 493  1639.305
 494  1772.754
 495  1568.322
 496  1351.441
 497  1529.916
 498  1826.767
 499  1826.885
 500  1795.34
 501  1415.842
 502  1533.204
 503  1485.871
 504  1183.285
 505  1193.096
 506  1300.097
 507  1361.073
 508  1319.757
 509  1360.563
 510  1154.026
 511  1144.296
