# Input file       =  1197484280.100448_cleaned.dat
# Candidate        =  PSR_0332+5434
# Telescope        =  AR
# Epoch_topo       =  58103.771980329257
# Epoch_bary       =  N/A
# T_sample         =  0.002
# Data Folded      =  7340032
# Data Avg         =  0.244268330236082
# Data StdDev      =  4.3595799690333  
# Profile Bins     =  256
# Profile Avg      =  7002.05421082955 
# Profile StdDev   =  738.19932280069  
# Reduced chi-sqr  =  0.696
# Prob(Noise)      <  1   (~0.0 sigma)
# P_topo (ms)      =  714.541705616193  +/- 0.00042
# P'_topo (s/s)    =  -0                +/- 2.22e-10
# P''_topo (s/s^2) =  0                 +/- 9.79e-14
# P_bary (ms)      =  N/A
# P'_bary (s/s)    =  N/A
# P''_bary (s/s^2) =  N/A
# P_orb (s)        =  N/A
# asin(i)/c (s)    =  N/A
# eccentricity     =  N/A
# w (rad)          =  N/A
# T_peri           =  N/A
######################################################
   0  6617.876
   1  6467.786
   2  6014.285
   3  6015.807
   4  6142.887
   5  5862.319
   6  6265.495
   7  6100.247
   8  6583.891
   9  7443.009
  10  6423.851
  11  6259.837
  12  6944.989
  13  7438.233
  14  6460.846
  15  6954.017
  16  6800.542
  17  7208.232
  18  7260.257
  19  6711.174
  20  7925.401
  21  6365.703
  22  7048.885
  23  6686.697
  24  5864.108
  25  6597.216
  26  6846.425
  27  6604.816
  28  6338.368
  29  7027.239
  30  6845.034
  31  7143.188
  32  7037.36
  33  6721.582
  34  7469.062
  35  7325.75
  36  6685.711
  37  6582.063
  38  7040.321
  39  7304.938
  40  7218.086
  41  6797.622
  42  7281.711
  43  7784.129
  44  7274.578
  45  6811.667
  46  6765.265
  47  6909.402
  48  7315.473
  49  6818.522
  50  6879.149
  51  7683.268
  52  6833.471
  53  6942.959
  54  7184.114
  55  6444.094
  56  6897.364
  57  6623.185
  58  6834.933
  59  7379.473
  60  6705.392
  61  6833.255
  62  6648.559
  63  6041.52
  64  6436.451
  65  6152.577
  66  6492.25
  67  6807.323
  68  7247.655
  69  6387.9
  70  7178.113
  71  7282.552
  72  6648.888
  73  6464.974
  74  6190.995
  75  6300.571
  76  6421.413
  77  6132.581
  78  6399.644
  79  7004.59
  80  6969.254
  81  6208.097
  82  6666.996
  83  6498.019
  84  6833.035
  85  7842.535
  86  7158.234
  87  7336.461
  88  6934.361
  89  7451.881
  90  6382.56
  91  7019.756
  92  6943.719
  93  6055.449
  94  7006.075
  95  6850.172
  96  7154.505
  97  6696.875
  98  6801.418
  99  6817.423
 100  6813.774
 101  6690.956
 102  6956.35
 103  6857.052
 104  7209.801
 105  7300.66
 106  7784.536
 107  7480.513
 108  7915.333
 109  6879.268
 110  6648.708
 111  7107.289
 112  6776.146
 113  7045.276
 114  7181.901
 115  8073.715
 116  6870.772
 117  7136.854
 118  7499.125
 119  8012.13
 120  7169.873
 121  7330.056
 122  7406.344
 123  5925.652
 124  6820.177
 125  7035.561
 126  6858.084
 127  7297.733
 128  7236.268
 129  7417.823
 130  6377.046
 131  6747.217
 132  7046.523
 133  7441.527
 134  6908.013
 135  6886.25
 136  6790.421
 137  7567.868
 138  7559.42
 139  6666.784
 140  6872.737
 141  6920.633
 142  8010.086
 143  6699.815
 144  7451.888
 145  8257.887
 146  7478.001
 147  8441.823
 148  7973.415
 149  7492.788
 150  7732.229
 151  7736.739
 152  7362.892
 153  7179.727
 154  7661.061
 155  8886
 156  9583.314
 157  8738.503
 158  7698.46
 159  7326.021
 160  6619.562
 161  6736.993
 162  6952.764
 163  7265.469
 164  7630.094
 165  7301.149
 166  6759.142
 167  6360.185
 168  7263.385
 169  6932.554
 170  6697.366
 171  6613.763
 172  7116.376
 173  7331.862
 174  7319.857
 175  7576.374
 176  7116.741
 177  6970.292
 178  7777.604
 179  7632.426
 180  8163.772
 181  7563.928
 182  7602.826
 183  7208.583
 184  7244.011
 185  7081.263
 186  6092.441
 187  6229.551
 188  7081.506
 189  6526.843
 190  6138.854
 191  7460.707
 192  7586.46
 193  7372.529
 194  7613.62
 195  7096.586
 196  6129.648
 197  6402.031
 198  6797.841
 199  7076.463
 200  7110.805
 201  7170.015
 202  7683.29
 203  6849.365
 204  7120.907
 205  7635.302
 206  6565.696
 207  6736.537
 208  6636.136
 209  6264.354
 210  6231.19
 211  6577.821
 212  6251.074
 213  6354.556
 214  7125.352
 215  6743.425
 216  7123.574
 217  6519.685
 218  6451.707
 219  6633.37
 220  6774.498
 221  6757.422
 222  6760.573
 223  6996.465
 224  6516.665
 225  6640.409
 226  6483.78
 227  6785.159
 228  7352.11
 229  7487.008
 230  7010.546
 231  7843.192
 232  7215.203
 233  7422.198
 234  7085.169
 235  7937.766
 236  7442.976
 237  7282.613
 238  6500.315
 239  7094.47
 240  7355.628
 241  7418.626
 242  6854.593
 243  7035.233
 244  7216.791
 245  7153.687
 246  7240.354
 247  7181.272
 248  6718.075
 249  6980.443
 250  7314.973
 251  7124.285
 252  7322.534
 253  7105.918
 254  6787.057
 255  6349.533
