# Input file       =  1198173788.111938_cleaned.dat
# Candidate        =  PSR_0332+5434
# Telescope        =  AR
# Epoch_topo       =  58111.752397128912
# Epoch_bary       =  N/A
# T_sample         =  0.002
# Data Folded      =  7340032
# Data Avg         =  0.0383930130058831
# Data StdDev      =  1.00005859779703 
# Profile Bins     =  512
# Profile Avg      =  550.393021039099 
# Profile StdDev   =  119.74005246893  
# Reduced chi-sqr  =  0.773
# Prob(Noise)      <  1   (~0.0 sigma)
# P_topo (ms)      =  714.549348674917  +/- 0.000528
# P'_topo (s/s)    =  -0                +/- 2.79e-10
# P''_topo (s/s^2) =  0                 +/- 1.23e-13
# P_bary (ms)      =  N/A
# P'_bary (s/s)    =  N/A
# P''_bary (s/s^2) =  N/A
# P_orb (s)        =  N/A
# asin(i)/c (s)    =  N/A
# eccentricity     =  N/A
# w (rad)          =  N/A
# T_peri           =  N/A
######################################################
   0  965.1472
   1  789.6069
   2  681.6269
   3  650.5535
   4  642.1313
   5  639.1833
   6  671.7946
   7  585.8714
   8  515.6434
   9  386.4003
  10  504.3147
  11  595.4647
  12  648.4401
  13  533.2783
  14  440.6512
  15  434.9568
  16  447.8348
  17  494.6019
  18  516.3004
  19  464.5683
  20  388.9415
  21  516.2394
  22  608.4979
  23  548.0505
  24  409.8659
  25  523.982
  26  569.0554
  27  621.2689
  28  636.6497
  29  579.009
  30  512.8027
  31  525.0342
  32  586.725
  33  573.9221
  34  571.9352
  35  569.2505
  36  504.2152
  37  460.6052
  38  463.1722
  39  468.9655
  40  421.7701
  41  411.1934
  42  425.0075
  43  489.7603
  44  473.4549
  45  364.5083
  46  494.6113
  47  561.938
  48  533.5052
  49  496.4759
  50  490.4655
  51  425.2822
  52  361.7191
  53  414.7391
  54  506.9553
  55  575.3418
  56  559.3533
  57  498.2546
  58  451.9021
  59  426.5708
  60  597.7023
  61  706.2956
  62  677.7044
  63  618.6083
  64  623.9769
  65  695.3795
  66  612.9294
  67  488.0639
  68  532.1751
  69  578.5261
  70  563.1988
  71  583.7754
  72  601.4229
  73  539.1133
  74  572.2639
  75  654.599
  76  574.8439
  77  579.9243
  78  537.539
  79  538.6119
  80  547.7802
  81  502.8242
  82  580.3484
  83  542.2003
  84  563.3431
  85  498.4778
  86  594.2118
  87  643.1573
  88  614.2551
  89  567.3798
  90  592.7748
  91  627.8066
  92  603.2036
  93  662.796
  94  528.6964
  95  540.7677
  96  572.1244
  97  477.8875
  98  503.8893
  99  520.3283
 100  532.7104
 101  599.2558
 102  593.9136
 103  618.8918
 104  527.3047
 105  533.9505
 106  498.0758
 107  502.0418
 108  520.8492
 109  624.7213
 110  591.2206
 111  666.707
 112  623.3288
 113  603.7475
 114  516.9037
 115  538.2008
 116  584.6229
 117  574.9584
 118  690.5672
 119  589.3167
 120  508.7799
 121  585.5925
 122  596.5327
 123  573.1378
 124  565.6929
 125  547.634
 126  678.5242
 127  637.15
 128  633.1415
 129  631.3438
 130  606.2648
 131  608.3462
 132  510.7478
 133  417.5154
 134  532.2525
 135  643.4045
 136  674.8286
 137  600.9159
 138  566.2441
 139  709.3088
 140  682.7332
 141  541.8583
 142  546.7224
 143  553.7049
 144  539.6384
 145  494.4822
 146  467.5403
 147  470.1503
 148  515.5032
 149  547.3082
 150  584.3156
 151  589.5876
 152  550.8139
 153  528.4896
 154  581.7817
 155  559.1915
 156  535.0016
 157  461.0244
 158  507.7297
 159  459.5023
 160  493.4519
 161  612.9808
 162  577.1443
 163  563.1217
 164  603.9019
 165  575.0174
 166  427.3815
 167  409.4351
 168  514.3771
 169  604.1432
 170  559.7001
 171  409.1583
 172  473.3995
 173  507.5827
 174  556.2269
 175  533.6259
 176  489.6186
 177  445.3875
 178  526.6559
 179  629.7158
 180  672.9835
 181  634.0056
 182  554.3595
 183  576.7786
 184  546.8464
 185  695.1188
 186  690.4597
 187  569.7087
 188  461.4553
 189  533.3164
 190  617.0125
 191  571.9183
 192  663.2794
 193  555.8535
 194  575.4945
 195  539.2523
 196  458.3971
 197  522.6944
 198  486.8083
 199  557.5375
 200  531.4122
 201  557.104
 202  611.0603
 203  548.9371
 204  499.7105
 205  475.7316
 206  513.6088
 207  587.7505
 208  704.05
 209  534.9677
 210  526.2054
 211  562.1812
 212  573.3424
 213  536.7673
 214  698.5344
 215  742.571
 216  491.4006
 217  454.8446
 218  623.2503
 219  675.1253
 220  479.8065
 221  571.6832
 222  471.976
 223  502.8833
 224  535.6227
 225  503.8619
 226  499.7858
 227  577.1179
 228  627.0444
 229  562.2656
 230  504.3925
 231  458.6184
 232  609.3741
 233  612.6746
 234  582.1917
 235  509.1546
 236  577.6755
 237  631.1422
 238  568.0911
 239  467.8239
 240  587.4455
 241  596.6597
 242  528.1921
 243  482.2584
 244  436.797
 245  561.8622
 246  489.5369
 247  542.5529
 248  518.6877
 249  512.5433
 250  560.9666
 251  647.3865
 252  502.5914
 253  511.1141
 254  552.3867
 255  642.1376
 256  640.1337
 257  531.7262
 258  494.7724
 259  568.9686
 260  510.5043
 261  478.987
 262  507.4963
 263  493.4696
 264  503.8215
 265  454.2553
 266  436.3705
 267  477.906
 268  515.2748
 269  647.1013
 270  522.1693
 271  553.5894
 272  578.197
 273  610.2827
 274  534.2403
 275  524.713
 276  670.0873
 277  743.3599
 278  709.8114
 279  601.5337
 280  577.2914
 281  505.5496
 282  559.2504
 283  607.1086
 284  601.3659
 285  584.5884
 286  619.587
 287  688.9493
 288  684.9926
 289  627.1891
 290  622.2375
 291  590.4393
 292  552.8795
 293  580.1699
 294  630.6496
 295  578.4096
 296  549.2535
 297  530.8683
 298  503.9157
 299  515.8536
 300  600.5669
 301  544.3473
 302  532.9433
 303  521.2792
 304  587.7725
 305  573.8698
 306  521.9019
 307  569.3282
 308  568.193
 309  550.4466
 310  618.0312
 311  574.4964
 312  506.1499
 313  453.0246
 314  476.8277
 315  531.0105
 316  602.6699
 317  647.4507
 318  614.0303
 319  693.5416
 320  634.6857
 321  594.1685
 322  648.4067
 323  518.3898
 324  556.9601
 325  537.9455
 326  544.6723
 327  596.5401
 328  594.1061
 329  559.0392
 330  519.8568
 331  508.9402
 332  586.3798
 333  597.5901
 334  641.8074
 335  597.3177
 336  531.283
 337  621.6157
 338  638.1148
 339  494.1096
 340  466.2049
 341  502.4133
 342  614.0803
 343  635.7941
 344  633.8867
 345  590.0504
 346  478.5668
 347  524.9341
 348  538.9925
 349  618.6655
 350  677.4386
 351  692.1665
 352  615.1545
 353  454.2569
 354  510.8004
 355  510.1049
 356  570.5544
 357  599.7633
 358  461.3819
 359  437.8398
 360  475.7923
 361  507.6929
 362  599.3634
 363  487.5933
 364  437.2786
 365  507.635
 366  541.428
 367  519.8712
 368  481.7622
 369  393.5378
 370  391.2215
 371  436.7014
 372  466.5528
 373  431.1598
 374  427.0556
 375  492.9724
 376  559.7554
 377  559.1963
 378  514.2695
 379  573.2936
 380  481.673
 381  395.0815
 382  395.2401
 383  505.4064
 384  584.6236
 385  558.7636
 386  546.7314
 387  633.4337
 388  692.2017
 389  565.8416
 390  462.1579
 391  474.8333
 392  477.1836
 393  431.846
 394  474.3672
 395  564.0622
 396  484.3792
 397  551.0876
 398  565.3638
 399  467.2194
 400  493.7314
 401  568.2511
 402  500.7292
 403  477.9866
 404  463.9527
 405  570.002
 406  565.8578
 407  497.3454
 408  526.179
 409  509.7153
 410  537.9155
 411  556.5928
 412  551.4804
 413  487.4785
 414  475.7109
 415  525.4108
 416  553.5332
 417  579.3182
 418  623.037
 419  619.9573
 420  477.224
 421  480.8163
 422  576.6371
 423  552.8123
 424  617.7391
 425  596.5686
 426  641.5487
 427  688.125
 428  534.5965
 429  472.9263
 430  490.1049
 431  538.7866
 432  597.4111
 433  587.695
 434  568.8907
 435  483.2071
 436  496.7748
 437  612.7087
 438  504.1449
 439  546.2433
 440  483.2315
 441  501.1641
 442  449.2477
 443  488.5262
 444  565.8042
 445  621.6213
 446  573.3714
 447  547.0786
 448  573.3334
 449  685.2147
 450  633.3212
 451  578.0167
 452  511.6489
 453  528.504
 454  565.1115
 455  525.2937
 456  525.5858
 457  581.1253
 458  647.1916
 459  528.4296
 460  486.6051
 461  462.1674
 462  474.9432
 463  513.9229
 464  447.2101
 465  496.7496
 466  475.6229
 467  535.4243
 468  509.2363
 469  459.5675
 470  469.4091
 471  456.179
 472  508.8415
 473  461.8257
 474  556.9998
 475  574.2261
 476  614.4806
 477  603.5799
 478  414.5868
 479  408.7521
 480  463.1349
 481  469.4123
 482  467.857
 483  504.6554
 484  629.9193
 485  470.2147
 486  476.8392
 487  575.0001
 488  495.1834
 489  398.8769
 490  355.1024
 491  488.8831
 492  558.0114
 493  612.1235
 494  664.8152
 495  583.9895
 496  568.8597
 497  568.8899
 498  496.6444
 499  490.981
 500  538.4238
 501  654.463
 502  660.1596
 503  568.6979
 504  602.416
 505  543.9861
 506  500.0728
 507  521.1041
 508  654.0148
 509  744.2524
 510  841.61
 511  926.36
