# Input file       =  1198274299.108217_cleaned.dat
# Candidate        =  PSR_0332+5434
# Telescope        =  AR
# Epoch_topo       =  58112.915718845106
# Epoch_bary       =  N/A
# T_sample         =  0.002
# Data Folded      =  7340032
# Data Avg         =  0.272655585788016
# Data StdDev      =  5.18672768239406 
# Profile Bins     =  256
# Profile Avg      =  7817.60677606041 
# Profile StdDev   =  878.258660213062 
# Reduced chi-sqr  =  0.637
# Prob(Noise)      <  1   (~0.0 sigma)
# P_topo (ms)      =  714.550747445688  +/- 0.00078
# P'_topo (s/s)    =  -0                +/- 4.12e-10
# P''_topo (s/s^2) =  0                 +/- 1.82e-13
# P_bary (ms)      =  N/A
# P'_bary (s/s)    =  N/A
# P''_bary (s/s^2) =  N/A
# P_orb (s)        =  N/A
# asin(i)/c (s)    =  N/A
# eccentricity     =  N/A
# w (rad)          =  N/A
# T_peri           =  N/A
######################################################
   0  7949.104
   1  7643.679
   2  7633.816
   3  8333.897
   4  7761.02
   5  7769.323
   6  8023.031
   7  8254.359
   8  8499.194
   9  8141.038
  10  7766.119
  11  8013.578
  12  8646.15
  13  8565.972
  14  8056.058
  15  7661.757
  16  7778.862
  17  7400.183
  18  7181.535
  19  7760.176
  20  7521.389
  21  7082.36
  22  7604.98
  23  7757.08
  24  8019.912
  25  7532.682
  26  7364.594
  27  7610.268
  28  7440.854
  29  7080.296
  30  7653.047
  31  7561.013
  32  7067.538
  33  7888.514
  34  8111.91
  35  7122.961
  36  6920.578
  37  8581.383
  38  8737.83
  39  8512.901
  40  7870.729
  41  8234.738
  42  8419.063
  43  8037.258
  44  8588.495
  45  8505.77
  46  8028.534
  47  8227.592
  48  8070.404
  49  7898.657
  50  8348.462
  51  8377.396
  52  7894.166
  53  8518.705
  54  9077.523
  55  8982.567
  56  8635.038
  57  8458.046
  58  8357.612
  59  7536.226
  60  7395.882
  61  8079.733
  62  7943.482
  63  7458.383
  64  7644.239
  65  6990.02
  66  7760.147
  67  7802.866
  68  6825.931
  69  6554.34
  70  7550.985
  71  8634.312
  72  8053.615
  73  7289.976
  74  7009.715
  75  7277.759
  76  7405.165
  77  7185.078
  78  7281.01
  79  7101.89
  80  7133.694
  81  8254.009
  82  7384.248
  83  7902.873
  84  7658.537
  85  7637.684
  86  7232.214
  87  7791.347
  88  8501.492
  89  7967.342
  90  8336.951
  91  8211.347
  92  7616.074
  93  7653.455
  94  7653.109
  95  8418.094
  96  7989.66
  97  7748.944
  98  8125.751
  99  8701.042
 100  8236.182
 101  7916.71
 102  7192.656
 103  7215.75
 104  7027.74
 105  6910.172
 106  7486.021
 107  8089.056
 108  7063.084
 109  6685.26
 110  7176.197
 111  7206.213
 112  7304.29
 113  7826.092
 114  7980.304
 115  8261.96
 116  8209.271
 117  8291.167
 118  7542.939
 119  7602.575
 120  7441.566
 121  8354.313
 122  8841.324
 123  8191.303
 124  8047.195
 125  8170.649
 126  8072.577
 127  7986.583
 128  7105.493
 129  7555.912
 130  7436.561
 131  8307.818
 132  7073.549
 133  7833.147
 134  8256.136
 135  8236.116
 136  7990.856
 137  8204.187
 138  8025.337
 139  8007.299
 140  7863.957
 141  7715.459
 142  7146.477
 143  7823.587
 144  7025.992
 145  7499.091
 146  8143.355
 147  7712.461
 148  7833.102
 149  8543.104
 150  7600.799
 151  8135.856
 152  8114.057
 153  8345.365
 154  9071.815
 155  10538.73
 156  10624.17
 157  8617.59
 158  8200.466
 159  8710.168
 160  8670.402
 161  8687.434
 162  8523.734
 163  8369.333
 164  8879.422
 165  9249.031
 166  7660.234
 167  7489.463
 168  7413.499
 169  7408.343
 170  7064.087
 171  7557.558
 172  8229.285
 173  7597.406
 174  7501.53
 175  8044.439
 176  7643.53
 177  7450.686
 178  6979.489
 179  7321.963
 180  7235.801
 181  7513.397
 182  6965.574
 183  7096.823
 184  7943.104
 185  7360.575
 186  8618.545
 187  8245.637
 188  8782.485
 189  8052.118
 190  8403.557
 191  7756.821
 192  7040.31
 193  8456.134
 194  8284.354
 195  7342.371
 196  7395.95
 197  7751.595
 198  8313.945
 199  8294.309
 200  7894.168
 201  7669.118
 202  7760.939
 203  8060.202
 204  7600.021
 205  7418.394
 206  7361.14
 207  7696.849
 208  7691.848
 209  7368.828
 210  7216.308
 211  7472.41
 212  8127.49
 213  7417.605
 214  7545.116
 215  6753.516
 216  5764.791
 217  6678.734
 218  8035.988
 219  7031.008
 220  6812.333
 221  6531.969
 222  6947.998
 223  6777.458
 224  7311.365
 225  7351.386
 226  6874.163
 227  7056.508
 228  7110.355
 229  7799.61
 230  8325.106
 231  8126.033
 232  8077.109
 233  8064.73
 234  8081.322
 235  7474.348
 236  7188.307
 237  7906.226
 238  8067.392
 239  8435.1
 240  7583.268
 241  8266.458
 242  8188.112
 243  7625.882
 244  8008.187
 245  7145.817
 246  8344.261
 247  8148.848
 248  7513.892
 249  7049.956
 250  7968.073
 251  8063.457
 252  7854.84
 253  7275.511
 254  9176.397
 255  8749.327
