# Input file       =  1198589328.111569_cleaned.dat
# Candidate        =  PSR_0332+5434
# Telescope        =  AR
# Epoch_topo       =  58116.561887865384
# Epoch_bary       =  N/A
# T_sample         =  0.002
# Data Folded      =  7208960
# Data Avg         =  0.104886637218508
# Data StdDev      =  4.17109570328258 
# Profile Bins     =  512
# Profile Avg      =  1477.42927746395 
# Profile StdDev   =  494.938778307447 
# Reduced chi-sqr  =  0.645
# Prob(Noise)      <  1   (~0.0 sigma)
# P_topo (ms)      =  714.553644284054  +/- 6.78e-05
# P'_topo (s/s)    =  -0                +/- 3.64e-11
# P''_topo (s/s^2) =  0                 +/- 1.64e-14
# P_bary (ms)      =  N/A
# P'_bary (s/s)    =  N/A
# P''_bary (s/s^2) =  N/A
# P_orb (s)        =  N/A
# asin(i)/c (s)    =  N/A
# eccentricity     =  N/A
# w (rad)          =  N/A
# T_peri           =  N/A
######################################################
   0  1324.068
   1  1442.357
   2  1569.132
   3  1953.63
   4  1725.083
   5  1647.068
   6  1377.083
   7  1658.919
   8  1125.606
   9  1109.49
  10  1310.193
  11  910.2436
  12  1416.458
  13  1522.405
  14  1557.702
  15  1148.169
  16  1563.089
  17  1697.171
  18  1426.46
  19  1609.053
  20  1459.318
  21  1865.634
  22  1642.561
  23  1440.386
  24  1779.405
  25  1405.17
  26  880.8345
  27  962.5695
  28  1516.339
  29  1555.17
  30  1958.93
  31  1701.089
  32  1579.946
  33  1417.99
  34  1462.089
  35  1550.701
  36  1569.752
  37  1962.109
  38  1823.145
  39  1959.199
  40  1512.984
  41  1574.261
  42  1558.92
  43  1488.899
  44  1426.325
  45  1707.287
  46  1550.81
  47  1370.246
  48  1685.405
  49  1579.76
  50  1093.796
  51  1019.041
  52  1482.281
  53  1835.716
  54  1887.649
  55  1904.072
  56  1550.904
  57  1547.362
  58  1453.146
  59  1423.606
  60  1749.79
  61  1675.285
  62  1389.269
  63  1531.954
  64  1121.153
  65  1199.276
  66  1365.776
  67  1607.341
  68  1944.458
  69  1980.467
  70  2153.937
  71  1722.201
  72  1515.157
  73  1327.255
  74  1456.474
  75  1397.378
  76  1219.502
  77  1387.715
  78  1821.396
  79  1691.582
  80  1529.973
  81  1904.352
  82  1978.515
  83  1541.118
  84  1252.84
  85  1071.999
  86  1151.289
  87  1369.821
  88  1517.825
  89  1548.563
  90  1633.388
  91  1791.452
  92  1368.773
  93  1437.711
  94  1355.846
  95  1709.906
  96  1620.102
  97  1667.266
  98  1536.499
  99  1075.779
 100  1006.354
 101  1532.415
 102  1932.363
 103  1771.296
 104  1949.662
 105  2024.811
 106  1107.259
 107  1036.464
 108  932.9386
 109  1442.954
 110  1669.907
 111  1704.798
 112  1616.68
 113  1296.993
 114  1588.748
 115  1367.788
 116  1642.972
 117  1328.539
 118  1273.898
 119  1292.736
 120  1246.044
 121  1230.021
 122  1113.825
 123  1401.313
 124  1595.242
 125  1217.7
 126  1256.18
 127  1445.442
 128  1588.031
 129  1836.846
 130  1610.894
 131  1565.745
 132  1669.191
 133  1581.436
 134  2027.147
 135  1985.699
 136  1744.223
 137  1544.428
 138  1357.518
 139  1197.839
 140  874.7444
 141  1063.81
 142  1305.015
 143  1344.405
 144  1481.688
 145  1572.265
 146  1274.343
 147  1079.057
 148  1482.12
 149  1632.448
 150  1798.798
 151  1748.584
 152  2176.567
 153  2168.569
 154  1720
 155  1634.928
 156  1193.289
 157  1039.093
 158  894.499
 159  1487.491
 160  1309.682
 161  1179.892
 162  1819.532
 163  1751.869
 164  1605.395
 165  1235.907
 166  1063.564
 167  1093.47
 168  1412.824
 169  1622.403
 170  1516.738
 171  1260.648
 172  1242.451
 173  1572.865
 174  1383.059
 175  1704.669
 176  1444.801
 177  1954.125
 178  1633.347
 179  1382.898
 180  1648.811
 181  1751.762
 182  1617.699
 183  1705.488
 184  1960.61
 185  1577.782
 186  1514.227
 187  1312.562
 188  1221.824
 189  1371.267
 190  1235.123
 191  1276.715
 192  1335.036
 193  1326.412
 194  1138.384
 195  1098.692
 196  1143.273
 197  1254.188
 198  1389.659
 199  1326.905
 200  1182.766
 201  1345.527
 202  1413.714
 203  1185.288
 204  1215.82
 205  1458.552
 206  1420.857
 207  1571.241
 208  1409.954
 209  1599.499
 210  1461.997
 211  1311.09
 212  1168.891
 213  1210.049
 214  1192.757
 215  1163.112
 216  1519.399
 217  1509.163
 218  1778.376
 219  2085.567
 220  1624.391
 221  1271.292
 222  1540.675
 223  922.0544
 224  807.7921
 225  1776.861
 226  1830.207
 227  2075.311
 228  1764.102
 229  1661.715
 230  1121.938
 231  1150.267
 232  1654.98
 233  1747.614
 234  1607.034
 235  1425.968
 236  1415.885
 237  1514.18
 238  1255.981
 239  1108.826
 240  1225.714
 241  1436.624
 242  1255.424
 243  1427.377
 244  1391.092
 245  1926.981
 246  1655.789
 247  1330.087
 248  1035.724
 249  1082.425
 250  1113.024
 251  1554.017
 252  1940.373
 253  1466.123
 254  1221.082
 255  1438.99
 256  1345.135
 257  1233.59
 258  1488.434
 259  1559.582
 260  1858.999
 261  1717.185
 262  1058.228
 263  1395.616
 264  1636.181
 265  1717.624
 266  1398.597
 267  1273.343
 268  1393.896
 269  1422.065
 270  1515.164
 271  1260.964
 272  1631.758
 273  1763.426
 274  1793.842
 275  2023.346
 276  1568.817
 277  1600.894
 278  1383.294
 279  1772.851
 280  1271.52
 281  1615.94
 282  1952.495
 283  2042.618
 284  2391.717
 285  2335.245
 286  2665.082
 287  2376.425
 288  2080.872
 289  1859.16
 290  1802.675
 291  1953.123
 292  1922.47
 293  1741.122
 294  1482.131
 295  1332.728
 296  1205.636
 297  1559.578
 298  1441.48
 299  1215.237
 300  1533.558
 301  1963.282
 302  2048.163
 303  1755.085
 304  1723.953
 305  997.5497
 306  996.3821
 307  1118.754
 308  1119.916
 309  1506.389
 310  1565.264
 311  1501.541
 312  1745.195
 313  1673.862
 314  1150.341
 315  1391.605
 316  1277.507
 317  1686.168
 318  1753.008
 319  1679.147
 320  1547.905
 321  1185.859
 322  1241.924
 323  1274.698
 324  1121.524
 325  1369.267
 326  1697.842
 327  1687.886
 328  1267.586
 329  1604.669
 330  1646.972
 331  1731.889
 332  1372.006
 333  1712.822
 334  1645.185
 335  1299.943
 336  1672.769
 337  1718.627
 338  1372.807
 339  1469.079
 340  1661.786
 341  1781.583
 342  1514.557
 343  1351.745
 344  1209.207
 345  1283.441
 346  1188.115
 347  1419.578
 348  1344.693
 349  1755.565
 350  1635.234
 351  1629.256
 352  1668.055
 353  1404.252
 354  1341.11
 355  1256.243
 356  1669.671
 357  1467.933
 358  1488.466
 359  1622.298
 360  1525.561
 361  1617.547
 362  1441.976
 363  1134.448
 364  1090.924
 365  1314.941
 366  1768.133
 367  1713.743
 368  1946.618
 369  1709.321
 370  1497.137
 371  1335.175
 372  1654.256
 373  1345.657
 374  1344.347
 375  1705.099
 376  1627.999
 377  1535.909
 378  1565.961
 379  1654.117
 380  1075.015
 381  1181.472
 382  1409.361
 383  1577.198
 384  1750.505
 385  1685.235
 386  1299.668
 387  830.3537
 388  1386.724
 389  1236.705
 390  1284.468
 391  1585.747
 392  1709.38
 393  1748.705
 394  1508.992
 395  1956.016
 396  2005.959
 397  1774.595
 398  1416.818
 399  1624.536
 400  1802.497
 401  1547.391
 402  1625.753
 403  1969.369
 404  1651.313
 405  855.7994
 406  1201.368
 407  1033.797
 408  1390.078
 409  1180.687
 410  1313.023
 411  1342.734
 412  1122.814
 413  1540.803
 414  1170.744
 415  1234.373
 416  1316.17
 417  1376.51
 418  1547.381
 419  1746.806
 420  1388.313
 421  888.5755
 422  943.1015
 423  1260.225
 424  1318.671
 425  1590.146
 426  1526.951
 427  1474.49
 428  1579.432
 429  1221.829
 430  1210.022
 431  1798.236
 432  1758.935
 433  1600.848
 434  1365.104
 435  1318.401
 436  1042.852
 437  1164.341
 438  1147.162
 439  823.9172
 440  853.7996
 441  1211.232
 442  1317.414
 443  1321.877
 444  1482.042
 445  1919.854
 446  1228.213
 447  1180.331
 448  1420.572
 449  1574.337
 450  1807.362
 451  1910.263
 452  1354.179
 453  1255.78
 454  1323.215
 455  1586.111
 456  1099.194
 457  1247.376
 458  1667.21
 459  1357.334
 460  1172.083
 461  1072.307
 462  1176.944
 463  962.6306
 464  1185.584
 465  1719.749
 466  1884.905
 467  1685.887
 468  1576.016
 469  1339.224
 470  1184.033
 471  716.4095
 472  1150.558
 473  1334.32
 474  1696.804
 475  1922.069
 476  1453.848
 477  1209.005
 478  1385.551
 479  1374.165
 480  1371.349
 481  1211.327
 482  1773.301
 483  2058.925
 484  1756.098
 485  1981.375
 486  1356.923
 487  995.342
 488  558.5903
 489  1349.218
 490  1421.816
 491  1338.172
 492  1599.295
 493  1445.977
 494  1460.78
 495  1571.676
 496  1595.934
 497  1501.957
 498  1519.28
 499  1666.549
 500  1437.703
 501  1385.284
 502  1166.302
 503  958.892
 504  852.6656
 505  1004.523
 506  958.818
 507  1414.276
 508  1801.54
 509  1488.892
 510  1511.692
 511  1418.715
