# Input file       =  1198259396.105565_cleaned.dat
# Candidate        =  PSR_0332+5434
# Telescope        =  AR
# Epoch_topo       =  58112.743230388485
# Epoch_bary       =  N/A
# T_sample         =  0.002
# Data Folded      =  7340032
# Data Avg         =  0.252376712574915
# Data StdDev      =  4.30831956793069 
# Profile Bins     =  256
# Profile Avg      =  7237.59410527247 
# Profile StdDev   =  729.519497301623 
# Reduced chi-sqr  =  0.751
# Prob(Noise)      <  0.999   (~0.0 sigma)
# P_topo (ms)      =  714.550251432301  +/- 0.00075
# P'_topo (s/s)    =  -0                +/- 3.96e-10
# P''_topo (s/s^2) =  0                 +/- 1.75e-13
# P_bary (ms)      =  N/A
# P'_bary (s/s)    =  N/A
# P''_bary (s/s^2) =  N/A
# P_orb (s)        =  N/A
# asin(i)/c (s)    =  N/A
# eccentricity     =  N/A
# w (rad)          =  N/A
# T_peri           =  N/A
######################################################
   0  7227.093
   1  7493.572
   2  6921.492
   3  6947.989
   4  7141.098
   5  6453.224
   6  6453.152
   7  6687.316
   8  6910.544
   9  6250.757
  10  6854.341
  11  6848.172
  12  6888.238
  13  7157.202
  14  7379.751
  15  6191.941
  16  6843.009
  17  7001.033
  18  6656.541
  19  6371.632
  20  7075.031
  21  7019.858
  22  7119.385
  23  7196.894
  24  7069.783
  25  7344.558
  26  6553.563
  27  7183.482
  28  7282.869
  29  6683.142
  30  7648.429
  31  7186.925
  32  7328.622
  33  7052.912
  34  6478.824
  35  6862.18
  36  6018.894
  37  6405.432
  38  5549.04
  39  7137.932
  40  7002.735
  41  7083.852
  42  7627.777
  43  7132.788
  44  6765.619
  45  6645.552
  46  6670.806
  47  6444.159
  48  7221.298
  49  7215.644
  50  6828.871
  51  7165.193
  52  6944.852
  53  7200.907
  54  7607.056
  55  7061.689
  56  7141.062
  57  7215.325
  58  6731.979
  59  7189.881
  60  7072.388
  61  7484.511
  62  7685.371
  63  8391.861
  64  7855.751
  65  7897.686
  66  7714.254
  67  6948.809
  68  7207.854
  69  6791.326
  70  7018.003
  71  7751.866
  72  8173.78
  73  7941.632
  74  7769.782
  75  7814.6
  76  7627.949
  77  7943.513
  78  7910.92
  79  7924.177
  80  7559.75
  81  7553.371
  82  7754.54
  83  7800.376
  84  8120.273
  85  7919.345
  86  7959.509
  87  8021.149
  88  7429.703
  89  6982.966
  90  6582.701
  91  6649.497
  92  6753.817
  93  7008.26
  94  7143.679
  95  6959.716
  96  7019.227
  97  7940.769
  98  7062.737
  99  6902.884
 100  7086.72
 101  8098.048
 102  7819.756
 103  7229.136
 104  7161.333
 105  7000.259
 106  8092.071
 107  7928.128
 108  7045.213
 109  6692.325
 110  7101.826
 111  7599.236
 112  7344.15
 113  6792.313
 114  6923.579
 115  7447.082
 116  8140.322
 117  7919.124
 118  9410.037
 119  8587.589
 120  7700.867
 121  7432.651
 122  7978.941
 123  7737.88
 124  7459.85
 125  7964.747
 126  7571.629
 127  6830.479
 128  7192.316
 129  7177.253
 130  7582.861
 131  6999.114
 132  6544.116
 133  6882.229
 134  6182.667
 135  6245.988
 136  6764.114
 137  7036.712
 138  6534.81
 139  6217.172
 140  6748.447
 141  6592.833
 142  6878.661
 143  7290.863
 144  6897.342
 145  7277.986
 146  7025.702
 147  7147.346
 148  7438.458
 149  6788.525
 150  7316.978
 151  7386.823
 152  6584.759
 153  6734.318
 154  7470.637
 155  8957.502
 156  9464.395
 157  8150.689
 158  8037.317
 159  7667.318
 160  6899.748
 161  7288.43
 162  7052.065
 163  6971.382
 164  6719.75
 165  6558.223
 166  6709.663
 167  6668.916
 168  7035.192
 169  6818.705
 170  6036.75
 171  6776.01
 172  6856.302
 173  7659.109
 174  6726.429
 175  7042.84
 176  7049.885
 177  6689.375
 178  7256.552
 179  7181.85
 180  7468.429
 181  7051.562
 182  6882.623
 183  8041.691
 184  7406.808
 185  7321.923
 186  6910.016
 187  6697.272
 188  6876.985
 189  6649.903
 190  7685.057
 191  7157.045
 192  6649.692
 193  6817.653
 194  6901.743
 195  7587.218
 196  6857.709
 197  7110.63
 198  6660.243
 199  7383.669
 200  7382.117
 201  7602.007
 202  7489.543
 203  6848.11
 204  8019.588
 205  7944.381
 206  7682.191
 207  7392.169
 208  7839.159
 209  7468.239
 210  6811.248
 211  7377.662
 212  7574.426
 213  7348.292
 214  7372.036
 215  7549.364
 216  7673.358
 217  7072.567
 218  7076.695
 219  6991.234
 220  6817.001
 221  6922.87
 222  7109.146
 223  8030.514
 224  8479.88
 225  8186.96
 226  7878.525
 227  8226.381
 228  7856.804
 229  8003.196
 230  8030.958
 231  7640.534
 232  7207.057
 233  7650.206
 234  6328.179
 235  6862.767
 236  7033.113
 237  6859.205
 238  7267.162
 239  6988.341
 240  7334.517
 241  6551.223
 242  7572.785
 243  7464.117
 244  7519.843
 245  7740.242
 246  7755.01
 247  7768.231
 248  7657.175
 249  7283.271
 250  7578.865
 251  7343.082
 252  7299.471
 253  7009.46
 254  6620.321
 255  7183.505
