# Input file       =  1198345507.109696_cleaned.dat
# Candidate        =  PSR_0332+5434
# Telescope        =  AR
# Epoch_topo       =  58113.739885528885
# Epoch_bary       =  N/A
# T_sample         =  0.002
# Data Folded      =  7340032
# Data Avg         =  0.250806500276667
# Data StdDev      =  4.03527332561562 
# Profile Bins     =  1024
# Profile Avg      =  1797.72641019803 
# Profile StdDev   =  341.642550136048 
# Reduced chi-sqr  =  0.652
# Prob(Noise)      <  1   (~0.0 sigma)
# P_topo (ms)      =  714.551156460575  +/- 0.00095
# P'_topo (s/s)    =  -0                +/- 5.01e-10
# P''_topo (s/s^2) =  0                 +/- 2.21e-13
# P_bary (ms)      =  N/A
# P'_bary (s/s)    =  N/A
# P''_bary (s/s^2) =  N/A
# P_orb (s)        =  N/A
# asin(i)/c (s)    =  N/A
# eccentricity     =  N/A
# w (rad)          =  N/A
# T_peri           =  N/A
######################################################
   0  1615.575
   1  1686.76
   2  1759.394
   3  1757.105
   4  1670.656
   5  1685.287
   6  1790.712
   7  1904.757
   8  1919.252
   9  1909.425
  10  1869.31
  11  1777.387
  12  1654.609
  13  1589.998
  14  1494.194
  15  1529.382
  16  1577.754
  17  1688.997
  18  1744.187
  19  1693.615
  20  1616.307
  21  1606.342
  22  1702.574
  23  1737.328
  24  1697.28
  25  1619.705
  26  1667.247
  27  1697.701
  28  1627.286
  29  1540.542
  30  1536.35
  31  1527.276
  32  1528.536
  33  1549.366
  34  1557.52
  35  1676.355
  36  1776.968
  37  1962.734
  38  1892.146
  39  1848.073
  40  1724.684
  41  1749.564
  42  1759.951
  43  1807.242
  44  1881.108
  45  1756.418
  46  1768.503
  47  1770.317
  48  1801.815
  49  1696.239
  50  1625.834
  51  1700.611
  52  1774.249
  53  1826.287
  54  1778.458
  55  1755.286
  56  1795.355
  57  1803.686
  58  1791.366
  59  1799.818
  60  1784.376
  61  1768.822
  62  1628.468
  63  1705.553
  64  1733.782
  65  1787.009
  66  1850.615
  67  1942.809
  68  1967.946
  69  1802.523
  70  1583.007
  71  1475.553
  72  1631.103
  73  1833.749
  74  1850.779
  75  1812.521
  76  1706.929
  77  1638.075
  78  1530.342
  79  1519.41
  80  1653.884
  81  1787.365
  82  1776.516
  83  1744.165
  84  1654.002
  85  1660.231
  86  1579.716
  87  1658.651
  88  1690.957
  89  1657.022
  90  1643.581
  91  1643.616
  92  1737.411
  93  1655.352
  94  1513.751
  95  1513.523
  96  1592.147
  97  1752.227
  98  1715.527
  99  1606.778
 100  1593.801
 101  1631.374
 102  1747.333
 103  1858.883
 104  1939.609
 105  1944.592
 106  1901.088
 107  1867.539
 108  1779.876
 109  1786.743
 110  1876.026
 111  1788.28
 112  1668.276
 113  1524.698
 114  1555.744
 115  1499.184
 116  1505.342
 117  1583.656
 118  1730.616
 119  1906.585
 120  1838.588
 121  1726.415
 122  1604.407
 123  1661.745
 124  1718.954
 125  1881.582
 126  1863.436
 127  1710.128
 128  1559.725
 129  1621.029
 130  1727.613
 131  1772.307
 132  1874.562
 133  1967.679
 134  1973.495
 135  1970.612
 136  1977.651
 137  1876.629
 138  1745.929
 139  1661.902
 140  1692.067
 141  1758.534
 142  1796.277
 143  1819.908
 144  1767.839
 145  1857.137
 146  1771.574
 147  1679.388
 148  1499.934
 149  1474.853
 150  1548.59
 151  1585.135
 152  1711.478
 153  1731.083
 154  1816.779
 155  1822.815
 156  1787.361
 157  1737.607
 158  1715.804
 159  1649.407
 160  1514.119
 161  1511.692
 162  1696.857
 163  1836.482
 164  1817.392
 165  1717.005
 166  1745.851
 167  1760.002
 168  1759.326
 169  1700.344
 170  1691.926
 171  1589.771
 172  1636.548
 173  1685.322
 174  1791.373
 175  1838.957
 176  2000.117
 177  1947.17
 178  1895.83
 179  1846.382
 180  1929.773
 181  1918.281
 182  2056.324
 183  2050.19
 184  2130.954
 185  1977.819
 186  1916.686
 187  1703.594
 188  1645.654
 189  1597.231
 190  1650.339
 191  1654.653
 192  1686.486
 193  1723.819
 194  1741.611
 195  1778.936
 196  1823.967
 197  1776.996
 198  1729.958
 199  1645.93
 200  1696.817
 201  1623.902
 202  1563.942
 203  1592.363
 204  1714.87
 205  1808.748
 206  1719.136
 207  1668.142
 208  1626.297
 209  1693.217
 210  1661.51
 211  1761.987
 212  1857.416
 213  2012.183
 214  1969.917
 215  2001.733
 216  2030.984
 217  2095.237
 218  2015.051
 219  1813.662
 220  1668.2
 221  1456.754
 222  1507.805
 223  1612.209
 224  1681.684
 225  1671.274
 226  1710.242
 227  1815.958
 228  1835.894
 229  1799.393
 230  1649.607
 231  1712.367
 232  1781.509
 233  1754.546
 234  1645.588
 235  1564.996
 236  1592.461
 237  1614.99
 238  1631.461
 239  1678.656
 240  1751.452
 241  1763.358
 242  1764.024
 243  1643.657
 244  1680.545
 245  1790.353
 246  1980.977
 247  1833.517
 248  1734.058
 249  1582.207
 250  1583.175
 251  1614.49
 252  1601.866
 253  1664.838
 254  1599.671
 255  1630.552
 256  1590.737
 257  1553.363
 258  1477.267
 259  1542.531
 260  1706.926
 261  1722.926
 262  1704.029
 263  1678.609
 264  1729.533
 265  1737.7
 266  1788.141
 267  1833.009
 268  1872.884
 269  1786.434
 270  1700.957
 271  1637.991
 272  1687.744
 273  1796.912
 274  1775.024
 275  1891.171
 276  1907.276
 277  1885.589
 278  1789.658
 279  1619.085
 280  1606.527
 281  1545.151
 282  1611.143
 283  1730.78
 284  1689.789
 285  1688.83
 286  1810.795
 287  1923.092
 288  1889.491
 289  1627.227
 290  1641.027
 291  1695.128
 292  1691.275
 293  1661.4
 294  1717.71
 295  1709.376
 296  1730.981
 297  1807.323
 298  1789.541
 299  1772.478
 300  1660.981
 301  1734.383
 302  1832.249
 303  1910.688
 304  2044.851
 305  2050.136
 306  2035.739
 307  1888.488
 308  1797.774
 309  1751.439
 310  1719.199
 311  1824.88
 312  1814.047
 313  1720.134
 314  1590.724
 315  1593.238
 316  1696.729
 317  1916.064
 318  2019.594
 319  2011.787
 320  1957.917
 321  1964.22
 322  1965.266
 323  2079.535
 324  2041.269
 325  2067.198
 326  1957.279
 327  1915.364
 328  1804.154
 329  1831.115
 330  1846.909
 331  1955.07
 332  1933.995
 333  1889.559
 334  1778.67
 335  1743.917
 336  1761.44
 337  1923.083
 338  2027.642
 339  1960.37
 340  1801.12
 341  1768.466
 342  1770.815
 343  1850.107
 344  1875.961
 345  1919.174
 346  1863.188
 347  1819.267
 348  1844.743
 349  1884.35
 350  1897.952
 351  1910.043
 352  1978.749
 353  1915.763
 354  1808.675
 355  1879.038
 356  1987.248
 357  1896.413
 358  1801.281
 359  1829.697
 360  1908.218
 361  1898.959
 362  1856.112
 363  1957.028
 364  1900.58
 365  1868.69
 366  1847.462
 367  1892.391
 368  1955.644
 369  1943.189
 370  1892.596
 371  1826.111
 372  1804.869
 373  1733.509
 374  1821.496
 375  1872.67
 376  1769.433
 377  1632.538
 378  1596.936
 379  1692.385
 380  1799.504
 381  1848.299
 382  1879.208
 383  1784.322
 384  1779.302
 385  1824.501
 386  1955.319
 387  1974.208
 388  1934.174
 389  1772.754
 390  1783.048
 391  1778.876
 392  1872.061
 393  1908.694
 394  1922.19
 395  1857.997
 396  1845.593
 397  1761.921
 398  1792.206
 399  1678.752
 400  1721.671
 401  1740.337
 402  1798.129
 403  1863.327
 404  1928.023
 405  2003.802
 406  2007.749
 407  2044.901
 408  1905.831
 409  1771.421
 410  1779.285
 411  1927.241
 412  2024.267
 413  1938.783
 414  1835.956
 415  1828.576
 416  1760.524
 417  1772.808
 418  1634.768
 419  1688.204
 420  1686.316
 421  1842.995
 422  1945.993
 423  1902.853
 424  1883.466
 425  1822.195
 426  1917.216
 427  1888.801
 428  1902.216
 429  1904.125
 430  1903.154
 431  1834.201
 432  1759.424
 433  1698.912
 434  1778.995
 435  1892.139
 436  2109.479
 437  2124.116
 438  2104.71
 439  2088.68
 440  2147.535
 441  2070.483
 442  1881.003
 443  1706.754
 444  1840.986
 445  1825.465
 446  1659.396
 447  1622.493
 448  1700.946
 449  1918.42
 450  1785.264
 451  1819.628
 452  1810.486
 453  1871.536
 454  1847.766
 455  1835.158
 456  1755.653
 457  1766.997
 458  1712.406
 459  1856.842
 460  1911.898
 461  1956.321
 462  1911.694
 463  1897.874
 464  1934.596
 465  1981.579
 466  2027.911
 467  1949.128
 468  1974.035
 469  1918.666
 470  1984.512
 471  1968.839
 472  1921.627
 473  1922.732
 474  1904.309
 475  1993.265
 476  2020.692
 477  1872.552
 478  1840.054
 479  1799.639
 480  1870.616
 481  1917.346
 482  1951.574
 483  2008.739
 484  2068.568
 485  2065.612
 486  1951.087
 487  1861.364
 488  1822.9
 489  1881.264
 490  1820.231
 491  1800.984
 492  1769.56
 493  1788.532
 494  1826.18
 495  1854.452
 496  1842.179
 497  1724.085
 498  1657.857
 499  1670.235
 500  1793.466
 501  1809.534
 502  1823.159
 503  1816.468
 504  1915.058
 505  1892.572
 506  1949.6
 507  1896.947
 508  1812.85
 509  1750.674
 510  1821.048
 511  1888.346
 512  1864.543
 513  1828.216
 514  1768.46
 515  1764.752
 516  1682.651
 517  1619.533
 518  1717.608
 519  1808.798
 520  1831.897
 521  1783.401
 522  1759.23
 523  1696.318
 524  1631.29
 525  1703.733
 526  1682.599
 527  1711.145
 528  1651.696
 529  1638.033
 530  1646.224
 531  1667.195
 532  1663.481
 533  1576.323
 534  1598.24
 535  1620.983
 536  1566.565
 537  1441.642
 538  1420.922
 539  1644.657
 540  1675.936
 541  1756.932
 542  1706.617
 543  1740.981
 544  1745.356
 545  1695.972
 546  1626.612
 547  1456.834
 548  1432.337
 549  1466.957
 550  1568.211
 551  1662.475
 552  1736.78
 553  1693.832
 554  1637.82
 555  1775.681
 556  1926.907
 557  1913.65
 558  1735.142
 559  1592.707
 560  1588.88
 561  1664.898
 562  1761.199
 563  1783.4
 564  1726.328
 565  1792.793
 566  1726.415
 567  1756.312
 568  1763.027
 569  1870.905
 570  1935.771
 571  1964.936
 572  1940.793
 573  1905.565
 574  1880.831
 575  1971.029
 576  2069.731
 577  2071.211
 578  1946.626
 579  1870.692
 580  1914.948
 581  1988.18
 582  2019.031
 583  2046.381
 584  2029.328
 585  2077.586
 586  2110.528
 587  2162.908
 588  2084.931
 589  2055.456
 590  1989.085
 591  1973.622
 592  1934.149
 593  1972.05
 594  2028.695
 595  2097.625
 596  2085.063
 597  2086.318
 598  1970.064
 599  1913.288
 600  1888.049
 601  1819.842
 602  1777.789
 603  1750.483
 604  1867.102
 605  1889.154
 606  1997.589
 607  2035.029
 608  2073.311
 609  2071.25
 610  2073.045
 611  2176.796
 612  2187.686
 613  2257.166
 614  2250.199
 615  2272.562
 616  2393.201
 617  2401.417
 618  2443.389
 619  2347.99
 620  2388.337
 621  2301.725
 622  2323.651
 623  2322.67
 624  2474.585
 625  2455.197
 626  2431.445
 627  2153.134
 628  1946.422
 629  1788.434
 630  1738.467
 631  1736.895
 632  1825.035
 633  1841.469
 634  1823.129
 635  1757.859
 636  1750.204
 637  1748.903
 638  1830.779
 639  1853.819
 640  1870.691
 641  1876.827
 642  1927.749
 643  1923.395
 644  1797.944
 645  1813.041
 646  1824.583
 647  1916.69
 648  1842.928
 649  1865.38
 650  1845.791
 651  1867.965
 652  1755.103
 653  1672.489
 654  1641.976
 655  1664.489
 656  1660.519
 657  1711.226
 658  1802.233
 659  1957.625
 660  2002.471
 661  1995.809
 662  1860.162
 663  1768.229
 664  1654.882
 665  1573.419
 666  1661.516
 667  1709.93
 668  1741.384
 669  1796.879
 670  1843.453
 671  1791.419
 672  1739.792
 673  1796.933
 674  1924.899
 675  1978.757
 676  2003.771
 677  1992.461
 678  2007.747
 679  1841.133
 680  1823.427
 681  1776.479
 682  1849.014
 683  1841.8
 684  1767.395
 685  1736.297
 686  1626.588
 687  1624.698
 688  1723.714
 689  1829.406
 690  1902.398
 691  1966.239
 692  1941.478
 693  1766.841
 694  1616.185
 695  1703.776
 696  1796.916
 697  1790.025
 698  1644.46
 699  1647.52
 700  1653.008
 701  1722.334
 702  1804.228
 703  1882.516
 704  1847.567
 705  1848.251
 706  1783.83
 707  1737.543
 708  1636.737
 709  1618.448
 710  1689.112
 711  1718.956
 712  1769.287
 713  1738.175
 714  1719.904
 715  1658.87
 716  1552.991
 717  1520.601
 718  1548
 719  1674.991
 720  1676.891
 721  1615.62
 722  1556.068
 723  1670.75
 724  1803.825
 725  1826.573
 726  1752.065
 727  1736.836
 728  1787.345
 729  1906.1
 730  1948.884
 731  1917.941
 732  1890.595
 733  1901.671
 734  1846.713
 735  1703.288
 736  1630.93
 737  1648.161
 738  1724.949
 739  1823.134
 740  1902.706
 741  1849.815
 742  1794.501
 743  1738.32
 744  1843.761
 745  1765.788
 746  1825.514
 747  1799.035
 748  1747.535
 749  1727.041
 750  1811.133
 751  1942.517
 752  1980.229
 753  2075.608
 754  2038.177
 755  1830.423
 756  1632.91
 757  1664.074
 758  1790.717
 759  1992.868
 760  2034.822
 761  2145.395
 762  2065.589
 763  2030.358
 764  1864.855
 765  1642.597
 766  1611.982
 767  1771.882
 768  1867.18
 769  1870.169
 770  1888.87
 771  1960.607
 772  2000.328
 773  1954.312
 774  1836.927
 775  1660.089
 776  1569.731
 777  1589.252
 778  1717.953
 779  1745.623
 780  1755.174
 781  1682.8
 782  1734.538
 783  1834.369
 784  1950.549
 785  1945.588
 786  1897.277
 787  1891.771
 788  1908.206
 789  1836.805
 790  1830.252
 791  1854.737
 792  1907.505
 793  1848.861
 794  1794.015
 795  1675.258
 796  1737.288
 797  1796.847
 798  1803.942
 799  1776.604
 800  1839.551
 801  1878.221
 802  1741.34
 803  1671.218
 804  1741.563
 805  1809.188
 806  1770.611
 807  1742.723
 808  1732.414
 809  1748.992
 810  1855.893
 811  1930.642
 812  1904.03
 813  1941.265
 814  1959.574
 815  1910.373
 816  1717.917
 817  1540.134
 818  1658.241
 819  1719.742
 820  1824.419
 821  1832.788
 822  1953.598
 823  1979.901
 824  2030.36
 825  1933.39
 826  1959.829
 827  1914.995
 828  1828.077
 829  1577.331
 830  1485.868
 831  1449.861
 832  1472.185
 833  1482.66
 834  1584.685
 835  1721.367
 836  1665.248
 837  1740.915
 838  1792.066
 839  1816.25
 840  1615.712
 841  1577.753
 842  1645.112
 843  1750.006
 844  1741.601
 845  1651.384
 846  1667.534
 847  1730.212
 848  1858.178
 849  1750.348
 850  1719.391
 851  1678.155
 852  1842.862
 853  1951.384
 854  1996.845
 855  1870.451
 856  1780.094
 857  1653.465
 858  1649.473
 859  1551.752
 860  1478.588
 861  1497.363
 862  1510.43
 863  1521.728
 864  1650.035
 865  1822.848
 866  1884.195
 867  1680.987
 868  1720.958
 869  1735.832
 870  1783.936
 871  1756.2
 872  1807.508
 873  1785.056
 874  1757.412
 875  1725.478
 876  1818.912
 877  1786.508
 878  1835.681
 879  1775.282
 880  1881.724
 881  1904.411
 882  2119.142
 883  2070.548
 884  1918.591
 885  1731.748
 886  1778.051
 887  1806.219
 888  1736.274
 889  1713.544
 890  1687.403
 891  1630.861
 892  1736.564
 893  1705.842
 894  1730.922
 895  1613.94
 896  1616.923
 897  1586.164
 898  1666.2
 899  1681.839
 900  1631.947
 901  1715.868
 902  1666.268
 903  1625.628
 904  1502.605
 905  1539.179
 906  1619.957
 907  1596.298
 908  1593.39
 909  1677.45
 910  1671.791
 911  1820.824
 912  1803.382
 913  1803.616
 914  1825.279
 915  1938.12
 916  2093.678
 917  2039.315
 918  1898.37
 919  1821.556
 920  1816.386
 921  1878.648
 922  1890.647
 923  1809.436
 924  1739.432
 925  1713.637
 926  1803.5
 927  1777.193
 928  1772.721
 929  1791.17
 930  1804.473
 931  1747.636
 932  1735.47
 933  1791.552
 934  1755.166
 935  1774.023
 936  1831.966
 937  1887.482
 938  1835.531
 939  1692.975
 940  1680.691
 941  1754.774
 942  1718.114
 943  1723.656
 944  1742.353
 945  1794.304
 946  1778.177
 947  1694.971
 948  1726.12
 949  1777.849
 950  1770.368
 951  1745.203
 952  1700.776
 953  1621.763
 954  1725.167
 955  1794.861
 956  1882.332
 957  1805.075
 958  1809.666
 959  1958.835
 960  2049.314
 961  1933.067
 962  1866.194
 963  1916.019
 964  2012.596
 965  2117.668
 966  2150.762
 967  2010.043
 968  1948.608
 969  1882.943
 970  1845.496
 971  1801.763
 972  1787.526
 973  1899.074
 974  1899.141
 975  1973.807
 976  1957.177
 977  1919.3
 978  1934.948
 979  1838.325
 980  1813.413
 981  1726.067
 982  1726.151
 983  1695.14
 984  1793.91
 985  1867.12
 986  1921.694
 987  1972.832
 988  1812.688
 989  1737.856
 990  1718.358
 991  1821.034
 992  1908.307
 993  1813.738
 994  1794.41
 995  1788.115
 996  1836.978
 997  1808.286
 998  1788.644
 999  1804.292
1000  1899.565
1001  1970.055
1002  1926.731
1003  1776.796
1004  1653.582
1005  1637.537
1006  1695.121
1007  1697.971
1008  1649.961
1009  1607.777
1010  1670.584
1011  1784.702
1012  1733.88
1013  1763.686
1014  1800.258
1015  1863.806
1016  1894.432
1017  1838.555
1018  1825.268
1019  1798.005
1020  1830.498
1021  1786.173
1022  1672.825
1023  1644.237
