# Input file       =  1198330917.113058_cleaned.dat
# Candidate        =  PSR_0332+5434
# Telescope        =  AR
# Epoch_topo       =  58113.571019827061
# Epoch_bary       =  N/A
# T_sample         =  0.002
# Data Folded      =  7143424
# Data Avg         =  0.711819965360311
# Data StdDev      =  6.87012725320889 
# Profile Bins     =  512
# Profile Avg      =  9931.00220374235 
# Profile StdDev   =  811.489706359332 
# Reduced chi-sqr  =  0.813
# Prob(Noise)      <  0.999   (~0.0 sigma)
# P_topo (ms)      =  714.550981934638  +/- 5.65e-05
# P'_topo (s/s)    =  -0                +/- 3.06e-11
# P''_topo (s/s^2) =  0                 +/- 1.39e-14
# P_bary (ms)      =  N/A
# P'_bary (s/s)    =  N/A
# P''_bary (s/s^2) =  N/A
# P_orb (s)        =  N/A
# asin(i)/c (s)    =  N/A
# eccentricity     =  N/A
# w (rad)          =  N/A
# T_peri           =  N/A
######################################################
   0  10270.3
   1  9637.569
   2  9453.178
   3  9555.897
   4  9828.907
   5  10551.67
   6  10530.8
   7  10045.1
   8  9851.65
   9  9542.765
  10  9474.121
  11  9737.881
  12  9627.902
  13  9727.44
  14  10108.13
  15  10068.83
  16  9894.352
  17  9796.108
  18  9910.212
  19  9383.184
  20  9672.806
  21  10050.51
  22  10295.09
  23  10498.54
  24  10174.09
  25  10325.09
  26  9347.599
  27  9454.958
  28  10194.26
  29  10133.25
  30  10000.16
  31  10058.6
  32  10052.03
  33  9803.694
  34  9686.653
  35  9641.343
  36  9193.311
  37  9571.619
  38  9717.459
  39  10408.32
  40  10626.96
  41  10598.3
  42  9705.034
  43  9939.668
  44  10095.34
  45  9716.585
  46  9435.196
  47  10165.46
  48  10812.41
  49  10441.61
  50  9949.501
  51  9693.92
  52  10008.44
  53  9428.343
  54  9419.788
  55  9678.211
  56  10181.63
  57  10443
  58  10217.57
  59  9449.207
  60  9258.048
  61  9222.317
  62  9816.179
  63  10443.72
  64  10175.89
  65  10141.31
  66  10542.04
  67  9787.697
  68  9351.479
  69  9302.47
  70  9591.6
  71  9583.65
  72  10221.73
  73  10025.82
  74  10068.99
  75  10136.93
  76  10028.51
  77  10112.69
  78  9530.056
  79  9192.947
  80  9575.647
  81  10094.64
  82  9784.336
  83  9367.686
  84  9185.09
  85  8802.761
  86  9201.755
  87  9465.519
  88  10041.76
  89  9411.904
  90  9649.106
  91  9709.172
  92  9713.396
  93  9665.716
  94  9913.723
  95  9635.613
  96  9882.519
  97  10060.98
  98  10007.54
  99  10055.31
 100  10218.46
 101  10194.02
 102  9906.199
 103  10125.98
 104  10680.11
 105  10675.28
 106  10318.64
 107  9750.096
 108  9531.242
 109  9166.404
 110  8813.902
 111  9356.615
 112  10505.97
 113  10894.02
 114  10473.45
 115  10176.9
 116  10326.85
 117  9990.868
 118  10053.45
 119  10149.65
 120  9718.412
 121  9511.37
 122  10379.48
 123  10288.45
 124  10376.12
 125  9899.329
 126  9674.547
 127  10012.53
 128  9510.837
 129  10335.91
 130  10122.16
 131  9816.555
 132  9814.701
 133  9871.516
 134  9850.328
 135  9519.935
 136  8816.149
 137  9014.984
 138  9792.105
 139  9010.486
 140  9139.097
 141  9237.278
 142  8984.271
 143  9374.812
 144  9337.911
 145  9408.976
 146  9549.557
 147  9458.44
 148  9421.213
 149  9617.333
 150  9904.355
 151  9372.374
 152  9384.53
 153  9322.686
 154  9794.848
 155  9661.382
 156  9377.535
 157  9776.394
 158  9841.27
 159  9882.22
 160  9256.947
 161  8908.549
 162  9892.254
 163  10764.58
 164  10370.27
 165  9961.367
 166  10222.77
 167  9946.196
 168  9406.295
 169  9613.077
 170  10701.46
 171  10082.82
 172  9794.601
 173  9620.096
 174  9672.012
 175  9101.823
 176  9443.73
 177  10168.06
 178  10218.2
 179  10301.28
 180  9536.653
 181  9094.956
 182  9037.552
 183  9847.9
 184  9913.913
 185  9539.246
 186  9424.943
 187  9302.021
 188  9762.15
 189  9562.51
 190  9466.347
 191  9331.446
 192  9644.885
 193  8841.198
 194  8694.513
 195  9264.418
 196  10021.12
 197  10487.48
 198  10507.01
 199  9873.911
 200  9177.352
 201  8813.584
 202  9753.831
 203  9714.325
 204  9783.205
 205  10500.78
 206  10788.66
 207  10072.48
 208  9740.004
 209  9618.939
 210  9487.351
 211  9167.798
 212  9678.029
 213  10446.62
 214  9759.846
 215  9117.053
 216  9408.233
 217  9253.124
 218  9013.128
 219  9495.574
 220  9776.18
 221  9563.909
 222  9507.332
 223  9261.85
 224  9514.279
 225  9397.922
 226  8738.416
 227  8827.76
 228  9312.493
 229  9841.801
 230  9285.27
 231  9295.149
 232  9053.906
 233  9399.138
 234  9833.37
 235  10529.81
 236  10412.91
 237  10610.99
 238  10152.5
 239  9527.329
 240  9785.388
 241  10396
 242  9933.41
 243  10036.49
 244  10326.46
 245  10839.35
 246  11116.38
 247  10667.78
 248  10506.72
 249  10437.04
 250  9871.827
 251  9341.22
 252  9520.669
 253  9700.335
 254  10250.73
 255  9876.855
 256  9338.795
 257  8776.959
 258  8687.847
 259  9040.361
 260  9577.206
 261  10095.56
 262  10119.8
 263  10334.88
 264  9861.438
 265  9401.571
 266  8543.899
 267  9137.024
 268  10075.86
 269  10567.07
 270  10962.85
 271  10139.25
 272  9637.687
 273  9334.215
 274  10071.42
 275  9731.215
 276  9122.647
 277  9217.339
 278  9742.771
 279  9540.969
 280  9415.521
 281  8896.87
 282  8970.266
 283  9318.068
 284  9574.127
 285  9749.496
 286  9868.497
 287  9623.958
 288  10119.18
 289  9371.549
 290  8823.073
 291  9529.742
 292  9624.503
 293  9440.052
 294  9119.258
 295  9574.517
 296  9619.158
 297  9991.403
 298  9746.801
 299  9937.76
 300  9661.326
 301  10017.83
 302  11050.84
 303  10830.7
 304  10382.46
 305  10137.08
 306  10761.86
 307  10213.21
 308  10685.52
 309  11809.5
 310  11797.46
 311  11629.4
 312  11367.46
 313  11288.53
 314  10499.87
 315  10273.56
 316  9794.879
 317  9530.976
 318  9557.479
 319  10221.8
 320  10344.03
 321  9565.687
 322  9425.729
 323  9484.531
 324  9536.161
 325  10089.63
 326  10022.72
 327  10210.49
 328  11022.16
 329  10253.09
 330  10623.67
 331  10149.6
 332  10126.84
 333  10046.69
 334  9846.779
 335  10164.14
 336  10151.37
 337  10515.45
 338  10929.48
 339  10535.21
 340  10461.5
 341  10294.83
 342  10015.59
 343  10066.13
 344  10005.98
 345  10519.47
 346  10716.62
 347  10526.11
 348  9895.759
 349  9274.812
 350  9491.033
 351  10082.42
 352  10816.17
 353  10339.63
 354  9635.716
 355  9900.918
 356  9968.894
 357  9936.55
 358  9232.657
 359  9859.423
 360  10429.68
 361  9993.101
 362  10165.97
 363  9799.62
 364  10114.05
 365  9774.452
 366  9401.836
 367  9125.182
 368  9695.238
 369  9639.054
 370  9713.723
 371  10222.59
 372  9518.177
 373  9830.275
 374  9997.702
 375  10026.04
 376  9676.02
 377  9990.26
 378  10295.44
 379  9979.022
 380  9502.756
 381  9498.25
 382  9810.957
 383  10209.18
 384  10084.99
 385  10020.33
 386  10190.92
 387  10648.02
 388  10334.24
 389  10138.98
 390  9772.401
 391  10083.45
 392  9482.268
 393  9614.491
 394  10253.08
 395  10113.21
 396  9929.659
 397  9894.699
 398  10470.49
 399  9720.826
 400  9794.865
 401  9563.326
 402  10112.63
 403  10116.45
 404  9968.642
 405  9842.337
 406  9835.917
 407  9869.282
 408  9716.187
 409  9497.122
 410  10543.25
 411  11145.52
 412  11167.65
 413  11140.79
 414  10606.97
 415  10374.1
 416  9840.161
 417  9515.358
 418  9790.6
 419  10273.67
 420  10369.72
 421  10012.76
 422  10382.79
 423  9814.028
 424  10056.88
 425  10800.96
 426  10540.01
 427  10676.92
 428  10647.65
 429  10233.18
 430  9990.137
 431  10410.69
 432  10425.07
 433  9504.928
 434  10178.58
 435  11452.04
 436  10756.71
 437  10147.36
 438  9923.722
 439  10109.61
 440  9955.258
 441  10131.62
 442  10049.88
 443  10242.68
 444  10410.34
 445  10551.14
 446  10642.75
 447  9372.012
 448  9604.108
 449  9776.951
 450  9554.388
 451  10126.85
 452  10726.28
 453  10786.84
 454  10917.19
 455  10303.99
 456  9796.061
 457  9592.391
 458  9451.035
 459  9659.565
 460  10888.8
 461  10945.87
 462  10118.76
 463  10434.12
 464  10670.28
 465  10575.57
 466  10583.49
 467  10387.05
 468  10320.71
 469  10837.66
 470  10957.71
 471  10724.12
 472  10128.8
 473  10169.92
 474  10425.07
 475  10515.91
 476  10234.42
 477  10441.21
 478  10598.54
 479  10177.43
 480  9692.612
 481  9701.953
 482  9630.246
 483  9297.215
 484  9997.69
 485  10388.54
 486  10362
 487  10137.42
 488  10042.11
 489  10346.97
 490  10134.26
 491  10129.73
 492  10309.16
 493  10801.48
 494  11214.45
 495  11057.08
 496  11269.66
 497  10349.7
 498  9672.33
 499  10068.53
 500  9770.576
 501  9873.146
 502  10400.3
 503  10301.02
 504  9783.391
 505  8898.503
 506  8910.092
 507  9389.188
 508  9511.415
 509  10028.55
 510  10564.45
 511  10205.8
