# Input file       =  1198533322.113961_cleaned.dat
# Candidate        =  PSR_0332+5434
# Telescope        =  AR
# Epoch_topo       =  58115.913670300477
# Epoch_bary       =  N/A
# T_sample         =  0.002
# Data Folded      =  7340032
# Data Avg         =  0.161083769032433
# Data StdDev      =  4.28187510566922 
# Profile Bins     =  1024
# Profile Avg      =  1154.6648087304  
# Profile StdDev   =  362.520853588453 
# Reduced chi-sqr  =  0.556
# Prob(Noise)      <  1   (~0.0 sigma)
# P_topo (ms)      =  714.553449239096  +/- 0.000726
# P'_topo (s/s)    =  -0                +/- 3.83e-10
# P''_topo (s/s^2) =  0                 +/- 1.69e-13
# P_bary (ms)      =  N/A
# P'_bary (s/s)    =  N/A
# P''_bary (s/s^2) =  N/A
# P_orb (s)        =  N/A
# asin(i)/c (s)    =  N/A
# eccentricity     =  N/A
# w (rad)          =  N/A
# T_peri           =  N/A
######################################################
   0  983.5983
   1  1232.679
   2  1226.606
   3  1244.497
   4  1111.637
   5  1128.258
   6  1139.186
   7  1211.885
   8  1244.599
   9  1260.398
  10  1135.599
  11  1045.08
  12  1063.4
  13  1121.546
  14  1164.161
  15  1142.278
  16  1092.873
  17  1076.177
  18  1145.483
  19  1221.712
  20  1311.502
  21  1298.832
  22  1248.263
  23  1177.841
  24  1133.064
  25  1101.423
  26  1103.535
  27  1178.272
  28  1223.589
  29  1204.41
  30  1094.565
  31  1049.539
  32  1080.599
  33  1159.663
  34  958.387
  35  902.3199
  36  1115.164
  37  1324.061
  38  1270.765
  39  1125.547
  40  1204.879
  41  1261.451
  42  1290.245
  43  1263.751
  44  1256.581
  45  1105.157
  46  1015.764
  47  1038.894
  48  1193.32
  49  1161.091
  50  1094.993
  51  1112.114
  52  1101.931
  53  1054.858
  54  1000.118
  55  1050.052
  56  1165.078
  57  1269.254
  58  1365.131
  59  1363.853
  60  1356.283
  61  1275.504
  62  1191.564
  63  1098.03
  64  1014.23
  65  957.671
  66  912.027
  67  888.7874
  68  882.533
  69  1005.658
  70  1118.292
  71  1169.399
  72  1130.556
  73  1101.561
  74  1152.478
  75  1224.003
  76  1210.007
  77  1078.117
  78  1094.985
  79  1184.679
  80  1320.678
  81  1319.132
  82  1216.329
  83  1229.212
  84  1303.858
  85  1329.397
  86  1294.9
  87  1256.807
  88  1340.155
  89  1298.127
  90  1238.011
  91  1062.791
  92  1018.252
  93  1101.88
  94  1161.557
  95  1169.608
  96  1141.381
  97  1121.933
  98  1112.103
  99  1192.044
 100  1305.866
 101  1364.482
 102  1363.657
 103  1373.158
 104  1308.709
 105  1217.996
 106  973.9291
 107  1037.37
 108  1173.101
 109  1224.402
 110  1167.184
 111  1119.396
 112  1120.045
 113  1097.99
 114  1088.82
 115  1191.502
 116  1211.812
 117  1190.34
 118  1335.275
 119  1398.883
 120  1378.415
 121  1286.33
 122  1292.661
 123  1368.465
 124  1247.157
 125  1153.692
 126  1120.549
 127  1174.368
 128  1203.626
 129  1131.3
 130  1128.177
 131  1140.378
 132  1208.906
 133  1235.582
 134  1189.936
 135  1153.847
 136  1262.008
 137  1235.633
 138  1275.679
 139  1192.134
 140  1313.909
 141  1251.557
 142  1355.331
 143  1368.54
 144  1280.057
 145  1128.134
 146  1072.608
 147  1094.969
 148  1038.949
 149  981.7363
 150  1058.813
 151  1031.223
 152  1045.905
 153  1047.61
 154  1149.684
 155  1099.277
 156  951.7976
 157  1000.293
 158  949.3284
 159  957.269
 160  869.965
 161  834.4858
 162  906.4304
 163  925.4898
 164  1018.507
 165  1006.366
 166  999.5709
 167  978.5087
 168  998.9251
 169  898.9251
 170  934.8813
 171  986.5956
 172  993.2584
 173  1032.529
 174  1063.084
 175  1082.382
 176  1050.728
 177  955.1722
 178  1113.699
 179  1134.462
 180  1292.423
 181  1291.197
 182  1345.295
 183  1219.125
 184  1134.33
 185  1030.215
 186  1076.998
 187  1182.469
 188  1268.175
 189  1283.647
 190  1188.644
 191  1130.571
 192  1132.924
 193  1221.981
 194  1259.396
 195  1332.39
 196  1372.889
 197  1379.737
 198  1305.576
 199  1306.767
 200  1204.201
 201  1184.233
 202  1242.877
 203  1439.288
 204  1413.01
 205  1423.728
 206  1302.917
 207  1337.892
 208  1190.453
 209  1065.605
 210  1025.942
 211  1240.078
 212  1318.383
 213  1410.737
 214  1317.329
 215  1277.158
 216  1187.891
 217  1282.114
 218  1317.185
 219  1332.329
 220  1377.025
 221  1354.752
 222  1394.894
 223  1292.616
 224  1306.963
 225  1468.244
 226  1513.529
 227  1406.638
 228  1280.11
 229  1117.759
 230  998.4031
 231  913.9961
 232  1062.911
 233  1237.91
 234  1246.709
 235  1235.309
 236  1182.595
 237  1252.149
 238  1234.913
 239  1113.286
 240  1052.405
 241  1055.583
 242  1092.319
 243  930.4095
 244  916.6732
 245  980.1037
 246  1064.15
 247  1136.622
 248  1177.548
 249  1244.179
 250  1263.453
 251  1315.09
 252  1312.946
 253  1385.362
 254  1273.696
 255  1293.539
 256  1243.762
 257  1353.318
 258  1316.938
 259  1213.496
 260  1162.167
 261  1182.565
 262  1118.643
 263  983.9934
 264  940.41
 265  1058.254
 266  1158.954
 267  1257.062
 268  1318.554
 269  1305.258
 270  1298.407
 271  1272.768
 272  1233.671
 273  1119.411
 274  1050.688
 275  1174.484
 276  1153.38
 277  1011.37
 278  983.2245
 279  1061.77
 280  1092.628
 281  984.328
 282  751.5306
 283  750.07
 284  840.9224
 285  921.1152
 286  1012.567
 287  913.1368
 288  928.5773
 289  877.0428
 290  970.4559
 291  1023.991
 292  1044.237
 293  1103.811
 294  997.0235
 295  1064.254
 296  1010.335
 297  1054.264
 298  889.9581
 299  903.8214
 300  898.4529
 301  867.9883
 302  916.7593
 303  961.7806
 304  994.9216
 305  1013.479
 306  1096.955
 307  1160.416
 308  1199.571
 309  1107.049
 310  984.5017
 311  924.4926
 312  1016.017
 313  1076.999
 314  1101.336
 315  1098.829
 316  1014.227
 317  987.0117
 318  910.5898
 319  965.3159
 320  982.3556
 321  1037.946
 322  1108.901
 323  1161.146
 324  1114.382
 325  902.3539
 326  799.4985
 327  782.7816
 328  960.3369
 329  963.4489
 330  1095.346
 331  1094.282
 332  1117.825
 333  1054.941
 334  1020.469
 335  1039.79
 336  1069.674
 337  1122.628
 338  1120.951
 339  1078.808
 340  1191.844
 341  1218.185
 342  1242.527
 343  1330.204
 344  1367.97
 345  1227.566
 346  957.3939
 347  887.0294
 348  875.4604
 349  1044.113
 350  1092.111
 351  1203.136
 352  1057.067
 353  984.7252
 354  903.0287
 355  979.5112
 356  1061.48
 357  1091.656
 358  1031.38
 359  988.6553
 360  1028.953
 361  1137.115
 362  1248.364
 363  1266.349
 364  1192.733
 365  961.5184
 366  1044.373
 367  1117.277
 368  1142.689
 369  1116.521
 370  1173.751
 371  1291.409
 372  1358.048
 373  1280.161
 374  1238.27
 375  1312.779
 376  1359.648
 377  1280.376
 378  1185.69
 379  1153.752
 380  1095.982
 381  1106.356
 382  1279.336
 383  1314.839
 384  1248.057
 385  1258.983
 386  1266.944
 387  1271.478
 388  1237.629
 389  1221.374
 390  1269.966
 391  1303.087
 392  1356.208
 393  1279.371
 394  1244.96
 395  1203.578
 396  1196.468
 397  1078.26
 398  1006.263
 399  1132.07
 400  1362.461
 401  1448.142
 402  1366.061
 403  1255.321
 404  1276.065
 405  1176.486
 406  1194.347
 407  1115.652
 408  1291.669
 409  1219.482
 410  1203.898
 411  1144.37
 412  1175.359
 413  1169.563
 414  1133.624
 415  1279.771
 416  1247.164
 417  1120.905
 418  1013.394
 419  1038.832
 420  1177.493
 421  1154.3
 422  1188.163
 423  1097.305
 424  1091.051
 425  1191.975
 426  1185.961
 427  1241.005
 428  1104.611
 429  1081.656
 430  974.0925
 431  1159.264
 432  1260.569
 433  1390.118
 434  1308.378
 435  1153.626
 436  1048.701
 437  1049.9
 438  1217.172
 439  1176.724
 440  1070.911
 441  1055.758
 442  1107.726
 443  1133.016
 444  1016.496
 445  1005.96
 446  1093.96
 447  1129.145
 448  1142.64
 449  1176.047
 450  1165.117
 451  996.8206
 452  847.7105
 453  938.8622
 454  981.5358
 455  1043.158
 456  880.0665
 457  898.7793
 458  955.3006
 459  972.1602
 460  977.716
 461  916.7188
 462  1006.166
 463  1006.694
 464  1100.109
 465  1048.405
 466  1000.307
 467  893.3606
 468  811.8967
 469  745.0945
 470  864.773
 471  1058.322
 472  1128.989
 473  1139.007
 474  1109.756
 475  1166.011
 476  1206.191
 477  1310.092
 478  1314.976
 479  1265.338
 480  1094.901
 481  1089.739
 482  1043.756
 483  1099.652
 484  1153.163
 485  1118.578
 486  1206.628
 487  1210.626
 488  1240.804
 489  1243.737
 490  1286.649
 491  1376.695
 492  1339.32
 493  1283.514
 494  1171.125
 495  1131.758
 496  1142.453
 497  1197.266
 498  1234.356
 499  1222.783
 500  1174.372
 501  1209.223
 502  1204.154
 503  1219.46
 504  1203.792
 505  1188.003
 506  1194.79
 507  1108.302
 508  1122.101
 509  1129.875
 510  1248.102
 511  1289.592
 512  1313.742
 513  1258.544
 514  1320.289
 515  1239.714
 516  1278.157
 517  1295.034
 518  1323.737
 519  1431.582
 520  1445.527
 521  1377.496
 522  1176.426
 523  1043.019
 524  981.4361
 525  1105.005
 526  1206.783
 527  1132.349
 528  1151.292
 529  1185.25
 530  1317.765
 531  1267.667
 532  1239.696
 533  1203.51
 534  1141.345
 535  1084.457
 536  1154.954
 537  1194.329
 538  1228.295
 539  1248.883
 540  1260.144
 541  1240.449
 542  1096.91
 543  1241.607
 544  1327.798
 545  1423.604
 546  1319.912
 547  1251.543
 548  1139.547
 549  1100.013
 550  1116.385
 551  1218.466
 552  1292.774
 553  1266.927
 554  1179.661
 555  1132.566
 556  1135.473
 557  1255.61
 558  1246.047
 559  1256.651
 560  1214.459
 561  1266.691
 562  1154.436
 563  1117.556
 564  1056.765
 565  1078.162
 566  1123.796
 567  1171.992
 568  1234.09
 569  1185.963
 570  1125.351
 571  1075.667
 572  1118.234
 573  1122.915
 574  1155.362
 575  1214.184
 576  1118.336
 577  1116.222
 578  1218.753
 579  1408.486
 580  1387.359
 581  1330.395
 582  1193.107
 583  1147.938
 584  1090.025
 585  1277.536
 586  1398.062
 587  1496.923
 588  1416.788
 589  1211.234
 590  1225.404
 591  1354.028
 592  1360.902
 593  1242.635
 594  1201.977
 595  1186.429
 596  1314.047
 597  1304.802
 598  1273.274
 599  1251.856
 600  1294.252
 601  1345.361
 602  1397.148
 603  1419.767
 604  1287.718
 605  1264.31
 606  1351.969
 607  1507.026
 608  1527.215
 609  1452.786
 610  1279.541
 611  1184.216
 612  1073.948
 613  1104.833
 614  1148.769
 615  1312.709
 616  1416.78
 617  1542.209
 618  1471.866
 619  1455.214
 620  1575.152
 621  1763.612
 622  1833.959
 623  1814.146
 624  1759.26
 625  1675.844
 626  1530.393
 627  1497.888
 628  1335.945
 629  1160.748
 630  988.1529
 631  965.6537
 632  916.1154
 633  879.3476
 634  860.7521
 635  980.8325
 636  995.9178
 637  1161.683
 638  1258.295
 639  1237.245
 640  1123.636
 641  1158.149
 642  1264.653
 643  1213.609
 644  1032.466
 645  1234.626
 646  1336.006
 647  1300.468
 648  1248.605
 649  1325.996
 650  1299.876
 651  1251.706
 652  1112.627
 653  1231.583
 654  1279.332
 655  1271.098
 656  1110.252
 657  1087.911
 658  1193.719
 659  1201.819
 660  1073.734
 661  1058.84
 662  965.1167
 663  918.0269
 664  938.8119
 665  968.5485
 666  980.0145
 667  1030.202
 668  1083.059
 669  1167.273
 670  1262.129
 671  1321.744
 672  1341.093
 673  1291.041
 674  1165.275
 675  1006.813
 676  1046.562
 677  1130.228
 678  1197.172
 679  1312.202
 680  1377.429
 681  1330.684
 682  1215.77
 683  1067.253
 684  1131.713
 685  1206.498
 686  1308.249
 687  1173.747
 688  1169.959
 689  1149.068
 690  1117.828
 691  1129.182
 692  1142.069
 693  1146.652
 694  1106.855
 695  1107.581
 696  1039.422
 697  980.994
 698  1050.297
 699  1155.033
 700  1254.294
 701  1265.667
 702  1202.975
 703  1113.408
 704  1004.664
 705  870.8144
 706  791.6381
 707  975.0858
 708  998.1211
 709  1040.441
 710  1038.787
 711  1124.97
 712  1010.924
 713  916.3578
 714  925.2708
 715  1095.958
 716  1276.287
 717  1252.859
 718  1137.866
 719  1023.604
 720  1092.575
 721  1164.848
 722  1201.034
 723  1112.75
 724  1069.049
 725  1146.401
 726  1199.472
 727  1165.337
 728  1117.167
 729  1135.138
 730  1198.515
 731  1351.645
 732  1267.566
 733  1239.104
 734  1084.068
 735  1020.856
 736  1007.032
 737  1087.421
 738  1047.813
 739  970.9254
 740  1095.987
 741  1198.15
 742  1255.624
 743  1211.236
 744  1313.35
 745  1284.602
 746  1230.553
 747  1087.49
 748  1035.231
 749  1039.893
 750  1064.113
 751  1021.539
 752  987.7891
 753  910.9338
 754  793.3308
 755  767.2516
 756  868.6212
 757  992.2332
 758  1077.692
 759  1245.166
 760  1155.686
 761  1073.647
 762  988.7136
 763  1000.145
 764  967.7769
 765  1057.603
 766  1168.251
 767  1250.091
 768  1299.818
 769  1275.179
 770  1128.934
 771  941.2365
 772  959.4551
 773  903.3752
 774  935.1516
 775  908.9504
 776  992.5399
 777  969.7678
 778  1004.015
 779  1021.909
 780  1006.075
 781  955.7358
 782  847.6648
 783  889.9518
 784  900.5594
 785  1103.409
 786  1224.851
 787  1356.646
 788  1337.356
 789  1382.934
 790  1273.738
 791  1127.832
 792  1069.294
 793  1101.235
 794  1189.78
 795  1129.601
 796  1194.001
 797  1263.092
 798  1339.569
 799  1228.465
 800  1138.453
 801  1201.22
 802  1200.218
 803  1049.25
 804  902.4186
 805  1006.645
 806  1121.201
 807  1132.228
 808  1051.564
 809  1125.863
 810  1155.963
 811  1248.678
 812  1226.958
 813  1251.496
 814  1230.323
 815  1102.421
 816  1113.67
 817  1157.631
 818  1158.833
 819  866.8095
 820  827.5358
 821  874.8602
 822  1071.599
 823  1060.737
 824  1087.487
 825  1010.583
 826  1055.351
 827  1085.686
 828  1186.575
 829  1167.822
 830  1159.688
 831  1086.532
 832  1117.077
 833  1046.91
 834  977.7344
 835  866.9403
 836  888.0936
 837  930.7024
 838  941.7528
 839  908.6566
 840  768.5374
 841  782.4135
 842  933.0483
 843  939.0689
 844  987.7672
 845  995.5443
 846  1108.687
 847  1102.556
 848  1154.905
 849  1144.853
 850  1129.628
 851  1084.158
 852  1019.1
 853  962.7145
 854  1031.969
 855  1065.245
 856  1009.54
 857  930.4001
 858  948.9507
 859  1053.031
 860  1143.384
 861  1201.338
 862  1256.745
 863  1181.898
 864  1042.519
 865  876.6127
 866  914.16
 867  942.0129
 868  940.2965
 869  969.7615
 870  1037.906
 871  1072.95
 872  1152.162
 873  1119.884
 874  1165.522
 875  1199.182
 876  1257.669
 877  1282.124
 878  1258.977
 879  1222.866
 880  1231.257
 881  1158.903
 882  1182.305
 883  1075.6
 884  1079.86
 885  1099.818
 886  1119.526
 887  1125.755
 888  1129.718
 889  1080.253
 890  1010.831
 891  1122.197
 892  1253.727
 893  1338.148
 894  1134.592
 895  996.9323
 896  909.8436
 897  1029.101
 898  1076.673
 899  1034.14
 900  1124.46
 901  1146.458
 902  1185.836
 903  1145.838
 904  1226.793
 905  1177.844
 906  1155.854
 907  1125.257
 908  1125.186
 909  1129.991
 910  1063.271
 911  1126.53
 912  1165.768
 913  1179.956
 914  1124.895
 915  1109.708
 916  1159.929
 917  1181.766
 918  1202.996
 919  1066.96
 920  886.8685
 921  765.0723
 922  907.1151
 923  1085.971
 924  1106.683
 925  1149.183
 926  1112.566
 927  1150.618
 928  1089.275
 929  1151.163
 930  1233.716
 931  1306.328
 932  1152.792
 933  1027.072
 934  1220.857
 935  1344.262
 936  1557.591
 937  1483.231
 938  1542.952
 939  1403.746
 940  1305.69
 941  1295.899
 942  1241.264
 943  1239.753
 944  1226.032
 945  1198.773
 946  1174.462
 947  1118.96
 948  1070.572
 949  1095.271
 950  1138.583
 951  1148.698
 952  1169.479
 953  1153.435
 954  1161.001
 955  1228.586
 956  1344.171
 957  1156.732
 958  1149.015
 959  1066.955
 960  1151.324
 961  1292.062
 962  1338.401
 963  1200.854
 964  1066.804
 965  1115.568
 966  1204.658
 967  1192.055
 968  1285.39
 969  1325.919
 970  1274.704
 971  1255.575
 972  1147.208
 973  1130.852
 974  1207.47
 975  1300.053
 976  1489.514
 977  1543.336
 978  1589.759
 979  1342.372
 980  1356.443
 981  1408.417
 982  1585.918
 983  1567.939
 984  1372.774
 985  1190.554
 986  1159.827
 987  1230.995
 988  1293.957
 989  1348.504
 990  1470.835
 991  1424.932
 992  1285.997
 993  1286.374
 994  1433.036
 995  1530.905
 996  1385.263
 997  1328.841
 998  1315.375
 999  1321.617
1000  1194.297
1001  1222.003
1002  1286.807
1003  1293.766
1004  1240.997
1005  1205.227
1006  1202.263
1007  1111.754
1008  1009.743
1009  976.0968
1010  965.3831
1011  1048.304
1012  1039.973
1013  1056.711
1014  1106.831
1015  1108.212
1016  1091.719
1017  1024.769
1018  1031.553
1019  987.5723
1020  1061.318
1021  1153.503
1022  1136.597
1023  1120.115
