# Input file       =  1198446620.102143_cleaned.dat
# Candidate        =  PSR_0332+5434
# Telescope        =  AR
# Epoch_topo       =  58114.910174793324
# Epoch_bary       =  N/A
# T_sample         =  0.002
# Data Folded      =  7340032
# Data Avg         =  0.144873336715266
# Data StdDev      =  4.18807684328732 
# Profile Bins     =  1024
# Profile Avg      =  1038.24787095842 
# Profile StdDev   =  354.579513566933 
# Reduced chi-sqr  =  0.631
# Prob(Noise)      <  1   (~0.0 sigma)
# P_topo (ms)      =  714.552545939741  +/- 0.000446
# P'_topo (s/s)    =  -0                +/- 2.35e-10
# P''_topo (s/s^2) =  0                 +/- 1.04e-13
# P_bary (ms)      =  N/A
# P'_bary (s/s)    =  N/A
# P''_bary (s/s^2) =  N/A
# P_orb (s)        =  N/A
# asin(i)/c (s)    =  N/A
# eccentricity     =  N/A
# w (rad)          =  N/A
# T_peri           =  N/A
######################################################
   0  1135.145
   1  1259.515
   2  1237.651
   3  1134.592
   4  1136.158
   5  1257.821
   6  1063.275
   7  917.236
   8  932.0259
   9  1146.689
  10  1182.17
  11  1085.394
  12  1121.236
  13  1158.621
  14  1125.121
  15  1037.005
  16  1038.726
  17  1079.04
  18  1068.668
  19  1080.274
  20  1065.822
  21  1121.5
  22  1112.371
  23  1190.557
  24  1081.466
  25  959.2713
  26  993.3873
  27  1085.794
  28  1169.313
  29  995.479
  30  983.069
  31  984.0993
  32  953.4149
  33  915.2656
  34  974.7977
  35  908.9798
  36  790.8456
  37  760.2125
  38  895.7322
  39  917.5657
  40  1019.095
  41  970.5624
  42  961.233
  43  945.0999
  44  1047.406
  45  1083.76
  46  1014.875
  47  900.8758
  48  871.2364
  49  941.2115
  50  1145.795
  51  1136.891
  52  1132.563
  53  1152.334
  54  1145.862
  55  1095.262
  56  918.8957
  57  922.7964
  58  982.8671
  59  899.4954
  60  868.8326
  61  941.0576
  62  1015.519
  63  1122.225
  64  1138.019
  65  1167.529
  66  1112.162
  67  973.3615
  68  833.3397
  69  863.8036
  70  976.304
  71  1080.904
  72  984.3342
  73  937.456
  74  1070.169
  75  1033.507
  76  1069.165
  77  1076.103
  78  1123.015
  79  1083.789
  80  1051.358
  81  1122.689
  82  1080.465
  83  1061.631
  84  1067.191
  85  990.468
  86  930.3287
  87  914.938
  88  957.5177
  89  904.7282
  90  887.9631
  91  914.1326
  92  994.6706
  93  898.312
  94  869.1869
  95  841.595
  96  839.8822
  97  810.1016
  98  994.5239
  99  1103.566
 100  1049.54
 101  890.6606
 102  942.8454
 103  1032.38
 104  950.6382
 105  889.8137
 106  1078.422
 107  1091.849
 108  1037.603
 109  994.0151
 110  1075.001
 111  1101.299
 112  1042.638
 113  1089.826
 114  1112.471
 115  991.7101
 116  906.4481
 117  919.3819
 118  1035.44
 119  1114.847
 120  1086.55
 121  1023.001
 122  965.4528
 123  1001.953
 124  996.6998
 125  1163.027
 126  1229.19
 127  1277.418
 128  1089.035
 129  928.7474
 130  1039.999
 131  1131.652
 132  1093.856
 133  1050.247
 134  1130.504
 135  1230.781
 136  1289.138
 137  1209.565
 138  1212.758
 139  1146.302
 140  1029.526
 141  987.4769
 142  894.0263
 143  990.1909
 144  1037.47
 145  1097.359
 146  1108.494
 147  1107.248
 148  1140.146
 149  1211.254
 150  1227.717
 151  1136.551
 152  1094.663
 153  1109.303
 154  1176.918
 155  1214.909
 156  1162.648
 157  1166.303
 158  1112.277
 159  1078.967
 160  938.6668
 161  753.5447
 162  845.2923
 163  1041.508
 164  1119.036
 165  1126.467
 166  1089.208
 167  1154.442
 168  1015.681
 169  995.8024
 170  1082.397
 171  1117.866
 172  916.5539
 173  864.2048
 174  914.3475
 175  1014.313
 176  985.1829
 177  917.717
 178  845.9345
 179  855.3478
 180  824.4996
 181  793.2308
 182  812.9334
 183  972.3926
 184  1052.611
 185  1085.815
 186  1051.777
 187  1169.678
 188  1162.953
 189  1090.822
 190  942.5269
 191  873.5609
 192  809.8709
 193  917.5201
 194  886.512
 195  798.3363
 196  683.0347
 197  791.9406
 198  895.5256
 199  879.634
 200  718.8944
 201  704.1836
 202  841.7145
 203  1044.475
 204  1028.814
 205  963.6722
 206  873.6574
 207  799.1119
 208  847.1078
 209  920.0378
 210  996.1084
 211  834.8138
 212  873.709
 213  935.0292
 214  991.5671
 215  935.1568
 216  935.4315
 217  968.9312
 218  969.6308
 219  943.9385
 220  1000.023
 221  1014.075
 222  926.9963
 223  911.3662
 224  1062.104
 225  1089.231
 226  951.1699
 227  924.5485
 228  953.6991
 229  1043.843
 230  1056.696
 231  1070.61
 232  1068.835
 233  1042.331
 234  1168.004
 235  1162.087
 236  1116.108
 237  881.5054
 238  796.3094
 239  843.029
 240  972.1244
 241  939.3024
 242  947.0871
 243  913.5988
 244  869.1732
 245  811.1595
 246  725.6846
 247  795.3988
 248  793.8094
 249  902.1416
 250  905.8754
 251  1026.005
 252  1046
 253  1025.669
 254  975.5579
 255  928.4451
 256  893.9926
 257  799.9389
 258  612.2327
 259  604.976
 260  754.5854
 261  890.0464
 262  908.6035
 263  1001.727
 264  1141.611
 265  1358.609
 266  1408.115
 267  1429.605
 268  1233.67
 269  1052.23
 270  973.7167
 271  941.3595
 272  775.5207
 273  780.825
 274  869.7191
 275  921.5091
 276  854.0133
 277  807.6707
 278  787.4435
 279  702.6358
 280  693.1255
 281  699.2348
 282  753.7285
 283  709.748
 284  792.6987
 285  768.0247
 286  846.8054
 287  873.7875
 288  872.5884
 289  746.2164
 290  648.887
 291  624.7194
 292  733.5717
 293  863.7997
 294  888.1027
 295  842.5582
 296  750.9142
 297  853.2826
 298  1005.091
 299  1091.537
 300  1163.868
 301  1170.701
 302  1111.767
 303  989.8295
 304  891.88
 305  1069.05
 306  1100.583
 307  1177.709
 308  985.0432
 309  866.86
 310  908.3598
 311  948.9451
 312  1074.793
 313  1027.986
 314  1062.03
 315  1010.137
 316  946.5507
 317  995.3679
 318  955.2098
 319  937.0572
 320  935.7587
 321  996.0212
 322  948.3738
 323  736.377
 324  718.6509
 325  779.5163
 326  930.4213
 327  846.4919
 328  751.6377
 329  739.521
 330  919.1762
 331  1203.527
 332  1110.029
 333  982.6273
 334  844.0191
 335  971.2086
 336  983.2517
 337  898.549
 338  871.3466
 339  737.1178
 340  691.6325
 341  656.518
 342  762.518
 343  823.2826
 344  785.4678
 345  800.2493
 346  873.7994
 347  951.234
 348  1000.724
 349  1021.744
 350  942.1664
 351  918.1047
 352  922.3965
 353  1012.597
 354  1078.905
 355  934.9228
 356  873.9232
 357  984.5663
 358  1149.424
 359  1177.736
 360  1134.646
 361  1143.026
 362  1074.846
 363  1007.616
 364  1014.865
 365  992.3727
 366  927.0823
 367  885.5675
 368  832.8365
 369  736.882
 370  776.8109
 371  858.0068
 372  941.9122
 373  954.9808
 374  921.8403
 375  904.1254
 376  861.3883
 377  956.3831
 378  959.5604
 379  961.1853
 380  877.2941
 381  905.4774
 382  875.1494
 383  1042.073
 384  1084.066
 385  1058.793
 386  974.9538
 387  978.0812
 388  1120.03
 389  1115.796
 390  1070.246
 391  997.7094
 392  1039.83
 393  1070.044
 394  1017.367
 395  1037.136
 396  1024.706
 397  1039.21
 398  1010.047
 399  1058.053
 400  1065.696
 401  1106.568
 402  1198.642
 403  1267.277
 404  1211.146
 405  1184.887
 406  1192.746
 407  1200.891
 408  1226.741
 409  1164.789
 410  1111.942
 411  1023.685
 412  887.049
 413  863.7588
 414  775.1223
 415  756.2835
 416  658.4742
 417  677.2925
 418  710.1396
 419  722.2542
 420  688.8849
 421  848.3058
 422  984.1008
 423  1007.232
 424  980.3935
 425  1061.557
 426  1069.915
 427  953.6514
 428  886.6542
 429  938.4217
 430  1060.621
 431  992.5153
 432  998.9528
 433  908.3234
 434  906.5188
 435  893.3118
 436  884.3661
 437  1004.488
 438  1070.486
 439  1177.638
 440  1044.143
 441  1075.43
 442  994.3883
 443  916.9279
 444  827.5081
 445  910.7385
 446  1058.772
 447  1227.255
 448  1264.09
 449  1358.594
 450  1269.603
 451  1123.349
 452  1097.384
 453  1165.632
 454  1153.393
 455  950.9113
 456  821.8915
 457  797.1365
 458  891.2994
 459  974.6251
 460  978.7532
 461  940.6113
 462  898.1749
 463  901.861
 464  954.8079
 465  978.2631
 466  1032.699
 467  948.2082
 468  894.2991
 469  814.6266
 470  765.5931
 471  859.3456
 472  883.0732
 473  880.9749
 474  876.3152
 475  839.3657
 476  788.705
 477  696.6991
 478  732.8749
 479  820.1926
 480  873.801
 481  850.2256
 482  918.192
 483  946.3903
 484  1000.758
 485  1011.695
 486  982.1795
 487  990.1093
 488  990.8464
 489  1037.275
 490  856.9428
 491  675.6114
 492  723.4534
 493  819.017
 494  926.8143
 495  893.5778
 496  842.7969
 497  919.3492
 498  963.3731
 499  1058.815
 500  1046.011
 501  1029.856
 502  996.5043
 503  957.993
 504  898.6683
 505  773.8949
 506  743.491
 507  790.985
 508  773.9759
 509  640.386
 510  613.2339
 511  784.4384
 512  1030.666
 513  1255.629
 514  1220.264
 515  1171.909
 516  1120.747
 517  1136.301
 518  1165.434
 519  1165.28
 520  1220.726
 521  1249.473
 522  1171.335
 523  1147.303
 524  1103.476
 525  1085.821
 526  1051.348
 527  1088.897
 528  1262.786
 529  1295.523
 530  1158.122
 531  1128.302
 532  1168.82
 533  1195.393
 534  1074.644
 535  1089.099
 536  1157.633
 537  1167.885
 538  958.7523
 539  895.6651
 540  884.5418
 541  918.0744
 542  937.0605
 543  995.4938
 544  1035.716
 545  995.6635
 546  837.02
 547  961.9569
 548  910.8624
 549  1014.814
 550  978.8082
 551  1048.308
 552  993.6524
 553  925.2033
 554  816.4943
 555  813.3005
 556  818.196
 557  889.2128
 558  786.9556
 559  767.1625
 560  763.8945
 561  861.6826
 562  926.7579
 563  1094.35
 564  1156.74
 565  1276.024
 566  1286.896
 567  1353.875
 568  1333.2
 569  1209.271
 570  1031.359
 571  1092.709
 572  1271.788
 573  1354.362
 574  1187.783
 575  1103.467
 576  986.2199
 577  1005.079
 578  975.6359
 579  1070.356
 580  924.7883
 581  889.8608
 582  998.681
 583  1180.035
 584  1312.943
 585  1372.457
 586  1433.699
 587  1220.942
 588  1184.846
 589  1262.432
 590  1355.136
 591  1272.457
 592  1256.854
 593  1376.104
 594  1363.44
 595  1233.764
 596  1121.172
 597  1156.351
 598  1157.376
 599  1073.725
 600  1084.269
 601  1174.509
 602  1361.925
 603  1237.241
 604  1130.35
 605  953.5261
 606  907.7036
 607  979.6137
 608  998.387
 609  1004.779
 610  955.7832
 611  1118.409
 612  1184.963
 613  1212.468
 614  1294.878
 615  1417.012
 616  1404.676
 617  1439.126
 618  1505.288
 619  1536.219
 620  1511.98
 621  1439.005
 622  1517.619
 623  1487.637
 624  1538.819
 625  1484.922
 626  1492.25
 627  1334.66
 628  1307.065
 629  1279.586
 630  1403.043
 631  1416.725
 632  1416.744
 633  1383.401
 634  1188.752
 635  1120.059
 636  1051.857
 637  1123.318
 638  1226.191
 639  1330.984
 640  1331.013
 641  1236.038
 642  1226.651
 643  1271.252
 644  1248.349
 645  1202.954
 646  1204.192
 647  1196.411
 648  1197.888
 649  1308.248
 650  1388.274
 651  1338.8
 652  1126.563
 653  1067.675
 654  1068.248
 655  1019.8
 656  976.7302
 657  1004.935
 658  980.1564
 659  979.8848
 660  976.2128
 661  1162.165
 662  1084.621
 663  1155.109
 664  1151.434
 665  1156.089
 666  902.9655
 667  753.3279
 668  803.5193
 669  891.9986
 670  898.1147
 671  976.0382
 672  944.9524
 673  956.6783
 674  863.6808
 675  982.4412
 676  972.9387
 677  974.2076
 678  1033.922
 679  1086.353
 680  1193.785
 681  1076.167
 682  1234.518
 683  1156.912
 684  1144.371
 685  1041.845
 686  994.3578
 687  995.1403
 688  1011.803
 689  1030.167
 690  1007.899
 691  1092.586
 692  1195.753
 693  1174.537
 694  1084.498
 695  1017.049
 696  983.3995
 697  924.1406
 698  832.146
 699  810.9549
 700  907.9308
 701  1023.012
 702  1013.494
 703  995.0425
 704  1041.879
 705  1098.982
 706  1211.043
 707  1072.451
 708  1062.588
 709  988.1184
 710  987.6714
 711  918.894
 712  924.0284
 713  925.2523
 714  1011.449
 715  1001.373
 716  1088.347
 717  1065.1
 718  1103.875
 719  1111.778
 720  1048.862
 721  1033.142
 722  1060.609
 723  990.6907
 724  969.4204
 725  1003.471
 726  1038.005
 727  942.7164
 728  922.8373
 729  973.2081
 730  1117.319
 731  1159.206
 732  1166.093
 733  1028.774
 734  939.4463
 735  1019.273
 736  1142.252
 737  1166.678
 738  1093.455
 739  1063.426
 740  1079.75
 741  1101.095
 742  1119.622
 743  1174.518
 744  1221.03
 745  1107.537
 746  1223.526
 747  1284.072
 748  1345.921
 749  1155.457
 750  1151.377
 751  1296.348
 752  1217.354
 753  1081.156
 754  1067.245
 755  1148.534
 756  1244.452
 757  1239.982
 758  1236.726
 759  1116.18
 760  975.6841
 761  989.7816
 762  952.3762
 763  1061.523
 764  1100.115
 765  1128.226
 766  1083.86
 767  1025.211
 768  1060.538
 769  1024.303
 770  1033.277
 771  1156.06
 772  1297.04
 773  1248.461
 774  1145.909
 775  1043.947
 776  1177.89
 777  1124.198
 778  1185.903
 779  1213.793
 780  1154.193
 781  1095.235
 782  1129.364
 783  1273.219
 784  1248.941
 785  1181.114
 786  1147.259
 787  1146.059
 788  1025.273
 789  1049.976
 790  1082.145
 791  1021.589
 792  947.7734
 793  1017.511
 794  1141.569
 795  1111.095
 796  1128.5
 797  1173.644
 798  1179.841
 799  1216.094
 800  1302.138
 801  1331.485
 802  1098.212
 803  1026.305
 804  1036.441
 805  1181.911
 806  1126.777
 807  1085.391
 808  1075.821
 809  1054.085
 810  963.2999
 811  904.4828
 812  1008.08
 813  1035.255
 814  1037.785
 815  987.6399
 816  1017.505
 817  917.1205
 818  1036.258
 819  1144.928
 820  1216.282
 821  1153.093
 822  1139.783
 823  1088.001
 824  1051.016
 825  1098.875
 826  1080.643
 827  1014.709
 828  920.2179
 829  975.3228
 830  1017.147
 831  999.2397
 832  1046.38
 833  1086.454
 834  1109.284
 835  1046.906
 836  1076.329
 837  1225.612
 838  1149.318
 839  1023.228
 840  942.1417
 841  897.7318
 842  963.8309
 843  1054.078
 844  1245.29
 845  1100.846
 846  993.5341
 847  993.8611
 848  1057.703
 849  1005.685
 850  941.0308
 851  1050.97
 852  1080.44
 853  1154.538
 854  1252.973
 855  1231.864
 856  1166.946
 857  1065.082
 858  1106.684
 859  1074.222
 860  953.2055
 861  916.7799
 862  932.5359
 863  960.4088
 864  926.1777
 865  951.5236
 866  1026.156
 867  1068.736
 868  1070.863
 869  1037.005
 870  1040.246
 871  1020.723
 872  1200.352
 873  1217.477
 874  1076.978
 875  928.9244
 876  1049.77
 877  1077.621
 878  1048.236
 879  1002.064
 880  967.3574
 881  956.3326
 882  1045.651
 883  1063.058
 884  1016.975
 885  1045.456
 886  1205.122
 887  1259.601
 888  1104.152
 889  929.1356
 890  848.3148
 891  802.9961
 892  793.299
 893  811.1631
 894  920.7485
 895  957.3377
 896  985.0896
 897  993.3716
 898  941.6385
 899  935.6815
 900  1078.195
 901  1103.79
 902  1129.631
 903  1067.89
 904  1099.533
 905  1077.976
 906  1080.898
 907  1062.79
 908  963.2009
 909  920.8912
 910  1053.45
 911  1194.353
 912  1148.466
 913  1055.029
 914  1038.21
 915  1198.535
 916  1276.944
 917  1163.882
 918  1041.646
 919  1012.216
 920  1021.739
 921  1010.389
 922  914.0878
 923  900.3148
 924  836.2652
 925  779.045
 926  836.5346
 927  961.8035
 928  1021.012
 929  1118.311
 930  1095.922
 931  1141.674
 932  992.4512
 933  1049.635
 934  943.6995
 935  1005.981
 936  990.4707
 937  1067.343
 938  1110.76
 939  1166.446
 940  1272.366
 941  1252.846
 942  1209.634
 943  1155.577
 944  1198.844
 945  1217.143
 946  1209.532
 947  1145.824
 948  1204.973
 949  1255.746
 950  1196.154
 951  1204.098
 952  1213.652
 953  1224.587
 954  1159.023
 955  1120.142
 956  1112.312
 957  1100.54
 958  1004.52
 959  1008.491
 960  1040.238
 961  1136.231
 962  1249.648
 963  1251.21
 964  1241.456
 965  1190.583
 966  1106.735
 967  1029.676
 968  973.7767
 969  1087.739
 970  1136.422
 971  1212.163
 972  1217.986
 973  1161.8
 974  1183.312
 975  1225.651
 976  1262.086
 977  1319.981
 978  1323.748
 979  1516.474
 980  1542.997
 981  1508.751
 982  1354.691
 983  1259.577
 984  1220.865
 985  1172.341
 986  1148.821
 987  1116.864
 988  1134.27
 989  1125.9
 990  1193.781
 991  1130.911
 992  1072.545
 993  976.2972
 994  978.6132
 995  1043.758
 996  1105.728
 997  1124.435
 998  1040.287
 999  980.9738
1000  873.3284
1001  966.1758
1002  1014.533
1003  1101.636
1004  1087.875
1005  1066.73
1006  1039.56
1007  1078.457
1008  1185.618
1009  1173.425
1010  1144.873
1011  1145.813
1012  1296.285
1013  1271.196
1014  1289.913
1015  1256.696
1016  1253.976
1017  1182.238
1018  1118.838
1019  1088.064
1020  1027.168
1021  1106.744
1022  1138.694
1023  1075.738
