# Input file       =  1198690143.109693_cleaned.dat
# Candidate        =  PSR_0332+5434
# Telescope        =  AR
# Epoch_topo       =  58117.728728121445
# Epoch_bary       =  N/A
# T_sample         =  0.002
# Data Folded      =  7340032
# Data Avg         =  0.212208112524032
# Data StdDev      =  5.49765318072155 
# Profile Bins     =  256
# Profile Avg      =  6084.80506278485 
# Profile StdDev   =  930.907079083037 
# Reduced chi-sqr  =  0.746
# Prob(Noise)      <  0.999   (~0.0 sigma)
# P_topo (ms)      =  714.554677569526  +/- 0.000567
# P'_topo (s/s)    =  -0                +/- 2.99e-10
# P''_topo (s/s^2) =  0                 +/- 1.32e-13
# P_bary (ms)      =  N/A
# P'_bary (s/s)    =  N/A
# P''_bary (s/s^2) =  N/A
# P_orb (s)        =  N/A
# asin(i)/c (s)    =  N/A
# eccentricity     =  N/A
# w (rad)          =  N/A
# T_peri           =  N/A
######################################################
   0  6882.655
   1  7061.88
   2  6658.402
   3  6580.864
   4  6485.043
   5  6177.618
   6  6215.396
   7  5738.196
   8  6449.473
   9  6184.951
  10  6751.145
  11  6941.761
  12  6632.715
  13  6864.855
  14  6428.311
  15  5270.995
  16  5217.41
  17  5834.235
  18  6088.68
  19  5975.886
  20  6285.2
  21  6430.242
  22  6651.084
  23  5606.971
  24  5536.464
  25  5904.583
  26  5581.589
  27  5532.873
  28  5225.158
  29  5245.944
  30  4898.561
  31  5389.868
  32  4726.585
  33  4757.939
  34  4495.571
  35  4557.588
  36  4713.915
  37  4468.849
  38  5055.878
  39  5101.748
  40  5816.191
  41  5549.99
  42  5784.223
  43  6052.162
  44  6417.454
  45  6910.754
  46  6498.31
  47  7391.617
  48  7222.493
  49  6839.72
  50  6422.944
  51  7328.463
  52  7719.849
  53  7113.542
  54  6078.458
  55  6239.731
  56  6492.466
  57  6556.522
  58  6316.063
  59  6463.983
  60  6797.926
  61  7070.045
  62  6851.18
  63  6510.344
  64  5838.192
  65  5718.368
  66  5257.942
  67  4216.133
  68  5467.792
  69  5741.797
  70  5909.494
  71  6056.032
  72  7043.68
  73  7185.422
  74  6810.199
  75  6301.613
  76  7107.093
  77  6556.387
  78  6256.033
  79  6365.723
  80  6342.771
  81  6685.665
  82  6129.145
  83  6982.437
  84  7288.101
  85  7446.041
  86  6681.707
  87  6848.255
  88  6614.616
  89  6817.677
  90  7299.994
  91  6497.251
  92  6570.485
  93  7139.927
  94  6862.011
  95  6531.433
  96  6398.08
  97  6317.554
  98  5951.6
  99  5721.469
 100  5794.055
 101  6224.83
 102  6570.188
 103  6424.875
 104  6520.479
 105  5911.667
 106  5593.066
 107  5977.129
 108  5777.628
 109  5678.135
 110  5539.372
 111  5353.667
 112  5202.238
 113  5009.024
 114  5708.995
 115  6008.16
 116  6030.035
 117  5764.359
 118  5734.013
 119  5874.237
 120  6030.108
 121  5912.898
 122  5811.366
 123  5687.78
 124  5716.116
 125  5742.882
 126  5731.148
 127  6341.434
 128  6366.752
 129  6290.021
 130  6273.141
 131  5816.993
 132  5412.907
 133  5542.85
 134  5580.188
 135  5701.648
 136  5174.114
 137  4479.719
 138  4370.603
 139  5265.659
 140  5222.643
 141  5399.972
 142  6071.277
 143  5864.715
 144  4619.898
 145  5753.725
 146  6244.963
 147  5454.746
 148  4993.679
 149  5722.219
 150  5851.343
 151  6183.225
 152  6064.375
 153  6525.722
 154  7295.137
 155  7640.731
 156  7935.39
 157  6632.356
 158  6852.151
 159  6447.289
 160  6515.619
 161  7133.767
 162  6613.102
 163  7075.065
 164  7216.253
 165  7292.103
 166  6785.821
 167  6590.363
 168  6876.708
 169  5289.74
 170  5372.592
 171  5928.57
 172  5489.337
 173  4642.043
 174  4795.073
 175  5297.888
 176  5977.886
 177  5171.083
 178  5825.918
 179  5991.116
 180  5470.366
 181  5649.472
 182  6334.869
 183  6203.234
 184  5969.59
 185  4742.926
 186  5130.77
 187  6061.04
 188  5884.473
 189  5815.472
 190  5774.308
 191  5731.666
 192  5939.919
 193  6020.171
 194  6210.527
 195  5770.586
 196  5594.092
 197  6053.056
 198  6124.628
 199  6302.459
 200  7602.315
 201  7247.776
 202  6339.058
 203  6743.819
 204  6035.55
 205  5942.582
 206  5760.521
 207  5523.897
 208  5498.769
 209  5318.168
 210  5551.5
 211  5754.904
 212  6958.148
 213  6640.092
 214  6082.555
 215  5877.217
 216  6447.518
 217  5276.542
 218  5636.121
 219  5964.798
 220  5938.829
 221  5205.782
 222  5066.509
 223  5258.715
 224  5504.743
 225  5185.754
 226  5269.878
 227  6260.683
 228  6497.017
 229  6787.945
 230  6370.185
 231  6355.776
 232  6804.127
 233  6980.525
 234  6662.682
 235  5979.08
 236  6036.499
 237  5984.845
 238  5521.263
 239  7291.131
 240  6714.88
 241  6481.387
 242  6750.406
 243  6881.2
 244  6884.75
 245  5811.624
 246  6037.117
 247  5381.65
 248  6075.265
 249  6147.292
 250  6081.823
 251  5722.221
 252  6378.103
 253  6638.011
 254  6595.875
 255  6571.336
