# Input file       =  1198244740.110395_cleaned.dat
# Candidate        =  PSR_0332+5434
# Telescope        =  AR
# Epoch_topo       =  58112.573600814758
# Epoch_bary       =  N/A
# T_sample         =  0.002
# Data Folded      =  7208960
# Data Avg         =  0.0606745655931505
# Data StdDev      =  1.00047477923389 
# Profile Bins     =  512
# Profile Avg      =  854.164198823619 
# Profile StdDev   =  118.715512706108 
# Reduced chi-sqr  =  1.057
# Prob(Noise)      <  0.178   (~0.9 sigma)
# P_topo (ms)      =  714.55007297831   +/- 0.000216
# P'_topo (s/s)    =  -0                +/- 1.16e-10
# P''_topo (s/s^2) =  0                 +/- 5.21e-14
# P_bary (ms)      =  N/A
# P'_bary (s/s)    =  N/A
# P''_bary (s/s^2) =  N/A
# P_orb (s)        =  N/A
# asin(i)/c (s)    =  N/A
# eccentricity     =  N/A
# w (rad)          =  N/A
# T_peri           =  N/A
######################################################
   0  1486.773
   1  1392.943
   2  1108.665
   3  1024.361
   4  955.668
   5  905.3307
   6  846.5035
   7  912.5343
   8  954.5623
   9  861.0461
  10  886.9235
  11  965.2842
  12  953.9732
  13  852.699
  14  874.7074
  15  847.9462
  16  1007.328
  17  958.0433
  18  883.0587
  19  798.425
  20  800.0608
  21  1043.733
  22  862.8008
  23  775.4251
  24  789.3226
  25  785.7173
  26  805.4924
  27  755.438
  28  857.2928
  29  855.1987
  30  762.3039
  31  758.2322
  32  866.1017
  33  882.0713
  34  860.9604
  35  851.2002
  36  870.3461
  37  856.9702
  38  878.6404
  39  934.924
  40  809.848
  41  883.485
  42  868.9339
  43  917.936
  44  1036.88
  45  909.4698
  46  785.808
  47  859.7088
  48  973.6453
  49  1006.296
  50  850.5149
  51  883.3951
  52  837.6631
  53  885.4775
  54  902.2673
  55  861.1796
  56  795.5979
  57  820.0955
  58  722.6638
  59  749.5038
  60  759.8457
  61  803.5792
  62  856.1124
  63  860.4222
  64  961.8321
  65  855.4519
  66  800.2839
  67  696.7541
  68  802.3908
  69  826.2474
  70  828.9152
  71  912.8555
  72  1001.288
  73  935.6369
  74  880.9185
  75  896.0645
  76  973.4152
  77  885.983
  78  843.2161
  79  791.9412
  80  770.0501
  81  829.9326
  82  855.775
  83  800.7296
  84  806.7495
  85  947.8318
  86  1004.771
  87  849.8611
  88  745.3153
  89  934.7173
  90  864.9349
  91  939.3785
  92  918.5443
  93  856.5997
  94  819.2842
  95  888.0294
  96  917.0306
  97  889.8527
  98  779.4538
  99  844.1375
 100  923.3585
 101  907.5494
 102  889.2557
 103  879.601
 104  857.3402
 105  822.335
 106  785.567
 107  816.5424
 108  850.2949
 109  758.1318
 110  755.0431
 111  870.4714
 112  929.5906
 113  832.152
 114  887.0015
 115  705.3671
 116  812.3738
 117  756.4161
 118  792.7495
 119  954.5495
 120  839.1246
 121  794.539
 122  901.2555
 123  998.0878
 124  885.1683
 125  772.761
 126  763.6254
 127  739.7793
 128  830.4661
 129  756.1583
 130  740.3423
 131  804.188
 132  994.8826
 133  929.6237
 134  717.063
 135  703.8987
 136  688.1189
 137  817.3369
 138  891.9207
 139  873.5314
 140  757.0111
 141  839.1282
 142  850.8527
 143  895.9236
 144  897.2897
 145  761.8622
 146  837.0643
 147  871.8816
 148  851.017
 149  669.5758
 150  664.5015
 151  780.4232
 152  818.2906
 153  892.3521
 154  858.2081
 155  844.9776
 156  900.7976
 157  870.705
 158  743.9418
 159  708.1279
 160  658.7681
 161  717.7189
 162  739.0781
 163  818.0901
 164  857.4752
 165  788.891
 166  766.3236
 167  823.8512
 168  769.5175
 169  818.7372
 170  853.9608
 171  856.0744
 172  802.1092
 173  811.3669
 174  840.0447
 175  845.3085
 176  753.8447
 177  678.7367
 178  697.5223
 179  750.9965
 180  751.0115
 181  733.1738
 182  797.592
 183  910.4807
 184  826.3605
 185  719.8016
 186  802.3309
 187  843.1852
 188  807.9224
 189  859.4501
 190  865.9988
 191  888.5237
 192  894.7748
 193  841.2943
 194  772.2215
 195  812.1358
 196  817.2833
 197  976.5089
 198  857.7256
 199  913.5495
 200  729.9825
 201  739.4489
 202  814.1938
 203  816.9569
 204  873.5641
 205  811.0638
 206  845.3046
 207  884.5024
 208  817.0237
 209  768.4703
 210  735.254
 211  766.1237
 212  710.826
 213  790.43
 214  822.242
 215  724.9947
 216  717.0927
 217  760.7547
 218  837.2349
 219  803.5452
 220  766.7908
 221  790.2418
 222  772.4492
 223  845.4023
 224  824.6107
 225  822.5284
 226  727.8712
 227  861.9074
 228  968.1902
 229  836.2349
 230  741.6625
 231  770.2958
 232  688.241
 233  665.3711
 234  807.8506
 235  856.9167
 236  798.5003
 237  803.6241
 238  939.8204
 239  911.4549
 240  939.9615
 241  965.2025
 242  1004.067
 243  841.4284
 244  717.3304
 245  689.9938
 246  782.8825
 247  759.2841
 248  855.3068
 249  893.1068
 250  869.634
 251  768.9661
 252  866.4891
 253  659.2984
 254  574.0826
 255  701.7114
 256  774.7126
 257  750.4584
 258  756.221
 259  883.4115
 260  885.4249
 261  773.9094
 262  863.6995
 263  839.2885
 264  832.6044
 265  943.9815
 266  976.1134
 267  908.8381
 268  837.1953
 269  860.2982
 270  1000.862
 271  924.6018
 272  889.5274
 273  815.3868
 274  756.9568
 275  901.7839
 276  815.3511
 277  911.1702
 278  904.9488
 279  882.6458
 280  811.5189
 281  838.5425
 282  883.0215
 283  785.4755
 284  735.4169
 285  757.5938
 286  861.0709
 287  858.9297
 288  956.5736
 289  882.5956
 290  930.265
 291  953.3828
 292  916.3867
 293  953.6173
 294  844.5851
 295  858.6998
 296  899.5454
 297  851.4946
 298  748.0635
 299  779.7072
 300  878.1974
 301  937.7501
 302  900.4292
 303  846.1469
 304  809.7405
 305  895.8995
 306  945.681
 307  823.4479
 308  787.585
 309  792.7206
 310  821.3904
 311  892.9986
 312  884.7949
 313  919.7404
 314  889.9544
 315  871.861
 316  756.5963
 317  772.7111
 318  892.717
 319  814.8199
 320  902.312
 321  920.9122
 322  912.6653
 323  907.4811
 324  864.3267
 325  908.5253
 326  871.7182
 327  866.8523
 328  888.4937
 329  953.2355
 330  1011.044
 331  942.2899
 332  809.3375
 333  807.4962
 334  860.1245
 335  990.2139
 336  890.8127
 337  891.5994
 338  889.2395
 339  784.5804
 340  807.3774
 341  863.6024
 342  832.1537
 343  854.7982
 344  784.4848
 345  847.8152
 346  898.7899
 347  876.8588
 348  775.9895
 349  865.8269
 350  878.7565
 351  964.6581
 352  955.5505
 353  911.1769
 354  846.2785
 355  839.3733
 356  820.0684
 357  790.3417
 358  802.1959
 359  814.8322
 360  806.0698
 361  825.5066
 362  787.8927
 363  795.6161
 364  800.0417
 365  835.5034
 366  729.4576
 367  762.5565
 368  817.4619
 369  832.5484
 370  905.5632
 371  872.5236
 372  844.1844
 373  863.2322
 374  857.6071
 375  903.4487
 376  837.2271
 377  917.2762
 378  872.9597
 379  855.1846
 380  893.8884
 381  803.4264
 382  835.7605
 383  855.7313
 384  778.9659
 385  860.3294
 386  971.6942
 387  1023.235
 388  981.6472
 389  959.8761
 390  881.186
 391  839.3914
 392  897.0228
 393  927.3074
 394  824.1833
 395  839.8069
 396  908.4178
 397  930.2834
 398  875.4037
 399  897.9131
 400  960.8231
 401  905.6917
 402  909.007
 403  882.4284
 404  930.0964
 405  886.025
 406  911.7026
 407  837.6994
 408  833.5399
 409  917.202
 410  988.6439
 411  887.7265
 412  877.4451
 413  825.9512
 414  820.2949
 415  871.1649
 416  803.3147
 417  795.5585
 418  834.0336
 419  926.8298
 420  1000.182
 421  906.4767
 422  911.7941
 423  901.3724
 424  999.5548
 425  846.2282
 426  763.1237
 427  788.8621
 428  814.1863
 429  875.621
 430  715.0776
 431  736.0282
 432  815.589
 433  772.1812
 434  880.5037
 435  895.1146
 436  810.1835
 437  815.8276
 438  837.9617
 439  893.2457
 440  871.5908
 441  845.9972
 442  992.1954
 443  883.2531
 444  917.1381
 445  994.4984
 446  866.4527
 447  855.5707
 448  967.2775
 449  945.2264
 450  846.3156
 451  826.9628
 452  952.8709
 453  1002.752
 454  1005.029
 455  816.5168
 456  890.6478
 457  951.3748
 458  975.2322
 459  893.9047
 460  900.9039
 461  1032.245
 462  1063.277
 463  969.0021
 464  869.0585
 465  805.114
 466  791.9537
 467  757.4888
 468  900.9781
 469  944.3572
 470  849.9425
 471  876.6011
 472  848.722
 473  808.8972
 474  747.08
 475  744.7023
 476  829.4348
 477  790.325
 478  817.3569
 479  842.738
 480  839.085
 481  837.6292
 482  801.8773
 483  805.3971
 484  852.7467
 485  836.9763
 486  802.7935
 487  887.5844
 488  943.1436
 489  898.5864
 490  803.5195
 491  711.0573
 492  775.5718
 493  811.4196
 494  850.3206
 495  875.7965
 496  867.8434
 497  855.9534
 498  753.4236
 499  702.7931
 500  789.8509
 501  803.7849
 502  882.4736
 503  958.7231
 504  976.0519
 505  921.0209
 506  833.0957
 507  884.0562
 508  916.256
 509  1040.086
 510  1171.375
 511  1359.456
