# Input file       =  1198589328.111569_cleaned.dat
# Candidate        =  PSR_0332+5434
# Telescope        =  AR
# Epoch_topo       =  58116.561887865384
# Epoch_bary       =  N/A
# T_sample         =  0.002
# Data Folded      =  7208960
# Data Avg         =  0.104886637218508
# Data StdDev      =  4.17109570328258 
# Profile Bins     =  1024
# Profile Avg      =  738.714638731973 
# Profile StdDev   =  349.974566413381 
# Reduced chi-sqr  =  0.637
# Prob(Noise)      <  1   (~0.0 sigma)
# P_topo (ms)      =  714.553644284054  +/- 6.56e-05
# P'_topo (s/s)    =  -0                +/- 3.53e-11
# P''_topo (s/s^2) =  0                 +/- 1.58e-14
# P_bary (ms)      =  N/A
# P'_bary (s/s)    =  N/A
# P''_bary (s/s^2) =  N/A
# P_orb (s)        =  N/A
# asin(i)/c (s)    =  N/A
# eccentricity     =  N/A
# w (rad)          =  N/A
# T_peri           =  N/A
######################################################
   0  450.8234
   1  710.2499
   2  758.1979
   3  654.8969
   4  731.7498
   5  655.3022
   6  764.4125
   7  820.1772
   8  712.0057
   9  735.4476
  10  698.8359
  11  734.0912
  12  694.7344
  13  797.8293
  14  938.705
  15  756.6572
  16  750.3889
  17  736.6259
  18  765.549
  19  723.7292
  20  750.3933
  21  894.3106
  22  793.3403
  23  708.5558
  24  765.3959
  25  668.319
  26  614.806
  27  591.3961
  28  514.3154
  29  559.6264
  30  262.1078
  31  473.0041
  32  553.903
  33  466.8585
  34  478.8029
  35  439.5255
  36  599.4841
  37  722.1077
  38  854.7526
  39  946.6835
  40  815.5235
  41  659.497
  42  808.536
  43  739.5367
  44  738.5428
  45  728.2289
  46  702.0767
  47  671.9365
  48  568.288
  49  743.0167
  50  773.842
  51  782.7328
  52  848.0749
  53  1032.891
  54  973.2117
  55  868.3239
  56  831.4833
  57  818.5175
  58  666.0375
  59  707.6152
  60  787.7285
  61  901.2863
  62  674.6041
  63  510.1832
  64  581.0623
  65  502.7402
  66  653.159
  67  683.9653
  68  514.647
  69  470.4758
  70  461.3353
  71  744.4163
  72  819.4991
  73  691.9119
  74  854.5414
  75  779.2435
  76  632.9755
  77  612.0757
  78  599.7281
  79  824.5081
  80  828.4706
  81  830.934
  82  837.5244
  83  653.2899
  84  782.5107
  85  843.7759
  86  783.2471
  87  713.694
  88  735.733
  89  953.1927
  90  940.7878
  91  825.2444
  92  700.3502
  93  708.6493
  94  886.5535
  95  879.9028
  96  829.096
  97  712.0339
  98  463.6743
  99  487.197
 100  344.9987
 101  532.0352
 102  688.8965
 103  736.643
 104  818.3021
 105  699.0414
 106  895.4893
 107  1031.504
 108  909.4907
 109  886.2308
 110  759.8731
 111  780.8851
 112  790.8167
 113  668.0086
 114  711.1589
 115  754.1597
 116  705.6634
 117  818.6643
 118  747.2025
 119  793.0493
 120  857.5475
 121  967.5467
 122  1060.27
 123  888.9783
 124  923.0394
 125  1003.024
 126  927.4614
 127  704.4131
 128  712.7932
 129  795.8909
 130  751.9999
 131  803.9808
 132  858.9566
 133  724.1786
 134  661.2785
 135  686.6888
 136  837.605
 137  875.0796
 138  777.6453
 139  835.6381
 140  611.0099
 141  677.8654
 142  842.1269
 143  832.0765
 144  847.804
 145  812.6126
 146  604.305
 147  621.4957
 148  338.227
 149  570.5531
 150  631.0143
 151  708.4711
 152  886.2529
 153  920.3823
 154  954.7287
 155  1005.096
 156  874.4638
 157  1032.089
 158  799.5597
 159  753.6091
 160  789.5471
 161  782.8751
 162  743.6656
 163  720.5911
 164  752.7522
 165  691.3318
 166  721.1273
 167  883.9292
 168  932.0782
 169  869.7062
 170  647.6053
 171  724.7835
 172  847.726
 173  754.695
 174  629.8901
 175  546.2562
 176  469.3983
 177  703.6104
 178  568.2376
 179  764.2484
 180  668.5451
 181  777.851
 182  1013.401
 183  952.5119
 184  923.332
 185  1008.131
 186  1078.028
 187  1138.242
 188  930.7681
 189  815.4662
 190  871.777
 191  700.5623
 192  714.8379
 193  657.2411
 194  665.4556
 195  756.8282
 196  756.6878
 197  665.638
 198  613.8472
 199  577.0238
 200  700.8464
 201  674.1096
 202  822.4595
 203  916.2264
 204  978.9598
 205  812.5595
 206  715.7391
 207  761.5177
 208  815.8036
 209  975.242
 210  1079.356
 211  982.9581
 212  902.8088
 213  700.8978
 214  760.1153
 215  581.8318
 216  464.2755
 217  595.3691
 218  598.4938
 219  538.1843
 220  661.6294
 221  611.3093
 222  823.2512
 223  726.3378
 224  747.2914
 225  857.5554
 226  676.938
 227  860.5161
 228  882.7134
 229  899.0838
 230  783.9321
 231  628.0782
 232  760.7117
 233  771.5775
 234  608.1754
 235  680.3439
 236  769.9112
 237  868.2888
 238  810.7472
 239  783.2651
 240  872.267
 241  835.1718
 242  863.0739
 243  759.2197
 244  634.9548
 245  522.8714
 246  401.9795
 247  546.9656
 248  562.6179
 249  803.6618
 250  1024.588
 251  952.2192
 252  905.798
 253  827.7914
 254  966.2096
 255  958.6365
 256  985.3029
 257  1070.249
 258  875.4554
 259  475.4562
 260  494.5028
 261  459.6925
 262  565.6851
 263  418.2235
 264  492.1592
 265  790.4219
 266  823.0177
 267  850.7142
 268  794.6296
 269  817.1092
 270  952.5167
 271  821.5763
 272  677.1473
 273  637.0789
 274  723.0881
 275  867.0704
 276  679.756
 277  652.2423
 278  697.0431
 279  881.4956
 280  799.9278
 281  618.6952
 282  696.5634
 283  624.11
 284  592.8113
 285  639.7033
 286  672.9489
 287  655.922
 288  521.1254
 289  624.8483
 290  701.0159
 291  485.9183
 292  594.658
 293  653.6992
 294  820.5643
 295  810.2578
 296  681.8976
 297  628.6544
 298  603.254
 299  571.8314
 300  774.5129
 301  680.0096
 302  725.0487
 303  813.8024
 304  846.7019
 305  974.0867
 306  858.0851
 307  777.037
 308  837.1373
 309  751.1584
 310  834.0336
 311  844.15
 312  793.2183
 313  779.757
 314  833.0152
 315  1036.187
 316  1022.372
 317  1010.154
 318  958.2111
 319  876.8184
 320  830.1625
 321  723.123
 322  818.0459
 323  612.2944
 324  621.357
 325  632.6833
 326  475.8698
 327  469.738
 328  440.2621
 329  531.5855
 330  617.7631
 331  610.5344
 332  707.4596
 333  713.8763
 334  548.0562
 335  833.4009
 336  806.6375
 337  794.3968
 338  671.1097
 339  623.168
 340  636.9385
 341  521.9025
 342  541.6636
 343  817.0327
 344  791.5679
 345  827.644
 346  829.331
 347  885.035
 348  909.3612
 349  871.7253
 350  983.4534
 351  1125.716
 352  1126.197
 353  1068.85
 354  931.4297
 355  854.155
 356  783.5921
 357  900.7726
 358  741.16
 359  589.5861
 360  539.8871
 361  489.6898
 362  481.7886
 363  373.3503
 364  579.748
 365  771.3967
 366  763.3402
 367  639.238
 368  647.8114
 369  518.933
 370  769.1677
 371  887.5973
 372  992.6049
 373  908.1534
 374  686.0358
 375  887.7341
 376  740.5115
 377  593.9545
 378  550.5428
 379  488.2038
 380  598.301
 381  558.3991
 382  596.0196
 383  721.2598
 384  722.6793
 385  819.097
 386  839.0807
 387  729.2419
 388  709.8572
 389  654.1797
 390  598.7764
 391  614.5547
 392  715.612
 393  800.2136
 394  694.5206
 395  673.7833
 396  754.0115
 397  923.5475
 398  772.6346
 399  663.4315
 400  915.6567
 401  949.9891
 402  913.2499
 403  840.1493
 404  736.5323
 405  750.0474
 406  631.5195
 407  832.4385
 408  995.0358
 409  806.8579
 410  835.0819
 411  797.9536
 412  767.713
 413  905.9855
 414  883.6622
 415  1043.273
 416  905.3828
 417  723.6233
 418  797.8088
 419  751.2155
 420  686.2584
 421  685.5502
 422  627.397
 423  630.6058
 424  538.7777
 425  688.9721
 426  766.136
 427  630.1447
 428  518.6989
 429  670.8417
 430  740.2653
 431  664.7983
 432  599.2438
 433  649.7924
 434  601.8737
 435  600.0055
 436  520.4438
 437  575.415
 438  650.9589
 439  516.444
 440  593.6445
 441  581.5691
 442  639.3513
 443  738.2493
 444  642.9537
 445  714.8635
 446  627.5304
 447  554.5334
 448  680.6029
 449  632.6188
 450  749.5919
 451  727.0916
 452  570.0558
 453  607.9033
 454  582.0414
 455  591.0477
 456  714.002
 457  695.7194
 458  805.221
 459  684.5789
 460  726.6617
 461  816.3392
 462  761.2422
 463  647.8598
 464  751.5714
 465  749.4857
 466  869.0395
 467  681.0511
 468  749.3966
 469  639.3121
 470  612.5428
 471  553.0973
 472  554.5344
 473  619.3815
 474  623.9457
 475  589.3489
 476  563.7153
 477  569.8099
 478  731.3125
 479  741.8619
 480  762.0308
 481  754.9381
 482  746.5809
 483  935.7191
 484  959.9828
 485  1053.668
 486  1065.813
 487  752.5974
 488  635.532
 489  630.4338
 490  746.5261
 491  838.036
 492  594.7505
 493  462.9504
 494  305.3941
 495  332.6026
 496  728.7014
 497  887.9952
 498  1025.147
 499  899.8319
 500  979.516
 501  1056.269
 502  951.8196
 503  824.7717
 504  886.368
 505  836.1106
 506  701.7455
 507  551.0557
 508  581.1743
 509  533.9615
 510  665.8981
 511  823.433
 512  893.1482
 513  888.9413
 514  806.523
 515  827.7422
 516  801.8858
 517  657.7355
 518  742.7698
 519  655.0737
 520  713.5793
 521  808.4602
 522  713.035
 523  658.7584
 524  467.1884
 525  553.1119
 526  688.2397
 527  563.9089
 528  584.8693
 529  776.058
 530  762.2946
 531  612.8903
 532  579.4866
 533  723.1739
 534  744.6221
 535  601.3721
 536  915.7726
 537  996.7589
 538  941.6673
 539  790.3177
 540  788.8747
 541  661.1307
 542  449.1186
 543  527.6714
 544  564.9305
 545  563.9622
 546  478.1521
 547  573.0307
 548  705.0773
 549  781.988
 550  890.9924
 551  984.5589
 552  831.6215
 553  764.9968
 554  634.6414
 555  600.423
 556  688.1094
 557  680.5259
 558  819.6885
 559  642.2882
 560  487.4342
 561  690.9278
 562  653.2445
 563  779.4637
 564  753.2751
 565  711.0938
 566  959.7062
 567  872.1257
 568  1004.073
 569  891.3705
 570  603.1361
 571  539.5782
 572  544.4434
 573  674.5869
 574  798.5231
 575  790.9277
 576  950.4374
 577  866.9452
 578  750.8495
 579  711.8972
 580  603.4523
 581  633.1777
 582  599.9964
 583  732.2158
 584  729.0512
 585  722.1299
 586  776.8476
 587  770.3434
 588  664.3834
 589  593.4163
 590  697.4183
 591  866.9916
 592  780.5358
 593  926.3356
 594  950.8629
 595  866.6827
 596  963.1917
 597  996.3085
 598  964.0166
 599  787.6205
 600  630.1334
 601  896.1331
 602  740.7756
 603  647.8721
 604  808.7888
 605  884.3586
 606  853.6445
 607  598.9621
 608  664.7818
 609  840.1918
 610  898.6475
 611  962.6678
 612  1012.003
 613  981.781
 614  1116.802
 615  1229.197
 616  1204.508
 617  1169.805
 618  1240.91
 619  1319.2
 620  1294.438
 621  1143.243
 622  1129.662
 623  1030.706
 624  988.3745
 625  924.0947
 626  987.5959
 627  868.6849
 628  879.9697
 629  988.5247
 630  982.7516
 631  996.2393
 632  829.5323
 633  933.0182
 634  832.5423
 635  709.6072
 636  735.2115
 637  651.7003
 638  544.1785
 639  632.7323
 640  710.9295
 641  821.2045
 642  697.1703
 643  679.9414
 644  791.8212
 645  582.7376
 646  546.4786
 647  819.7141
 648  927.7614
 649  1028.851
 650  943.0864
 651  1042.533
 652  982.5786
 653  839.3626
 654  893.6876
 655  885.2656
 656  705.4196
 657  461.7327
 658  442.372
 659  470.7961
 660  555.0511
 661  529.3696
 662  589.0897
 663  550.3116
 664  665.6347
 665  740.8992
 666  891.4277
 667  716.5826
 668  722.424
 669  758.4401
 670  785.0848
 671  897.743
 672  902.7916
 673  842.263
 674  714.7093
 675  502.6997
 676  627.4507
 677  748.0891
 678  600.0187
 679  671.3942
 680  699.1541
 681  867.2753
 682  900.4062
 683  815.218
 684  939.7291
 685  838.7718
 686  782.6164
 687  812.3569
 688  663.6196
 689  583.6814
 690  535.5169
 691  618.5989
 692  678.5084
 693  640.2177
 694  624.8326
 695  546.4457
 696  594.7263
 697  685.314
 698  779.6633
 699  853.7873
 700  804.8635
 701  915.1922
 702  719.0239
 703  634.5526
 704  679.7181
 705  826.1685
 706  844.1144
 707  801.3036
 708  834.8456
 709  942.9473
 710  661.4819
 711  688.7478
 712  847.5022
 713  821.5992
 714  885.7407
 715  765.1426
 716  789.8649
 717  641.6826
 718  636.1839
 719  861.4269
 720  968.1136
 721  807.2443
 722  737.5886
 723  681.6168
 724  719.993
 725  785.9777
 726  702.3156
 727  885.7764
 728  883.5374
 729  857.3413
 730  811.9698
 731  730.3219
 732  715.0036
 733  708.514
 734  696.0762
 735  579.2774
 736  612.7519
 737  605.8403
 738  600.1107
 739  574.224
 740  661.4908
 741  718.2131
 742  710.6412
 743  638.5456
 744  841.4769
 745  860.1074
 746  863.7415
 747  818.7784
 748  758.8923
 749  843.4052
 750  864.6774
 751  809.6694
 752  840.4827
 753  605.8022
 754  730.0839
 755  682.8145
 756  585.4532
 757  658.572
 758  740.5109
 759  829.6883
 760  816.4257
 761  648.0673
 762  798.2833
 763  698.1774
 764  819.0556
 765  816.9921
 766  818.6468
 767  748.4142
 768  747.2561
 769  774.5233
 770  828.7865
 771  705.6983
 772  627.2465
 773  591.9534
 774  582.1605
 775  508.3445
 776  595.3716
 777  603.5559
 778  722.3022
 779  938.4893
 780  943.2761
 781  846.1546
 782  899.3353
 783  968.1057
 784  1038.166
 785  796.8165
 786  713.9579
 787  810.1973
 788  630.2657
 789  690.0815
 790  735.0298
 791  836.5712
 792  829.5369
 793  640.157
 794  623.411
 795  699.973
 796  718.4233
 797  907.4339
 798  864.8779
 799  770.4391
 800  800.6987
 801  741.5377
 802  766.0708
 803  793.1879
 804  866.4399
 805  882.3121
 806  607.5379
 807  539.54
 808  483.7331
 809  606.328
 810  663.129
 811  718.2974
 812  756.5229
 813  780.5073
 814  860.1002
 815  877.2968
 816  864.8994
 817  856.0667
 818  737.8057
 819  673.0596
 820  449.0147
 821  370.7285
 822  567.8705
 823  706.9391
 824  731.9465
 825  616.3902
 826  571.3817
 827  671.9319
 828  670.2767
 829  813.8623
 830  914.2986
 831  782.3025
 832  871.5823
 833  859.1786
 834  868.2941
 835  759.0045
 836  750.9469
 837  1017.059
 838  1070.01
 839  938.452
 840  1005.771
 841  868.1428
 842  780.3974
 843  734.8736
 844  760.0729
 845  825.2191
 846  769.304
 847  919.4691
 848  910.2474
 849  739.868
 850  726.6451
 851  811.835
 852  993.7453
 853  958.5084
 854  1008.177
 855  807.056
 856  494.7139
 857  463.5196
 858  442.474
 859  692.5795
 860  542.5889
 861  500.4971
 862  616.6831
 863  706.5971
 864  647.3491
 865  617.7387
 866  563.5273
 867  667.8377
 868  713.7226
 869  601.133
 870  678.0265
 871  460.6855
 872  689.5059
 873  841.7125
 874  680.8825
 875  616.7615
 876  496.266
 877  620.8281
 878  642.5849
 879  615.519
 880  723.6132
 881  740.2686
 882  614.5327
 883  857.3303
 884  888.8688
 885  898.4451
 886  706.2914
 887  685.2643
 888  599.3366
 889  420.4258
 890  399.4339
 891  459.5644
 892  613.7284
 893  599.3381
 894  696.1464
 895  645.5444
 896  619.8477
 897  864.1658
 898  823.9833
 899  795.3631
 900  701.8001
 901  702.8887
 902  838.3373
 903  786.6837
 904  682.9944
 905  660.3913
 906  466.3939
 907  636.7057
 908  788.4464
 909  865.2462
 910  945.3276
 911  829.5406
 912  926.1113
 913  832.2987
 914  617.8951
 915  720.3806
 916  735.2616
 917  620.5363
 918  548.7495
 919  487.6028
 920  599.3889
 921  578.3055
 922  638.9805
 923  558.0574
 924  504.2312
 925  350.2493
 926  378.5459
 927  433.683
 928  484.2267
 929  646.7932
 930  697.1381
 931  646.643
 932  666.0207
 933  649.2762
 934  608.8084
 935  759.5978
 936  901.8893
 937  1010.183
 938  843.2678
 939  537.9702
 940  604.8038
 941  524.7435
 942  715.6333
 943  705.4423
 944  686.0792
 945  855.6915
 946  782.7455
 947  899.211
 948  1092.186
 949  923.9406
 950  710.5041
 951  696.6835
 952  702.8096
 953  673.1119
 954  462.6718
 955  662.136
 956  857.5277
 957  759.9286
 958  685.3216
 959  533.355
 960  534.6254
 961  637.8809
 962  755.8477
 963  878.8995
 964  716.1562
 965  705.0962
 966  600.1516
 967  622.281
 968  506.4802
 969  516.5894
 970  667.4413
 971  588.7009
 972  471.4188
 973  481.6483
 974  449.7943
 975  637.8215
 976  697.5656
 977  869.6248
 978  1019.413
 979  866.7448
 980  990.1918
 981  782.4766
 982  788.0024
 983  810.486
 984  747.6396
 985  657.3462
 986  616.9136
 987  555.9813
 988  531.3951
 989  289.9369
 990  383.5156
 991  663.7634
 992  641.7945
 993  689.3275
 994  715.0778
 995  850.5561
 996  896.1291
 997  947.4555
 998  981.4026
 999  736.7371
1000  560.8384
1001  582.6018
1002  737.0571
1003  671.3617
1004  595.3732
1005  705.8192
1006  746.125
1007  681.2626
1008  644.7484
1009  557.2628
1010  770.3423
1011  839.8064
1012  1059.719
1013  1070.724
1014  835.7739
1015  899.5327
1016  1021.135
1017  1003.265
1018  831.7056
1019  577.0125
1020  661.7507
1021  508.7843
1022  238.9428
1023  305.4471
