# Input file       =  1198173788.111938_cleaned.dat
# Candidate        =  PSR_0332+5434
# Telescope        =  AR
# Epoch_topo       =  58111.752397128912
# Epoch_bary       =  N/A
# T_sample         =  0.002
# Data Folded      =  7340032
# Data Avg         =  0.154741338917769
# Data StdDev      =  3.84192678504389 
# Profile Bins     =  512
# Profile Avg      =  2218.3501490835  
# Profile StdDev   =  460.005559510532 
# Reduced chi-sqr  =  0.605
# Prob(Noise)      <  1   (~0.0 sigma)
# P_topo (ms)      =  714.549349975497  +/- 0.0009
# P'_topo (s/s)    =  -0                +/- 4.75e-10
# P''_topo (s/s^2) =  0                 +/- 2.1e-13
# P_bary (ms)      =  N/A
# P'_bary (s/s)    =  N/A
# P''_bary (s/s^2) =  N/A
# P_orb (s)        =  N/A
# asin(i)/c (s)    =  N/A
# eccentricity     =  N/A
# w (rad)          =  N/A
# T_peri           =  N/A
######################################################
   0  2162.144
   1  2362.426
   2  2407.072
   3  2101.806
   4  2162.743
   5  2128.608
   6  2271.692
   7  2610.315
   8  2723.496
   9  2242.191
  10  2270.003
  11  2418.728
  12  2594.928
  13  2541.626
  14  3026.831
  15  2556.259
  16  2013.285
  17  2167.188
  18  2620.198
  19  2371.48
  20  2205.434
  21  2308.333
  22  2030.262
  23  2113.411
  24  2050.59
  25  1954.873
  26  2184.696
  27  2322.538
  28  2375.426
  29  2072.004
  30  1955.596
  31  2033.767
  32  2281.949
  33  2303.601
  34  2249.799
  35  2298.502
  36  2426.411
  37  2379.358
  38  2006.635
  39  2040.55
  40  2392.29
  41  2199.602
  42  2076.989
  43  1881.025
  44  2039.715
  45  2163.592
  46  1876.692
  47  1948.477
  48  1893.61
  49  1986.418
  50  2279.551
  51  2256.988
  52  1978.143
  53  2065.282
  54  2120.078
  55  2307.615
  56  2186.66
  57  2099.354
  58  2086.657
  59  2145.162
  60  1854.769
  61  1881.409
  62  2043.559
  63  2037.811
  64  2013.561
  65  1823.5
  66  1885.198
  67  2012.907
  68  2199.54
  69  2439.837
  70  2240.928
  71  2463.761
  72  2294.436
  73  2450.562
  74  2201.029
  75  2407.052
  76  2721.865
  77  2863.879
  78  2657.971
  79  2221.039
  80  2138.795
  81  2002.527
  82  2125.989
  83  2230.522
  84  2257.873
  85  2252.859
  86  2469.517
  87  2743.903
  88  2460.618
  89  2319.44
  90  2257.557
  91  2242.099
  92  2340.706
  93  2602.131
  94  2449.677
  95  2226.344
  96  2038.43
  97  2164.674
  98  2178.004
  99  2136.365
 100  2217.707
 101  2132.562
 102  2176.674
 103  2278.781
 104  2484.091
 105  2289.542
 106  2327.827
 107  2363.652
 108  2273.247
 109  2358.963
 110  2339.466
 111  2243.489
 112  2117.021
 113  2165.408
 114  2238.92
 115  2330.005
 116  2595.91
 117  2736.08
 118  2629.429
 119  2746.103
 120  2530.846
 121  2566.519
 122  2527.962
 123  2186.578
 124  2451.81
 125  2320.207
 126  2358.11
 127  2378.496
 128  2420.688
 129  2256.34
 130  2007.428
 131  2066.216
 132  2294.351
 133  2348.586
 134  2665.929
 135  2255.124
 136  2239.168
 137  2481.175
 138  2177.453
 139  1844.441
 140  1884.911
 141  2189.437
 142  2488.085
 143  2562.443
 144  2537.946
 145  2256.628
 146  2062.072
 147  2265.038
 148  2333.907
 149  2375.448
 150  2531.867
 151  2544.146
 152  2165.917
 153  1939.439
 154  2081.935
 155  2175.613
 156  2292.331
 157  2233.841
 158  1976.277
 159  2085.14
 160  2088.966
 161  2257.457
 162  2252.566
 163  1937.208
 164  1969.406
 165  2199.74
 166  2164.57
 167  2099.709
 168  1837.365
 169  1663.558
 170  1799.111
 171  1976.338
 172  1932.177
 173  1784.684
 174  1775.249
 175  2059.85
 176  2153.832
 177  2179.763
 178  2008.933
 179  2162.271
 180  1755.863
 181  1665.284
 182  1712.5
 183  2075.916
 184  2280.032
 185  2203.233
 186  2319.863
 187  2672.425
 188  2632.425
 189  2145.084
 190  1987.694
 191  2106.028
 192  1974.444
 193  1786.21
 194  2066.462
 195  2051.827
 196  1843.836
 197  2163.248
 198  1836.849
 199  1683.458
 200  1937.314
 201  2042.764
 202  1818.521
 203  1837.26
 204  1991.736
 205  2247.164
 206  2002.811
 207  2014.146
 208  2070.568
 209  2070.623
 210  2250.735
 211  2317.873
 212  2177.992
 213  2001.817
 214  2244.664
 215  2352.164
 216  2355.459
 217  2501.977
 218  2592.001
 219  2491.073
 220  2070.072
 221  2239.834
 222  2373.374
 223  2182.981
 224  2508.545
 225  2347.618
 226  2681.539
 227  2478.213
 228  2140.362
 229  2107.319
 230  1956.984
 231  2196.575
 232  2329.581
 233  2460.104
 234  2198.069
 235  2061.233
 236  2260.412
 237  2216.774
 238  2044.708
 239  2134.666
 240  1827.638
 241  2056.789
 242  1844.486
 243  2068.976
 244  2309.906
 245  2250.735
 246  2140.253
 247  2016.986
 248  2288.963
 249  2404.511
 250  2211.924
 251  2106.701
 252  2025.841
 253  2171.287
 254  2225.766
 255  2183.081
 256  2172.407
 257  2386.48
 258  2340.272
 259  2010.989
 260  2062.093
 261  1835.279
 262  1960.041
 263  1882.399
 264  1843.152
 265  2015.047
 266  1818.13
 267  2039.453
 268  1781.672
 269  1793.029
 270  1825.385
 271  2105.025
 272  1988.189
 273  2009.568
 274  2110.034
 275  2178.446
 276  2359.916
 277  2033.735
 278  1809.909
 279  1833.561
 280  1978.147
 281  1702.974
 282  1817.792
 283  2130.396
 284  2283.249
 285  1950.829
 286  2253.652
 287  2291.569
 288  1884.615
 289  1705.415
 290  1736.435
 291  2009.182
 292  2236.683
 293  2556.735
 294  2594.038
 295  2147.887
 296  2229.088
 297  2199.781
 298  2102.581
 299  2211.481
 300  2454.916
 301  2689.679
 302  2520.208
 303  2426.714
 304  2404.458
 305  2036.357
 306  2032.083
 307  2281.088
 308  2659.689
 309  2818.234
 310  3004.746
 311  3258.146
 312  3230.569
 313  2683.487
 314  2479.085
 315  2504.545
 316  2300.549
 317  2407.384
 318  2450.396
 319  2223.674
 320  1938.419
 321  1812.339
 322  2168.615
 323  2473.213
 324  2345.256
 325  1902.379
 326  1778.831
 327  1799.826
 328  1882.056
 329  2006.25
 330  2097.996
 331  1859.626
 332  1935.084
 333  2305.49
 334  2327.174
 335  1955.944
 336  1885.282
 337  2365.911
 338  2293.542
 339  2571.697
 340  2346.722
 341  2164.081
 342  1969.823
 343  2154.698
 344  2450.213
 345  2276.12
 346  2296.308
 347  2007.86
 348  1835.66
 349  1721.165
 350  1983.642
 351  1886.258
 352  1827.709
 353  1770.713
 354  2025.37
 355  2075.077
 356  1802.658
 357  1774.673
 358  2233.892
 359  2262.44
 360  2194.955
 361  1970.282
 362  1813.846
 363  1530.271
 364  1569.414
 365  1811.124
 366  2084.377
 367  2183.582
 368  2175.284
 369  1903.815
 370  1797.174
 371  1962.237
 372  2534.339
 373  2770.875
 374  2810.526
 375  2506.126
 376  2565.642
 377  2501.818
 378  2141.115
 379  2044.249
 380  2297.051
 381  2366.075
 382  2308.494
 383  2395.108
 384  2437.524
 385  2169.913
 386  2561.478
 387  2472.672
 388  2419.31
 389  2273.399
 390  2212.808
 391  2160.485
 392  2068.264
 393  2065.093
 394  2334.854
 395  2306.669
 396  2232.29
 397  2158.342
 398  2402.005
 399  2357.007
 400  2356.189
 401  2251.785
 402  2501.437
 403  2530.033
 404  2558.042
 405  2506.97
 406  2078.726
 407  2421.737
 408  2252.123
 409  2056.851
 410  2141.043
 411  2269.824
 412  2481.439
 413  2553.71
 414  2528.749
 415  2497.392
 416  2237.484
 417  2196.673
 418  2262.865
 419  2239.219
 420  2567.292
 421  2650.295
 422  2696.445
 423  2664.437
 424  2534.759
 425  2480.104
 426  2152.294
 427  2498.398
 428  2405.685
 429  2560.977
 430  2853.548
 431  2416.344
 432  2523.634
 433  2470.469
 434  2390.048
 435  2428.876
 436  2470.559
 437  2657.765
 438  2823.869
 439  2631.78
 440  2593.59
 441  2509.391
 442  2428.148
 443  2438.735
 444  2034.073
 445  1933.048
 446  2293.17
 447  2546.104
 448  2533.012
 449  2187.871
 450  2300.435
 451  2754.169
 452  2379.295
 453  2271.716
 454  2324.228
 455  2339.747
 456  2200.357
 457  2135.391
 458  2074.457
 459  2060.403
 460  2170.181
 461  2167.591
 462  2390.563
 463  2305.776
 464  2112.878
 465  2097.357
 466  2381.733
 467  2155.637
 468  2094.588
 469  1902.609
 470  1989.513
 471  1852.574
 472  2097.091
 473  2346.261
 474  2187.992
 475  2145.925
 476  2296.795
 477  1952.685
 478  1694.957
 479  1780.436
 480  2149.882
 481  2411.279
 482  2009.212
 483  1862.63
 484  2088.499
 485  2180.069
 486  2126.191
 487  1974.356
 488  1914.578
 489  1923.813
 490  2225.341
 491  2464.021
 492  2517.95
 493  2285.733
 494  2166.218
 495  2007.821
 496  2290.661
 497  2662.248
 498  2521.492
 499  2159.634
 500  2244.505
 501  2527.948
 502  2459.256
 503  2477.57
 504  2583.271
 505  2197.406
 506  2299.364
 507  2023.159
 508  1981.626
 509  2204.526
 510  2094.376
 511  2182.712
