# Input file       =  1198259396.105565_cleaned.dat
# Candidate        =  PSR_0332+5434
# Telescope        =  AR
# Epoch_topo       =  58112.743230388485
# Epoch_bary       =  N/A
# T_sample         =  0.002
# Data Folded      =  7340032
# Data Avg         =  0.252376712574915
# Data StdDev      =  4.30831956793069 
# Profile Bins     =  1024
# Profile Avg      =  1809.39852612864 
# Profile StdDev   =  364.759748650811 
# Reduced chi-sqr  =  0.572
# Prob(Noise)      <  1   (~0.0 sigma)
# P_topo (ms)      =  714.550251594708  +/- 0.000107
# P'_topo (s/s)    =  -0                +/- 5.65e-11
# P''_topo (s/s^2) =  0                 +/- 2.5e-14
# P_bary (ms)      =  N/A
# P'_bary (s/s)    =  N/A
# P''_bary (s/s^2) =  N/A
# P_orb (s)        =  N/A
# asin(i)/c (s)    =  N/A
# eccentricity     =  N/A
# w (rad)          =  N/A
# T_peri           =  N/A
######################################################
   0  1763.648
   1  1814.258
   2  1861.744
   3  1836.594
   4  1884.14
   5  1907.725
   6  1922.321
   7  1693.815
   8  1711.129
   9  1740.651
  10  1769.945
  11  1785.731
  12  1756.439
  13  1702.027
  14  1703.026
  15  1746.884
  16  1846.64
  17  1795.953
  18  1740.866
  19  1717.729
  20  1692.546
  21  1608.331
  22  1562.981
  23  1559.552
  24  1651.69
  25  1620.613
  26  1574.761
  27  1641.469
  28  1706.854
  29  1636.857
  30  1685.506
  31  1649.757
  32  1740.137
  33  1759.358
  34  1758.787
  35  1620.962
  36  1550.334
  37  1571.969
  38  1600.31
  39  1496.551
  40  1673.065
  41  1737.302
  42  1780.622
  43  1811.074
  44  1782.478
  45  1751.482
  46  1619.008
  47  1599.955
  48  1636.514
  49  1780.207
  50  1750.441
  51  1781.884
  52  1753.991
  53  1835.382
  54  1809.54
  55  1768.195
  56  1742.085
  57  1850.419
  58  1922.643
  59  1911.199
  60  1644.64
  61  1414.989
  62  1438.464
  63  1578.541
  64  1697.781
  65  1671.934
  66  1775.119
  67  1767.191
  68  1774.157
  69  1761.73
  70  1715.313
  71  1683.93
  72  1635.245
  73  1702.162
  74  1710.533
  75  1550.551
  76  1518.869
  77  1568.36
  78  1638.714
  79  1781.024
  80  1761.74
  81  1781.811
  82  1746.559
  83  1807.839
  84  1945.239
  85  1762.779
  86  1598.524
  87  1623.163
  88  1718.149
  89  1799.11
  90  1830.373
  91  1883.804
  92  1906.952
  93  1746.597
  94  1760.181
  95  1688.567
  96  1647.203
  97  1716.055
  98  1880.664
  99  1926.631
 100  1866.782
 101  1785.494
 102  1830.238
 103  1830.005
 104  1676.785
 105  1640.49
 106  1549.714
 107  1577.619
 108  1683.967
 109  1792.15
 110  1910.923
 111  1998.258
 112  1892.193
 113  1849.534
 114  1696.74
 115  1646.282
 116  1690.145
 117  1675.198
 118  1664.733
 119  1699.986
 120  1843.344
 121  1955.711
 122  1996.908
 123  1998.686
 124  1978.722
 125  1721.076
 126  1662.317
 127  1639.965
 128  1792.515
 129  1856.924
 130  1860.954
 131  2000.8
 132  1929.858
 133  1777.368
 134  1594.498
 135  1491.271
 136  1505.081
 137  1631.208
 138  1682.999
 139  1806.047
 140  1691.731
 141  1738.647
 142  1717.757
 143  1621.043
 144  1499.596
 145  1463.743
 146  1486.99
 147  1556.944
 148  1628.202
 149  1666.647
 150  1589.337
 151  1464.228
 152  1398.951
 153  1343.191
 154  1345.047
 155  1515.904
 156  1695.104
 157  1869.572
 158  1835.89
 159  1899.66
 160  1814.063
 161  1711.998
 162  1721.043
 163  1628.754
 164  1604.256
 165  1720.304
 166  1921.742
 167  2022.275
 168  1919.248
 169  1847.549
 170  1896.787
 171  1854.488
 172  1847.417
 173  1840.827
 174  1701.587
 175  1693.508
 176  1624.215
 177  1669.837
 178  1783.121
 179  1671.298
 180  1635.338
 181  1642.308
 182  1675.156
 183  1729.149
 184  1656.382
 185  1639.492
 186  1666.543
 187  1662.837
 188  1651.798
 189  1604.881
 190  1539.947
 191  1675.926
 192  1752.873
 193  1873.598
 194  1884.378
 195  1729.093
 196  1786.942
 197  1812.154
 198  1809.673
 199  1853.452
 200  1684.528
 201  1700.853
 202  1686.285
 203  1718.661
 204  1752.396
 205  1830.567
 206  1832.918
 207  1747.051
 208  1659.872
 209  1747.438
 210  1843.735
 211  1624.835
 212  1588.28
 213  1759.819
 214  2002.896
 215  2075.853
 216  1943.682
 217  1940.026
 218  1839.912
 219  1753.787
 220  1786.54
 221  1743.224
 222  1753.561
 223  1747.599
 224  1812.51
 225  1817.209
 226  1742.464
 227  1833.207
 228  1810.845
 229  1792.068
 230  1789.277
 231  1714.528
 232  1582.194
 233  1591.78
 234  1797.08
 235  1871.366
 236  1805.587
 237  1764.438
 238  1800.119
 239  1704.685
 240  1710.629
 241  1776.609
 242  1838.999
 243  1877.933
 244  1783.262
 245  1871.276
 246  1907.303
 247  1891.826
 248  1862.069
 249  1875.764
 250  2000.333
 251  2064.002
 252  2039.244
 253  2125.985
 254  2122.972
 255  2103.699
 256  2044.626
 257  1885.654
 258  1899.909
 259  2036.589
 260  2026.482
 261  1963.245
 262  1899.666
 263  1963.66
 264  2105.969
 265  1897.736
 266  1866.037
 267  1715.292
 268  1720.566
 269  1702.485
 270  1761.582
 271  1772.861
 272  1882.028
 273  1747.963
 274  1811.486
 275  1751.928
 276  1730.346
 277  1700.308
 278  1675.35
 279  1650.883
 280  1743.797
 281  1699.457
 282  1806.419
 283  1897.597
 284  1905.815
 285  2000.196
 286  1881.149
 287  1998.585
 288  2029.214
 289  2033.709
 290  2116.144
 291  1994.864
 292  2000.567
 293  1975.693
 294  1972.484
 295  1968.798
 296  1987.811
 297  1924.067
 298  1930.741
 299  1904.914
 300  1965.102
 301  1952.955
 302  1953.57
 303  1987.39
 304  2027.395
 305  1859.881
 306  1850.152
 307  1781.392
 308  1923.34
 309  2042.508
 310  2079.629
 311  2019.229
 312  1957
 313  1963.179
 314  1994.75
 315  2018.628
 316  2017.46
 317  2029.48
 318  1881.608
 319  1948.481
 320  1861.745
 321  1921.371
 322  1827.234
 323  1942.068
 324  1919.941
 325  1874.952
 326  1832.049
 327  1928.134
 328  1946.611
 329  1968.76
 330  1929.37
 331  1946.055
 332  1921.703
 333  1920.188
 334  1939.24
 335  2042.598
 336  1992.878
 337  2077.921
 338  2006.045
 339  2031.621
 340  1998.365
 341  1951.507
 342  2003.708
 343  1894.812
 344  1939.307
 345  2079.59
 346  2005.046
 347  1940.146
 348  1886.581
 349  2087.809
 350  2095.085
 351  1896.684
 352  1765.623
 353  1856.558
 354  1922.232
 355  1941.859
 356  1885.263
 357  1664.08
 358  1689.722
 359  1583.885
 360  1767.649
 361  1687.386
 362  1542.363
 363  1593.958
 364  1610.484
 365  1687.533
 366  1697.208
 367  1708.839
 368  1702.232
 369  1655.457
 370  1681.958
 371  1702.808
 372  1708.587
 373  1750.994
 374  1834.295
 375  1732.394
 376  1775.356
 377  1764.487
 378  1835.446
 379  1753.239
 380  1717.395
 381  1719.157
 382  1806.599
 383  1723.675
 384  1694.239
 385  1707.932
 386  1836.877
 387  1840.809
 388  1905.222
 389  2049.147
 390  2091.078
 391  1934.976
 392  1858.357
 393  1686.348
 394  1708.54
 395  1651.956
 396  1683.626
 397  1768.019
 398  1768.936
 399  1776.425
 400  1726.081
 401  1655.727
 402  1813.273
 403  1972.066
 404  2066.361
 405  2029.341
 406  2016.162
 407  1993.153
 408  1923.396
 409  1935.454
 410  2007.567
 411  1878.503
 412  1802.967
 413  1807.552
 414  1846.013
 415  1725.161
 416  1751.264
 417  1785.586
 418  1871.048
 419  1747.073
 420  1815.712
 421  1722.581
 422  1691.817
 423  1870.185
 424  2117.177
 425  2119.433
 426  1944.489
 427  1904.821
 428  2085.477
 429  2046.033
 430  1909.448
 431  1888.181
 432  1824.925
 433  1763.754
 434  1674.135
 435  1672.084
 436  1655.322
 437  1633.701
 438  1686.036
 439  1777.328
 440  1693.598
 441  1711.144
 442  1855.988
 443  1882.896
 444  1897.966
 445  1844.589
 446  1947.899
 447  1944.455
 448  1829.683
 449  1862.89
 450  1779.152
 451  1777.524
 452  1754.974
 453  1656.169
 454  1672.749
 455  1677.497
 456  1704.528
 457  1794.043
 458  1719.297
 459  1691.891
 460  1791.175
 461  1821.813
 462  1964.361
 463  2088.59
 464  2096.283
 465  2079.974
 466  1919.249
 467  1988.588
 468  1956.758
 469  1873.948
 470  2000.638
 471  2192.067
 472  2331.877
 473  2451.558
 474  2348.285
 475  2298.76
 476  2112.627
 477  2141.481
 478  2176.276
 479  2034.242
 480  1952.397
 481  1954.639
 482  1878.58
 483  1813.017
 484  1761.873
 485  1918.482
 486  1937.732
 487  1827.02
 488  1935.009
 489  1951.253
 490  2103.203
 491  2123.904
 492  2133.059
 493  1966.626
 494  1727.99
 495  1798.169
 496  1942.811
 497  1902.829
 498  1791.527
 499  1835.34
 500  1953.845
 501  2006.575
 502  2037.158
 503  2041.194
 504  1881.026
 505  1846.382
 506  1850.793
 507  1873.553
 508  1641.812
 509  1628.446
 510  1758.588
 511  1846.895
 512  1823.793
 513  1770.119
 514  1816.974
 515  1629.048
 516  1619.422
 517  1807.772
 518  1957.175
 519  1985.088
 520  1946.18
 521  1915.633
 522  1887.154
 523  1699.087
 524  1761.164
 525  1813.577
 526  1738.246
 527  1641.702
 528  1677.402
 529  1634.976
 530  1649.355
 531  1574.543
 532  1786.949
 533  1818.41
 534  1661.897
 535  1607.943
 536  1497.983
 537  1525.083
 538  1580.175
 539  1575.595
 540  1566.363
 541  1546.814
 542  1562.557
 543  1547.57
 544  1551.238
 545  1684.149
 546  1874.391
 547  1782.502
 548  1716.634
 549  1704.255
 550  1821.376
 551  1752.218
 552  1616.644
 553  1617.465
 554  1647.424
 555  1587.07
 556  1525.653
 557  1549.59
 558  1577.749
 559  1551.939
 560  1601.055
 561  1728.067
 562  1792.005
 563  1706.008
 564  1631.509
 565  1638.892
 566  1637.472
 567  1659.415
 568  1696.263
 569  1726.275
 570  1752.526
 571  1806.813
 572  1875.99
 573  1845.861
 574  1771.096
 575  1734.982
 576  1730.872
 577  1690.153
 578  1718.814
 579  1800.606
 580  1773.177
 581  1795.649
 582  1873.286
 583  1762.723
 584  1720.826
 585  1707.531
 586  1830.422
 587  1825.537
 588  1761.306
 589  1752.376
 590  1810.527
 591  1841.992
 592  1890.366
 593  1876.111
 594  1842.793
 595  1814.945
 596  1730.439
 597  1704.131
 598  1608.466
 599  1739.855
 600  1877.444
 601  1819.313
 602  1824.802
 603  1834.026
 604  1830.914
 605  1817.689
 606  1887.452
 607  1807.76
 608  1722.835
 609  1608.62
 610  1574.613
 611  1627.181
 612  1623.092
 613  1730.895
 614  1702.79
 615  1713.015
 616  1831.867
 617  1838.899
 618  1960.394
 619  1919.931
 620  2060.821
 621  2292.65
 622  2416.894
 623  2507.882
 624  2562.797
 625  2407.794
 626  2186.531
 627  2090.573
 628  2064.17
 629  2118.423
 630  1952.13
 631  1925.029
 632  2024.584
 633  2057.643
 634  2024.385
 635  1942.872
 636  1915.954
 637  1955.849
 638  1865.954
 639  1852.57
 640  1758.85
 641  1712.742
 642  1658.281
 643  1762.038
 644  1803.791
 645  1884.377
 646  1786.241
 647  1806.159
 648  1767.643
 649  1722.597
 650  1783.193
 651  1763.231
 652  1731.575
 653  1750.268
 654  1732.28
 655  1723.623
 656  1652.881
 657  1687.97
 658  1682.095
 659  1735.413
 660  1718.62
 661  1629.078
 662  1522.743
 663  1604.797
 664  1662.353
 665  1763.718
 666  1645.466
 667  1715.954
 668  1664.639
 669  1707.532
 670  1628.885
 671  1597.102
 672  1708.459
 673  1789.348
 674  1836.745
 675  1789.896
 676  1697.082
 677  1699.277
 678  1718.323
 679  1630.305
 680  1565.404
 681  1466.472
 682  1464.329
 683  1543.552
 684  1652.758
 685  1717.854
 686  1741.208
 687  1669.22
 688  1664.146
 689  1740.238
 690  1735.709
 691  1821.858
 692  1898.179
 693  1916.819
 694  1974.811
 695  1806.887
 696  1746.601
 697  1684.992
 698  1597.669
 699  1664.573
 700  1673.92
 701  1798.783
 702  1842.079
 703  1801.672
 704  1880.927
 705  1773.231
 706  1663.13
 707  1618.968
 708  1635.205
 709  1657.034
 710  1746.079
 711  1721.109
 712  1845.847
 713  1856.18
 714  1793.512
 715  1738.405
 716  1642.861
 717  1819.243
 718  1930.325
 719  1869.255
 720  1787.001
 721  1835.02
 722  1906.766
 723  1977.92
 724  1827.713
 725  1743.949
 726  1684.775
 727  1692.245
 728  1683.182
 729  1664.869
 730  1749.329
 731  1871.452
 732  1987.272
 733  2066.717
 734  2062.717
 735  1947.436
 736  1877.737
 737  1832.042
 738  1801.603
 739  1851.494
 740  1817.208
 741  1825.121
 742  1826.343
 743  1863.718
 744  1773.162
 745  1682.235
 746  1650.063
 747  1692.006
 748  1668.237
 749  1688.653
 750  1665.962
 751  1724.031
 752  1710.821
 753  1703.391
 754  1728.368
 755  1660.731
 756  1594.886
 757  1648.071
 758  1721.897
 759  1812.604
 760  1814.116
 761  1953.975
 762  2035.583
 763  1868.833
 764  1869.117
 765  1794.693
 766  1759.782
 767  1701.565
 768  1649.817
 769  1669.696
 770  1620.339
 771  1670.766
 772  1735.741
 773  1713.968
 774  1685.801
 775  1722.715
 776  1653.802
 777  1684.677
 778  1784.44
 779  1806.933
 780  1980.334
 781  1884.539
 782  1911.028
 783  1783.75
 784  1717.08
 785  1688.439
 786  1705.605
 787  1713.817
 788  1774.069
 789  1782.007
 790  1811.674
 791  1802.343
 792  1663.225
 793  1649.276
 794  1588.235
 795  1727.995
 796  1828.374
 797  1860.718
 798  1900.957
 799  1823.937
 800  1768.757
 801  1865.612
 802  1879.095
 803  1940.364
 804  1904.351
 805  1888.75
 806  1881.616
 807  1959.731
 808  1923.145
 809  1828.532
 810  1802.284
 811  1837.231
 812  1794.081
 813  1622.723
 814  1649.322
 815  1783.415
 816  1970.131
 817  2071.528
 818  2045.063
 819  1985.6
 820  1967.449
 821  1932.689
 822  2062.87
 823  2013.76
 824  1934.98
 825  1911.286
 826  1870.843
 827  1911.957
 828  1857.864
 829  1902.509
 830  1799.013
 831  1805.778
 832  1899.147
 833  1988.82
 834  2004.905
 835  2020.849
 836  1935.144
 837  1881.59
 838  1790.466
 839  1724.324
 840  1689.468
 841  1624.022
 842  1722.978
 843  1821.77
 844  1848.001
 845  1833.686
 846  1842.422
 847  1926.134
 848  1902.878
 849  1872.605
 850  1883.408
 851  1862.831
 852  1776.362
 853  1844.228
 854  1852.423
 855  1946.431
 856  1910.436
 857  1802.582
 858  1784.142
 859  1790.743
 860  1990.887
 861  1967.369
 862  1787.062
 863  1801.486
 864  1882.087
 865  1960.899
 866  1956.067
 867  1927.755
 868  1856.622
 869  1760.604
 870  1634.577
 871  1717.808
 872  1777.287
 873  1766.349
 874  1814.372
 875  1708.78
 876  1742.049
 877  1778.201
 878  1725.638
 879  1802.747
 880  1668.729
 881  1629.584
 882  1729.978
 883  1776.98
 884  1790.494
 885  1710.592
 886  1640.224
 887  1798.328
 888  1782.182
 889  1849.738
 890  1767.218
 891  1646.76
 892  1807.754
 893  1995.657
 894  2226.722
 895  2290.073
 896  2192.772
 897  2145.749
 898  2025.405
 899  1972.955
 900  1969.748
 901  2054.02
 902  2105.322
 903  2107.134
 904  2008.947
 905  1966.999
 906  1934.582
 907  1898.346
 908  1981.264
 909  2034.76
 910  2140.048
 911  2136.883
 912  1991.362
 913  1860.959
 914  1966.154
 915  2028.577
 916  2012.386
 917  1918.07
 918  1990.791
 919  2070.897
 920  2007.317
 921  2022.943
 922  1979.085
 923  1986.354
 924  1934.123
 925  1890.632
 926  1875.503
 927  1860.302
 928  1855.129
 929  1811.953
 930  1752.674
 931  1796.882
 932  1843.973
 933  1991.369
 934  1948.083
 935  1780.788
 936  1599.902
 937  1536.047
 938  1548.267
 939  1606.254
 940  1560.245
 941  1710.964
 942  1853.047
 943  1857.113
 944  1877.464
 945  1705.621
 946  1695.821
 947  1706.548
 948  1691.944
 949  1759.326
 950  1698.956
 951  1705.162
 952  1708.468
 953  1802.568
 954  1940.521
 955  1876.881
 956  1718.845
 957  1719.182
 958  1735.77
 959  1835.365
 960  1867.112
 961  1821.708
 962  1839.316
 963  1695.84
 964  1631.708
 965  1617.185
 966  1626.544
 967  1734.431
 968  1896.49
 969  1902.054
 970  1921.048
 971  1955.415
 972  1964.265
 973  1835.472
 974  1734.092
 975  1899.505
 976  1964.441
 977  1867.146
 978  1802.992
 979  1860.018
 980  1990.946
 981  2011.765
 982  1867.094
 983  1938.584
 984  2029.058
 985  2026.695
 986  1844.421
 987  1711.533
 988  1801.624
 989  2016.263
 990  2049.242
 991  2028.567
 992  1917.06
 993  1925.561
 994  1903.33
 995  1810.191
 996  1793.424
 997  1817.605
 998  1837.144
 999  1899.154
1000  1907.5
1001  1922.128
1002  1897.432
1003  1831.442
1004  1841.016
1005  1817.49
1006  1831.105
1007  1860.392
1008  1872.995
1009  1816.856
1010  1790.042
1011  1794.05
1012  1805.105
1013  1739.208
1014  1726.97
1015  1633.196
1016  1564.506
1017  1664.794
1018  1736.567
1019  1731.94
1020  1751.21
1021  1790.013
1022  1883.297
1023  1734.67
