# Input file       =  1198274299.108217_cleaned.dat
# Candidate        =  PSR_0332+5434
# Telescope        =  AR
# Epoch_topo       =  58112.915718845106
# Epoch_bary       =  N/A
# T_sample         =  0.002
# Data Folded      =  7340032
# Data Avg         =  0.272655585788016
# Data StdDev      =  5.18672768239406 
# Profile Bins     =  1024
# Profile Avg      =  1954.40169395624 
# Profile StdDev   =  439.129330106531 
# Reduced chi-sqr  =  0.488
# Prob(Noise)      <  1   (~0.0 sigma)
# P_topo (ms)      =  714.550747414227  +/- 0.000471
# P'_topo (s/s)    =  -0                +/- 2.48e-10
# P''_topo (s/s^2) =  0                 +/- 1.1e-13
# P_bary (ms)      =  N/A
# P'_bary (s/s)    =  N/A
# P''_bary (s/s^2) =  N/A
# P_orb (s)        =  N/A
# asin(i)/c (s)    =  N/A
# eccentricity     =  N/A
# w (rad)          =  N/A
# T_peri           =  N/A
######################################################
   0  2120.956
   1  1957.095
   2  1915.122
   3  1861.437
   4  1925.492
   5  1985.303
   6  1894.823
   7  1791.832
   8  1807.715
   9  1856.845
  10  2035.487
  11  2146.851
  12  2072.466
  13  2083.752
  14  2043.96
  15  2044.157
  16  1917.003
  17  1907.555
  18  1914.727
  19  2057.336
  20  2024.619
  21  1986.501
  22  1824.908
  23  1828.062
  24  1967.8
  25  2034.005
  26  2069.867
  27  2047.213
  28  2022.171
  29  2069.689
  30  2093.163
  31  2087.643
  32  2169.974
  33  2091.793
  34  2128.457
  35  2182.145
  36  2171.015
  37  2017.43
  38  1891.38
  39  1941.908
  40  2039.953
  41  1959.435
  42  1829.918
  43  1875.268
  44  1922.402
  45  2098.563
  46  2043.536
  47  2038.606
  48  2061.168
  49  2203.946
  50  2255.556
  51  2197.022
  52  2055.368
  53  2151.914
  54  2195.861
  55  2101.622
  56  2122.831
  57  2036.551
  58  1949.754
  59  1838.279
  60  1953.118
  61  1992.233
  62  1889.315
  63  1767.386
  64  1845.882
  65  1938.9
  66  2033.621
  67  2168.732
  68  2048.246
  69  1801.146
  70  1643.492
  71  1746.804
  72  1800.496
  73  1738.775
  74  1799.27
  75  1882.254
  76  1968.996
  77  1893.57
  78  1992.872
  79  1882.962
  80  1922.673
  81  1887.031
  82  1870.015
  83  1787.267
  84  1621.261
  85  1790.884
  86  1861.055
  87  1860.281
  88  1800.881
  89  1937.663
  90  1991.147
  91  1905.964
  92  2050.307
  93  1972.632
  94  1909.692
  95  1763.797
  96  1924.364
  97  2070.531
  98  2055.111
  99  2156.074
 100  2102.922
 101  1820.013
 102  1688.224
 103  1787.921
 104  1874.758
 105  1841.547
 106  1769.599
 107  1824.413
 108  1901.774
 109  1906.371
 110  1954.082
 111  1893.683
 112  1785.638
 113  1853.844
 114  1880.097
 115  1894.282
 116  1769.219
 117  1765.962
 118  1770.392
 119  1736.639
 120  1821.645
 121  1977.182
 122  2007.324
 123  1939.426
 124  1920.654
 125  1843.028
 126  1850.024
 127  1938.519
 128  1833.807
 129  1735.358
 130  1656.044
 131  1750.186
 132  1893.324
 133  1925.132
 134  2112.755
 135  2199.873
 136  2152.044
 137  1949.051
 138  1926.719
 139  1997.057
 140  1938.549
 141  1689.233
 142  1648.782
 143  1661.812
 144  1641.675
 145  1666.978
 146  1810.729
 147  1942.706
 148  2125.989
 149  2160.833
 150  2187.414
 151  2266.898
 152  2208.166
 153  2231.56
 154  2076.792
 155  2106.918
 156  2116.9
 157  2184.692
 158  2129.833
 159  2081.21
 160  1967.642
 161  2008.215
 162  1918.459
 163  1927.586
 164  1963.588
 165  2053.716
 166  2166.533
 167  2160.362
 168  2110.283
 169  2077.042
 170  2079.915
 171  2108.622
 172  2061.688
 173  2014.115
 174  1928.75
 175  1993.608
 176  2088.812
 177  2187.408
 178  2170.832
 179  2223.636
 180  2126.789
 181  2095.857
 182  2108.337
 183  2197.44
 184  2055.322
 185  1941.214
 186  1947.678
 187  1997.119
 188  2125.302
 189  2081.799
 190  2012.738
 191  2043.335
 192  2062.906
 193  2073.468
 194  1916.061
 195  1903.984
 196  1991.06
 197  1900.933
 198  2034.793
 199  2094.36
 200  2087.531
 201  2041.786
 202  2078.64
 203  2156.327
 204  2062.115
 205  2025.218
 206  2096.833
 207  2154.542
 208  2034.849
 209  1948.142
 210  1910.311
 211  1905.143
 212  1912.491
 213  2134.788
 214  2345.1
 215  2353.511
 216  2223.472
 217  2258.861
 218  2276.846
 219  2270.605
 220  2214.895
 221  2224.498
 222  2242.763
 223  2270.623
 224  2137.648
 225  2118.254
 226  2163.209
 227  2244.621
 228  2201.842
 229  2073.169
 230  2020.074
 231  2070.502
 232  2091.885
 233  2169.998
 234  2040.704
 235  2040.186
 236  1937.07
 237  1922.404
 238  1836.289
 239  1642.937
 240  1791.285
 241  1882.939
 242  1965.435
 243  1863.844
 244  1910.852
 245  2074.224
 246  2079.52
 247  2131.575
 248  2036.224
 249  1991.216
 250  1926.518
 251  1837.181
 252  1794.906
 253  1849.409
 254  1943.489
 255  1912.579
 256  1861.73
 257  1870.823
 258  1994.779
 259  1904.055
 260  1767.751
 261  1647.436
 262  1738.583
 263  1833.431
 264  1949.502
 265  1939.159
 266  1979.95
 267  1954.587
 268  2077.356
 269  1949.295
 270  1852.033
 271  1863.763
 272  1845.297
 273  1739.187
 274  1570.327
 275  1559.55
 276  1603.943
 277  1642.396
 278  1666.08
 279  1684.277
 280  1771.617
 281  1829.802
 282  2052.557
 283  2118.551
 284  2204.203
 285  2130.024
 286  2100.354
 287  2265.502
 288  2207.731
 289  2020.347
 290  1855.269
 291  1687.725
 292  1745.088
 293  1860.358
 294  1893.221
 295  1821.788
 296  1613.925
 297  1728.95
 298  1819.089
 299  1959.106
 300  1858.783
 301  1750.35
 302  1752.826
 303  1832.724
 304  1905.912
 305  1829.003
 306  1859.114
 307  1814.528
 308  1832.88
 309  1765.588
 310  1751.821
 311  1866.218
 312  1969.391
 313  1810.32
 314  1731.811
 315  1691.629
 316  1765.869
 317  1794.667
 318  1781.39
 319  1761.271
 320  1722.774
 321  1720.684
 322  1877.206
 323  1943.163
 324  2036.487
 325  2088.711
 326  2092.838
 327  2023.79
 328  1886.11
 329  1776.049
 330  1802.044
 331  1863.2
 332  1912.325
 333  2043.12
 334  1976.628
 335  2082.371
 336  2013.445
 337  1931.342
 338  1794.369
 339  1776.849
 340  1881.066
 341  1974.719
 342  1949.39
 343  1846.468
 344  1821.634
 345  1851.549
 346  1749.197
 347  1811.666
 348  1920.101
 349  2003.738
 350  1975.078
 351  1928.067
 352  2091.827
 353  2128.912
 354  2241.402
 355  2130.207
 356  2017.988
 357  1943.236
 358  1995.51
 359  1942.308
 360  1980.083
 361  2115.685
 362  2151.144
 363  2215.345
 364  2080.247
 365  2032.982
 366  2012.397
 367  1945.965
 368  1928.561
 369  1867.535
 370  1879.68
 371  1981.364
 372  1996.556
 373  1906.607
 374  1825.404
 375  1830.136
 376  1828.937
 377  1883.458
 378  1979.375
 379  2114.798
 380  2088.596
 381  2057.904
 382  2167.988
 383  2071.889
 384  2022.057
 385  1988.982
 386  1948.135
 387  1991.026
 388  1931.963
 389  1941.261
 390  1949.199
 391  1892.672
 392  2016.617
 393  2077.75
 394  2056.85
 395  2027.84
 396  2120.842
 397  2184.726
 398  2268.318
 399  2240.244
 400  2189.206
 401  2080.583
 402  1858.003
 403  1980.345
 404  2048.633
 405  1982.385
 406  1956.896
 407  1875.579
 408  1882.375
 409  1711.726
 410  1723.089
 411  1871.389
 412  1907.495
 413  1830.304
 414  1706.725
 415  1715.588
 416  1625.139
 417  1751.611
 418  1825.897
 419  1854.398
 420  1728.769
 421  1631.779
 422  1750.228
 423  1795.459
 424  1805.147
 425  1882.281
 426  1941.633
 427  1894.183
 428  2001.106
 429  2082.659
 430  2070.974
 431  2026.751
 432  1839.118
 433  1775.596
 434  1577.379
 435  1708.364
 436  1755.119
 437  1624.97
 438  1608.385
 439  1692.342
 440  1818.147
 441  1840.351
 442  1718.828
 443  1787.087
 444  1730.497
 445  1800.586
 446  1891.308
 447  1881.78
 448  1696.051
 449  1751.223
 450  1851.083
 451  2075.257
 452  2061.982
 453  1895.421
 454  1874.028
 455  1989.799
 456  2055.071
 457  2048.561
 458  1872.371
 459  2002.856
 460  2143.52
 461  2114.935
 462  2019.464
 463  1949.356
 464  2032.516
 465  2097.254
 466  2032.039
 467  2082.775
 468  2183.796
 469  2051.571
 470  2047.09
 471  1944.186
 472  1941.519
 473  1892.832
 474  1827.947
 475  1835.043
 476  1946.427
 477  1873.445
 478  1925.582
 479  1900.335
 480  1821.668
 481  1830.769
 482  1847.157
 483  1997.662
 484  2018.742
 485  2014.032
 486  2201.273
 487  2234.693
 488  2293.345
 489  2213.698
 490  2174.136
 491  2036.487
 492  1944.974
 493  2022.747
 494  2118.23
 495  2239.182
 496  2073.565
 497  1953.942
 498  1920.865
 499  1934.34
 500  2009.493
 501  2072.801
 502  2101.805
 503  2067.905
 504  2055.375
 505  2031.395
 506  1958.339
 507  1944.409
 508  2001.503
 509  2074.211
 510  1998.668
 511  1932.599
 512  1702.435
 513  1668.574
 514  1766.714
 515  1892.668
 516  1919.771
 517  1909.578
 518  1845.368
 519  1901.658
 520  1717.313
 521  1804.389
 522  1935.314
 523  2079.786
 524  2124.112
 525  2106.492
 526  2089.723
 527  1858.65
 528  1728.203
 529  1730.507
 530  1799.197
 531  1828.326
 532  1911.35
 533  1999.436
 534  1986.876
 535  2040.563
 536  2080.739
 537  2074.844
 538  2038.224
 539  2086.228
 540  2156.2
 541  2059.316
 542  1981.274
 543  2020.475
 544  2050.82
 545  1992.677
 546  1964.659
 547  1961.721
 548  2099.909
 549  2098.605
 550  1994.025
 551  1994.715
 552  1941.409
 553  2040.801
 554  2032.825
 555  2039.168
 556  1989.146
 557  1948.248
 558  2016.769
 559  2051.299
 560  1930.15
 561  1958.71
 562  1983.15
 563  1948.033
 564  1878.87
 565  1922.917
 566  1952.05
 567  1922.321
 568  1758.858
 569  1717.407
 570  1815.699
 571  1892.334
 572  1980.245
 573  1952.925
 574  1942.621
 575  1953.182
 576  1859.549
 577  1727.219
 578  1625.118
 579  1688.126
 580  1748.488
 581  1912.461
 582  1968.993
 583  2051.964
 584  2050.902
 585  2068.261
 586  2024.753
 587  1919.091
 588  1916.775
 589  1908.926
 590  1962.281
 591  1918.583
 592  1898.79
 593  1896.723
 594  2069.125
 595  2093.033
 596  2190.119
 597  2180.698
 598  2107.852
 599  1947.349
 600  1845.212
 601  1889.627
 602  1928.971
 603  1949.187
 604  1947.399
 605  2014.068
 606  2108.292
 607  2166.5
 608  2035.529
 609  2009.888
 610  1975.017
 611  2117.036
 612  2052.941
 613  2034.486
 614  2085.065
 615  2164.11
 616  2204.373
 617  2135.433
 618  2388.193
 619  2549.026
 620  2601.058
 621  2647.666
 622  2698.11
 623  2608.119
 624  2571.095
 625  2632.165
 626  2766.525
 627  2631.862
 628  2417.413
 629  2142.313
 630  1869.809
 631  1824.787
 632  1947.049
 633  2061.376
 634  2208.8
 635  2167.203
 636  2184.947
 637  2120.684
 638  2162.389
 639  2283.392
 640  2249.624
 641  2162.906
 642  2104.216
 643  2031.919
 644  2121.094
 645  2145.42
 646  2253.134
 647  2244.686
 648  2207.195
 649  2063.788
 650  2091.316
 651  2156.855
 652  2128.808
 653  2103.775
 654  2010.608
 655  2074.842
 656  2121.6
 657  2251.286
 658  2300.712
 659  2323.89
 660  2337.581
 661  2382.594
 662  2290.832
 663  2081.904
 664  1932.331
 665  1900.675
 666  1901.216
 667  1841.945
 668  1831.124
 669  1893.519
 670  1903.183
 671  1829.059
 672  1827.491
 673  1816.753
 674  1908.395
 675  1945.088
 676  1874.458
 677  1825.159
 678  1833.688
 679  1786.958
 680  1735.309
 681  1736.677
 682  1763.391
 683  1860.413
 684  1761.779
 685  1783.026
 686  2029.411
 687  2159.906
 688  2177.386
 689  2027.9
 690  1980.943
 691  1943.138
 692  1851.206
 693  1885.716
 694  1915.126
 695  1904.599
 696  1872.98
 697  1882.483
 698  1871.12
 699  1868.109
 700  1911.517
 701  2056.61
 702  2101.177
 703  2011.001
 704  1950.316
 705  1940.577
 706  1842.938
 707  1884.186
 708  1877.263
 709  1886.372
 710  1819.179
 711  1813.143
 712  1751.727
 713  1671.942
 714  1727.354
 715  1899.518
 716  1906.596
 717  1789.731
 718  1771.097
 719  1782.449
 720  1839.668
 721  1796.498
 722  1787.834
 723  1834.692
 724  1954.779
 725  1918.399
 726  1848.018
 727  1717.485
 728  1721.193
 729  1833.719
 730  1724.669
 731  1653.547
 732  1646.933
 733  1817.146
 734  1938.286
 735  1740.252
 736  1844.468
 737  2025.853
 738  2167.896
 739  2032.476
 740  1758.158
 741  1797.724
 742  1865.499
 743  1956.248
 744  2065.659
 745  2254.921
 746  2219.011
 747  2129.71
 748  1985.763
 749  2071.776
 750  2085.029
 751  2134.134
 752  2127.782
 753  2219.149
 754  2247.535
 755  2187.907
 756  1999.243
 757  1940.616
 758  1992.052
 759  2109.89
 760  2099.167
 761  2107.442
 762  2106.025
 763  1985.945
 764  1949.03
 765  2005.972
 766  1963.16
 767  1689.828
 768  1635.511
 769  1737.552
 770  1903.063
 771  1883.509
 772  2017.601
 773  2145.572
 774  2236.17
 775  2204.687
 776  2106.847
 777  2114.523
 778  1985.255
 779  1949.916
 780  1927.193
 781  1829.057
 782  1732.73
 783  1797.975
 784  1818.399
 785  1843.759
 786  1816.497
 787  2025.103
 788  1956.548
 789  1880.038
 790  1897.757
 791  2027.186
 792  2013.003
 793  2062.622
 794  2090.47
 795  2254.557
 796  2168.578
 797  2094.399
 798  1941.499
 799  1918.124
 800  1904.785
 801  2034.825
 802  2018.994
 803  1885.732
 804  1796.964
 805  1920.491
 806  2019.132
 807  2032.812
 808  1920.699
 809  1961.118
 810  1921.495
 811  1900.041
 812  1987.099
 813  2076.457
 814  2045.899
 815  1961.987
 816  1864.739
 817  1898.379
 818  1911.844
 819  1905.081
 820  1934.423
 821  1832.028
 822  1836.023
 823  1720.951
 824  1807.762
 825  1809.3
 826  1925.925
 827  1919.01
 828  1843.87
 829  1882.594
 830  2000.218
 831  2086.303
 832  1870.14
 833  1837.972
 834  1934.618
 835  1968.274
 836  1876.403
 837  1801.283
 838  1813.728
 839  1746.339
 840  1715.033
 841  1875.756
 842  1852.87
 843  1789.075
 844  1799.729
 845  1948.712
 846  1924.374
 847  1871.305
 848  1955.974
 849  2113.948
 850  2083.354
 851  2046.979
 852  1945.816
 853  1830.119
 854  1716.448
 855  1837.998
 856  1885.994
 857  1938.87
 858  1846.422
 859  1890.069
 860  1771.357
 861  1697.142
 862  1568.031
 863  1496.89
 864  1400.106
 865  1356.891
 866  1505.045
 867  1549.869
 868  1660.696
 869  1675.026
 870  1711.188
 871  1769.916
 872  1979.083
 873  2115.653
 874  2087.343
 875  1844.49
 876  1790.461
 877  1750.257
 878  1730.439
 879  1756.297
 880  1801.538
 881  1721.162
 882  1634.477
 883  1538.627
 884  1590.998
 885  1615.094
 886  1669.44
 887  1802.458
 888  1827.668
 889  1716.982
 890  1682.063
 891  1588.234
 892  1667.642
 893  1667.547
 894  1751.998
 895  1785.783
 896  1871.511
 897  1854.997
 898  1826.877
 899  1695.299
 900  1794.768
 901  1852.683
 902  1908.216
 903  1893.077
 904  1773.544
 905  1677.088
 906  1692.609
 907  1622.203
 908  1688.281
 909  1746.912
 910  1876.54
 911  1841.021
 912  1778.91
 913  1768.023
 914  1749.645
 915  1806.267
 916  1906.487
 917  2067.609
 918  1958.505
 919  1926.035
 920  1976.219
 921  2188.305
 922  2160.619
 923  2054.465
 924  1971.119
 925  2037.75
 926  2063.529
 927  2086.924
 928  2032.374
 929  2014.97
 930  1989.529
 931  1977.336
 932  2025.902
 933  2035.844
 934  1993.503
 935  2029.645
 936  2037.112
 937  2090.306
 938  2010.861
 939  1896.086
 940  1794.016
 941  1898.474
 942  1890.65
 943  1876.87
 944  1773.833
 945  1767.299
 946  1818.434
 947  1787.941
 948  1973.527
 949  2017.654
 950  2022.827
 951  1933.206
 952  1870.651
 953  2000.516
 954  2132.814
 955  2235.727
 956  2215.489
 957  2099.406
 958  2031.838
 959  1909.689
 960  1885.083
 961  1852.579
 962  1902.743
 963  2037.024
 964  2036.648
 965  2144.884
 966  2035.015
 967  2023.349
 968  1998.188
 969  2005.216
 970  2122.039
 971  2123.422
 972  1927.704
 973  1836.958
 974  1804.778
 975  2012.958
 976  2059.754
 977  1970.127
 978  1965.179
 979  1949.82
 980  1808.439
 981  1704.645
 982  1703.802
 983  1979.522
 984  2096.044
 985  2135.777
 986  2092.669
 987  2000.565
 988  2028.37
 989  2048.543
 990  2078.424
 991  1979.842
 992  1866.756
 993  1882.828
 994  1883.884
 995  1776.305
 996  1734.717
 997  1756.506
 998  1773.572
 999  1845.426
1000  1993.121
1001  2033.477
1002  2019.571
1003  1973.911
1004  1990.952
1005  2018.607
1006  1997.43
1007  2121.915
1008  2059.881
1009  1963.475
1010  1892.41
1011  1794.815
1012  1766.889
1013  1695.164
1014  1901.627
1015  2053.746
1016  2371.07
1017  2384.082
1018  2272.33
1019  2207.532
1020  2174.728
1021  2267.023
1022  2160.708
1023  2052.123
