# Input file       =  1198705058.107936_cleaned.dat
# Candidate        =  PSR_0332+5434
# Telescope        =  AR
# Epoch_topo       =  58117.901355415925
# Epoch_bary       =  N/A
# T_sample         =  0.002
# Data Folded      =  7340032
# Data Avg         =  0.175804962739806
# Data StdDev      =  5.22691976735487 
# Profile Bins     =  1024
# Profile Avg      =  1260.1952011838  
# Profile StdDev   =  442.532154473875 
# Reduced chi-sqr  =  0.449
# Prob(Noise)      <  1   (~0.0 sigma)
# P_topo (ms)      =  714.55516419376   +/- 0.00145
# P'_topo (s/s)    =  -0                +/- 7.63e-10
# P''_topo (s/s^2) =  0                 +/- 3.37e-13
# P_bary (ms)      =  N/A
# P'_bary (s/s)    =  N/A
# P''_bary (s/s^2) =  N/A
# P_orb (s)        =  N/A
# asin(i)/c (s)    =  N/A
# eccentricity     =  N/A
# w (rad)          =  N/A
# T_peri           =  N/A
######################################################
   0  849.8544
   1  908.3688
   2  998.2141
   3  1065.655
   4  1144.921
   5  1167.576
   6  1077.965
   7  1032.408
   8  990.6505
   9  991.1638
  10  872.3188
  11  801.26
  12  917.6048
  13  993.6353
  14  925.7411
  15  898.2679
  16  952.0916
  17  1028.113
  18  991.8979
  19  1016.571
  20  1181.589
  21  1354.956
  22  1282.943
  23  1206.178
  24  1218.125
  25  1184.938
  26  1233.93
  27  1109.663
  28  1123.932
  29  1220.515
  30  1351.139
  31  1435.307
  32  1316.84
  33  1215.632
  34  1230.404
  35  1199.455
  36  1150.132
  37  1033.378
  38  1094.726
  39  1200.384
  40  1282.159
  41  1441.713
  42  1427.559
  43  1359.827
  44  1345.408
  45  1367.61
  46  1332.01
  47  1169.93
  48  1175.222
  49  1034.371
  50  1056.086
  51  1015.213
  52  1026.848
  53  1115.674
  54  1160.57
  55  1270.762
  56  1439.369
  57  1452.894
  58  1455.401
  59  1396.465
  60  1397.931
  61  1300.767
  62  1173.33
  63  1055.896
  64  957.4737
  65  978.0264
  66  1050.474
  67  1221.059
  68  1305.387
  69  1226.184
  70  1291.365
  71  1259.636
  72  1446.07
  73  1495.542
  74  1470.64
  75  1302.995
  76  1090.219
  77  1112.043
  78  1140.972
  79  1250.387
  80  1339.273
  81  1387.286
  82  1309.316
  83  1334.131
  84  1487.379
  85  1509.414
  86  1466.011
  87  1301.118
  88  1282.362
  89  1177.803
  90  1182.906
  91  1281.018
  92  1448.297
  93  1462.232
  94  1470.025
  95  1472.266
  96  1408.669
  97  1408.57
  98  1419.211
  99  1416.071
 100  1307.673
 101  1383.515
 102  1455.52
 103  1331.873
 104  1130.535
 105  1120.799
 106  1202.99
 107  1160.206
 108  1183.998
 109  1253.682
 110  1316.825
 111  1415.147
 112  1383.721
 113  1457.213
 114  1455.365
 115  1427.369
 116  1358.473
 117  1374.968
 118  1434.301
 119  1351.764
 120  1195.409
 121  1152.022
 122  1173.908
 123  1271.315
 124  1428.232
 125  1401.791
 126  1464.029
 127  1434.706
 128  1499.334
 129  1393.052
 130  1264.343
 131  1187.449
 132  1249.015
 133  1286.869
 134  1312.345
 135  1238.231
 136  1134.367
 137  1075.11
 138  1208.109
 139  1411.668
 140  1505.135
 141  1457.137
 142  1430.117
 143  1301.939
 144  1384.605
 145  1483.351
 146  1523.308
 147  1429.647
 148  1490.136
 149  1478.037
 150  1513.14
 151  1473.834
 152  1620.907
 153  1626.787
 154  1549.193
 155  1482.629
 156  1466.216
 157  1537.276
 158  1543.917
 159  1595.962
 160  1539.466
 161  1388.754
 162  1348.073
 163  1337.976
 164  1461.268
 165  1505.755
 166  1685.776
 167  1694.109
 168  1669.637
 169  1541.241
 170  1455.111
 171  1408.223
 172  1257.212
 173  1225.529
 174  1316.009
 175  1334.586
 176  1430.107
 177  1429.764
 178  1534.682
 179  1515.801
 180  1550.766
 181  1531.959
 182  1475.555
 183  1454.2
 184  1546.482
 185  1544.243
 186  1378.007
 187  1326.29
 188  1184.361
 189  1174.404
 190  1184.943
 191  1425.519
 192  1408.205
 193  1289.218
 194  1272.863
 195  1390.485
 196  1495.263
 197  1509.52
 198  1563.047
 199  1550.178
 200  1533.725
 201  1399.518
 202  1304.213
 203  1210.318
 204  1274.75
 205  1338.398
 206  1398.787
 207  1300.239
 208  1369.448
 209  1477.393
 210  1554.419
 211  1398.947
 212  1243.364
 213  1102.715
 214  1264.547
 215  1303.257
 216  1300.152
 217  1244.464
 218  1191.75
 219  1270.105
 220  1127.916
 221  1196.962
 222  1141.001
 223  1178.766
 224  1154.29
 225  1100.756
 226  1129.953
 227  1112.316
 228  1275.027
 229  1399.544
 230  1390.685
 231  1225.839
 232  1057.628
 233  1046.767
 234  1269.158
 235  1405.18
 236  1423.394
 237  1319.261
 238  1185.566
 239  1080.523
 240  1041.793
 241  1151.707
 242  1136.907
 243  1182.704
 244  1216.905
 245  1296.042
 246  1409.977
 247  1371.439
 248  1385.357
 249  1328.836
 250  1223.583
 251  1177.461
 252  1107.688
 253  1081.005
 254  1145.142
 255  1330.91
 256  1424.281
 257  1406.738
 258  1357.083
 259  1261.812
 260  1298.516
 261  1180.862
 262  1110.264
 263  1102.943
 264  1110.779
 265  1202.329
 266  1384.567
 267  1482.099
 268  1468.91
 269  1190.4
 270  1030.638
 271  1092.911
 272  1232.234
 273  1264.587
 274  1156.657
 275  1174.157
 276  1305.03
 277  1310.552
 278  1245.624
 279  1194.774
 280  1163.182
 281  1090.544
 282  1071.611
 283  1161.569
 284  1258.546
 285  1165.58
 286  1083.321
 287  1108.855
 288  1066.605
 289  1071.663
 290  1207.953
 291  1205.683
 292  1120.504
 293  961.4078
 294  1085.29
 295  1152.657
 296  1233.578
 297  1421.852
 298  1619.155
 299  1582.652
 300  1430.795
 301  1456.7
 302  1343.426
 303  1299.796
 304  1300.557
 305  1422.143
 306  1429.015
 307  1537.248
 308  1581.682
 309  1539.785
 310  1444.492
 311  1432.862
 312  1416.133
 313  1335.614
 314  1400.064
 315  1418.51
 316  1446.171
 317  1307.61
 318  1140.205
 319  1059.226
 320  1172.815
 321  1164.558
 322  1204.497
 323  1150.015
 324  1292.475
 325  1309.824
 326  1334.587
 327  1255.12
 328  1142.783
 329  1082.083
 330  1126.626
 331  1162.313
 332  1162.665
 333  1053.932
 334  967.7298
 335  964.5741
 336  1000.795
 337  1186.367
 338  1257.109
 339  1226.805
 340  1204.522
 341  1264.691
 342  1215.382
 343  1242.62
 344  1330.602
 345  1403.071
 346  1473.149
 347  1538.428
 348  1493.996
 349  1452.92
 350  1364.758
 351  1304.955
 352  1168.987
 353  1130.968
 354  1204.085
 355  1282.885
 356  1295.384
 357  1292.848
 358  1228.788
 359  1211.57
 360  1262.316
 361  1268.129
 362  1259.974
 363  1274.656
 364  1514.095
 365  1623.693
 366  1574.568
 367  1393.551
 368  1301.036
 369  1222.99
 370  1274.292
 371  1306.087
 372  1339.034
 373  1353.673
 374  1433.621
 375  1443.781
 376  1481.729
 377  1444.371
 378  1398.202
 379  1439.299
 380  1450.385
 381  1383.444
 382  1260.094
 383  1253.194
 384  1465.85
 385  1526.22
 386  1542.129
 387  1449.959
 388  1341.629
 389  1229.805
 390  1179.711
 391  1264.821
 392  1312.624
 393  1353.406
 394  1272.984
 395  1430.108
 396  1486.573
 397  1538.99
 398  1468.422
 399  1515.252
 400  1486.302
 401  1317.146
 402  1160.048
 403  1262.501
 404  1321.136
 405  1273.684
 406  1239.963
 407  1279.162
 408  1380.002
 409  1301.731
 410  1390.171
 411  1444.792
 412  1502.998
 413  1553.296
 414  1555.687
 415  1431.475
 416  1305.395
 417  1253.634
 418  1293.357
 419  1251.182
 420  1268.417
 421  1267.948
 422  1046.619
 423  1098.928
 424  1126.497
 425  1209.03
 426  1119.12
 427  1095.453
 428  1184.366
 429  1270.654
 430  1304.666
 431  1312.007
 432  1436.698
 433  1386.912
 434  1276.56
 435  1246.936
 436  1297.661
 437  1309.573
 438  1341.56
 439  1260.701
 440  1261.645
 441  1160.625
 442  1257.523
 443  1263.98
 444  1323.154
 445  1282.695
 446  1233.611
 447  1250.579
 448  1366.979
 449  1511.929
 450  1402.808
 451  1261.855
 452  1098.49
 453  1090.953
 454  1168.582
 455  1094.991
 456  1128.364
 457  1169.351
 458  1273.158
 459  1339.762
 460  1390.464
 461  1456.616
 462  1558.663
 463  1506.835
 464  1443.519
 465  1226.437
 466  1174.075
 467  1202.977
 468  1254.509
 469  1106.979
 470  1039.723
 471  1004.533
 472  1050.948
 473  1098.09
 474  1138.772
 475  1212.849
 476  1272.791
 477  1271.381
 478  1225.347
 479  1241.312
 480  1288.364
 481  1131.783
 482  1098.135
 483  1025.996
 484  1015.388
 485  977.6262
 486  995.4086
 487  1002.459
 488  1089.728
 489  1233.562
 490  1283.104
 491  1287.572
 492  1165.01
 493  1252.142
 494  1295.479
 495  1305.391
 496  1243.967
 497  1237.355
 498  1251.984
 499  1284.981
 500  1252.593
 501  1221.728
 502  1229.493
 503  1169.763
 504  1106.247
 505  1134.691
 506  1190.784
 507  1295.542
 508  1234.809
 509  1269.307
 510  1261.263
 511  1274.623
 512  1209.179
 513  1186.596
 514  1064.308
 515  1031.726
 516  944.4955
 517  1067.82
 518  1105.588
 519  1230.811
 520  1323.989
 521  1373.999
 522  1211.52
 523  1210.151
 524  1306.433
 525  1345.325
 526  1309.283
 527  1334.981
 528  1271.222
 529  1170.134
 530  1082.403
 531  1252.584
 532  1271.901
 533  1254.762
 534  1204.343
 535  1205.605
 536  1152.355
 537  1200.151
 538  1255.938
 539  1449.048
 540  1432.307
 541  1322.147
 542  1210.651
 543  1235.009
 544  1299.573
 545  1408.682
 546  1406.467
 547  1437.109
 548  1469.681
 549  1451.869
 550  1234.303
 551  1085.633
 552  1133.193
 553  1293.708
 554  1384.045
 555  1478.671
 556  1351.974
 557  1272.521
 558  1130.315
 559  1207.295
 560  1320.274
 561  1313.095
 562  1379.153
 563  1447.745
 564  1492.571
 565  1336.927
 566  1362.443
 567  1504.225
 568  1486.627
 569  1370.93
 570  1353.879
 571  1275.494
 572  1245.002
 573  1193.205
 574  1399.935
 575  1401.846
 576  1472.974
 577  1484.532
 578  1579.058
 579  1454.857
 580  1396.165
 581  1375.817
 582  1422.828
 583  1383.363
 584  1385.706
 585  1281.234
 586  1257.685
 587  1217.025
 588  1352.834
 589  1414.321
 590  1456.177
 591  1436.043
 592  1474.67
 593  1501.074
 594  1576.173
 595  1583.033
 596  1543.558
 597  1413.049
 598  1440.703
 599  1490.768
 600  1433.866
 601  1423.749
 602  1338.797
 603  1300.996
 604  1203.938
 605  1197.24
 606  1365.461
 607  1475.159
 608  1526.977
 609  1454.645
 610  1553.677
 611  1614.528
 612  1633.834
 613  1514.998
 614  1471.834
 615  1418.289
 616  1361.91
 617  1423.813
 618  1502.442
 619  1599.362
 620  1654.95
 621  1633.914
 622  1719.978
 623  1769.172
 624  1738.28
 625  1655.846
 626  1614.423
 627  1547.242
 628  1520.9
 629  1336.807
 630  1182.955
 631  1072.067
 632  1161.037
 633  1273.611
 634  1381.085
 635  1398.239
 636  1312.321
 637  1289.994
 638  1422.908
 639  1412.242
 640  1344.892
 641  1298.323
 642  1368.869
 643  1411.899
 644  1330.541
 645  1322.448
 646  1384.943
 647  1429.629
 648  1321.676
 649  1150.598
 650  1113.756
 651  1152.404
 652  1175.669
 653  1209.893
 654  1196.961
 655  1150.54
 656  1213.879
 657  1188.85
 658  1227.572
 659  1286.319
 660  1327.324
 661  1356.588
 662  1370.497
 663  1196.945
 664  1007.453
 665  980.197
 666  1031.756
 667  1125.457
 668  1111.565
 669  1244.874
 670  1357.714
 671  1500.75
 672  1434.892
 673  1287.894
 674  1066.219
 675  1005.311
 676  1042.33
 677  1262.793
 678  1363.628
 679  1347.416
 680  1236.253
 681  1148.75
 682  1108.095
 683  1090.307
 684  1144.407
 685  1164.224
 686  1291.514
 687  1222.453
 688  1283.807
 689  1398.436
 690  1404.198
 691  1263.524
 692  1226.618
 693  1238.992
 694  1170.174
 695  1114.806
 696  1154.981
 697  1343.576
 698  1395.58
 699  1352.823
 700  1295.218
 701  1280.477
 702  1101.062
 703  1186.624
 704  1243.344
 705  1409.785
 706  1217.875
 707  1158.406
 708  1182.68
 709  1271.052
 710  1350.739
 711  1301.349
 712  1234.677
 713  1027.479
 714  1121.531
 715  1186.36
 716  1338.885
 717  1208.226
 718  1157.708
 719  980.7575
 720  1038.431
 721  1139.408
 722  1230.787
 723  1127.641
 724  1216.755
 725  1317.446
 726  1308.145
 727  1136.675
 728  980.5529
 729  1055.472
 730  1205.057
 731  1331.089
 732  1331.583
 733  1287.793
 734  1150.598
 735  1076.821
 736  1058.885
 737  1120.527
 738  1192.092
 739  1250.678
 740  1356.429
 741  1295.202
 742  1173.46
 743  1169.4
 744  1199.505
 745  1099.856
 746  951.9777
 747  853.3533
 748  943.0263
 749  981.0292
 750  1023.738
 751  1041.043
 752  1109.67
 753  1153.402
 754  1156.65
 755  1084.131
 756  1067.466
 757  1147.184
 758  1260.282
 759  1256.357
 760  1347.62
 761  1235.123
 762  1241.499
 763  1218.245
 764  1275.683
 765  1338.189
 766  1302.313
 767  1297.851
 768  1310.861
 769  1383.64
 770  1462.536
 771  1457.629
 772  1413.749
 773  1384.359
 774  1429.85
 775  1381.844
 776  1457.68
 777  1432.851
 778  1418.755
 779  1303.33
 780  1281.066
 781  1300.257
 782  1237.854
 783  1157.809
 784  1201.744
 785  1224.406
 786  1341.558
 787  1416.877
 788  1398.254
 789  1316.25
 790  1267.452
 791  1301.947
 792  1224.614
 793  1211.301
 794  1181.615
 795  1138.453
 796  1111.917
 797  1018.751
 798  1068.873
 799  1058.932
 800  1156.382
 801  1086.733
 802  972.281
 803  907.3115
 804  822.8757
 805  953.0438
 806  1099.948
 807  1204.661
 808  1240.893
 809  1208.572
 810  1162.57
 811  977.3823
 812  900.1306
 813  867.6212
 814  1030.465
 815  1007.813
 816  1093.135
 817  1197.467
 818  1311.626
 819  1255.581
 820  1277.186
 821  1310.772
 822  1315.161
 823  1086.195
 824  1037.238
 825  1159.675
 826  1205.311
 827  1237.694
 828  1337.233
 829  1353.733
 830  1308.801
 831  1210.981
 832  1276.089
 833  1341.807
 834  1335.18
 835  1294.168
 836  1202.418
 837  1162.719
 838  1064.347
 839  945.0805
 840  828.907
 841  910.2542
 842  1045.237
 843  1071.134
 844  1154.069
 845  1215.37
 846  1303.252
 847  1124.35
 848  957.6841
 849  1156.948
 850  1183.821
 851  1226.937
 852  1029.306
 853  1038.121
 854  968.8661
 855  932.4111
 856  895.6285
 857  921.1265
 858  1036.989
 859  1006.968
 860  1082.39
 861  991.0486
 862  943.5239
 863  981.0909
 864  1087.786
 865  1131.135
 866  1111.837
 867  1136.294
 868  1149.861
 869  1039.844
 870  955.6521
 871  800.8816
 872  838.4524
 873  898.7504
 874  1010.114
 875  1069.345
 876  1118.861
 877  1089.54
 878  1029.567
 879  1102.111
 880  1065.125
 881  1085.169
 882  1078.202
 883  975.6252
 884  875.6625
 885  856.2514
 886  974.3275
 887  1004.265
 888  991.2273
 889  803.2643
 890  827.3133
 891  851.8751
 892  1106.076
 893  1120.952
 894  1162.738
 895  1142.279
 896  1208.675
 897  1172.639
 898  1134.581
 899  1176.058
 900  1186.629
 901  1193.614
 902  1152.973
 903  1109.44
 904  1234.552
 905  1298.783
 906  1477.286
 907  1442.706
 908  1461.489
 909  1375.415
 910  1263.98
 911  1269.893
 912  1299.638
 913  1352.469
 914  1286.702
 915  1263.706
 916  1161.428
 917  1312.508
 918  1336.228
 919  1422.351
 920  1356.918
 921  1353.483
 922  1335.762
 923  1359.406
 924  1309.979
 925  1208.631
 926  1114.374
 927  1062.604
 928  960.7111
 929  1032.724
 930  992.2175
 931  1044.455
 932  1195.858
 933  1269.721
 934  1424.19
 935  1453.071
 936  1475.002
 937  1400.125
 938  1256.024
 939  1190.452
 940  1106.129
 941  1117.955
 942  1257.052
 943  1281.26
 944  1264.377
 945  1184.99
 946  1217.058
 947  1355.56
 948  1467.882
 949  1461.867
 950  1385.729
 951  1331.886
 952  1224.51
 953  1202.424
 954  1166.106
 955  1208.751
 956  1301.677
 957  1346.649
 958  1308.827
 959  1221.001
 960  1276.084
 961  1368.697
 962  1307.911
 963  1287.727
 964  1243.036
 965  1325.514
 966  1372.436
 967  1346.22
 968  1320.322
 969  1314.175
 970  1353.992
 971  1162.93
 972  1089.916
 973  1014.894
 974  1146.138
 975  1097.327
 976  1081.517
 977  1092.586
 978  1166.116
 979  1207.044
 980  1157.297
 981  1199.192
 982  1362.406
 983  1418.725
 984  1416.562
 985  1359.104
 986  1293.112
 987  1310.945
 988  1340.362
 989  1392.702
 990  1558.073
 991  1557.272
 992  1423.596
 993  1295.64
 994  1346.191
 995  1328.373
 996  1292.318
 997  1215.962
 998  1215.276
 999  1126.619
1000  1152.744
1001  1244.307
1002  1263.744
1003  1180.04
1004  1133.181
1005  1137.704
1006  974.9016
1007  955.5778
1008  956.9005
1009  1072.642
1010  1222.403
1011  1292.012
1012  1357.356
1013  1288.948
1014  1237.985
1015  1262.564
1016  1125.194
1017  1139.038
1018  1077.878
1019  1113.739
1020  1047.693
1021  1051.192
1022  952.9904
1023  1000.22
