# Input file       =  1198101969.101099_cleaned.dat
# Candidate        =  PSR_0332+5434
# Telescope        =  AR
# Epoch_topo       =  58110.921158577534
# Epoch_bary       =  N/A
# T_sample         =  0.002
# Data Folded      =  7340032
# Data Avg         =  0.289311305998127
# Data StdDev      =  5.44963198306823 
# Profile Bins     =  1024
# Profile Avg      =  2073.73401673812 
# Profile StdDev   =  461.387870848713 
# Reduced chi-sqr  =  0.572
# Prob(Noise)      <  1   (~0.0 sigma)
# P_topo (ms)      =  714.548908878011  +/- 5.07e-05
# P'_topo (s/s)    =  -0                +/- 2.67e-11
# P''_topo (s/s^2) =  0                 +/- 1.18e-14
# P_bary (ms)      =  N/A
# P'_bary (s/s)    =  N/A
# P''_bary (s/s^2) =  N/A
# P_orb (s)        =  N/A
# asin(i)/c (s)    =  N/A
# eccentricity     =  N/A
# w (rad)          =  N/A
# T_peri           =  N/A
######################################################
   0  2059.338
   1  1987.656
   2  1945.804
   3  2146.014
   4  2222.402
   5  2235.807
   6  2006.134
   7  2005.444
   8  2090.767
   9  2082.679
  10  2093.295
  11  2132.385
  12  2146.105
  13  2163.614
  14  2141.97
  15  2140.643
  16  2231.919
  17  2216.031
  18  2163.291
  19  2008.448
  20  1973.646
  21  2116.033
  22  2269.844
  23  2123.941
  24  2099.969
  25  2026.755
  26  1916.058
  27  1787.88
  28  1771.375
  29  1977.888
  30  2181.132
  31  2163.346
  32  2092.466
  33  1865.193
  34  1721.655
  35  1698.512
  36  1806.182
  37  1813.432
  38  1923.246
  39  1941.358
  40  1807.947
  41  1625.938
  42  1582.598
  43  1803.712
  44  1830.019
  45  1791.861
  46  1783.353
  47  1716.034
  48  1829.359
  49  1798.989
  50  1852.69
  51  1909.721
  52  1889.343
  53  1894.514
  54  1904.088
  55  1787.092
  56  1681.574
  57  1735.438
  58  1871.19
  59  2033.525
  60  2057.491
  61  2055.418
  62  2091.634
  63  2096.066
  64  2232.62
  65  2199.75
  66  2033.235
  67  2146.113
  68  2151.199
  69  2279.337
  70  2196.324
  71  2228.315
  72  2250.592
  73  2207.647
  74  2047.181
  75  2118.987
  76  2100.889
  77  2073.025
  78  1944.046
  79  2018.61
  80  2118.585
  81  2140.75
  82  2156.335
  83  2108.743
  84  2087.512
  85  2093.763
  86  2194.949
  87  2147.105
  88  2079.69
  89  2248.753
  90  2352.49
  91  2328.831
  92  2081.524
  93  1997.704
  94  2021.724
  95  2033.061
  96  2202.393
  97  2248.857
  98  2034.168
  99  2048.305
 100  2101.613
 101  2215.505
 102  2173.521
 103  2109.261
 104  2143.556
 105  1912.659
 106  1838.086
 107  1744.764
 108  1999.745
 109  2106.664
 110  2120.321
 111  2078.377
 112  2012.329
 113  2072.579
 114  2131.9
 115  2166.816
 116  2215.192
 117  2099.445
 118  2259.446
 119  2184.09
 120  2149.925
 121  2109.534
 122  2043.04
 123  2157.011
 124  2460.93
 125  2502.559
 126  2421.305
 127  2137.817
 128  2220.076
 129  2451.874
 130  2505.431
 131  2197.689
 132  2160.85
 133  2058.649
 134  2143.204
 135  2013.536
 136  2093.113
 137  2265.679
 138  2217.57
 139  2330.015
 140  2436.032
 141  2255.8
 142  2152.772
 143  2147.156
 144  2383.879
 145  2518.33
 146  2405.164
 147  2356.589
 148  2159.973
 149  2102.149
 150  2245.28
 151  2540.484
 152  2422.504
 153  2303.542
 154  2052.752
 155  2070.604
 156  2030.377
 157  2096.687
 158  2259.727
 159  2286.797
 160  2207.354
 161  2161.038
 162  2163.359
 163  2286.296
 164  2212.204
 165  2276.281
 166  2372.36
 167  2335.212
 168  2157.058
 169  2031.176
 170  1979.473
 171  2091.318
 172  2189.08
 173  2235.728
 174  2146.618
 175  2065.62
 176  1952.807
 177  1971.807
 178  1885.425
 179  1886.395
 180  2025.979
 181  2106.874
 182  2093.152
 183  1921.781
 184  1741.14
 185  1796.807
 186  1764.176
 187  1897.759
 188  1913.575
 189  2077.595
 190  2157.907
 191  2173.552
 192  1968.307
 193  1886.131
 194  1962.481
 195  2013.093
 196  2141.338
 197  2062.753
 198  2068.096
 199  1954.304
 200  1800.532
 201  1677.416
 202  1763.907
 203  1980.051
 204  2244.317
 205  2243.592
 206  2096.327
 207  2188.929
 208  2211.955
 209  2263.66
 210  2285.184
 211  2256.234
 212  2077.09
 213  1855.972
 214  1859.658
 215  2142.897
 216  2159.031
 217  2160.663
 218  2079.134
 219  2114.247
 220  2140.258
 221  2019.9
 222  1909.131
 223  2165.202
 224  2157.155
 225  2173.179
 226  2063.667
 227  1998.111
 228  1977.41
 229  2076.046
 230  2261.409
 231  2324.332
 232  2257.426
 233  2206.901
 234  2106.687
 235  1991.599
 236  1872.725
 237  1820.132
 238  1712.47
 239  1960.747
 240  1830.601
 241  1763.557
 242  1610.509
 243  1830.366
 244  2154.641
 245  2358.671
 246  2263.696
 247  2205.274
 248  1913.136
 249  1795.501
 250  1824.991
 251  1942.712
 252  2005.265
 253  2009.089
 254  1960.875
 255  1887.683
 256  1634.834
 257  1719.175
 258  1964.113
 259  2100.73
 260  2126.469
 261  2102.473
 262  2020.841
 263  1904.636
 264  1804.214
 265  1990.493
 266  2128.933
 267  2083.581
 268  2113.52
 269  2015.824
 270  1980.303
 271  2004.086
 272  2089.806
 273  2109.371
 274  2136.977
 275  2135.736
 276  2101.425
 277  2011.375
 278  1942.113
 279  2006.365
 280  2117.009
 281  2118.501
 282  2180.779
 283  2113.497
 284  1976.69
 285  1893.605
 286  1951.722
 287  2050.158
 288  2070.363
 289  1879.392
 290  2114.52
 291  1955.965
 292  2030.233
 293  2021.975
 294  2095.301
 295  2080.544
 296  1993.718
 297  1955.411
 298  1983.261
 299  1950.417
 300  2067.604
 301  2134.011
 302  2166.978
 303  2181.376
 304  2139.856
 305  1978.595
 306  1893.308
 307  1935.876
 308  2116.693
 309  2277.006
 310  2264.5
 311  2216.664
 312  2346.772
 313  2302.549
 314  2255.022
 315  2116.418
 316  2064.019
 317  2036.858
 318  1864.047
 319  1881.611
 320  1870.158
 321  1850.472
 322  1933.598
 323  2063.279
 324  2003.371
 325  2000.72
 326  1936.109
 327  2072.63
 328  2128.687
 329  2097.672
 330  2213.575
 331  2226.28
 332  2167.076
 333  2145.354
 334  2010.716
 335  1980.521
 336  1827.931
 337  1886.997
 338  1838.919
 339  2012.359
 340  2144.176
 341  2191.789
 342  1904.167
 343  1743.141
 344  1697.215
 345  1771.875
 346  1874.541
 347  2093.755
 348  2088.887
 349  2043.867
 350  2114.161
 351  2124.578
 352  2089.214
 353  2062.199
 354  2171.959
 355  2144.028
 356  2113.1
 357  2215.944
 358  2339.984
 359  2172.433
 360  1989.961
 361  1941.589
 362  1951.005
 363  1833.811
 364  1682.487
 365  1771.711
 366  2004.346
 367  2198.803
 368  2382.803
 369  2299.787
 370  2214.296
 371  1975.155
 372  1891.13
 373  1860.865
 374  2019.722
 375  1929.364
 376  2014.946
 377  1907.392
 378  1920.291
 379  1781.3
 380  1732.898
 381  1685.777
 382  1799.175
 383  1825.623
 384  1853.858
 385  1870.31
 386  1824.439
 387  1961.42
 388  2048.743
 389  2066.709
 390  2065.925
 391  1917.979
 392  1936.673
 393  1991.969
 394  2066.41
 395  2172.888
 396  2047.533
 397  2044.87
 398  2063.261
 399  2043.65
 400  2206.909
 401  2079.628
 402  1848.354
 403  1781.874
 404  1837.229
 405  2093.801
 406  2086.007
 407  2061.546
 408  1948.633
 409  1949.92
 410  2045.08
 411  2196.145
 412  2173.191
 413  1992.541
 414  1840.336
 415  1878.087
 416  2033.437
 417  2056.558
 418  1837.01
 419  1861.626
 420  1733.042
 421  1736.821
 422  1813.426
 423  1893.679
 424  2013.839
 425  2071.287
 426  2088.934
 427  2088.923
 428  1988.658
 429  2030.024
 430  1918.591
 431  1952.322
 432  2037.769
 433  2206.202
 434  2177.161
 435  2283.852
 436  2385.512
 437  2374.094
 438  2160.791
 439  1993.551
 440  2001.921
 441  2148.445
 442  2130.389
 443  2216.172
 444  2159.044
 445  2190.731
 446  2257.502
 447  2274.558
 448  2167.02
 449  2133.401
 450  2045.438
 451  2047.902
 452  2072.521
 453  2041.767
 454  2243.629
 455  2285.57
 456  2296.904
 457  2137.075
 458  2007.02
 459  1879.444
 460  1928.786
 461  2057.223
 462  2235.116
 463  2173.838
 464  2104.853
 465  2079.98
 466  2094.312
 467  2204.975
 468  2192.958
 469  2133.032
 470  2157.354
 471  2153.569
 472  2173.201
 473  2070.916
 474  1981.626
 475  1919.665
 476  1995.312
 477  1992.423
 478  1916.164
 479  1956.806
 480  2035.331
 481  2251.436
 482  2273.167
 483  2190.545
 484  2091.417
 485  2035.574
 486  2004.309
 487  2016.95
 488  1827.872
 489  1792.907
 490  1903.558
 491  2137.635
 492  2172.594
 493  2048.127
 494  2151.945
 495  2218.985
 496  2118.461
 497  2146.758
 498  2121.699
 499  1978.13
 500  1889.721
 501  1971.771
 502  2084.917
 503  2026.362
 504  1777.409
 505  1820.441
 506  1713.061
 507  1648.174
 508  1725.11
 509  1776.47
 510  2001.08
 511  2100.038
 512  2199.947
 513  1996.791
 514  1824.178
 515  1857.465
 516  2003.189
 517  2043.383
 518  2041.665
 519  2136.224
 520  2094.335
 521  1985.062
 522  1934.543
 523  1986.049
 524  2112.494
 525  2064.417
 526  2075.31
 527  2038.243
 528  1932.263
 529  1913.752
 530  2071.165
 531  2121.942
 532  2030.878
 533  2029.929
 534  1992.282
 535  2001.441
 536  1929.912
 537  1923.861
 538  1992.182
 539  1947.336
 540  2036.168
 541  1989.559
 542  1895.338
 543  1967.299
 544  1957.125
 545  2008.083
 546  2017.13
 547  1844.391
 548  1757.864
 549  1709.598
 550  1822.988
 551  1919.098
 552  2052.623
 553  2106.626
 554  2208.026
 555  2245.475
 556  2243.742
 557  2078.206
 558  2111.126
 559  2135.985
 560  2205.849
 561  2186.013
 562  2239.022
 563  2131.782
 564  2126.62
 565  2179.448
 566  2036.484
 567  2172.583
 568  2146.274
 569  2308.271
 570  2200.238
 571  2047.663
 572  2001.532
 573  2089.071
 574  2146.288
 575  2250.665
 576  2229.771
 577  2321.013
 578  2193.338
 579  2272.246
 580  2392.174
 581  2439.34
 582  2456.505
 583  2490.369
 584  2388.827
 585  2141.422
 586  2000.435
 587  2014.553
 588  2270.5
 589  2520.914
 590  2592.509
 591  2552.832
 592  2304.776
 593  2200.337
 594  2148.812
 595  2215.679
 596  2175.503
 597  2248.854
 598  2243.654
 599  2287.848
 600  2178.691
 601  2035.871
 602  1970.803
 603  1919.397
 604  2017.915
 605  2162.158
 606  2147.224
 607  2091.108
 608  1974.887
 609  2021.661
 610  2107.471
 611  2080.64
 612  2127.562
 613  2358.969
 614  2519.261
 615  2688.812
 616  2611.638
 617  2636.59
 618  2771.402
 619  2716.02
 620  2616.891
 621  2550.471
 622  2696.481
 623  2982.346
 624  3081.888
 625  2836.771
 626  2767.4
 627  2550.441
 628  2639.716
 629  2525.637
 630  2522.813
 631  2431.636
 632  2307.294
 633  2283.42
 634  2337.521
 635  2191.131
 636  2142.564
 637  2105.732
 638  2099.863
 639  2029.436
 640  1919.863
 641  1925.559
 642  2058.038
 643  2110.618
 644  2160.832
 645  2235.289
 646  2264.058
 647  2248.847
 648  2290.749
 649  2327.054
 650  2241.262
 651  2130.073
 652  2042.984
 653  2132.036
 654  2032.954
 655  2099.139
 656  2130.782
 657  2014.475
 658  1970.624
 659  2038.475
 660  2238.393
 661  2387.268
 662  2429.794
 663  2453.745
 664  2351.206
 665  2192.329
 666  2186.714
 667  2146.873
 668  2061.344
 669  2259.627
 670  2347.479
 671  2302.822
 672  2159.949
 673  2198.411
 674  2307.899
 675  2346.404
 676  2342.764
 677  2478.071
 678  2335.445
 679  2277.7
 680  2177.546
 681  2050.935
 682  2007.145
 683  2203.245
 684  2366.542
 685  2395.192
 686  2056.681
 687  2005.01
 688  2016.181
 689  2071.342
 690  2028.333
 691  2158.551
 692  2129.988
 693  2178.122
 694  2220.045
 695  2239.609
 696  2195.185
 697  2061.356
 698  2333.832
 699  2388.229
 700  2293.022
 701  2092.504
 702  2021.157
 703  1994.996
 704  2062.259
 705  2192.202
 706  2340.565
 707  2163.639
 708  2176.68
 709  2163.682
 710  2391.753
 711  2341.601
 712  2371.712
 713  2322.715
 714  2163.532
 715  1985.145
 716  1967.758
 717  2192.251
 718  2381.093
 719  2214.232
 720  2229.366
 721  2139.187
 722  2196.265
 723  2160.413
 724  2237.388
 725  2313.905
 726  2431.104
 727  2333.581
 728  2229.883
 729  1910.339
 730  1828.937
 731  2077.042
 732  2287.797
 733  2337.683
 734  2188.413
 735  2213.449
 736  2259.054
 737  2237.28
 738  2124.448
 739  2220.474
 740  2169.037
 741  2317.987
 742  2332.842
 743  2364.747
 744  2125.365
 745  2279.198
 746  2243.945
 747  2420.44
 748  2109.472
 749  2152.058
 750  2041.317
 751  2054.5
 752  2173.867
 753  2302.763
 754  2396.888
 755  2468.548
 756  2412.706
 757  2321.632
 758  2116.568
 759  2039.932
 760  2160.711
 761  2412.509
 762  2282.471
 763  2088.912
 764  1831.231
 765  1886.44
 766  1927.967
 767  1960.817
 768  2121.294
 769  2200.605
 770  2170.565
 771  2127.366
 772  2033.365
 773  2132.625
 774  2128.535
 775  2067.965
 776  1896.31
 777  1827.367
 778  1785.995
 779  1824.83
 780  1858.076
 781  1841.721
 782  1854.739
 783  1809.258
 784  1785.464
 785  1780.846
 786  1592.807
 787  1729.418
 788  1769.851
 789  1956.396
 790  2029.229
 791  2050.26
 792  1975.158
 793  1644.87
 794  1457.962
 795  1465.007
 796  1874.087
 797  2029.379
 798  2137.308
 799  2049.352
 800  2068.475
 801  1904.398
 802  1769.72
 803  1937.371
 804  2197.291
 805  2235.489
 806  2190.85
 807  1844.119
 808  1785.251
 809  1899.715
 810  2036.688
 811  1886.031
 812  1881.464
 813  1849.884
 814  1959.994
 815  1922.26
 816  2005.06
 817  2079.16
 818  2168.328
 819  2174.95
 820  2146.159
 821  1963.737
 822  1961.358
 823  2008.23
 824  2246.268
 825  2267.529
 826  2111.7
 827  2050.24
 828  2023.981
 829  1971.691
 830  2018.947
 831  2106.939
 832  2078.997
 833  2068.17
 834  2138.982
 835  2215.412
 836  2208.072
 837  2036.413
 838  2100.303
 839  2089.093
 840  2053.381
 841  2048.303
 842  2043.27
 843  1876.493
 844  1880.013
 845  1942.47
 846  2215.315
 847  2170.835
 848  2087.023
 849  2026.834
 850  1915.455
 851  2049.755
 852  1978.648
 853  2030.176
 854  1934.509
 855  2053.643
 856  1932.258
 857  1859.971
 858  1778.643
 859  1704.624
 860  1882.679
 861  1979.1
 862  2278.735
 863  2346.128
 864  2229.29
 865  2186.242
 866  2258.188
 867  2306.813
 868  2374.115
 869  2224.404
 870  2234.408
 871  2091.164
 872  1995.482
 873  1964.868
 874  2113.03
 875  2113.21
 876  2095.203
 877  2056.574
 878  2201.369
 879  2080.428
 880  2000.796
 881  2049.807
 882  2202.67
 883  2269.794
 884  2368.718
 885  2263.274
 886  2103.76
 887  2018.615
 888  2007.974
 889  2083.564
 890  2062.86
 891  2069.974
 892  1954.351
 893  1834.05
 894  1747.173
 895  1997.638
 896  2047.389
 897  1939.125
 898  1861.14
 899  1870.588
 900  2097.435
 901  1976.556
 902  1972.034
 903  2110.449
 904  2093.379
 905  2128.638
 906  2044.135
 907  2024.944
 908  2006.598
 909  2027.086
 910  2117.829
 911  2305.457
 912  2260.33
 913  2272.196
 914  2010.444
 915  1851.388
 916  1811.15
 917  1919.321
 918  2027.829
 919  2093.805
 920  1912.728
 921  1898.454
 922  1869.123
 923  1998.645
 924  2051.624
 925  2056.064
 926  1853.911
 927  1837.427
 928  1906.797
 929  2036.948
 930  1993.592
 931  1778.331
 932  1763.097
 933  1947.807
 934  2012.968
 935  1943.027
 936  1881.613
 937  1909.112
 938  1804.228
 939  1716.113
 940  1772.496
 941  1922.657
 942  1901.998
 943  1950.535
 944  1948.594
 945  1976.942
 946  1999.917
 947  1854.858
 948  1748.905
 949  1807.245
 950  1798.416
 951  1717.232
 952  1633.344
 953  1620.023
 954  1567.562
 955  1489.977
 956  1717.633
 957  1737.333
 958  1776.573
 959  1781.736
 960  1995.395
 961  2153.627
 962  2204.673
 963  2139.998
 964  1863.453
 965  1672.763
 966  1723.111
 967  1794.035
 968  1910.714
 969  1931.422
 970  1975.909
 971  1976.238
 972  1803.839
 973  1734.565
 974  1736.686
 975  1865.266
 976  1862.983
 977  1871.006
 978  1939.13
 979  1887.341
 980  1809.165
 981  2021.4
 982  2049.801
 983  1979.467
 984  1900.542
 985  1878.135
 986  1975.376
 987  1986.679
 988  1915.123
 989  2025.133
 990  1994.862
 991  2043.917
 992  1989.437
 993  1885.751
 994  2030.878
 995  2170.128
 996  2361.379
 997  2387.003
 998  2298.895
 999  2196.359
1000  1946.395
1001  1831.094
1002  1896.677
1003  2057.736
1004  2096.413
1005  2233.636
1006  2256.969
1007  2360.497
1008  2313.798
1009  2284.427
1010  2148.878
1011  2121.297
1012  1970.417
1013  2087.386
1014  1925.861
1015  1972.571
1016  2063.59
1017  2146.958
1018  2198.536
1019  2219.969
1020  2315.297
1021  2402.824
1022  2256.273
1023  2210.955
