# Input file       =  1198518415.115674_cleaned.dat
# Candidate        =  PSR_0332+5434
# Telescope        =  AR
# Epoch_topo       =  58115.741135598080
# Epoch_bary       =  N/A
# T_sample         =  0.002
# Data Folded      =  7340032
# Data Avg         =  0.148627075895742
# Data StdDev      =  4.1447782024769  
# Profile Bins     =  1024
# Profile Avg      =  1065.3294020886  
# Profile StdDev   =  350.913675624806 
# Reduced chi-sqr  =  0.651
# Prob(Noise)      <  1   (~0.0 sigma)
# P_topo (ms)      =  714.552952846422  +/- 0.00137
# P'_topo (s/s)    =  -0                +/- 7.23e-10
# P''_topo (s/s^2) =  0                 +/- 3.19e-13
# P_bary (ms)      =  N/A
# P'_bary (s/s)    =  N/A
# P''_bary (s/s^2) =  N/A
# P_orb (s)        =  N/A
# asin(i)/c (s)    =  N/A
# eccentricity     =  N/A
# w (rad)          =  N/A
# T_peri           =  N/A
######################################################
   0  972.7619
   1  1007.461
   2  994.203
   3  1103.368
   4  1114.146
   5  1110.13
   6  1172.748
   7  1133.209
   8  1104.288
   9  996.3612
  10  954.6682
  11  1097.527
  12  1234.245
  13  1202.849
  14  1073.212
  15  869.9401
  16  912.0723
  17  974.2428
  18  1099.71
  19  1246.554
  20  1442.557
  21  1412.936
  22  1238.956
  23  1143.331
  24  1245.396
  25  1327.767
  26  1302.928
  27  1283.885
  28  1255.68
  29  1187.132
  30  1083.57
  31  1082.132
  32  1136.669
  33  1098.234
  34  1168.951
  35  1067.887
  36  1034.921
  37  961.4883
  38  1052.706
  39  1119.731
  40  1095.379
  41  1144.354
  42  1119.303
  43  960.25
  44  872.645
  45  897.4807
  46  970.5279
  47  906.4952
  48  830.8497
  49  979.6913
  50  1079.648
  51  1134.488
  52  1122.562
  53  1101.095
  54  1071.431
  55  966.8946
  56  855.097
  57  874.4341
  58  838.8962
  59  909.8439
  60  874.6438
  61  922.2299
  62  896.1575
  63  863.0577
  64  891.6521
  65  1071.539
  66  1120.936
  67  1198.605
  68  1170.208
  69  1222.484
  70  1059.237
  71  975.17
  72  1031.493
  73  1079.193
  74  1029.21
  75  970.2743
  76  1045.065
  77  1085.692
  78  1093.246
  79  1150.043
  80  1134.575
  81  1105.96
  82  1056.706
  83  1134.812
  84  1231.848
  85  1240.227
  86  1198.421
  87  1024.057
  88  991.7639
  89  1031.164
  90  1098.1
  91  1012.567
  92  981.5208
  93  965.855
  94  1005.964
  95  976.7189
  96  937.9186
  97  958.137
  98  1074.373
  99  1314.705
 100  1363.874
 101  1218.307
 102  1123.541
 103  1070.599
 104  1000.811
 105  953.7808
 106  1016.876
 107  1129.512
 108  1066.128
 109  1029.852
 110  939.8348
 111  1064.748
 112  1194.973
 113  1248.983
 114  1059.645
 115  942.2336
 116  862.668
 117  960.0938
 118  907.0306
 119  997.1611
 120  947.798
 121  1066.045
 122  1008.949
 123  952.8875
 124  912.3306
 125  1040.577
 126  985.1995
 127  979.0865
 128  929.858
 129  964.7833
 130  903.8788
 131  888.629
 132  819.9929
 133  966.3239
 134  1007.239
 135  1062.658
 136  973.4694
 137  953.9008
 138  1004.591
 139  961.7608
 140  866.7592
 141  831.7886
 142  929.3906
 143  979.7125
 144  1048.343
 145  966.1763
 146  966.5843
 147  974.3055
 148  1027.406
 149  1139.789
 150  1102.447
 151  1019.048
 152  994.1688
 153  1032.656
 154  1038.512
 155  1066.999
 156  991.3644
 157  932.7808
 158  777.4442
 159  746.0417
 160  836.2665
 161  912.0479
 162  981.2468
 163  1014.998
 164  1033.081
 165  887.8701
 166  881.2957
 167  889.5886
 168  994.7145
 169  1028.436
 170  1092.82
 171  1041.125
 172  939.6719
 173  920.7087
 174  952.4561
 175  1004.669
 176  976.1537
 177  927.8104
 178  918.8846
 179  910.5254
 180  961.555
 181  946.1862
 182  959.8477
 183  952.326
 184  884.7388
 185  1004.29
 186  1049.611
 187  964.7911
 188  831.0715
 189  820.4047
 190  961.2564
 191  1072.843
 192  1044.516
 193  946.8154
 194  1024.283
 195  1136.972
 196  1198.524
 197  1007.114
 198  1067.543
 199  1162.464
 200  1188.16
 201  1072.69
 202  1005.255
 203  1012.509
 204  1023.834
 205  1045.467
 206  987.7181
 207  952.2779
 208  918.3939
 209  982.4705
 210  1020.038
 211  1038.394
 212  954.4925
 213  886.0378
 214  787.6689
 215  943.3746
 216  993.8957
 217  936.8777
 218  885.6193
 219  977.1988
 220  917.997
 221  864.9737
 222  868.4005
 223  956.8541
 224  924.4191
 225  824.2576
 226  821.5904
 227  795.1414
 228  868.6328
 229  915.7317
 230  995.1485
 231  949.1394
 232  947.2131
 233  938.7424
 234  936.9408
 235  904.5215
 236  994.5121
 237  1021.944
 238  1013.977
 239  966.9653
 240  1003.366
 241  975.7352
 242  978.0134
 243  995.8721
 244  1020.017
 245  947.3339
 246  908.0605
 247  1014.375
 248  1099.716
 249  1143.483
 250  1049.265
 251  1014.936
 252  1023.728
 253  1016.433
 254  984.3018
 255  936.9886
 256  909.7494
 257  955.5082
 258  931.6132
 259  866.0334
 260  722.7742
 261  826.1927
 262  913.1935
 263  1052.638
 264  992.0262
 265  903.5651
 266  762.5522
 267  717.2756
 268  791.723
 269  828.7198
 270  852.7213
 271  778.4944
 272  740.5943
 273  672.2993
 274  721.344
 275  580.9376
 276  618.062
 277  598.3801
 278  710.7039
 279  685.0395
 280  702.0491
 281  762.421
 282  780.2728
 283  864.2016
 284  843.6281
 285  912.255
 286  935.9831
 287  960.9004
 288  969.325
 289  938.8474
 290  1024.792
 291  926.8025
 292  989.3627
 293  907.1097
 294  945.1192
 295  785.7015
 296  809.2482
 297  825.6705
 298  939.3252
 299  884.3936
 300  931.722
 301  841.4342
 302  872.0009
 303  890.0937
 304  992.2982
 305  1038.117
 306  897.9744
 307  776.1481
 308  840.0378
 309  853.474
 310  834.963
 311  931.7609
 312  944.1806
 313  969.1206
 314  917.8249
 315  978.7214
 316  1002.711
 317  1036.665
 318  1142.235
 319  1101.083
 320  1061.865
 321  963.2289
 322  949.9427
 323  960.1832
 324  966.6445
 325  963.8197
 326  1000.793
 327  997.5646
 328  906.1973
 329  775.1158
 330  871.2802
 331  971.6265
 332  1080.02
 333  894.3913
 334  733.2326
 335  755.3525
 336  900.9797
 337  988.4673
 338  965.0834
 339  926.1422
 340  918.712
 341  902.2307
 342  999.4211
 343  902.3135
 344  834.0024
 345  803.4499
 346  899.7869
 347  1016.037
 348  1030.261
 349  886.3054
 350  841.7827
 351  1006.585
 352  1157.7
 353  1196.594
 354  1047.662
 355  999.4933
 356  1009.599
 357  1051.556
 358  1019.487
 359  1016.27
 360  1033.478
 361  1002.607
 362  846.5359
 363  746.6583
 364  852.5037
 365  981.921
 366  980.8298
 367  938.8636
 368  1008.718
 369  1039.215
 370  1008.358
 371  986.1046
 372  998.4747
 373  934.0844
 374  917.2374
 375  908.1593
 376  984.9413
 377  933.2979
 378  1042.712
 379  1145.05
 380  1225.381
 381  1092.744
 382  1021.276
 383  866.3063
 384  726.8265
 385  763.6759
 386  931.6377
 387  1081.812
 388  1178.653
 389  1220.942
 390  1156.143
 391  1193.991
 392  1254.086
 393  1244.531
 394  1157.376
 395  1107.797
 396  1157.824
 397  1179.679
 398  1191.099
 399  1235.015
 400  1306.876
 401  1277.828
 402  1179.614
 403  1108.835
 404  1113.155
 405  1075.379
 406  1136.357
 407  1265.97
 408  1190.003
 409  1057.379
 410  980.6058
 411  994.0538
 412  1095.485
 413  1235.84
 414  1198.888
 415  1135.916
 416  975.335
 417  981.0273
 418  965.7125
 419  1074.446
 420  1125.769
 421  1199.725
 422  1058.303
 423  982.6014
 424  988.9917
 425  1158.522
 426  1161.213
 427  1056.558
 428  987.6343
 429  1049.524
 430  1075.999
 431  1077.743
 432  960.189
 433  1017.061
 434  1114.339
 435  1145.401
 436  1230.458
 437  1149.514
 438  1193.824
 439  1188.14
 440  1278.06
 441  1303.23
 442  1261.867
 443  1206.099
 444  1202.763
 445  1192.596
 446  1146.147
 447  1111.009
 448  1084.24
 449  1084.785
 450  1091.515
 451  1106.134
 452  1161.753
 453  1193.526
 454  1268.161
 455  1170.883
 456  1077.979
 457  1030.086
 458  1022.396
 459  1055.865
 460  946.7246
 461  966.9732
 462  966.3457
 463  967.4145
 464  910.693
 465  941.1193
 466  991.0248
 467  987.7718
 468  978.5844
 469  1043.346
 470  1114.647
 471  1190.219
 472  1153.842
 473  1130.053
 474  1134.894
 475  1209.433
 476  1138.889
 477  1033.487
 478  929.4927
 479  1043.166
 480  1147.468
 481  1171.904
 482  1203.956
 483  1320.282
 484  1328.172
 485  1292.56
 486  1222.331
 487  1143.193
 488  986.3769
 489  1050.275
 490  1199.967
 491  1440.124
 492  1440.385
 493  1304.822
 494  1108.829
 495  1086.154
 496  1105.721
 497  1128.266
 498  1044.38
 499  1213.227
 500  1190.049
 501  1251.343
 502  1107.273
 503  1091.151
 504  1040.003
 505  1019.789
 506  964.6212
 507  982.0774
 508  1028.214
 509  1117.145
 510  1039.563
 511  1041.292
 512  1000.231
 513  1015.146
 514  1079.75
 515  1082.159
 516  1098.753
 517  1089.165
 518  1096.045
 519  1156.756
 520  1179.03
 521  1178.148
 522  1132.965
 523  1072.948
 524  985.1943
 525  897.1776
 526  939.986
 527  1109.223
 528  1270.228
 529  1329.004
 530  1237.144
 531  985.2265
 532  990.0773
 533  965.9446
 534  1154.459
 535  1107.368
 536  1181.095
 537  1173.115
 538  1199.492
 539  1170.369
 540  1212.804
 541  1300.612
 542  1389.018
 543  1356.377
 544  1265.978
 545  1127.037
 546  1163.689
 547  1242.241
 548  1339.041
 549  1153.248
 550  1049.739
 551  894.8257
 552  986.9872
 553  1067.284
 554  1155.557
 555  1085.792
 556  1032.96
 557  1036.137
 558  1114.166
 559  1241.227
 560  1313.833
 561  1249.577
 562  1172.169
 563  1086.699
 564  1088.481
 565  1077.653
 566  1130.389
 567  1118.539
 568  1119.335
 569  1057.653
 570  999.8152
 571  917.7138
 572  1059.768
 573  1187.577
 574  1365.977
 575  1337.519
 576  1314.808
 577  1285.214
 578  1210.072
 579  1072.146
 580  1059.608
 581  1131.759
 582  1145.601
 583  1041.92
 584  1083.814
 585  1125.13
 586  1105.778
 587  1016.254
 588  1129.784
 589  1230.688
 590  1209.099
 591  1113.867
 592  1114.047
 593  1120.23
 594  985.2654
 595  914.2812
 596  1014.95
 597  1231.044
 598  1332.93
 599  1325.688
 600  1214.03
 601  1136.15
 602  1107.582
 603  1161.871
 604  1099.768
 605  1076.354
 606  1084.374
 607  1243.833
 608  1221.566
 609  1195.133
 610  1213.891
 611  1321.059
 612  1356.662
 613  1399.642
 614  1382.936
 615  1491.607
 616  1451.524
 617  1573.329
 618  1635.466
 619  1610.599
 620  1547.331
 621  1522.636
 622  1523.712
 623  1557.769
 624  1571.264
 625  1655.52
 626  1639.775
 627  1563.905
 628  1446.24
 629  1482.967
 630  1489.211
 631  1322.772
 632  1282.898
 633  1278.745
 634  1440.911
 635  1361.905
 636  1304.991
 637  1231.624
 638  1237.627
 639  1301.546
 640  1253.307
 641  1224.295
 642  1180.087
 643  1236.878
 644  1272.302
 645  1251.156
 646  1261.591
 647  1357.43
 648  1421.085
 649  1460.242
 650  1477.738
 651  1472.687
 652  1417.377
 653  1386.399
 654  1445.993
 655  1445.205
 656  1418.775
 657  1500.734
 658  1469.296
 659  1330.75
 660  1187.146
 661  1114.31
 662  1118.103
 663  1126.418
 664  1237.07
 665  1137.576
 666  1052.737
 667  1158.811
 668  1312.519
 669  1392.256
 670  1313.389
 671  1336.819
 672  1316.326
 673  1204.012
 674  1139.031
 675  1182.611
 676  1247.659
 677  1161.529
 678  1088.133
 679  1072.474
 680  1107.301
 681  1060.725
 682  1041.849
 683  1056.769
 684  1117.913
 685  1091.765
 686  1124.826
 687  1052.997
 688  1034.974
 689  1095.304
 690  1068.899
 691  903.9695
 692  829.7448
 693  765.1322
 694  794.1551
 695  760.0502
 696  832.0235
 697  998.5833
 698  1113.306
 699  1177.735
 700  1204.129
 701  1188.364
 702  1046.385
 703  977.7136
 704  960.4565
 705  999.7137
 706  995.2359
 707  972.4423
 708  894.3707
 709  942.8242
 710  1109.757
 711  1110.103
 712  1042.07
 713  945.9676
 714  967.9104
 715  1041.317
 716  1094.627
 717  1091.042
 718  1143.523
 719  1066.733
 720  1036.732
 721  1048.845
 722  1294.987
 723  1291.223
 724  1164.279
 725  1026.419
 726  984.4487
 727  1041.717
 728  1053.469
 729  1090.882
 730  929.3297
 731  795.1361
 732  785.2648
 733  805.248
 734  866.4647
 735  944.7524
 736  980.5723
 737  1004.326
 738  886.6
 739  878.9257
 740  970.519
 741  1012.866
 742  1003.896
 743  954.5667
 744  977.2085
 745  1013.181
 746  991.3607
 747  998.8922
 748  1047.956
 749  1036.864
 750  996.9023
 751  1037.423
 752  1022.251
 753  1040.304
 754  914.0223
 755  996.0916
 756  1026.182
 757  1059.81
 758  1023.893
 759  1152.171
 760  1167.051
 761  989.4216
 762  831.688
 763  817.9465
 764  981.9312
 765  1126.804
 766  1083.106
 767  977.8923
 768  1006.048
 769  1092.822
 770  1144.595
 771  1114.403
 772  1194.197
 773  1240.988
 774  1251.622
 775  1125.373
 776  1019.857
 777  1121.383
 778  1271.217
 779  1315.393
 780  1204.169
 781  1113.877
 782  1198.959
 783  1223.25
 784  1240.448
 785  1152.783
 786  1173.049
 787  1244.971
 788  1330.928
 789  1270.84
 790  1275.074
 791  1158.429
 792  1249.732
 793  1189.195
 794  1207.019
 795  1146.531
 796  1126.497
 797  1100.8
 798  1145.957
 799  1215.622
 800  1122.083
 801  981.0193
 802  960.2499
 803  994.6804
 804  1021.518
 805  1089.594
 806  1175.281
 807  1210.262
 808  1188.767
 809  1143.943
 810  1062.405
 811  1090.57
 812  1106.127
 813  1096.031
 814  1079.946
 815  1035.584
 816  1118.423
 817  1158.524
 818  1174.093
 819  1208.474
 820  1167.895
 821  1090.979
 822  1037.553
 823  1094.64
 824  1083.495
 825  978.4096
 826  822.1505
 827  768.3655
 828  896.4397
 829  1092.175
 830  1202.22
 831  1099.656
 832  1070.332
 833  1109.886
 834  1223.186
 835  1329.293
 836  1316.533
 837  1365.19
 838  1213.677
 839  1091.932
 840  1110.228
 841  1196.597
 842  1138.323
 843  1106.647
 844  1158.476
 845  1219.809
 846  1203.61
 847  1117.491
 848  1177.643
 849  1177.105
 850  1153.555
 851  1006.62
 852  915.27
 853  987.5972
 854  1024.408
 855  1028.527
 856  899.8262
 857  926.7478
 858  972.3925
 859  1029.507
 860  953.7431
 861  1023.859
 862  1036.412
 863  1014.655
 864  888.4683
 865  867.8347
 866  909.4922
 867  842.5942
 868  822.0175
 869  749.0659
 870  898.1288
 871  1005.766
 872  1043.722
 873  1015.664
 874  991.2528
 875  957.0554
 876  901.691
 877  891.4109
 878  949.5959
 879  1060.95
 880  1154.664
 881  1098.779
 882  891.4341
 883  725.4211
 884  782.2391
 885  974.1632
 886  1077.207
 887  982.1101
 888  872.2509
 889  896.2812
 890  985.813
 891  982.8934
 892  812.783
 893  813.636
 894  854.9691
 895  897.9665
 896  881.3426
 897  904.2275
 898  971.4631
 899  1122.327
 900  1063.281
 901  1066.469
 902  969.4101
 903  1047.279
 904  1044.96
 905  1022.953
 906  1018.624
 907  1005.925
 908  936.229
 909  955.9535
 910  973.5055
 911  968.2045
 912  992.7751
 913  1055.24
 914  1201.297
 915  1228.194
 916  1157.903
 917  1148.001
 918  1259.561
 919  1156.847
 920  1132.704
 921  1049.552
 922  1004.756
 923  989.8149
 924  946.5271
 925  1006.021
 926  866.6973
 927  817.916
 928  836.0679
 929  907.8137
 930  1023.571
 931  1087.135
 932  1107.524
 933  1250.315
 934  1304.788
 935  1248.368
 936  1096.693
 937  1063.627
 938  994.9207
 939  1042.616
 940  992.4148
 941  969.3762
 942  912.784
 943  898.3568
 944  1025.697
 945  1136.823
 946  1199.996
 947  1240.039
 948  1223.874
 949  1275.493
 950  1161.879
 951  1152.142
 952  1131.422
 953  1277.926
 954  1189.444
 955  1119.162
 956  960.401
 957  914.7023
 958  1066.02
 959  1056.149
 960  1274.469
 961  1306.054
 962  1339.651
 963  1302.81
 964  1219.104
 965  1229.883
 966  1141.832
 967  1008.684
 968  900.6056
 969  888.7122
 970  944.4025
 971  847.1738
 972  980.6255
 973  1108.642
 974  1275.589
 975  1207.69
 976  1190.906
 977  1177.123
 978  1125.791
 979  1216.741
 980  1249.927
 981  1160.224
 982  1053.126
 983  989.3138
 984  971.518
 985  953.2122
 986  944.8531
 987  969.0565
 988  1030.369
 989  1114.803
 990  1168.916
 991  1158.419
 992  1097.62
 993  1118.079
 994  1202.296
 995  1148.092
 996  939.1484
 997  855.7413
 998  1030.206
 999  1227.873
1000  1257.078
1001  1288.087
1002  1281.448
1003  1282.929
1004  1279.792
1005  1162.572
1006  1160.548
1007  1123.155
1008  1239.213
1009  1212.255
1010  1173.711
1011  1160.292
1012  1102.353
1013  1124.654
1014  1023.055
1015  1069.244
1016  1110.568
1017  1076.869
1018  906.025
1019  991.2661
1020  1131.026
1021  1066.383
1022  964.7913
1023  927.5472
