# Input file       =  1198618942.110888_cleaned.dat
# Candidate        =  PSR_0332+5434
# Telescope        =  AR
# Epoch_topo       =  58116.904642487127
# Epoch_bary       =  N/A
# T_sample         =  0.002
# Data Folded      =  7340032
# Data Avg         =  0.286935622443187
# Data StdDev      =  6.58257247444074 
# Profile Bins     =  1024
# Profile Avg      =  2056.77604841755 
# Profile StdDev   =  557.307192141736 
# Reduced chi-sqr  =  0.431
# Prob(Noise)      <  1   (~0.0 sigma)
# P_topo (ms)      =  714.554302883264  +/- 0.000786
# P'_topo (s/s)    =  -0                +/- 4.15e-10
# P''_topo (s/s^2) =  0                 +/- 1.83e-13
# P_bary (ms)      =  N/A
# P'_bary (s/s)    =  N/A
# P''_bary (s/s^2) =  N/A
# P_orb (s)        =  N/A
# asin(i)/c (s)    =  N/A
# eccentricity     =  N/A
# w (rad)          =  N/A
# T_peri           =  N/A
######################################################
   0  1878.173
   1  1889.739
   2  1842.14
   3  1941.826
   4  1816.074
   5  1948.386
   6  1940.677
   7  1977.507
   8  1880.385
   9  1795.979
  10  1899.241
  11  2009.226
  12  2056.635
  13  1968.189
  14  2019.422
  15  2102.858
  16  2264.828
  17  2178.631
  18  2106.158
  19  1982.979
  20  1946.303
  21  1908.967
  22  1960.235
  23  1909.185
  24  1876.785
  25  1880.843
  26  1923.04
  27  1899.274
  28  1875.487
  29  1967.96
  30  2029.028
  31  2153.07
  32  2195.973
  33  2177.598
  34  2211.596
  35  2134.724
  36  2081.446
  37  1991.466
  38  2007.249
  39  2006.124
  40  1988.543
  41  2016.792
  42  1989.775
  43  1910.769
  44  1855.888
  45  1941.34
  46  1914.448
  47  1878.159
  48  1852.407
  49  1932.414
  50  2039.424
  51  2249.057
  52  2214.772
  53  2013.61
  54  1961.559
  55  1896.038
  56  1978.272
  57  1956.922
  58  2020.198
  59  1965.778
  60  1909.257
  61  1992.009
  62  1943.052
  63  2049.139
  64  1978.945
  65  2018.864
  66  2023.408
  67  2104.964
  68  2161.021
  69  2172.743
  70  2108.378
  71  2030.86
  72  1944.308
  73  1887.923
  74  2021.083
  75  2128.353
  76  2243.927
  77  2156.77
  78  1999.006
  79  1880.979
  80  1950.484
  81  2021.479
  82  2013.372
  83  1979.927
  84  1960.189
  85  2066.862
  86  1927.368
  87  1818.77
  88  1826.54
  89  1908.658
  90  1786.005
  91  1760.523
  92  1639.247
  93  1474.99
  94  1450.108
  95  1732.823
  96  1934.928
  97  2128.819
  98  2022.288
  99  1988.52
 100  1833.241
 101  1868.642
 102  1876.065
 103  1977.597
 104  1947.444
 105  1880.345
 106  1777.438
 107  1803.679
 108  1781.866
 109  1833.237
 110  1819.143
 111  1833.379
 112  1979.19
 113  2035.45
 114  2069.919
 115  1958.846
 116  1879.326
 117  1880.168
 118  1965.089
 119  1954.17
 120  1951.305
 121  1844.965
 122  1722.926
 123  1873.893
 124  1812.22
 125  1776.364
 126  1756.425
 127  1677.226
 128  1801.266
 129  1749.888
 130  1780.274
 131  1733.913
 132  1834.919
 133  1820.112
 134  1752.589
 135  1721.9
 136  1860.45
 137  1974.944
 138  1964.935
 139  1882.543
 140  1807.858
 141  1853.102
 142  1878.139
 143  1891.527
 144  1881.272
 145  1872.413
 146  1977.508
 147  1982.284
 148  1967.211
 149  1966.656
 150  1902.471
 151  1898.909
 152  1980.676
 153  1918.738
 154  2040.376
 155  2220.106
 156  2137.28
 157  1979.277
 158  1901.092
 159  1975.2
 160  1869.391
 161  1673.221
 162  1634.853
 163  1590.868
 164  1780.044
 165  1728.961
 166  1766.452
 167  1779.903
 168  1960.169
 169  2162.65
 170  2054.006
 171  1886.571
 172  1878.408
 173  1895.787
 174  1887.119
 175  1882.004
 176  2053.066
 177  2246.881
 178  2191.514
 179  2011.355
 180  2030.319
 181  2170.78
 182  2102.875
 183  2009.714
 184  1983.813
 185  2050.976
 186  2155.721
 187  2033.576
 188  1968.809
 189  1952.54
 190  2079.205
 191  2178.885
 192  2249.265
 193  2223.702
 194  2103.591
 195  2044.042
 196  2031.632
 197  2112.729
 198  2141.275
 199  2073.863
 200  1999.64
 201  1981.021
 202  1932.084
 203  1888.043
 204  2025.49
 205  1990.986
 206  2117.195
 207  1949.55
 208  1976.575
 209  1959.144
 210  2075.805
 211  2040.271
 212  1957.688
 213  2075.581
 214  2097.915
 215  2040.198
 216  1856.987
 217  1713.6
 218  1717.88
 219  1635.519
 220  1711.948
 221  1776.079
 222  1812.446
 223  1835.817
 224  1941.056
 225  1973.72
 226  2005.083
 227  2011.391
 228  1987.508
 229  2002.441
 230  2059.791
 231  2002.574
 232  1868
 233  1766.985
 234  1802.493
 235  1930.097
 236  1948.614
 237  2007.527
 238  2154.695
 239  2200.531
 240  2268.505
 241  2243.211
 242  2254.095
 243  2351.898
 244  2248.231
 245  2144.647
 246  2083.883
 247  2167.712
 248  2197.285
 249  2128.967
 250  2140.395
 251  2077.439
 252  2111.789
 253  2139.122
 254  2187.373
 255  2202.456
 256  2157.999
 257  2150.96
 258  2228.018
 259  2298.614
 260  2167.811
 261  2064.761
 262  1937.61
 263  1943.246
 264  2050.755
 265  1973.78
 266  1899.21
 267  1893.899
 268  2166.549
 269  2186.652
 270  2250.962
 271  2190.542
 272  2215.912
 273  2186.972
 274  2155.83
 275  2150.316
 276  2113.246
 277  2014.514
 278  2029.846
 279  2025.378
 280  2015.197
 281  2152.945
 282  2410.612
 283  2402.199
 284  2284.206
 285  2202.874
 286  2394.194
 287  2551.087
 288  2503.62
 289  2558.697
 290  2545.685
 291  2370.785
 292  2382.421
 293  2348.446
 294  2407.478
 295  2342.569
 296  2388.798
 297  2200.455
 298  2075.487
 299  2252.681
 300  2363.99
 301  2403.894
 302  2312.48
 303  2324.995
 304  2358.138
 305  2280.613
 306  2278.657
 307  2336.645
 308  2334.331
 309  2249.123
 310  2295.383
 311  2299.698
 312  2071.457
 313  1871.949
 314  1952.747
 315  1992.418
 316  2028.686
 317  1877.662
 318  1972.247
 319  2089.308
 320  2106.357
 321  2346.462
 322  2270.694
 323  2135.619
 324  2079.339
 325  2078.296
 326  2032.039
 327  1945.307
 328  2061.572
 329  2184.786
 330  2236.867
 331  2118.142
 332  1887.228
 333  1967.216
 334  2141.002
 335  2257.663
 336  2325.059
 337  2315.994
 338  2376.992
 339  2339.941
 340  2368.198
 341  2451.188
 342  2408.582
 343  2359.806
 344  2175.58
 345  2038.578
 346  1924.17
 347  1947.594
 348  2174.023
 349  2247.513
 350  2151.365
 351  2064.212
 352  2126.362
 353  2162.267
 354  2066.165
 355  2055.356
 356  2180.77
 357  2253.948
 358  2212.891
 359  2160.398
 360  2014.677
 361  1744.326
 362  1825.78
 363  1911.528
 364  2130.257
 365  2126.413
 366  2072.079
 367  2015.888
 368  2021.619
 369  2023.288
 370  2151.76
 371  2132.929
 372  2012.025
 373  2050.763
 374  2088.284
 375  2032.53
 376  1825.682
 377  1666.99
 378  1764.107
 379  1859.974
 380  1979.356
 381  1975.964
 382  1911.135
 383  1826.515
 384  1904.778
 385  2135.503
 386  2195.657
 387  1986.483
 388  1999.913
 389  2067.582
 390  2005.503
 391  1967.807
 392  1819.194
 393  1981.891
 394  1963.903
 395  2073.062
 396  1934.124
 397  1855.683
 398  1741.783
 399  1813.25
 400  1802.574
 401  1852.864
 402  2071.985
 403  2155.55
 404  2149.267
 405  2162.559
 406  2141.704
 407  2058.812
 408  2100.248
 409  2122.577
 410  2201.065
 411  2090.06
 412  2046.579
 413  2191.85
 414  2219.548
 415  2260.103
 416  2251.792
 417  2232.228
 418  2250.052
 419  2200.907
 420  2270.707
 421  2132.108
 422  2161.8
 423  2249.347
 424  2277.416
 425  2354.96
 426  2280.345
 427  2183.999
 428  2010.99
 429  1959.421
 430  1938.009
 431  1899.423
 432  1746.773
 433  1750.581
 434  1863.762
 435  1921.546
 436  1912.606
 437  1915.776
 438  1940.705
 439  1914.012
 440  1900.548
 441  1960.079
 442  2018.77
 443  2112.822
 444  2109.253
 445  2077.092
 446  2026.795
 447  1944.753
 448  1993.379
 449  2091.231
 450  2141.925
 451  2318.599
 452  2328.104
 453  2390.321
 454  2360.613
 455  2289.908
 456  2233.592
 457  2217.421
 458  2123.347
 459  2114.885
 460  2247.489
 461  2208.479
 462  2103.174
 463  1987.222
 464  1868.876
 465  1803.532
 466  1894.489
 467  1969.538
 468  2017.88
 469  2078.745
 470  2092.031
 471  2202.689
 472  2095.43
 473  2030.668
 474  2019.051
 475  2032.742
 476  2015.675
 477  2008.359
 478  1969.209
 479  1948.751
 480  1960.841
 481  1958.481
 482  2072.148
 483  2101.197
 484  2091.092
 485  2158.761
 486  2244.881
 487  2232.765
 488  2152.867
 489  2169.983
 490  2192.44
 491  2325.074
 492  2409.667
 493  2434.03
 494  2398.067
 495  2287.66
 496  2122.997
 497  2072.26
 498  2033.711
 499  2017.109
 500  2000.004
 501  2193.146
 502  2178.983
 503  2158.851
 504  1991.91
 505  2006.351
 506  1942.132
 507  1788.986
 508  1645.918
 509  1610.501
 510  1691.655
 511  1870.474
 512  2038.635
 513  2130.71
 514  2263.543
 515  2326.075
 516  2219.249
 517  2150.966
 518  2043.984
 519  2012.118
 520  1807.741
 521  1785.088
 522  1759.827
 523  1795.7
 524  1687.552
 525  1723.296
 526  1817.147
 527  1843.581
 528  1800.331
 529  1870.017
 530  1816.265
 531  1806.594
 532  1765.002
 533  1780.075
 534  1751.889
 535  1898.728
 536  2079.818
 537  2172.828
 538  2103.467
 539  2224.072
 540  2262.909
 541  2205.07
 542  2001.147
 543  2119.35
 544  2184.834
 545  2198.461
 546  2257.083
 547  2305.494
 548  2206.569
 549  2213.099
 550  2210.563
 551  2292.749
 552  2247.97
 553  2165.777
 554  2197.002
 555  2135.417
 556  2022.327
 557  1953.998
 558  2116.29
 559  2166.136
 560  2225.664
 561  2267.332
 562  2154.63
 563  1999.331
 564  1885.906
 565  1980.01
 566  2096.758
 567  2019.883
 568  2105.715
 569  2109.737
 570  2129.268
 571  2141.193
 572  2271.321
 573  2217.72
 574  2240.085
 575  2299.198
 576  2386.869
 577  2349.974
 578  2280.92
 579  2277.772
 580  2293.697
 581  2348.182
 582  2320.085
 583  2304
 584  2176.507
 585  2217.614
 586  2381.787
 587  2487.17
 588  2387.542
 589  2407.073
 590  2374.921
 591  2380.041
 592  2374.375
 593  2301.259
 594  2202.422
 595  2222.921
 596  2225.411
 597  2068.323
 598  2036.475
 599  2045.089
 600  2036.196
 601  2093.044
 602  2060.196
 603  2137.28
 604  2191.805
 605  2131.928
 606  2136.087
 607  2177.862
 608  2215.857
 609  2237.001
 610  2175.424
 611  2220.594
 612  2289.594
 613  2357.741
 614  2443.605
 615  2569.413
 616  2638.396
 617  2662.458
 618  2740.948
 619  2730.035
 620  2664.639
 621  2675.832
 622  2715.351
 623  2860.139
 624  2768.766
 625  2734.613
 626  2667.43
 627  2546.093
 628  2383.549
 629  2424.115
 630  2321.521
 631  2276.265
 632  2276.389
 633  2257.406
 634  2242.065
 635  2173.979
 636  2290.125
 637  2255.468
 638  2207.558
 639  2149.542
 640  2163.75
 641  2150.141
 642  2004.963
 643  1875.656
 644  1967.016
 645  2005.724
 646  1974.126
 647  2058.107
 648  2075.232
 649  2112.291
 650  2123.381
 651  2225.522
 652  2259.01
 653  2096.166
 654  2040.347
 655  2150.057
 656  2108.124
 657  1878.318
 658  1730.24
 659  1873.664
 660  2059.72
 661  2138.244
 662  2196.85
 663  2098.044
 664  2026.724
 665  1976.816
 666  1994.308
 667  2136.88
 668  2047.74
 669  1989.235
 670  2045.355
 671  2011.522
 672  2002.815
 673  1933.148
 674  2007.561
 675  1980.699
 676  1925.088
 677  2003.81
 678  2115.375
 679  2224.931
 680  2169.921
 681  2105.645
 682  2006.926
 683  2078.879
 684  2091.69
 685  2015.045
 686  1873.862
 687  1811.389
 688  1857.431
 689  1862.438
 690  1985.859
 691  2072.918
 692  2154.492
 693  2126.937
 694  2137.676
 695  2145.797
 696  2315.025
 697  2264.823
 698  2261.039
 699  2267.158
 700  2198.238
 701  2197.981
 702  2038.327
 703  2055.843
 704  2104.73
 705  2261.601
 706  2281.68
 707  2305.265
 708  2345.554
 709  2431.14
 710  2480.293
 711  2299.033
 712  2135.474
 713  2020.906
 714  2106.19
 715  2101.306
 716  1992.568
 717  2008.031
 718  2164.138
 719  2289.074
 720  2411.876
 721  2405.083
 722  2350.589
 723  2058.723
 724  1942.778
 725  1868.394
 726  1915.124
 727  2013.743
 728  2027.303
 729  1923.709
 730  1909.689
 731  1992.613
 732  2018.715
 733  2086.32
 734  1985.376
 735  2045.542
 736  2068.797
 737  2181.606
 738  2303.331
 739  2370.183
 740  2245.018
 741  2086.866
 742  2071.888
 743  2208.826
 744  2262.73
 745  2215.82
 746  2232.614
 747  2279.792
 748  2292.273
 749  2113.572
 750  2281.514
 751  2325.896
 752  2426.831
 753  2290.22
 754  2150.094
 755  2085.93
 756  2222.491
 757  2327.812
 758  2284.694
 759  2371.166
 760  2501.908
 761  2549.882
 762  2355.35
 763  2095.386
 764  2055.986
 765  2072.201
 766  2027.483
 767  1991.808
 768  2007.647
 769  2001.911
 770  2066.481
 771  2136.819
 772  2157.434
 773  2163.014
 774  2114.268
 775  2301.957
 776  2307.798
 777  2242.011
 778  2021.998
 779  1957.602
 780  1987.593
 781  1996.288
 782  1980.282
 783  1882.631
 784  1921.439
 785  1868.3
 786  1888.896
 787  1813.685
 788  1773.001
 789  1753.754
 790  1893.886
 791  1975.418
 792  1956.026
 793  2057.05
 794  2117.474
 795  2066.547
 796  1906.593
 797  1749.354
 798  1696.842
 799  1883.609
 800  1993.8
 801  2021.251
 802  2070.856
 803  2246.55
 804  2170.444
 805  2078.105
 806  2061.878
 807  2054.335
 808  2238.688
 809  2193.541
 810  2314.571
 811  2193.069
 812  2102.85
 813  1950.413
 814  2000.823
 815  1953.635
 816  2106.99
 817  2045.523
 818  1975.544
 819  1919.342
 820  1967.389
 821  2006.546
 822  1988.715
 823  2010.911
 824  2074.82
 825  2145.693
 826  2055.192
 827  1965.35
 828  1912.56
 829  1872.19
 830  1811.439
 831  1717.495
 832  1702.372
 833  1887.994
 834  1991.577
 835  2168.537
 836  2257.88
 837  2168.19
 838  2176.023
 839  2229.972
 840  2307.258
 841  2111.734
 842  1971.953
 843  1941.239
 844  1917.281
 845  1879.536
 846  1723.216
 847  1754.033
 848  1727.587
 849  1770.48
 850  1787.326
 851  1905.302
 852  1854.507
 853  1740.913
 854  1754.265
 855  1790.722
 856  1868.622
 857  1844.092
 858  1934.907
 859  1961.221
 860  2066.171
 861  1970.292
 862  1946.81
 863  1866.193
 864  1860.901
 865  1962.781
 866  2054.464
 867  2228.437
 868  2434.229
 869  2342.798
 870  2299.714
 871  2297.166
 872  2340.903
 873  2291.938
 874  2295.385
 875  2211.89
 876  2162.813
 877  2079.138
 878  2151.205
 879  2224.225
 880  2164.15
 881  2180.056
 882  2158.85
 883  2193.648
 884  2109.383
 885  2028.692
 886  2101.625
 887  2088.341
 888  2197.306
 889  2279.75
 890  2331.385
 891  2331.489
 892  2319.231
 893  2335.194
 894  2316.897
 895  2195.84
 896  2090.391
 897  2141.931
 898  2271.054
 899  2249.387
 900  2185.044
 901  2169.829
 902  2197.792
 903  2278.986
 904  2321.888
 905  2374.05
 906  2265.78
 907  2315.872
 908  2497.449
 909  2594.664
 910  2566.418
 911  2429.598
 912  2248.296
 913  2081.508
 914  2009.826
 915  1971.15
 916  1945.464
 917  1964.942
 918  2010.723
 919  1914.843
 920  1854.692
 921  1915.388
 922  2033.95
 923  2189.112
 924  2147.074
 925  2152.468
 926  2123.861
 927  1962.658
 928  1895.696
 929  1781.978
 930  1913.41
 931  1952.097
 932  1983.804
 933  2002.097
 934  1935.352
 935  1672.178
 936  1680.773
 937  1904.878
 938  2167.934
 939  2097.585
 940  2052.083
 941  2100.67
 942  2122.718
 943  1859.056
 944  1743.628
 945  1719.983
 946  1882.278
 947  2001.258
 948  1967.557
 949  1975.224
 950  1905.082
 951  2062.293
 952  2173.528
 953  2074.714
 954  2012.553
 955  2050.997
 956  1986.13
 957  1963.174
 958  1881.612
 959  2083.89
 960  2150.597
 961  2117.625
 962  2135.807
 963  2154.922
 964  2170.719
 965  2235.275
 966  2266.309
 967  2145.521
 968  2016.26
 969  2098.361
 970  2028.594
 971  1859.442
 972  1858.695
 973  1882.299
 974  2019.969
 975  2008.437
 976  1950.964
 977  1892.932
 978  1827.227
 979  1726.125
 980  1750.798
 981  1880.496
 982  1913.897
 983  2014.044
 984  1996.626
 985  1787.753
 986  1624.094
 987  1615.42
 988  1707.862
 989  1777.451
 990  1826.432
 991  1792.637
 992  1808.608
 993  1792.178
 994  1862.814
 995  1897.227
 996  1936.03
 997  1929.891
 998  1793.075
 999  1780.058
1000  1690.053
1001  1735.727
1002  1698.078
1003  1652.68
1004  1618.525
1005  1544.011
1006  1614.831
1007  1700.996
1008  1836.974
1009  1849.846
1010  1544.351
1011  1475.466
1012  1516.328
1013  1602.615
1014  1610.515
1015  1574.078
1016  1528.889
1017  1596.454
1018  1676.838
1019  1655.378
1020  1613.124
1021  1655.533
1022  1745.008
1023  1850.726
