# Input file       =  1198589328.111569_cleaned.dat
# Candidate        =  PSR_0332+5434
# Telescope        =  AR
# Epoch_topo       =  58116.561887865384
# Epoch_bary       =  N/A
# T_sample         =  0.002
# Data Folded      =  7208960
# Data Avg         =  0.104886637218508
# Data StdDev      =  4.17109570328258 
# Profile Bins     =  512
# Profile Avg      =  1477.42927784048 
# Profile StdDev   =  494.938778307447 
# Reduced chi-sqr  =  0.646
# Prob(Noise)      <  1   (~0.0 sigma)
# P_topo (ms)      =  714.553644437926  +/- 6.63e-05
# P'_topo (s/s)    =  -0                +/- 3.56e-11
# P''_topo (s/s^2) =  0                 +/- 1.6e-14
# P_bary (ms)      =  N/A
# P'_bary (s/s)    =  N/A
# P''_bary (s/s^2) =  N/A
# P_orb (s)        =  N/A
# asin(i)/c (s)    =  N/A
# eccentricity     =  N/A
# w (rad)          =  N/A
# T_peri           =  N/A
######################################################
   0  974.4954
   1  1465.708
   2  1357.739
   3  1536.2
   4  1503.832
   5  1385.384
   6  1409.401
   7  1809.788
   8  1488.003
   9  1465.015
  10  1543.511
  11  1625.282
  12  1481.545
  13  1217.416
  14  1113.156
  15  741.9907
  16  1038.413
  17  903.9287
  18  1196.265
  19  1725.244
  20  1592.907
  21  1498.023
  22  1455.784
  23  1477.075
  24  1230.851
  25  1509.623
  26  1748.576
  27  1958.879
  28  1690.086
  29  1401.297
  30  1604.738
  31  1402.361
  32  1064.191
  33  1231.596
  34  1114.472
  35  1045.459
  36  1540.117
  37  1579.57
  38  1354.237
  39  1323.376
  40  1638.837
  41  1580.524
  42  1567.311
  43  1559.79
  44  1516.257
  45  1855.339
  46  1449.8
  47  1731.377
  48  1597.273
  49  1065.026
  50  836.9512
  51  1357.702
  52  1520.363
  53  1764.136
  54  1884.788
  55  1583.376
  56  1477.47
  57  1425.551
  58  1519.351
  59  1543.405
  60  1702.495
  61  2040.82
  62  1895.826
  63  1766.898
  64  1423.614
  65  1541.605
  66  1679.3
  67  1321.153
  68  1631.483
  69  1629.208
  70  1386.701
  71  1585.925
  72  1664.928
  73  1341.872
  74  902.3478
  75  1249.163
  76  1708.131
  77  1941.886
  78  1914.389
  79  1683.084
  80  1508.987
  81  1535.948
  82  1481.192
  83  1425.464
  84  1847.176
  85  1449.48
  86  1624.088
  87  1271.979
  88  1059.225
  89  1311.513
  90  1431.719
  91  1909.807
  92  1850.55
  93  2235.363
  94  1879.524
  95  1618.203
  96  1388.68
  97  1397.955
  98  1466.906
  99  1186.396
 100  1322.707
 101  1667.027
 102  1887.286
 103  1432.394
 104  1671.764
 105  2117.381
 106  1704.912
 107  1408.192
 108  1030.452
 109  1181.48
 110  1234.783
 111  1493.511
 112  1542.213
 113  1521.294
 114  1792.136
 115  1522.676
 116  1489.948
 117  1309.974
 118  1542.655
 119  1612.645
 120  1720.86
 121  1682.376
 122  1257.709
 123  887.875
 124  1229.59
 125  2005.98
 126  1721.345
 127  1864.339
 128  2020.861
 129  1714.218
 130  875.4222
 131  1020.584
 132  1081.763
 133  1661.425
 134  1588.566
 135  1803.869
 136  1443.427
 137  1473.411
 138  1381.196
 139  1469.83
 140  1604.174
 141  1310.677
 142  1178.224
 143  1352.263
 144  1160.336
 145  1264.65
 146  1122.477
 147  1565.817
 148  1426.57
 149  1155.671
 150  1420.87
 151  1449.987
 152  1809.642
 153  1686.945
 154  1593.113
 155  1665.618
 156  1631.556
 157  1679.82
 158  2015.685
 159  1942.719
 160  1652.015
 161  1494.527
 162  1195.345
 163  1072.602
 164  935.7504
 165  1170.407
 166  1361.748
 167  1295.708
 168  1693.438
 169  1336.008
 170  1182.542
 171  1245.65
 172  1619.041
 173  1666.654
 174  1777.668
 175  2003.077
 176  2254.553
 177  1862.62
 178  1633.453
 179  1563.534
 180  1088.382
 181  838.157
 182  1133.574
 183  1504.465
 184  1242.473
 185  1421.687
 186  1938.895
 187  1560.819
 188  1522.047
 189  1058.017
 190  1136.24
 191  1232.346
 192  1480.621
 193  1621.641
 194  1417.96
 195  1262.37
 196  1390.684
 197  1394.712
 198  1569.047
 199  1569.598
 200  1707.179
 201  1822.85
 202  1541.262
 203  1411.793
 204  1844.559
 205  1598.498
 206  1612.465
 207  1880.962
 208  1761.323
 209  1544.817
 210  1429.561
 211  1294.359
 212  1138.702
 213  1465.262
 214  1160.464
 215  1438.094
 216  1206.566
 217  1238.225
 218  1140.082
 219  1217.21
 220  1100.495
 221  1283.64
 222  1380.505
 223  1267.074
 224  1269.319
 225  1430.437
 226  1263.664
 227  1174.647
 228  1333.082
 229  1536.193
 230  1493.138
 231  1457.976
 232  1418.152
 233  1615.028
 234  1434.444
 235  1194.129
 236  1100.85
 237  1234.724
 238  1173.242
 239  1377.623
 240  1493.531
 241  1564.763
 242  1985.595
 243  2008.622
 244  1278.955
 245  1530.684
 246  1243.517
 247  637.4993
 248  1350.577
 249  1976.624
 250  1967.93
 251  1861.211
 252  1701.277
 253  1412.375
 254  1169.11
 255  1293.949
 256  1715.845
 257  1676.322
 258  1578.657
 259  1391.872
 260  1414.041
 261  1485.533
 262  1029.301
 263  1269.106
 264  1242.181
 265  1506.495
 266  1213.182
 267  1372.164
 268  1751.844
 269  1847.815
 270  1558.43
 271  917.5028
 272  1147.177
 273  1078.732
 274  1378.533
 275  1760.645
 276  1713.721
 277  1352.331
 278  1294.66
 279  1518.724
 280  1081.597
 281  1434.348
 282  1472.98
 283  1755.43
 284  1934.767
 285  1286.725
 286  1122.533
 287  1545.338
 288  1808.297
 289  1559.177
 290  1243.815
 291  1234.181
 292  1485.445
 293  1563.214
 294  1310.674
 295  1406.559
 296  1721.089
 297  1852.01
 298  1884.886
 299  1855.192
 300  1444.211
 301  1518.696
 302  1577.753
 303  1619.257
 304  1404.531
 305  1781.878
 306  1939.729
 307  2252.308
 308  2448.094
 309  2456.631
 310  2479.859
 311  2205.744
 312  2002.977
 313  1942.108
 314  1734.943
 315  2008.975
 316  1786.285
 317  1666.511
 318  1422.69
 319  1151.652
 320  1440.059
 321  1441.568
 322  1457.068
 323  1206.629
 324  1938.322
 325  1911.227
 326  1915.877
 327  1780.138
 328  1419.159
 329  857.8757
 330  1030.201
 331  1152.92
 332  1312.083
 333  1654.06
 334  1409.565
 335  1605.582
 336  1836.489
 337  1357.283
 338  1238.872
 339  1311.444
 340  1482.439
 341  1720.446
 342  1773.652
 343  1618.271
 344  1376.038
 345  1084.963
 346  1318.771
 347  1267.877
 348  1195.844
 349  1533.946
 350  1661.591
 351  1531.609
 352  1412.412
 353  1657.094
 354  1691.732
 355  1474.78
 356  1638.669
 357  1654.73
 358  1501.373
 359  1348.998
 360  1850.838
 361  1437.113
 362  1476.741
 363  1566.737
 364  1709.39
 365  1597.743
 366  1451.332
 367  1378.5
 368  1182.916
 369  1153.629
 370  1305.076
 371  1418.833
 372  1586.815
 373  1712.246
 374  1575.021
 375  1689.933
 376  1555.776
 377  1398.387
 378  1246.399
 379  1493.931
 380  1514.085
 381  1453.165
 382  1643.585
 383  1615.093
 384  1434.455
 385  1574.615
 386  1310.515
 387  1140.564
 388  1114.94
 389  1465.895
 390  1886.838
 391  1807.367
 392  1926.173
 393  1476.715
 394  1407.535
 395  1488.693
 396  1578.247
 397  1296.439
 398  1533.222
 399  1691.373
 400  1522.324
 401  1531.853
 402  1789.527
 403  1309.92
 404  987.9744
 405  1339.413
 406  1539.453
 407  1701.97
 408  1692.952
 409  1517.234
 410  951.6527
 411  1110.262
 412  1380.281
 413  1235.422
 414  1410.769
 415  1724.173
 416  1673.18
 417  1710.533
 418  1609.667
 419  2021.273
 420  1926.243
 421  1597.581
 422  1585.319
 423  1591.143
 424  1724.989
 425  1485.901
 426  1932.235
 427  1921.241
 428  1073.194
 429  1036.095
 430  1142.994
 431  1225.778
 432  1319.167
 433  1209.935
 434  1334.975
 435  1178.538
 436  1335.756
 437  1466.675
 438  1076.17
 439  1226.51
 440  1419.543
 441  1429.806
 442  1809.995
 443  1459.86
 444  1136.86
 445  843.9142
 446  1147.276
 447  1307.605
 448  1361.495
 449  1701.708
 450  1419.02
 451  1600.366
 452  1427.987
 453  1090.564
 454  1529.325
 455  1772.716
 456  1793.86
 457  1409.373
 458  1396.368
 459  1069.715
 460  1155.4
 461  1257.362
 462  909.9226
 463  740.7051
 464  1032.807
 465  1388.195
 466  1291.89
 467  1273.861
 468  1828.941
 469  1650.383
 470  1079.704
 471  1347.644
 472  1499.372
 473  1630.106
 474  2026.139
 475  1481.668
 476  1443.892
 477  1065.681
 478  1592.989
 479  1316.143
 480  1124.126
 481  1544
 482  1475.867
 483  1264.59
 484  1096.038
 485  1253.93
 486  948.4593
 487  998.48
 488  1452.867
 489  1922.557
 490  1799.823
 491  1583.07
 492  1521.831
 493  1179.207
 494  931.0898
 495  852.7187
 496  1372.879
 497  1441.378
 498  1776.808
 499  1897.349
 500  1202.062
 501  1386.262
 502  1214.394
 503  1481.447
 504  1270.194
 505  1431.058
 506  2043.653
 507  1813.319
 508  2022.284
 509  1571.102
 510  1231.722
 511  595.4495
