# Input file       =  1198173788.111938_cleaned.dat
# Candidate        =  PSR_0332+5434
# Telescope        =  AR
# Epoch_topo       =  58111.752397128912
# Epoch_bary       =  N/A
# T_sample         =  0.002
# Data Folded      =  7340032
# Data Avg         =  0.0383930130058831
# Data StdDev      =  1.00005859779703 
# Profile Bins     =  512
# Profile Avg      =  550.393006117102 
# Profile StdDev   =  119.74005246893  
# Reduced chi-sqr  =  0.770
# Prob(Noise)      <  1   (~0.0 sigma)
# P_topo (ms)      =  714.549349780547  +/- 0.000525
# P'_topo (s/s)    =  -0                +/- 2.77e-10
# P''_topo (s/s^2) =  0                 +/- 1.22e-13
# P_bary (ms)      =  N/A
# P'_bary (s/s)    =  N/A
# P''_bary (s/s^2) =  N/A
# P_orb (s)        =  N/A
# asin(i)/c (s)    =  N/A
# eccentricity     =  N/A
# w (rad)          =  N/A
# T_peri           =  N/A
######################################################
   0  365.4696
   1  387.0804
   2  473.1121
   3  557.9671
   4  579.0334
   5  525.1696
   6  479.0715
   7  417.1648
   8  522.0316
   9  690.8658
  10  682.2212
  11  647.8459
  12  591.8766
  13  683.4564
  14  659.1844
  15  512.1085
  16  512.1808
  17  574.2135
  18  572.3967
  19  563.8735
  20  610.6154
  21  568.1732
  22  536.0645
  23  650.4408
  24  598.0411
  25  578.0109
  26  550.5853
  27  535.7011
  28  553.3023
  29  506.3255
  30  545.2093
  31  548.908
  32  564.9657
  33  515.0092
  34  543.7991
  35  650.7545
  36  624.1771
  37  589.8298
  38  558.0561
  39  648.5097
  40  607.2223
  41  645.4728
  42  591.877
  43  491.9791
  44  600.4422
  45  492.0498
  46  486.0988
  47  505.5602
  48  537.543
  49  570.5095
  50  609.9105
  51  604.2167
  52  565.2236
  53  529.7009
  54  516.4934
  55  512.5792
  56  487.4607
  57  600.9532
  58  597.1368
  59  652.8673
  60  648.2233
  61  599.3869
  62  566.611
  63  478.8293
  64  599.6092
  65  549.2526
  66  652.887
  67  654.4204
  68  500.6562
  69  574.6483
  70  598.6656
  71  590.2078
  72  573.8793
  73  536.2962
  74  640.6317
  75  658.6178
  76  642.6044
  77  617.0919
  78  619.9432
  79  595.2067
  80  566.5389
  81  420.9165
  82  486.2025
  83  617.9717
  84  665.0675
  85  647.9946
  86  556.6603
  87  645.639
  88  738.1978
  89  572.277
  90  551.8624
  91  550.9984
  92  540.2916
  93  505.9357
  94  469.1255
  95  466.8374
  96  489.9454
  97  556.1385
  98  551.2192
  99  609.776
 100  558.9854
 101  533.204
 102  564.7211
 103  574.1003
 104  542.5474
 105  485.3307
 106  486.9929
 107  485.4369
 108  465.5485
 109  576.7598
 110  601.2988
 111  549.864
 112  582.8666
 113  606.7652
 114  477.4763
 115  400.4427
 116  470.3917
 117  576.1666
 118  607.0952
 119  428.1465
 120  454.303
 121  508.1407
 122  538.5964
 123  558.2692
 124  491.5244
 125  458.2213
 126  484.0976
 127  591.8732
 128  652.6784
 129  678.631
 130  557.967
 131  587.1772
 132  530.5464
 133  647.8425
 134  714.0795
 135  614.0895
 136  503.1603
 137  478.7226
 138  630.3776
 139  557.86
 140  646.7587
 141  602.3817
 142  549.8964
 143  570.37
 144  466.4094
 145  506.6944
 146  504.4336
 147  519.9165
 148  536.6519
 149  532.366
 150  605.4008
 151  594.2057
 152  513.3896
 153  485.8763
 154  485.5384
 155  552.3325
 156  682.8262
 157  616.9694
 158  492.3607
 159  561.5356
 160  570.4174
 161  536.1462
 162  615.2709
 163  777.2579
 164  581.7351
 165  436.4309
 166  545.3863
 167  705.6871
 168  525.8172
 169  540.7419
 170  514.6183
 171  483.0975
 172  540.1823
 173  518.8087
 174  486.4464
 175  554.3878
 176  607.1016
 177  594.8575
 178  503.6899
 179  471.4325
 180  545.7825
 181  632.3007
 182  600.0675
 183  526.4349
 184  550.2303
 185  614.3137
 186  613.205
 187  479.6231
 188  539.6144
 189  616.2126
 190  551.7167
 191  504.1234
 192  437.2333
 193  522.8664
 194  509.0388
 195  507.555
 196  541.132
 197  512.8298
 198  534.465
 199  637.6932
 200  564.138
 201  481.6444
 202  539.0674
 203  617.0367
 204  649.5428
 205  579.0184
 206  487.2189
 207  550.1915
 208  549.4908
 209  465.7373
 210  497.6339
 211  496.1634
 212  496.3607
 213  491.3636
 214  421.222
 215  478.9488
 216  483.7626
 217  606.4515
 218  592.2457
 219  513.1433
 220  579.243
 221  597.1205
 222  589.1641
 223  499.4258
 224  621.6266
 225  715.3033
 226  737.7864
 227  642.3873
 228  574.0721
 229  529.9554
 230  531.611
 231  588.8811
 232  614.2356
 233  566.5565
 234  613.4065
 235  666.5176
 236  713.1003
 237  630.7129
 238  631.6169
 239  604.0837
 240  565.2603
 241  555.2922
 242  632.5041
 243  590.9006
 244  549.957
 245  536.0364
 246  515.7302
 247  499.5102
 248  572.3726
 249  582.4298
 250  530.3352
 251  528.9739
 252  547.9589
 253  598.8688
 254  536.129
 255  553.0953
 256  572.6889
 257  544.9427
 258  605.1848
 259  593.7869
 260  526.099
 261  457.7571
 262  473.1911
 263  509.1135
 264  561.2335
 265  639.5042
 266  627.7313
 267  673.7684
 268  674.9739
 269  600.7872
 270  625.642
 271  579.5968
 272  519.2209
 273  559.355
 274  533.8564
 275  582.3179
 276  601.1362
 277  565.2382
 278  526.4741
 279  504.6707
 280  555.2202
 281  609.4152
 282  606.17
 283  645.1147
 284  531.9957
 285  588.5681
 286  652.3492
 287  547.5898
 288  458.7972
 289  490.1567
 290  580.8182
 291  625.7122
 292  633.5372
 293  612.3973
 294  512.7544
 295  499.459
 296  534.4132
 297  587.6299
 298  662.1204
 299  687.765
 300  666.0521
 301  505.2972
 302  482.4414
 303  497.7978
 304  548.888
 305  599.8823
 306  541.7913
 307  416.4409
 308  462.9361
 309  485.6359
 310  575.7236
 311  544.0978
 312  425.4142
 313  471.0722
 314  540.5559
 315  530.1371
 316  510.6031
 317  427.0318
 318  384.6944
 319  413.4069
 320  477.0293
 321  438.7583
 322  423.3568
 323  464.0699
 324  535.3422
 325  576.6152
 326  520.9797
 327  542.4347
 328  533.2889
 329  402.1849
 330  387.2584
 331  469.8936
 332  569.6119
 333  572.9828
 334  530.0675
 335  596.9565
 336  706.828
 337  625.988
 338  477.494
 339  458.9816
 340  494.4427
 341  440.7147
 342  436.999
 343  538.0165
 344  522.2635
 345  493.7929
 346  601.7552
 347  487.7869
 348  472.4309
 349  557.9814
 350  538.0756
 351  476.1712
 352  469.6685
 353  521.8087
 354  576.8513
 355  525.9801
 356  505.2824
 357  521.6979
 358  520.5551
 359  550.7236
 360  564.1492
 361  514.9291
 362  452.2993
 363  507.6761
 364  547.029
 365  567.1684
 366  617.4747
 367  642.1328
 368  541.1513
 369  449.9442
 370  546.7418
 371  565.8208
 372  575.5453
 373  627.8489
 374  583.399
 375  713.1742
 376  594.3119
 377  478.5466
 378  476.1664
 379  513.5629
 380  584.613
 381  584.0024
 382  589.2946
 383  521.7104
 384  465.1549
 385  591.965
 386  545.6249
 387  522.7043
 388  523.3666
 389  477.646
 390  482.2248
 391  460.706
 392  534.0441
 393  617.8608
 394  575.1993
 395  558.5504
 396  537.3264
 397  657.9048
 398  664.9666
 399  609.6051
 400  539.6995
 401  511.9292
 402  562.8594
 403  544.9958
 404  516.6917
 405  553.5543
 406  625.9176
 407  583.5745
 408  479.0463
 409  479.7125
 410  454.6529
 411  513.1261
 412  466.4391
 413  463.9969
 414  502.3309
 415  496.9397
 416  545.518
 417  466.8171
 418  477.4186
 419  441.8066
 420  524.354
 421  440.5616
 422  540.2412
 423  570.1187
 424  588.2607
 425  636.8472
 426  461.116
 427  403.8191
 428  428.4208
 429  485.6847
 430  456.0212
 431  489.8123
 432  597.6944
 433  547.9979
 434  440.3287
 435  564.6638
 436  531.8747
 437  428.5476
 438  350.0166
 439  435.0575
 440  547.4995
 441  588.5331
 442  653.0793
 443  627.5745
 444  549.4422
 445  582.9503
 446  520.9717
 447  479.749
 448  523.7843
 449  601.9138
 450  691.2502
 451  586.2854
 452  592.6701
 453  576.0795
 454  508.5426
 455  509.6026
 456  592.519
 457  715.5438
 458  795.1738
 459  897.7783
 460  975.3433
 461  869.0829
 462  692.0736
 463  662.5908
 464  642.7657
 465  643.1443
 466  674.5327
 467  623.4133
 468  538.015
 469  426.0347
 470  447.1183
 471  559.3665
 472  647.0812
 473  584.7809
 474  471.9135
 475  424.9459
 476  431.9269
 477  473.1727
 478  505.0768
 479  497.7955
 480  404.1006
 481  453.3879
 482  607.0198
 483  582.1113
 484  452.1444
 485  466.1218
 486  586.269
 487  578.5767
 488  649.0081
 489  597.3147
 490  529.4557
 491  510.2834
 492  548.7412
 493  601.8081
 494  548.9971
 495  592.1284
 496  520.6967
 497  487.5236
 498  443.0534
 499  496.0405
 500  425.3483
 501  417.9125
 502  409.1463
 503  480.907
 504  499.3096
 505  386.5363
 506  420.3949
 507  554.4341
 508  550.5474
 509  508.8621
 510  485.8493
 511  458.3185
