# Input file       =  1198675532.112296_cleaned.dat
# Candidate        =  PSR_0332+5434
# Telescope        =  AR
# Epoch_topo       =  58117.559619355277
# Epoch_bary       =  N/A
# T_sample         =  0.002
# Data Folded      =  7143424
# Data Avg         =  0.0489280084276213
# Data StdDev      =  4.96998195267298 
# Profile Bins     =  512
# Profile Avg      =  682.592115241857 
# Profile StdDev   =  587.047233150158 
# Reduced chi-sqr  =  0.951
# Prob(Noise)      <  0.781   (~0.0 sigma)
# P_topo (ms)      =  714.554510894412  +/- 0.000211
# P'_topo (s/s)    =  -0                +/- 1.14e-10
# P''_topo (s/s^2) =  0                 +/- 5.18e-14
# P_bary (ms)      =  N/A
# P'_bary (s/s)    =  N/A
# P''_bary (s/s^2) =  N/A
# P_orb (s)        =  N/A
# asin(i)/c (s)    =  N/A
# eccentricity     =  N/A
# w (rad)          =  N/A
# T_peri           =  N/A
######################################################
   0  1463.688
   1  1298.204
   2  970.8736
   3  733.6641
   4  697.4214
   5  595.0851
   6  614.4749
   7  528.0124
   8  664.2664
   9  1104.396
  10  947.4313
  11  654.4961
  12  901.5472
  13  538.1185
  14  607.0927
  15  883.1705
  16  1259.531
  17  799.4247
  18  726.0225
  19  712.5649
  20  694.6851
  21  759.4468
  22  682.7167
  23  734.5868
  24  526.6099
  25  199.6321
  26  511.4354
  27  566.7454
  28  455.4988
  29  231.0158
  30  533.2022
  31  563.3383
  32  730.7634
  33  -22.96445
  34  44.06763
  35  -118.6465
  36  -351.4417
  37  -475.5996
  38  -37.51332
  39  -184.6896
  40  242.3336
  41  290.5121
  42  467.6824
  43  233.8273
  44  187.3407
  45  275.9146
  46  490.9997
  47  835.0184
  48  282.4295
  49  294.7617
  50  306.9976
  51  92.51495
  52  405.0492
  53  234.2204
  54  172.3565
  55  -139.5289
  56  9.998588
  57  -338.0919
  58  -1011.751
  59  -201.9691
  60  178.5875
  61  240.5283
  62  -51.50605
  63  467.3339
  64  -8.383815
  65  -86.44138
  66  95.64767
  67  190.1651
  68  564.7917
  69  558.3383
  70  404.1815
  71  288.8842
  72  142.2991
  73  124.6029
  74  23.83207
  75  445.328
  76  431.3063
  77  493.7166
  78  442.9064
  79  582.7248
  80  728.7202
  81  923.7499
  82  535.8569
  83  264.9465
  84  925.8273
  85  1056.286
  86  695.2975
  87  331.8362
  88  741.0072
  89  730.7661
  90  387.7909
  91  660.7719
  92  767.7451
  93  659.9171
  94  -33.11258
  95  706.0685
  96  1207.009
  97  1029.327
  98  832.4264
  99  1006.381
 100  1022.257
 101  608.6514
 102  808.2391
 103  538.6354
 104  631.2625
 105  472.9241
 106  386.6577
 107  312.6576
 108  432.3031
 109  521.0053
 110  858.4247
 111  754.0466
 112  681.5798
 113  454.9962
 114  471.8864
 115  10.74591
 116  206.9307
 117  261.903
 118  115.4665
 119  136.1931
 120  87.07613
 121  34.14739
 122  373.4171
 123  492.7723
 124  694.4854
 125  486.0632
 126  660.0225
 127  631.0112
 128  94.35363
 129  410.6507
 130  592.0255
 131  891.4509
 132  779.7656
 133  588.3647
 134  346.7421
 135  529.5715
 136  831.3201
 137  530.1557
 138  784.4069
 139  758.3789
 140  758.3964
 141  1188.375
 142  1538.891
 143  1585.24
 144  860.5638
 145  925.8666
 146  916.2745
 147  1299.243
 148  958.27
 149  890.6369
 150  704.5259
 151  401.162
 152  426.5184
 153  825.237
 154  603.9065
 155  663.9128
 156  703.4107
 157  795.9869
 158  604.9886
 159  988.5638
 160  817.405
 161  1052.481
 162  1434.316
 163  1922.026
 164  1447.223
 165  1243.798
 166  932.8926
 167  822.4806
 168  780.9586
 169  985.0689
 170  1221.132
 171  1692.634
 172  1879.939
 173  1616.525
 174  1735.425
 175  1721.864
 176  2007.423
 177  1984.206
 178  1405.502
 179  1372.875
 180  1910.057
 181  1691.674
 182  703.2754
 183  625.3271
 184  684.1069
 185  580.2308
 186  1144.162
 187  1008.819
 188  731.4843
 189  757.9901
 190  495.5692
 191  482.9334
 192  515.056
 193  897.3329
 194  977.1549
 195  684.8833
 196  909.7994
 197  930.696
 198  990.4911
 199  964.8176
 200  1044.059
 201  852.0698
 202  1090.994
 203  1015.393
 204  857.2134
 205  770.5954
 206  804.6243
 207  761.917
 208  1015.575
 209  637.0652
 210  799.951
 211  774.9813
 212  982.4207
 213  863.634
 214  1093.293
 215  881.1216
 216  1156.646
 217  996.1213
 218  758.2339
 219  821.0898
 220  1131.025
 221  730.8905
 222  523.8265
 223  771.1628
 224  941.782
 225  891.7162
 226  961.5269
 227  598.8409
 228  654.2891
 229  730.0157
 230  584.9208
 231  746.1962
 232  519.6929
 233  530.7037
 234  110.7231
 235  348.4444
 236  263.9498
 237  349.0974
 238  809.387
 239  276.2271
 240  472.4273
 241  240.9662
 242  184.6166
 243  800.842
 244  1455.521
 245  1545.693
 246  1440.241
 247  1230.834
 248  936.603
 249  1166.407
 250  501.5632
 251  401.7019
 252  517.7455
 253  680.1073
 254  859.2396
 255  960.295
 256  825.7255
 257  657.1768
 258  599.4413
 259  290.2802
 260  871.9066
 261  1224.086
 262  1249.91
 263  1198.795
 264  1223.065
 265  1363.161
 266  866.8784
 267  684.6437
 268  462.2593
 269  382.6483
 270  799.2078
 271  972.2501
 272  1418.5
 273  869.2234
 274  1225.493
 275  1068.77
 276  643.2704
 277  699.7877
 278  1071.321
 279  715.3868
 280  912.9667
 281  1008.508
 282  954.3311
 283  328.1867
 284  -29.19019
 285  246.5615
 286  268.781
 287  553.8257
 288  354.9866
 289  505.9355
 290  589.361
 291  774.5587
 292  1280.088
 293  914.6478
 294  1606.536
 295  1335.24
 296  909.2729
 297  364.9103
 298  640.8249
 299  1226.33
 300  966.3717
 301  1202.882
 302  790.6577
 303  846.6023
 304  954.5077
 305  1078.57
 306  1041.837
 307  557.4605
 308  831.8608
 309  1000.252
 310  1248.374
 311  1497.049
 312  1477.662
 313  1115.48
 314  792.9447
 315  357.4061
 316  390.6387
 317  710.9827
 318  891.3699
 319  1109.886
 320  902.7278
 321  151.7277
 322  151.5372
 323  176.4155
 324  118.0744
 325  458.5478
 326  700.1195
 327  974.7562
 328  857.535
 329  1046.919
 330  854.4131
 331  686.8146
 332  68.95554
 333  -172.1885
 334  -51.42529
 335  339.3288
 336  826.8522
 337  1037.3
 338  752.3477
 339  253.8238
 340  55.89592
 341  74.22088
 342  69.36824
 343  199.882
 344  345.9575
 345  271.1712
 346  269.6254
 347  270.6387
 348  365.3085
 349  233.7282
 350  308.6723
 351  235.904
 352  383.2695
 353  278.9681
 354  215.5293
 355  489.1349
 356  782.0286
 357  713.0518
 358  568.5228
 359  1067.703
 360  1270.434
 361  1281.188
 362  1043.944
 363  283.8858
 364  436.4093
 365  696.2281
 366  763.8419
 367  795.0944
 368  666.4769
 369  626.9609
 370  425.8023
 371  338.4085
 372  238.8025
 373  368.6725
 374  449.5771
 375  163.4517
 376  279.8755
 377  -29.45448
 378  344.9324
 379  472.8872
 380  854.2811
 381  818.2504
 382  874.5983
 383  800.6566
 384  591.0781
 385  1062.511
 386  1136.593
 387  1138.225
 388  817.0593
 389  922.0592
 390  944.7582
 391  -25.34223
 392  301.7097
 393  1138.275
 394  1350.62
 395  918.8295
 396  1086.478
 397  1012.023
 398  888.9527
 399  417.8687
 400  440.3786
 401  993.4901
 402  861.4847
 403  998.0827
 404  449.8033
 405  444.0312
 406  131.5875
 407  351.543
 408  63.65271
 409  148.694
 410  1348.637
 411  1185.297
 412  787.8664
 413  678.5322
 414  537.4445
 415  696.3241
 416  473.7599
 417  913.6902
 418  830.7499
 419  1054.488
 420  854.3224
 421  817.6447
 422  990.7983
 423  1057.206
 424  1027.869
 425  1022.306
 426  1138.971
 427  812.1456
 428  1359.252
 429  1223.647
 430  843.7396
 431  645.7046
 432  489.0326
 433  96.96316
 434  -68.56882
 435  498.2445
 436  604.6556
 437  84.53923
 438  103.6729
 439  331.1064
 440  754.7805
 441  1162.553
 442  1322.298
 443  1037.952
 444  870.2361
 445  676.5443
 446  516.6389
 447  953.1965
 448  907.3734
 449  297.0146
 450  348.1078
 451  385.0016
 452  384.2125
 453  -137.734
 454  233.2047
 455  437.4527
 456  1167.051
 457  924.1166
 458  770.2251
 459  737.5772
 460  929.5359
 461  858.6573
 462  625.8051
 463  372.8731
 464  87.58056
 465  -33.87026
 466  564.5068
 467  943.1854
 468  970.0192
 469  756.8257
 470  593.0012
 471  278.0872
 472  641.0568
 473  730.6004
 474  554.5486
 475  884.3458
 476  879.3316
 477  733.8428
 478  590.4343
 479  731.481
 480  370.0522
 481  -5.560116
 482  465.7801
 483  414.2083
 484  724.022
 485  414.5824
 486  360.392
 487  861.2309
 488  336.5269
 489  516.8699
 490  1418.243
 491  1685.766
 492  1480.442
 493  1175.243
 494  714.5648
 495  337.5225
 496  77.59721
 497  1003.306
 498  1035.611
 499  493.992
 500  406.981
 501  1111.88
 502  872.9916
 503  811.8694
 504  591.289
 505  472.6136
 506  249.5827
 507  230.179
 508  450.4984
 509  997.9677
 510  1194.598
 511  1069.544
