# Input file       =  1198072487.096268_cleaned.dat
# Candidate        =  PSR_0332+5434
# Telescope        =  AR
# Epoch_topo       =  58110.579931669767
# Epoch_bary       =  N/A
# T_sample         =  0.002
# Data Folded      =  7143424
# Data Avg         =  0.07432329505944 
# Data StdDev      =  1.00078269335744 
# Profile Bins     =  512
# Profile Avg      =  1036.84214385212 
# Profile StdDev   =  118.211035113332 
# Reduced chi-sqr  =  0.791
# Prob(Noise)      <  1   (~0.0 sigma)
# P_topo (ms)      =  714.548229154944  +/- 6.91e-05
# P'_topo (s/s)    =  -0                +/- 3.75e-11
# P''_topo (s/s^2) =  0                 +/- 1.7e-14
# P_bary (ms)      =  N/A
# P'_bary (s/s)    =  N/A
# P''_bary (s/s^2) =  N/A
# P_orb (s)        =  N/A
# asin(i)/c (s)    =  N/A
# eccentricity     =  N/A
# w (rad)          =  N/A
# T_peri           =  N/A
######################################################
   0  1070.192
   1  993.293
   2  1087.721
   3  1233.04
   4  1181.631
   5  1080.22
   6  1088.683
   7  1140.212
   8  1066.633
   9  1142.348
  10  1144.866
  11  1060.279
  12  1135.081
  13  1192.351
  14  1103.819
  15  1103.91
  16  1032.203
  17  1043.805
  18  927.4195
  19  1013.983
  20  1034.544
  21  994.2415
  22  953.0723
  23  1060.331
  24  1135.644
  25  1107.181
  26  1207.127
  27  1231.712
  28  1253.669
  29  1282.725
  30  1189.065
  31  1225.805
  32  1170.984
  33  1107.299
  34  1021.833
  35  1102.943
  36  1117.9
  37  1096.175
  38  1175.274
  39  1179.605
  40  1042.035
  41  972.2322
  42  1021.933
  43  949.6973
  44  998.6255
  45  1112.612
  46  1033.805
  47  1063.708
  48  1118.779
  49  1061.455
  50  1024.318
  51  1037.798
  52  1028.639
  53  1027.259
  54  1009.829
  55  988.3879
  56  970.0029
  57  975.4344
  58  984.9796
  59  1009.473
  60  1142.104
  61  1060.798
  62  971.7233
  63  1046.416
  64  1047.526
  65  944.475
  66  854.0847
  67  893.7189
  68  913.0878
  69  896.3691
  70  924.3047
  71  1045.257
  72  1011.51
  73  950.3481
  74  908.0582
  75  980.4931
  76  1062.237
  77  1012.134
  78  1063.886
  79  1009.684
  80  1014.676
  81  1066.981
  82  1014.153
  83  1023.099
  84  1116.338
  85  1130.691
  86  1141.062
  87  1103.311
  88  1075.908
  89  1011.488
  90  994.2196
  91  1085.505
  92  1072.3
  93  1039.915
  94  1136.132
  95  1235.384
  96  1070.477
  97  1023.129
  98  1131.715
  99  1009.538
 100  894.7274
 101  884.3787
 102  879.2795
 103  1076.394
 104  901.1693
 105  925.7546
 106  1004.334
 107  1083.282
 108  1017.632
 109  1041.704
 110  1136.098
 111  1012.771
 112  931.8077
 113  936.538
 114  1044.783
 115  969.8278
 116  993.7798
 117  1053.196
 118  1106.92
 119  1048.439
 120  1003.988
 121  1003.685
 122  978.8285
 123  939.1137
 124  982.4396
 125  1039.946
 126  1031.76
 127  1024.653
 128  1093.177
 129  1084.05
 130  1030.024
 131  1143.425
 132  1071.549
 133  977.0407
 134  1043.051
 135  1134.435
 136  1141.381
 137  1125.15
 138  1049.723
 139  889.9129
 140  902.4721
 141  902.6442
 142  974.3127
 143  1147.479
 144  1148.878
 145  1076.99
 146  1058.407
 147  1082.653
 148  1037.309
 149  1064.411
 150  1058.03
 151  1038.929
 152  1031.285
 153  1076.319
 154  1040.576
 155  1099.601
 156  1034.512
 157  988.6475
 158  1028.555
 159  979.2469
 160  1087.903
 161  1044.895
 162  1021.562
 163  998.8619
 164  1023.2
 165  1015.167
 166  1024.184
 167  1029.751
 168  1084.353
 169  1044.472
 170  1059.219
 171  1121.921
 172  1046.214
 173  950.1385
 174  1006.237
 175  987.3641
 176  1063.773
 177  1064.916
 178  1032.848
 179  1103.3
 180  1061.262
 181  992.8084
 182  1020.16
 183  943.1919
 184  918.7678
 185  1102.318
 186  1101.626
 187  1019.199
 188  983.2755
 189  947.6292
 190  867.3432
 191  899.3438
 192  946.3204
 193  1035.08
 194  908.3571
 195  974.9916
 196  989.5029
 197  972.1992
 198  950.5345
 199  1030.953
 200  1006.632
 201  882.1705
 202  917.4484
 203  922.1367
 204  923.0344
 205  1055.338
 206  963.3879
 207  1013.271
 208  1059.367
 209  1121.423
 210  1091.713
 211  1019.218
 212  989.9304
 213  1065.752
 214  1075.485
 215  1046.373
 216  954.6765
 217  1050.36
 218  1056.365
 219  982.2963
 220  1034.29
 221  1005.626
 222  897.8632
 223  892.2159
 224  956.8333
 225  1025.786
 226  1070.857
 227  990.7226
 228  1075.495
 229  1039.614
 230  974.9171
 231  921.101
 232  1049.506
 233  1035.679
 234  1129.638
 235  1136.823
 236  1067.129
 237  948.5405
 238  1003.119
 239  1073.694
 240  1041.956
 241  1079.727
 242  1027.051
 243  1047.933
 244  1064.224
 245  1091.107
 246  1027.903
 247  1062.934
 248  1031.642
 249  1003.367
 250  879.085
 251  832.7496
 252  1044.965
 253  1106.964
 254  988.2816
 255  913.256
 256  1065.761
 257  1100.556
 258  1023.202
 259  1050.922
 260  1067.184
 261  965.4697
 262  1020.947
 263  997.0432
 264  1014.201
 265  987.2625
 266  1031.504
 267  1114.339
 268  1082.626
 269  971.4644
 270  838.0004
 271  999.8439
 272  918.0941
 273  922.1855
 274  1034.56
 275  1061.201
 276  894.0052
 277  912.7298
 278  1017.534
 279  1096.717
 280  1064.924
 281  1040.993
 282  1079.235
 283  1021.292
 284  1019.221
 285  1062.64
 286  1017.37
 287  972.482
 288  1021.659
 289  1116.595
 290  1102.844
 291  1067.917
 292  1152.559
 293  1112.023
 294  973.9734
 295  957.3278
 296  1109.182
 297  1016.224
 298  995.4047
 299  1124.754
 300  1185.785
 301  933.3972
 302  891.7354
 303  1082.409
 304  1082.773
 305  1083.624
 306  1018.635
 307  1016.469
 308  995.4423
 309  1135.084
 310  1087.886
 311  1030.129
 312  1050.179
 313  1032.557
 314  1104.527
 315  1084.408
 316  1096.28
 317  1051.245
 318  1070.103
 319  1007.521
 320  965.5904
 321  965.421
 322  1009.101
 323  1082.629
 324  1052.519
 325  1113.7
 326  1043.998
 327  1047.243
 328  1008.542
 329  1029.286
 330  1003.177
 331  968.3748
 332  1105.368
 333  1223.326
 334  1069.192
 335  1062.607
 336  1071.834
 337  1027.408
 338  951.3488
 339  1066.917
 340  1101.307
 341  1045.731
 342  1182.499
 343  1144.741
 344  1015.741
 345  961.5245
 346  1122.635
 347  1083.768
 348  1108.696
 349  1121.986
 350  1049.432
 351  1054.487
 352  1007.322
 353  966.0289
 354  998.2698
 355  1100.98
 356  1078.391
 357  989.006
 358  955.4341
 359  1017.953
 360  1159.649
 361  1177.759
 362  1056.103
 363  1057.703
 364  1030.939
 365  1005.026
 366  987.8408
 367  970.3409
 368  978.9413
 369  869.0007
 370  934.497
 371  963.1251
 372  1015.081
 373  1085.076
 374  961.8919
 375  944.6567
 376  892.2001
 377  991.8777
 378  1006.709
 379  950.3643
 380  964.5771
 381  1004.179
 382  1067.814
 383  995.3563
 384  895.7132
 385  935.375
 386  963.2596
 387  921.3772
 388  1001.437
 389  1037.419
 390  991.8225
 391  930.3129
 392  919.1938
 393  954.8865
 394  1009.576
 395  1038.789
 396  1068.946
 397  986.5038
 398  898.3685
 399  980.181
 400  1065.114
 401  966.4891
 402  1020.502
 403  1068.332
 404  1029.159
 405  1003.505
 406  939.4714
 407  1082.697
 408  1082.727
 409  1010.343
 410  983.5174
 411  1082.277
 412  1037.639
 413  1067.508
 414  1097.501
 415  1141.597
 416  946.5321
 417  929.066
 418  1010.266
 419  929.0892
 420  960.7853
 421  1067.949
 422  1091.612
 423  1065.202
 424  1084.234
 425  1059.931
 426  968.75
 427  1021.848
 428  1032.291
 429  1090.107
 430  1111.09
 431  958.1782
 432  947.9433
 433  1071.237
 434  999.8879
 435  943.6447
 436  1010.443
 437  835.5639
 438  855.0535
 439  1059.718
 440  1047.304
 441  1018.328
 442  1050.684
 443  1128.976
 444  1119.058
 445  1064.075
 446  1098.582
 447  994.5992
 448  1047.247
 449  1135.052
 450  989.874
 451  957.1454
 452  1019.557
 453  1015.937
 454  1054.53
 455  987.4276
 456  1003.286
 457  1079.646
 458  1065.984
 459  1044.999
 460  1122.24
 461  1092.019
 462  1103.657
 463  1110.265
 464  1174.989
 465  1167.786
 466  1092.717
 467  1128.149
 468  1175.462
 469  1022.926
 470  1040.059
 471  1126.62
 472  1169.567
 473  1153.377
 474  1035.357
 475  1038.637
 476  929.8536
 477  1079.712
 478  1039.58
 479  959.5493
 480  1039.615
 481  1084.759
 482  995.535
 483  1037.077
 484  1118.336
 485  945.9916
 486  949.3682
 487  1113.091
 488  1110.94
 489  1097.833
 490  1056.676
 491  1172.516
 492  1313.515
 493  1267.517
 494  1036.868
 495  1148.274
 496  1179.334
 497  1098.969
 498  1082.264
 499  1036.945
 500  1011.997
 501  916.0609
 502  1015.912
 503  1023.748
 504  1032.1
 505  1079.337
 506  1094.593
 507  1099.251
 508  1202.661
 509  1134.767
 510  1027.521
 511  1193.071
