# Input file       =  1198345507.109696_cleaned.dat
# Candidate        =  PSR_0332+5434
# Telescope        =  AR
# Epoch_topo       =  58113.739885528885
# Epoch_bary       =  N/A
# T_sample         =  0.002
# Data Folded      =  7340032
# Data Avg         =  0.0526103996795419
# Data StdDev      =  1.00016356558104 
# Profile Bins     =  512
# Profile Avg      =  754.177089202259 
# Profile StdDev   =  119.752620580431 
# Reduced chi-sqr  =  1.002
# Prob(Noise)      <  0.478   (~0.1 sigma)
# P_topo (ms)      =  714.551155282566  +/- 0.000355
# P'_topo (s/s)    =  -0                +/- 1.87e-10
# P''_topo (s/s^2) =  0                 +/- 8.28e-14
# P_bary (ms)      =  N/A
# P'_bary (s/s)    =  N/A
# P''_bary (s/s^2) =  N/A
# P_orb (s)        =  N/A
# asin(i)/c (s)    =  N/A
# eccentricity     =  N/A
# w (rad)          =  N/A
# T_peri           =  N/A
######################################################
   0  1066.371
   1  1165.256
   2  1012.379
   3  770.1672
   4  738.2643
   5  762.1885
   6  705.7121
   7  752.0961
   8  799.4
   9  793.3973
  10  775.1852
  11  745.5539
  12  848.723
  13  839.6833
  14  827.735
  15  724.7783
  16  699.307
  17  690.1021
  18  797.6275
  19  856.306
  20  696.6777
  21  600.6994
  22  704.8139
  23  793.9113
  24  756.8666
  25  749.2377
  26  859.076
  27  822.0771
  28  728.1996
  29  710.6808
  30  832.9202
  31  733.7548
  32  642.9479
  33  763.3161
  34  867.7531
  35  742.3022
  36  672.4691
  37  799.8793
  38  648.9474
  39  682.0619
  40  775.4714
  41  790.0504
  42  765.4453
  43  728.5005
  44  741.118
  45  755.1086
  46  701.4725
  47  571.027
  48  657.5523
  49  663.9388
  50  662.3181
  51  782.734
  52  723.7069
  53  795.8889
  54  836.2031
  55  806.5508
  56  689.5505
  57  642.3272
  58  710.9257
  59  766.2344
  60  720.0783
  61  734.2518
  62  699.8707
  63  641.1014
  64  791.6845
  65  866.2728
  66  753.0482
  67  663.0182
  68  802.631
  69  889.5164
  70  854.5186
  71  697.7996
  72  710.0888
  73  819.1727
  74  812.6367
  75  796.8793
  76  619.812
  77  557.6617
  78  698.8455
  79  676.4027
  80  781.5157
  81  881.4857
  82  844.5682
  83  776.2747
  84  761.5594
  85  763.7366
  86  703.8038
  87  751.5823
  88  771.2952
  89  830.5554
  90  701.3146
  91  715.2073
  92  719.2316
  93  738.0892
  94  837.2518
  95  857.9202
  96  839.5312
  97  681.5704
  98  716.9445
  99  736.0858
 100  828.5808
 101  840.7379
 102  839.0035
 103  653.2783
 104  564.3015
 105  562.2408
 106  659.5055
 107  664.5546
 108  721.2092
 109  626.8587
 110  729.0328
 111  698.6619
 112  741.2009
 113  748.1841
 114  694.0936
 115  843.9457
 116  848.9897
 117  719.7253
 118  635.2347
 119  609.6204
 120  616.5956
 121  783.6247
 122  746.6689
 123  756.2239
 124  704.126
 125  739.6035
 126  683.6779
 127  724.3082
 128  752.1158
 129  884.8019
 130  961.1227
 131  760.2209
 132  758.9658
 133  687.7187
 134  651.9932
 135  705.4358
 136  674.2001
 137  635.5148
 138  684.0274
 139  709.1088
 140  659.7008
 141  571.5323
 142  666.7461
 143  624.5372
 144  713.6787
 145  782.0538
 146  893.7827
 147  921.4774
 148  760.2242
 149  833.3122
 150  783.9099
 151  729.1946
 152  762.7637
 153  726.8702
 154  700.7849
 155  718.3849
 156  752.6641
 157  776.6675
 158  706.2415
 159  734.7504
 160  745.7489
 161  765.8391
 162  710.7986
 163  714.7998
 164  683.6207
 165  613.4524
 166  759.7433
 167  754.0137
 168  864.3599
 169  854.7841
 170  813.1949
 171  927.8164
 172  927.9725
 173  881.8835
 174  783.717
 175  764.3735
 176  851.4368
 177  837.9715
 178  762.8859
 179  679.6797
 180  710.0584
 181  822.1684
 182  844.7559
 183  730.5987
 184  742.0558
 185  783.7559
 186  773.4721
 187  774.9734
 188  778.3698
 189  886.2087
 190  765.5531
 191  673.0536
 192  740.4655
 193  670.2745
 194  727.9294
 195  722.3812
 196  763.4533
 197  784.6835
 198  758.8521
 199  734.9089
 200  621.9269
 201  662.22
 202  726.7435
 203  652.7597
 204  766.5233
 205  804.5914
 206  747.5626
 207  683.8138
 208  620.6431
 209  685.3192
 210  723.6013
 211  657.3189
 212  740.683
 213  681.149
 214  721.2198
 215  668.5901
 216  646.8392
 217  608.0115
 218  632.9799
 219  773.0692
 220  749.7798
 221  678.9796
 222  757.4688
 223  727.4149
 224  740.4581
 225  713.5707
 226  658.9294
 227  737.4576
 228  715.9255
 229  735.7178
 230  717.4435
 231  694.0629
 232  668.8323
 233  746.1479
 234  852.4417
 235  807.9769
 236  594.5491
 237  732.4861
 238  756.8664
 239  604.4225
 240  580.7812
 241  755.8002
 242  743.4938
 243  683.8696
 244  699.0496
 245  617.0926
 246  629.8737
 247  706.9576
 248  649.3081
 249  711.4738
 250  689.4563
 251  720.3222
 252  843.4489
 253  850.1948
 254  814.8384
 255  747.2731
 256  804.313
 257  686.8462
 258  660.7759
 259  669.8117
 260  805.7235
 261  707.4446
 262  660.6284
 263  810.7888
 264  716.5568
 265  629.3
 266  739.5264
 267  839.2802
 268  838.7582
 269  786.6017
 270  677.551
 271  742.4285
 272  758.7282
 273  758.2696
 274  709.736
 275  589.603
 276  636.0001
 277  741.7276
 278  777.6229
 279  721.6816
 280  666.0101
 281  594.7931
 282  752.2209
 283  721.4937
 284  721.389
 285  680.7642
 286  636.8008
 287  720.4194
 288  782.1015
 289  845.4672
 290  797.6418
 291  840.0771
 292  913.3294
 293  861.4091
 294  665.214
 295  635.4523
 296  677.7778
 297  713.2427
 298  743.9218
 299  744.9239
 300  688.8032
 301  642.4261
 302  664.4948
 303  761.965
 304  706.7992
 305  704.7404
 306  723.6506
 307  822.4644
 308  871.692
 309  938.8613
 310  814.5109
 311  579.0043
 312  649.982
 313  775.9527
 314  795.9062
 315  768.5435
 316  751.4703
 317  815.6956
 318  642.7975
 319  641.288
 320  746.6774
 321  785.6315
 322  705.1572
 323  829.1134
 324  846.1397
 325  693.6377
 326  661.655
 327  699.2852
 328  649.614
 329  630.5192
 330  638.0735
 331  768.1697
 332  750.9724
 333  770.293
 334  836.434
 335  814.2253
 336  742.2736
 337  737.5584
 338  785.5883
 339  813.2997
 340  685.0068
 341  592.2939
 342  700.5994
 343  711.7598
 344  820.3877
 345  697.7573
 346  743.2392
 347  753.2772
 348  733.7053
 349  782.3262
 350  708.0417
 351  729.257
 352  853.3624
 353  923.5911
 354  862.7567
 355  745.4466
 356  769.3677
 357  686.3775
 358  682.8287
 359  844.3226
 360  872.8392
 361  811.7353
 362  915.1783
 363  936.7092
 364  857.648
 365  833.8528
 366  873.8319
 367  806.2989
 368  728.2668
 369  803.6289
 370  856.4017
 371  732.2101
 372  774.9586
 373  806.7552
 374  721.1714
 375  789.1967
 376  803.1775
 377  813.2747
 378  751.2156
 379  818.0333
 380  784.2244
 381  822.884
 382  777.3701
 383  761.6101
 384  787.8666
 385  922.4606
 386  804.3754
 387  735.4426
 388  805.0956
 389  632.6996
 390  639.1394
 391  758.6862
 392  763.0373
 393  798.962
 394  892.0693
 395  773.9962
 396  723.6055
 397  832.5308
 398  780.3124
 399  718.1869
 400  717.6396
 401  718.8644
 402  748.8735
 403  846.3226
 404  854.4945
 405  713.0822
 406  777.137
 407  792.7502
 408  706.5887
 409  718.1709
 410  677.9631
 411  764.4291
 412  796.4609
 413  739.9048
 414  763.4285
 415  806.9626
 416  769.0248
 417  697.4777
 418  760.9437
 419  856.9186
 420  871.9944
 421  919.3696
 422  744.5012
 423  752.838
 424  676.7098
 425  784.4795
 426  720.7746
 427  791.6426
 428  813.5933
 429  718.0696
 430  743.3513
 431  846.5066
 432  787.0345
 433  778.3282
 434  791.6446
 435  774.9182
 436  797.0266
 437  799.0591
 438  854.9767
 439  806.5112
 440  766.2985
 441  760.1708
 442  821.9343
 443  893.297
 444  812.7867
 445  822.5562
 446  743.0405
 447  735.4554
 448  763.2231
 449  755.9507
 450  703.1398
 451  751.0211
 452  812.5984
 453  799.1884
 454  802.7839
 455  717.1857
 456  793.2676
 457  755.045
 458  695.4597
 459  681.7036
 460  763.4319
 461  735.7186
 462  679.3066
 463  708.895
 464  695.6628
 465  680.9877
 466  696.4911
 467  668.8686
 468  594.9524
 469  504.8594
 470  594.6179
 471  681.5339
 472  695.2377
 473  727.958
 474  602.7012
 475  562.1592
 476  671.5701
 477  709.8665
 478  741.5772
 479  837.1178
 480  671.0901
 481  694.7332
 482  752.7332
 483  675.406
 484  633.3661
 485  737.7269
 486  810.3259
 487  789.1456
 488  841.0743
 489  910.3404
 490  810.2957
 491  865.9274
 492  903.8536
 493  912.02
 494  909.8712
 495  852.1514
 496  831.136
 497  846.0472
 498  961.4233
 499  937.2175
 500  813.2135
 501  697.2233
 502  723.4567
 503  840.4011
 504  879.3752
 505  871.4622
 506  927.1358
 507  938.8598
 508  964.2249
 509  1063.655
 510  1148.123
 511  1115.254
