# Input file       =  1198761694.129448_cleaned.dat
# Candidate        =  PSR_0332+5434
# Telescope        =  AR
# Epoch_topo       =  58118.556864924169
# Epoch_bary       =  N/A
# T_sample         =  0.002
# Data Folded      =  7405568
# Data Avg         =  0.126849606224188
# Data StdDev      =  4.22270049762779 
# Profile Bins     =  512
# Profile Avg      =  1834.79163768022 
# Profile StdDev   =  507.84886478353  
# Reduced chi-sqr  =  1.164
# Prob(Noise)      <  0.00597   (~2.5 sigma)
# P_topo (ms)      =  714.555366844508  +/- 2.68e-05
# P'_topo (s/s)    =  -0                +/- 1.4e-11
# P''_topo (s/s^2) =  0                 +/- 6.12e-15
# P_bary (ms)      =  N/A
# P'_bary (s/s)    =  N/A
# P''_bary (s/s^2) =  N/A
# P_orb (s)        =  N/A
# asin(i)/c (s)    =  N/A
# eccentricity     =  N/A
# w (rad)          =  N/A
# T_peri           =  N/A
######################################################
   0  1162.516
   1  1170.895
   2  1562.629
   3  1536.532
   4  1960.091
   5  2368.344
   6  2469.69
   7  1794.921
   8  1732.496
   9  2450.414
  10  2459.606
  11  2485.585
  12  2683.844
  13  2438.798
  14  2116.342
  15  1566.953
  16  1670.2
  17  1624.356
  18  1757.9
  19  2089.916
  20  2264.528
  21  2144.82
  22  2317.875
  23  2013.209
  24  1887.315
  25  1942.833
  26  2068.557
  27  2256.354
  28  2099.136
  29  2319.459
  30  2246.635
  31  1665.86
  32  1471.822
  33  1193.772
  34  1711.287
  35  2083.971
  36  1995.532
  37  1996.976
  38  1501.23
  39  1615.848
  40  1730.67
  41  1243.1
  42  1412.196
  43  1742.527
  44  1966.904
  45  2413.013
  46  2352.056
  47  1985.009
  48  1527.851
  49  977.0848
  50  1594.025
  51  1918.082
  52  2246.737
  53  2588.461
  54  2417.106
  55  2541.266
  56  2082.168
  57  1942.829
  58  1994.336
  59  1874.486
  60  1612.9
  61  1893.87
  62  2067.214
  63  1684.593
  64  1825.581
  65  1746.065
  66  1123.494
  67  1579.917
  68  2246.476
  69  2442.567
  70  2059.594
  71  2167.7
  72  2160.317
  73  1844.417
  74  1605.291
  75  988.8959
  76  1364.552
  77  1521.644
  78  1698.823
  79  1581.384
  80  2112.274
  81  1947.633
  82  1430.52
  83  1488.197
  84  1632.119
  85  1700.117
  86  2165.623
  87  2474.405
  88  2572.911
  89  2301.728
  90  2062.117
  91  2152.784
  92  2290.941
  93  2455.315
  94  2882.265
  95  2689.239
  96  2781.792
  97  2473.608
  98  2084.781
  99  1991.897
 100  1659.804
 101  2094.221
 102  2412.375
 103  1933.136
 104  1885.39
 105  2008.302
 106  2249.189
 107  1726.484
 108  1603.413
 109  1869.005
 110  1631.637
 111  1674.1
 112  2403.948
 113  2462.101
 114  1667.19
 115  1615.506
 116  1415.136
 117  1458.749
 118  1171.48
 119  1681.523
 120  2024.985
 121  2247.708
 122  2102.294
 123  1831.274
 124  1528.167
 125  1035.878
 126  1445.899
 127  1855.692
 128  2426.891
 129  2450.057
 130  2224.013
 131  2039.532
 132  1655.638
 133  1381.915
 134  1718.839
 135  1611.674
 136  2039.685
 137  2307.785
 138  2354.08
 139  1611.937
 140  1170.554
 141  1285.964
 142  1142.692
 143  1838.669
 144  2127.457
 145  2174.715
 146  1994.974
 147  1874.164
 148  1506.065
 149  1303.741
 150  1970.017
 151  2282.548
 152  2470.758
 153  2973.927
 154  2657.848
 155  2204.533
 156  1506.6
 157  1227.501
 158  1517.066
 159  1913.057
 160  2096.508
 161  2262.834
 162  2493.78
 163  2349.86
 164  1956.779
 165  1587.79
 166  1112.46
 167  1502.036
 168  1927.397
 169  2030.607
 170  2519.119
 171  2298.964
 172  1796.579
 173  2072.667
 174  1567.262
 175  1646.142
 176  1951.292
 177  2424.416
 178  2649.253
 179  2548.654
 180  2241.921
 181  2109.641
 182  1882.212
 183  1910.401
 184  2144.682
 185  2390.398
 186  2242.909
 187  2522.861
 188  2159.31
 189  1287.883
 190  991.0475
 191  1534.417
 192  1379.221
 193  1857.456
 194  2273.565
 195  2053.139
 196  2007.023
 197  1905.234
 198  1717.095
 199  1488.08
 200  2271.881
 201  1983.096
 202  1993.85
 203  2679.119
 204  2410.07
 205  2033.108
 206  1571.763
 207  1901.269
 208  1738.54
 209  1826.673
 210  2395.992
 211  2331.414
 212  2248.806
 213  2085.198
 214  1544.113
 215  1234.069
 216  1394.674
 217  1737.966
 218  1763.158
 219  2287.909
 220  2064.321
 221  2426.168
 222  1751.094
 223  1310.952
 224  1388.097
 225  1448.653
 226  1989.315
 227  2337.237
 228  2400.631
 229  2411.213
 230  2145.327
 231  1802.293
 232  1761.421
 233  1951.102
 234  2313.169
 235  2561.067
 236  2434.75
 237  2290.425
 238  1621.963
 239  1467.515
 240  1705.846
 241  1968.338
 242  1821.703
 243  2363.99
 244  2586.669
 245  2141.431
 246  2114.622
 247  1220.47
 248  1308.704
 249  1602.394
 250  1615.18
 251  1547.351
 252  2005.854
 253  2232.262
 254  1583.72
 255  1021.703
 256  1431.833
 257  1779.824
 258  1738.66
 259  2194.206
 260  2303.504
 261  2341.97
 262  2358.461
 263  2304.788
 264  1644.84
 265  1717.518
 266  2102.45
 267  1610.575
 268  1805.958
 269  2313.085
 270  2283.889
 271  1638.099
 272  1498.122
 273  1501.545
 274  1594.332
 275  1642.415
 276  2070.753
 277  2165.255
 278  2390.164
 279  1888.619
 280  1707.861
 281  1603.99
 282  1870.687
 283  2046.407
 284  1959.338
 285  1812.453
 286  2194.792
 287  2351.619
 288  1953.757
 289  1501.817
 290  1450.998
 291  1915.687
 292  1835.055
 293  2151.241
 294  2478.559
 295  2117.376
 296  1844.491
 297  1617.617
 298  1793.279
 299  2203.991
 300  2429.914
 301  2406.271
 302  2345.665
 303  2110.277
 304  1644.668
 305  1148.462
 306  964.8413
 307  1420.997
 308  1777.35
 309  2300.862
 310  2169.703
 311  2454.323
 312  1986.229
 313  1374.669
 314  1113.827
 315  1676.266
 316  2520.567
 317  2260.88
 318  2099.621
 319  2095.319
 320  2160.614
 321  1680.296
 322  983.9054
 323  1504.81
 324  1994.501
 325  1926.486
 326  2223.366
 327  2453.93
 328  2153.026
 329  1903.083
 330  1543.143
 331  1409.5
 332  1384.409
 333  1024.469
 334  1586.898
 335  1733.638
 336  1810.386
 337  1707.615
 338  1569.838
 339  1210.516
 340  1274.441
 341  1705.339
 342  2104.085
 343  2471.776
 344  2210.321
 345  2339.034
 346  1757.372
 347  1231.348
 348  1545.88
 349  1853.027
 350  1733.061
 351  1849.405
 352  2451.783
 353  1980.641
 354  1606.346
 355  1493.605
 356  1193.562
 357  1137.831
 358  1893.206
 359  2052.447
 360  2261.221
 361  1927.514
 362  1639.965
 363  1332.409
 364  1326.14
 365  1652.146
 366  1582.619
 367  1724.513
 368  1902.672
 369  2030.109
 370  1669.256
 371  1470.82
 372  1273.653
 373  1507.687
 374  1280.876
 375  1526.112
 376  1739.829
 377  1819.568
 378  1549.668
 379  1024.451
 380  1377.426
 381  1523.827
 382  1679.551
 383  2076.823
 384  1787.019
 385  1798.777
 386  1655.496
 387  1603.183
 388  1537.835
 389  1675.021
 390  1798.066
 391  1795.391
 392  1895.526
 393  1674.323
 394  1728.339
 395  1736.624
 396  1004.333
 397  940.7739
 398  1563.929
 399  1803.511
 400  1711
 401  1816.61
 402  1787.746
 403  1554.478
 404  1228.866
 405  1273.428
 406  1601.225
 407  1562.977
 408  1650.015
 409  1821.759
 410  1996.688
 411  1838.112
 412  1191.121
 413  994.4277
 414  1199.308
 415  1758.007
 416  1741.515
 417  2054.844
 418  2132.751
 419  1589.687
 420  1717.529
 421  1340.259
 422  1547.757
 423  1359.328
 424  1720.011
 425  1760.561
 426  2087.883
 427  2249.417
 428  1840.578
 429  1266.615
 430  1440.211
 431  1611.212
 432  1888.184
 433  2016.769
 434  2363.482
 435  2077.826
 436  1720.481
 437  1443.778
 438  1365.243
 439  1535.232
 440  1706.439
 441  1852.359
 442  2142.948
 443  1827.971
 444  1954.121
 445  1820.322
 446  1183.872
 447  1192.853
 448  1611.665
 449  1605.763
 450  1727.343
 451  1893.412
 452  1675.932
 453  1073.704
 454  1138.008
 455  1493.915
 456  916.6165
 457  1277.431
 458  1812.487
 459  2307.578
 460  1953.323
 461  1699.693
 462  1649.236
 463  1633.031
 464  1468.832
 465  1590.373
 466  1976.73
 467  1717.084
 468  1871.849
 469  1677.971
 470  1214.865
 471  1045.885
 472  1294.046
 473  1716.58
 474  1674.875
 475  1615.678
 476  1892.31
 477  1830.258
 478  1395.697
 479  1252.565
 480  1797.015
 481  1903.463
 482  1709.065
 483  1799.382
 484  1901.48
 485  1503.072
 486  1084.129
 487  1073.116
 488  1599.159
 489  1884.877
 490  1695.945
 491  1722.895
 492  1944.099
 493  2248.06
 494  1832.435
 495  1823.358
 496  1246.062
 497  1401.782
 498  1919.115
 499  1842.829
 500  2007.595
 501  1622.458
 502  1681.896
 503  1653.932
 504  1129.011
 505  1408.871
 506  1743.145
 507  2205.625
 508  2683.184
 509  2636.104
 510  2030.37
 511  1602.216
