# Input file       =  1198761694.129448_cleaned.dat
# Candidate        =  PSR_0332+5434
# Telescope        =  AR
# Epoch_topo       =  58118.556864924169
# Epoch_bary       =  N/A
# T_sample         =  0.002
# Data Folded      =  7405568
# Data Avg         =  0.126849606224188
# Data StdDev      =  4.22270049762779 
# Profile Bins     =  512
# Profile Avg      =  1834.79163767182 
# Profile StdDev   =  507.84886478353  
# Reduced chi-sqr  =  1.165
# Prob(Noise)      <  0.00584   (~2.5 sigma)
# P_topo (ms)      =  714.555366944263  +/- 2.65e-05
# P'_topo (s/s)    =  -0                +/- 1.39e-11
# P''_topo (s/s^2) =  0                 +/- 6.06e-15
# P_bary (ms)      =  N/A
# P'_bary (s/s)    =  N/A
# P''_bary (s/s^2) =  N/A
# P_orb (s)        =  N/A
# asin(i)/c (s)    =  N/A
# eccentricity     =  N/A
# w (rad)          =  N/A
# T_peri           =  N/A
######################################################
   0  2345.57
   1  2255.744
   2  2113.016
   3  1584.094
   4  1239.615
   5  1372.366
   6  1736.76
   7  1736.688
   8  2264.807
   9  2070.46
  10  2410.212
  11  1841.509
  12  1295.147
  13  1404.118
  14  1405.712
  15  1958.215
  16  2315.587
  17  2410.678
  18  2412.048
  19  2177.026
  20  1810.08
  21  1764.601
  22  1923.226
  23  2294.362
  24  2542.171
  25  2458.864
  26  2324.828
  27  1663.627
  28  1458.362
  29  1662.937
  30  1976.108
  31  1827.063
  32  2308.812
  33  2610.328
  34  2128.067
  35  2162.456
  36  1260.274
  37  1293.217
  38  1579.046
  39  1636.886
  40  1525.831
  41  1975.238
  42  2227.637
  43  1659.731
  44  1027.602
  45  1397.662
  46  1765.267
  47  1732.573
  48  2162.956
  49  2290.085
  50  2362.57
  51  2333.826
  52  2352.468
  53  1683.431
  54  1677.147
  55  2096.648
  56  1647.247
  57  1766.346
  58  2269.683
  59  2332.268
  60  1671.819
  61  1509.66
  62  1480.951
  63  1597.042
  64  1620.652
  65  2046.121
  66  2178.142
  67  2376.538
  68  1927.443
  69  1718.502
  70  1606.883
  71  1847.741
  72  2015.231
  73  1987.463
  74  1788.86
  75  2191.06
  76  2355.631
  77  2002.556
  78  1519.665
  79  1409.917
  80  1919.574
  81  1815.335
  82  2134.074
  83  2443.617
  84  2178.02
  85  1850.338
  86  1641.641
  87  1769.431
  88  2177.726
  89  2422.562
  90  2385.862
  91  2379.086
  92  2113.71
  93  1705.201
  94  1170.893
  95  952.1194
  96  1401.223
  97  1726.927
  98  2286.86
  99  2164.492
 100  2456.119
 101  2042.083
 102  1403.934
 103  1108.328
 104  1608.991
 105  2489.449
 106  2295.637
 107  2089.194
 108  2097.83
 109  2174.904
 110  1734.487
 111  996.2054
 112  1436.944
 113  1999.069
 114  1922.756
 115  2205.817
 116  2463.476
 117  2150.972
 118  1944.39
 119  1565.43
 120  1397.509
 121  1413.617
 122  1022.304
 123  1538.342
 124  1731.249
 125  1810.28
 126  1711.441
 127  1607.172
 128  1206.268
 129  1266.746
 130  1684.868
 131  2049.659
 132  2472.673
 133  2197.226
 134  2369.765
 135  1810.518
 136  1250.372
 137  1475.627
 138  1865.759
 139  1766.024
 140  1793.445
 141  2433.329
 142  2036.917
 143  1615.513
 144  1518.766
 145  1222.313
 146  1105.617
 147  1839.473
 148  2039.885
 149  2268.913
 150  1954.517
 151  1673.107
 152  1329.62
 153  1337.264
 154  1629.431
 155  1584.246
 156  1703.162
 157  1891.241
 158  2032.551
 159  1705.132
 160  1481.389
 161  1276.774
 162  1485.849
 163  1291.533
 164  1512.695
 165  1729.007
 166  1808.904
 167  1592.308
 168  1043.775
 169  1333.96
 170  1538.477
 171  1630.272
 172  2078.908
 173  1819.091
 174  1811.464
 175  1643.266
 176  1612.105
 177  1532.117
 178  1655.014
 179  1818.908
 180  1762.263
 181  1912.789
 182  1669.679
 183  1731.928
 184  1747.971
 185  1078.622
 186  897.6891
 187  1531.457
 188  1792.63
 189  1715.643
 190  1802.538
 191  1799.25
 192  1577.276
 193  1244.108
 194  1275.157
 195  1573.846
 196  1563.523
 197  1636.554
 198  1810.095
 199  1983.508
 200  1897.451
 201  1214.401
 202  992.3989
 203  1174.526
 204  1723.899
 205  1753.896
 206  2002.743
 207  2195.071
 208  1593.061
 209  1710.37
 210  1345.704
 211  1530.549
 212  1367.887
 213  1705.029
 214  1754.241
 215  2061.196
 216  2249.88
 217  1909.434
 218  1275.726
 219  1428.626
 220  1577.217
 221  1893.104
 222  1966.956
 223  2382.007
 224  2100.462
 225  1744.383
 226  1447.658
 227  1368.951
 228  1531.137
 229  1690.774
 230  1845.318
 231  2107.288
 232  1871.472
 233  1917.045
 234  1892.913
 235  1171.879
 236  1193.764
 237  1574.873
 238  1632.188
 239  1711.787
 240  1862.533
 241  1734.733
 242  1085.579
 243  1144.759
 244  1472.944
 245  947.3298
 246  1226.342
 247  1767.401
 248  2322.599
 249  1970.443
 250  1717.133
 251  1636.402
 252  1661.884
 253  1471.799
 254  1553.128
 255  1970.446
 256  1747.181
 257  1840.416
 258  1706.768
 259  1248.21
 260  1048.321
 261  1255.104
 262  1698.337
 263  1683.204
 264  1625.613
 265  1858.484
 266  1864.012
 267  1409.022
 268  1274.61
 269  1732.943
 270  1916.263
 271  1712.087
 272  1797.936
 273  1893.421
 274  1548.259
 275  1105.856
 276  1041.655
 277  1587.323
 278  1861.43
 279  1721.975
 280  1691.358
 281  1928.834
 282  2264.804
 283  1829.053
 284  1866.988
 285  1252.354
 286  1382.799
 287  1892.497
 288  1860.339
 289  1983.974
 290  1667.778
 291  1643.895
 292  1695.833
 293  1160.384
 294  1360.828
 295  1720.919
 296  2149.606
 297  2669.323
 298  2665.578
 299  2089.071
 300  1603.094
 301  1209.188
 302  1137.048
 303  1557.689
 304  1517.475
 305  1916.628
 306  2362.234
 307  2484.235
 308  1849.453
 309  1697.538
 310  2391.816
 311  2496.68
 312  2450.21
 313  2697.41
 314  2445.594
 315  2163.015
 316  1581.755
 317  1672.619
 318  1627.337
 319  1726.288
 320  2069.176
 321  2267.102
 322  2162.012
 323  2302.101
 324  2052.754
 325  1872.67
 326  1957.911
 327  2034.67
 328  2252.251
 329  2125.182
 330  2255.317
 331  2307.357
 332  1683.187
 333  1499.88
 334  1167.332
 335  1669.331
 336  2092.429
 337  1981.503
 338  2027.365
 339  1511.947
 340  1612.346
 341  1745.151
 342  1279.556
 343  1366.32
 344  1729.808
 345  1944.008
 346  2399.883
 347  2365.294
 348  1994.856
 349  1598.046
 350  971.8467
 351  1552.703
 352  1883.334
 353  2232.32
 354  2560.593
 355  2443.431
 356  2523.408
 357  2142.301
 358  1935.393
 359  1974.598
 360  1912.786
 361  1608.209
 362  1870.243
 363  2102.11
 364  1672.896
 365  1808.024
 366  1800.499
 367  1140.015
 368  1525.708
 369  2177.092
 370  2492.684
 371  2058.846
 372  2170.246
 373  2157.492
 374  1852.346
 375  1666.437
 376  976.9413
 377  1360.979
 378  1480.598
 379  1730.086
 380  1553.405
 381  2082.157
 382  1985.029
 383  1458.678
 384  1450.792
 385  1653.921
 386  1675.385
 387  2138.854
 388  2447.115
 389  2581.812
 390  2331.512
 391  2077.949
 392  2140.015
 393  2264.041
 394  2423.126
 395  2879.022
 396  2705.091
 397  2776.286
 398  2502.178
 399  2102.513
 400  2029.808
 401  1649.39
 402  2068.204
 403  2394.76
 404  1973.434
 405  1873.934
 406  2016.289
 407  2229.868
 408  1770.549
 409  1578.922
 410  1874.687
 411  1670.116
 412  1615.945
 413  2363.464
 414  2509.61
 415  1704.599
 416  1615.246
 417  1411.242
 418  1457.482
 419  1179.351
 420  1639.089
 421  2010.905
 422  2241.801
 423  2123.03
 424  1863.326
 425  1558.124
 426  1055.339
 427  1392.515
 428  1826.079
 429  2365.551
 430  2493.247
 431  2234.704
 432  2059.727
 433  1693.717
 434  1370.514
 435  1715.076
 436  1600.172
 437  1993.218
 438  2298.422
 439  2384.858
 440  1667.931
 441  1178.832
 442  1269.454
 443  1134.901
 444  1797.446
 445  2117.025
 446  2169.097
 447  2001.045
 448  1894.246
 449  1570.975
 450  1268.754
 451  1918.049
 452  2266.282
 453  2449.311
 454  2960.476
 455  2689.614
 456  2240.122
 457  1544.051
 458  1250.115
 459  1458.106
 460  1925.477
 461  2065.374
 462  2264.118
 463  2455.99
 464  2394.281
 465  1977.894
 466  1644.855
 467  1101.606
 468  1459.057
 469  1914.763
 470  2018.077
 471  2495.776
 472  2335.227
 473  1798.155
 474  2076.707
 475  1598.666
 476  1622.937
 477  1914.037
 478  2399.741
 479  2643.991
 480  2553.673
 481  2265.448
 482  2119.061
 483  1901.781
 484  1897.314
 485  2119.247
 486  2393.68
 487  2237.262
 488  2514.35
 489  2223.047
 490  1348.136
 491  962.4521
 492  1510.182
 493  1403.285
 494  1787.926
 495  2261.716
 496  2074.147
 497  2021.612
 498  1901.135
 499  1762.021
 500  1452.661
 501  2218.822
 502  2028.759
 503  1949.139
 504  2688.635
 505  2422.885
 506  2072.072
 507  1563.398
 508  1890.371
 509  1769.774
 510  1770.625
 511  2373.673
