# Input file       =  1198087057.13162_cleaned.dat
# Candidate        =  PSR_0332+5434
# Telescope        =  AR
# Epoch_topo       =  58110.748566338196
# Epoch_bary       =  N/A
# T_sample         =  0.002
# Data Folded      =  7340032
# Data Avg         =  0.0463957416518211
# Data StdDev      =  0.999918613067283
# Profile Bins     =  512
# Profile Avg      =  665.129283147267 
# Profile StdDev   =  119.723291672191 
# Reduced chi-sqr  =  0.754
# Prob(Noise)      <  1   (~0.0 sigma)
# P_topo (ms)      =  714.548408159417  +/- 0.000504
# P'_topo (s/s)    =  -0                +/- 2.66e-10
# P''_topo (s/s^2) =  0                 +/- 1.17e-13
# P_bary (ms)      =  N/A
# P'_bary (s/s)    =  N/A
# P''_bary (s/s^2) =  N/A
# P_orb (s)        =  N/A
# asin(i)/c (s)    =  N/A
# eccentricity     =  N/A
# w (rad)          =  N/A
# T_peri           =  N/A
######################################################
   0  977.7759
   1  1012.312
   2  975.5287
   3  846.2278
   4  773.8968
   5  681.7245
   6  655.2273
   7  686.5156
   8  707.069
   9  796.5704
  10  713.3655
  11  809.7278
  12  744.4618
  13  664.4031
  14  664.8523
  15  698.6064
  16  721.5286
  17  665.7233
  18  769.9025
  19  846.2531
  20  783.2501
  21  658.2748
  22  703.1372
  23  687.4898
  24  604.5706
  25  621.7282
  26  689.138
  27  681.2647
  28  730.552
  29  847.7134
  30  622.9426
  31  573.6101
  32  703.3992
  33  598.5307
  34  664.8124
  35  646.7924
  36  722.9418
  37  781.7665
  38  833.1631
  39  729.489
  40  771.1203
  41  831.2513
  42  694.9305
  43  679.6569
  44  704.6044
  45  714.2549
  46  679.2485
  47  708.5972
  48  719.185
  49  706.2245
  50  762.4733
  51  731.4802
  52  681.507
  53  694.0068
  54  766.0898
  55  760.8152
  56  752.9938
  57  759.1701
  58  602.871
  59  655.1509
  60  701.3561
  61  652.6179
  62  709.7837
  63  660.1173
  64  696.3113
  65  699.2502
  66  741.8306
  67  685.1758
  68  708.6431
  69  800.3591
  70  643.039
  71  620.3205
  72  653.1468
  73  640.4526
  74  745.6525
  75  752.7797
  76  709.447
  77  604.7278
  78  597.7677
  79  717.4516
  80  711.7963
  81  722.3389
  82  709.9993
  83  631.4163
  84  718.0463
  85  668.7032
  86  655.4335
  87  612.3047
  88  650.871
  89  611.6364
  90  738.8554
  91  636.2731
  92  713.6688
  93  782.3973
  94  762.3822
  95  658.4702
  96  696.8182
  97  666.4102
  98  536.8983
  99  583.025
 100  699.8031
 101  698.1527
 102  717.9974
 103  592.1436
 104  553.525
 105  599.424
 106  612.0796
 107  548.0849
 108  590.8005
 109  765.6573
 110  750.1179
 111  729.3463
 112  737.826
 113  628.0814
 114  549.7557
 115  686.3701
 116  623.1426
 117  664.2452
 118  742.7932
 119  659.1014
 120  587.1367
 121  615.0078
 122  608.1453
 123  554.728
 124  543.0629
 125  608.0718
 126  607.8814
 127  585.8822
 128  485.9694
 129  513.0588
 130  607.2397
 131  717.0961
 132  625.94
 133  662.3771
 134  697.7657
 135  675.3082
 136  687.4007
 137  662.7499
 138  617.7735
 139  598.4188
 140  599.9619
 141  601.6376
 142  644.4057
 143  596.4909
 144  573.8188
 145  575.6325
 146  708.9152
 147  631.6595
 148  498.1308
 149  606.8498
 150  586.3533
 151  655.8099
 152  666.1479
 153  578.5519
 154  608.0042
 155  609.5435
 156  617.0283
 157  542.2151
 158  616.8826
 159  622.2562
 160  575.5793
 161  629.9842
 162  693.6763
 163  666.9996
 164  700.2343
 165  654.9029
 166  720.8973
 167  698.0081
 168  783.0577
 169  810.3668
 170  688.5659
 171  610.7212
 172  614.7092
 173  627.9285
 174  622.8102
 175  633.488
 176  759.1066
 177  740.1737
 178  700.7783
 179  671.6777
 180  622.9302
 181  716.7885
 182  641.1825
 183  614.8081
 184  561.8534
 185  634.9534
 186  656.2639
 187  653.6071
 188  643.0387
 189  588.9095
 190  743.0732
 191  776.959
 192  651.5127
 193  621.4705
 194  578.9655
 195  597.851
 196  613.5659
 197  640.7796
 198  606.6207
 199  525.517
 200  708.7499
 201  784.8561
 202  665.0212
 203  650.0503
 204  619.336
 205  509.7959
 206  503.6862
 207  665.5418
 208  687.3188
 209  569.8519
 210  543.3151
 211  620.6815
 212  601.3533
 213  572.4777
 214  536.3256
 215  601.8962
 216  632.8319
 217  638.8498
 218  586.9816
 219  588.674
 220  643.4607
 221  591.3565
 222  579.864
 223  592.427
 224  501.3329
 225  465.102
 226  528.3338
 227  476.0062
 228  479.4968
 229  634.0713
 230  663.6282
 231  560.145
 232  598.9278
 233  605.8982
 234  674.6661
 235  628.8805
 236  661.6267
 237  756.998
 238  643.6638
 239  636.9698
 240  672.8075
 241  709.0748
 242  708.1887
 243  746.5154
 244  763.5034
 245  662.7842
 246  591.5154
 247  738.2372
 248  733.0322
 249  667.7927
 250  617.4973
 251  637.6925
 252  666.8276
 253  710.709
 254  718.1785
 255  747.1763
 256  761.4269
 257  650.234
 258  627.0617
 259  652.8695
 260  547.6501
 261  601.1477
 262  628.9155
 263  743.9102
 264  714.2766
 265  605.9567
 266  610.6285
 267  614.8964
 268  620.7953
 269  679.3584
 270  618.1479
 271  704.1613
 272  681.3876
 273  671.1336
 274  690.2758
 275  628.1685
 276  628.1558
 277  672.6935
 278  689.6605
 279  696.9788
 280  578.4612
 281  591.9338
 282  537.5225
 283  513.9503
 284  640.0711
 285  661.9401
 286  547.576
 287  682.1556
 288  725.18
 289  735.7986
 290  648.1245
 291  669.0101
 292  648.7416
 293  600.0977
 294  656.0177
 295  752.5454
 296  753.8592
 297  695.069
 298  648.0402
 299  599.5992
 300  593.2075
 301  601.9362
 302  585.3143
 303  537.9851
 304  606.2113
 305  610.4205
 306  691.1448
 307  697.9489
 308  686.4376
 309  575.9067
 310  699.396
 311  716.6544
 312  697.3318
 313  659.6828
 314  681.7718
 315  719.0352
 316  741.3098
 317  709.9002
 318  776.0811
 319  778.6396
 320  675.0389
 321  649.5985
 322  696.3519
 323  716.7384
 324  653.4272
 325  670.6601
 326  642.8082
 327  604.5542
 328  647.8181
 329  685.6331
 330  733.834
 331  697.8765
 332  625.0391
 333  646.8238
 334  569.4987
 335  564.0417
 336  619.0532
 337  616.0802
 338  536.4855
 339  674.7098
 340  663.9779
 341  682.3764
 342  651.9937
 343  717.738
 344  652.41
 345  614.8567
 346  646.3769
 347  547.7612
 348  618.7303
 349  645.4963
 350  729.5753
 351  721.4096
 352  651.8195
 353  652.6518
 354  575.9195
 355  629.2242
 356  577.3874
 357  606.1249
 358  658.3922
 359  710.7248
 360  712.5894
 361  660.5356
 362  655.2553
 363  655.5007
 364  605.941
 365  682.0194
 366  643.3027
 367  589.3863
 368  638.9879
 369  774.7091
 370  624.906
 371  648.3268
 372  748.3439
 373  821.0758
 374  771.7513
 375  684.5247
 376  728.5098
 377  742.8774
 378  739.1516
 379  793.9664
 380  759.6415
 381  739.306
 382  766.3555
 383  726.3952
 384  687.13
 385  747.1617
 386  718.4586
 387  690.6367
 388  774.3723
 389  767.2406
 390  755.1634
 391  799.2336
 392  718.105
 393  611.7405
 394  653.0189
 395  678.8829
 396  728.6639
 397  685.066
 398  648.6875
 399  669.9011
 400  680.9038
 401  721.0359
 402  651.6583
 403  608.9583
 404  523.8276
 405  661.0558
 406  636.2566
 407  688.8201
 408  761.6198
 409  706.3729
 410  665.1865
 411  645.4444
 412  685.9666
 413  627.5537
 414  615.5358
 415  720.5724
 416  770.7084
 417  812.2959
 418  747.8357
 419  638.4879
 420  696.2506
 421  604.2094
 422  706.6528
 423  739.0154
 424  687.1234
 425  670.609
 426  639.1504
 427  651.1714
 428  650.7522
 429  611.8373
 430  616.2188
 431  571.8345
 432  564.4462
 433  647.2152
 434  544.3841
 435  570.6441
 436  622.7255
 437  685.7835
 438  636.8002
 439  584.8137
 440  437.1403
 441  503.3091
 442  523.6227
 443  624.8288
 444  694.6241
 445  641.7925
 446  612.7744
 447  705.3517
 448  669.8466
 449  657.9278
 450  669.397
 451  691.4072
 452  720.6578
 453  636.1061
 454  595.0351
 455  636.3455
 456  660.4028
 457  695.1964
 458  701.912
 459  694.5554
 460  726.7515
 461  661.3873
 462  647.3804
 463  687.1537
 464  593.5985
 465  517.2079
 466  642.541
 467  741.686
 468  697.3611
 469  652.0687
 470  677.463
 471  629.0457
 472  580.7609
 473  643.0045
 474  661.4919
 475  623.2446
 476  731.3724
 477  681.1663
 478  588.6685
 479  613.0154
 480  733.6803
 481  697.3513
 482  573.5671
 483  583.9266
 484  761.296
 485  744.7809
 486  647.8492
 487  669.8279
 488  726.8394
 489  682.6236
 490  686.7889
 491  686.0335
 492  696.1261
 493  668.8753
 494  682.5809
 495  711.8449
 496  644.7014
 497  599.8127
 498  648.2257
 499  616.335
 500  591.1233
 501  645.6562
 502  651.1257
 503  648.6635
 504  655.1849
 505  705.6638
 506  649.9158
 507  786.2875
 508  769.9322
 509  809.1225
 510  981.4554
 511  1003.018
