# Input file       =  1198101969.101099_cleaned.dat
# Candidate        =  PSR_0332+5434
# Telescope        =  AR
# Epoch_topo       =  58110.921158577534
# Epoch_bary       =  N/A
# T_sample         =  0.002
# Data Folded      =  7340032
# Data Avg         =  0.0513163905651861
# Data StdDev      =  1.00028522202769 
# Profile Bins     =  512
# Profile Avg      =  735.616436037907 
# Profile StdDev   =  119.767186876183 
# Reduced chi-sqr  =  0.736
# Prob(Noise)      <  1   (~0.0 sigma)
# P_topo (ms)      =  714.54890768275   +/- 0.000147
# P'_topo (s/s)    =  -0                +/- 7.76e-11
# P''_topo (s/s^2) =  0                 +/- 3.43e-14
# P_bary (ms)      =  N/A
# P'_bary (s/s)    =  N/A
# P''_bary (s/s^2) =  N/A
# P_orb (s)        =  N/A
# asin(i)/c (s)    =  N/A
# eccentricity     =  N/A
# w (rad)          =  N/A
# T_peri           =  N/A
######################################################
   0  1189.194
   1  1020.67
   2  958.6166
   3  899.0052
   4  814.8365
   5  788.2506
   6  788.087
   7  710.5256
   8  694.6495
   9  665.7603
  10  742.2137
  11  781.309
  12  779.5851
  13  813.9586
  14  727.9037
  15  743.1259
  16  733.8157
  17  685.9317
  18  721.3464
  19  884.6666
  20  865.7564
  21  773.5543
  22  694.9376
  23  741.2709
  24  752.8453
  25  795.9601
  26  856.4105
  27  867.252
  28  780.6653
  29  652.4373
  30  773.1414
  31  782.8088
  32  706.7885
  33  719.1049
  34  768.041
  35  823.3994
  36  800.8821
  37  793.8359
  38  852.0882
  39  701.8769
  40  644.8309
  41  775.7662
  42  770.8728
  43  809.5618
  44  816.6524
  45  724.7859
  46  638.6131
  47  796.363
  48  761.9173
  49  716.3493
  50  677.9553
  51  740.8818
  52  766.3173
  53  575.5962
  54  716.7348
  55  827.5323
  56  775.9681
  57  714.8712
  58  714.0481
  59  825.056
  60  861.9547
  61  878.9297
  62  836.9957
  63  745.9662
  64  741.4893
  65  801.9736
  66  852.9023
  67  822.3027
  68  783.2659
  69  925.943
  70  784.5214
  71  715.4056
  72  741.9657
  73  828.5869
  74  782.7401
  75  814.1472
  76  717.5207
  77  677.1206
  78  738.3251
  79  685.5107
  80  648.8173
  81  611.7782
  82  646.9862
  83  739.2786
  84  708.5337
  85  566.0172
  86  609.5336
  87  725.5314
  88  725.8944
  89  618.9885
  90  733.6754
  91  812.8584
  92  635.0561
  93  665.002
  94  659.386
  95  711.8904
  96  710.4069
  97  767.4167
  98  728.7522
  99  673.426
 100  778.2878
 101  795.4859
 102  692.5172
 103  699.6705
 104  728.4365
 105  750.9013
 106  791.7059
 107  746.5881
 108  740.8101
 109  697.1533
 110  695.8642
 111  772.7993
 112  782.5966
 113  714.6357
 114  691.0246
 115  676.283
 116  667.0553
 117  616.8405
 118  621.4813
 119  747.7736
 120  807.311
 121  762.2219
 122  826.3708
 123  785.3521
 124  769.3382
 125  782.1097
 126  793.439
 127  780.004
 128  738.5963
 129  750.0778
 130  809.6835
 131  754.627
 132  707.96
 133  735.4108
 134  730.894
 135  654.895
 136  716.667
 137  655.3593
 138  704.2912
 139  763.8547
 140  771.7454
 141  724.1428
 142  674.7366
 143  736.8466
 144  852.5658
 145  742.1819
 146  645.8735
 147  705.4261
 148  723.545
 149  664.2192
 150  719.0647
 151  704.7413
 152  641.0496
 153  693.5686
 154  586.0103
 155  683.397
 156  699.3304
 157  686.1645
 158  601.1304
 159  648.9068
 160  693.6246
 161  768.1357
 162  662.9014
 163  679.9899
 164  628.162
 165  531.3107
 166  481.9379
 167  591.7846
 168  636.7136
 169  762.35
 170  744.7366
 171  637.2477
 172  730.4156
 173  737.2065
 174  747.4381
 175  640.5461
 176  691.6624
 177  722.1798
 178  721.0245
 179  760.8002
 180  722.8464
 181  725.5433
 182  763.4307
 183  732.7601
 184  706.4739
 185  651.404
 186  790.9677
 187  788.3848
 188  685.0016
 189  622.0629
 190  713.4634
 191  824.3545
 192  850.6796
 193  808.4485
 194  700.637
 195  699.2783
 196  747.6491
 197  819.9233
 198  818.7338
 199  841.4686
 200  786.8108
 201  676.849
 202  751.7922
 203  755.919
 204  725.3388
 205  719.9104
 206  740.8701
 207  784.3854
 208  774.1053
 209  745.0348
 210  712.9521
 211  825.0205
 212  755.6445
 213  712.3785
 214  607.4581
 215  712.9604
 216  775.0989
 217  638.8455
 218  645.3864
 219  724.2921
 220  691.6224
 221  584.8065
 222  652.4709
 223  644.5313
 224  678.9749
 225  697.7543
 226  680.4587
 227  689.4786
 228  647.1687
 229  688.4499
 230  756.4761
 231  766.768
 232  827.9918
 233  791.2282
 234  787.0898
 235  841.2451
 236  840.9393
 237  782.5157
 238  763.2146
 239  750.7824
 240  763.0573
 241  768.5311
 242  771.7657
 243  806.9871
 244  764.1174
 245  818.6962
 246  797.6674
 247  697.808
 248  710.3237
 249  755.404
 250  710.248
 251  760.0129
 252  715.9166
 253  629.4738
 254  660.4783
 255  794.5184
 256  728.9266
 257  725.3063
 258  804.5027
 259  796.2537
 260  775.6877
 261  741.3606
 262  890.7161
 263  907.8203
 264  798.6944
 265  905.9327
 266  761.7976
 267  760.9979
 268  738.9709
 269  770.3199
 270  788.8397
 271  806.1741
 272  827.7538
 273  875.2839
 274  737.0737
 275  730.3239
 276  919.2795
 277  755.7018
 278  659.0126
 279  734.3392
 280  768.5769
 281  776.8231
 282  850.9064
 283  837.9031
 284  775.7455
 285  707.9495
 286  764.9349
 287  756.1271
 288  693.621
 289  682.0524
 290  708.4652
 291  770.0236
 292  703.8236
 293  668.79
 294  654.397
 295  768.973
 296  766.4562
 297  669.7374
 298  740.1894
 299  741.7538
 300  711.6292
 301  646.6028
 302  788.2259
 303  846.2278
 304  808.2737
 305  835.8109
 306  860.7642
 307  659.1662
 308  749.6814
 309  733.2615
 310  753.2218
 311  720.7264
 312  761.181
 313  754.8665
 314  719.7033
 315  751.6819
 316  788.5957
 317  755.6469
 318  673.8947
 319  594.1046
 320  635.6184
 321  541.1185
 322  645.5549
 323  834.7007
 324  732.179
 325  607.7053
 326  667.5801
 327  667.7198
 328  620.9014
 329  665.9655
 330  767.2976
 331  723.4788
 332  628.037
 333  709.2673
 334  698.6149
 335  666.6331
 336  720.8959
 337  757.1086
 338  756.4686
 339  717.7864
 340  720.9061
 341  758.8139
 342  710.4762
 343  666.8722
 344  743.2595
 345  686.092
 346  700.4871
 347  732.5393
 348  737.4321
 349  662.7415
 350  633.7208
 351  694.5532
 352  754.3683
 353  665.2545
 354  701.5795
 355  828.9642
 356  763.8622
 357  828.5118
 358  781.69
 359  724.1911
 360  653.9018
 361  699.3387
 362  712.1454
 363  707.5881
 364  740.6372
 365  775.972
 366  784.2112
 367  751.3789
 368  749.7153
 369  713.778
 370  746.5393
 371  697.3755
 372  567.4265
 373  616.9169
 374  758.4323
 375  755.4515
 376  739.348
 377  702.1104
 378  750.0093
 379  810.9059
 380  722.253
 381  682.2727
 382  599.7438
 383  642.4155
 384  786.9138
 385  797.7221
 386  674.9011
 387  706.376
 388  699.4464
 389  648.1741
 390  590.3973
 391  605.1721
 392  686.8946
 393  682.0433
 394  728.683
 395  681.4819
 396  688.0685
 397  760.5756
 398  719.671
 399  688.4617
 400  770.8956
 401  705.4794
 402  611.3394
 403  718.7433
 404  714.1337
 405  693.4955
 406  813.3123
 407  719.9927
 408  706.6035
 409  717.0308
 410  643.0715
 411  630.9504
 412  688.2032
 413  755.9322
 414  719.258
 415  685.4553
 416  682.6091
 417  781.645
 418  882.9976
 419  828.3497
 420  654.382
 421  763.7932
 422  783.3774
 423  778.3702
 424  793.4999
 425  729.114
 426  693.2787
 427  724.7719
 428  834.0333
 429  718.5581
 430  665.0263
 431  760.594
 432  753.9496
 433  707.8075
 434  767.2948
 435  780.0565
 436  822.8478
 437  716.6536
 438  675.5709
 439  726.3206
 440  747.9333
 441  813.5123
 442  709.5643
 443  693.8093
 444  700.5226
 445  634.998
 446  744.0565
 447  728.3488
 448  765.5032
 449  752.4754
 450  700.963
 451  730.5712
 452  685.929
 453  630.4341
 454  619.0656
 455  698.2217
 456  764.2648
 457  715.7647
 458  704.5281
 459  751.9547
 460  790.1487
 461  719.949
 462  712.5299
 463  671.5677
 464  680.0936
 465  684.5898
 466  787.3137
 467  754.3549
 468  753.6371
 469  722.2245
 470  688.1695
 471  662.0786
 472  659.3029
 473  669.792
 474  562.5766
 475  600.6019
 476  719.0452
 477  727.2092
 478  765.3279
 479  737.8493
 480  751.7259
 481  734.3147
 482  755.5225
 483  738.9558
 484  693.0841
 485  746.6758
 486  652.4522
 487  705.6667
 488  762.0895
 489  801.3511
 490  820.4321
 491  839.9843
 492  815.4258
 493  685.7883
 494  721.7809
 495  947.5779
 496  888.7543
 497  781.2996
 498  704.4694
 499  722.2024
 500  767.1195
 501  692.4308
 502  682.2666
 503  723.5206
 504  690.7129
 505  693.9595
 506  690.1354
 507  808.194
 508  921.5053
 509  979.5003
 510  1018.611
 511  1012.44
