# Input file       =  1198330917.113058_cleaned.dat
# Candidate        =  PSR_0332+5434
# Telescope        =  AR
# Epoch_topo       =  58113.571019827061
# Epoch_bary       =  N/A
# T_sample         =  0.002
# Data Folded      =  7143424
# Data Avg         =  0.711819965360311
# Data StdDev      =  6.87012725320889 
# Profile Bins     =  1024
# Profile Avg      =  4965.50110209426 
# Profile StdDev   =  573.809874229764 
# Reduced chi-sqr  =  0.752
# Prob(Noise)      <  1   (~0.0 sigma)
# P_topo (ms)      =  714.550981984733  +/- 5.52e-05
# P'_topo (s/s)    =  -0                +/- 2.99e-11
# P''_topo (s/s^2) =  0                 +/- 1.36e-14
# P_bary (ms)      =  N/A
# P'_bary (s/s)    =  N/A
# P''_bary (s/s^2) =  N/A
# P_orb (s)        =  N/A
# asin(i)/c (s)    =  N/A
# eccentricity     =  N/A
# w (rad)          =  N/A
# T_peri           =  N/A
######################################################
   0  5163.221
   1  5034.867
   2  4812.523
   3  4684.129
   4  4722.051
   5  4769.228
   6  4755.161
   7  4791.948
   8  4894.236
   9  5111.361
  10  5258.017
  11  5371.823
  12  5235.727
  13  5225.397
  14  4942.757
  15  5004.746
  16  4927.185
  17  4899.796
  18  4740.034
  19  4599.416
  20  4747.039
  21  4931.16
  22  4874.022
  23  4774.746
  24  4849.359
  25  4810.416
  26  4854.882
  27  4900.059
  28  5085.695
  29  5156.82
  30  4969.824
  31  5087.253
  32  4969.757
  33  4802.608
  34  4914.949
  35  4907.576
  36  4962.196
  37  4858.145
  38  4627.642
  39  4762.115
  40  4788.178
  41  4992.889
  42  5059.801
  43  5007.079
  44  5129.555
  45  5208.292
  46  5273.231
  47  5219.603
  48  5047.089
  49  5205.95
  50  5184.167
  51  4911.946
  52  4658.275
  53  4593.131
  54  4722.919
  55  4952.9
  56  5092.551
  57  5176.646
  58  5070.75
  59  4925.158
  60  5046.263
  61  4977.814
  62  5014.507
  63  5058.191
  64  5008.166
  65  5074.51
  66  4844.419
  67  4829.519
  68  4837.853
  69  4911.925
  70  4784.606
  71  4710.844
  72  4571.278
  73  4652.354
  74  4768.854
  75  4877.278
  76  4857.431
  77  4968.075
  78  5230.481
  79  5256.19
  80  5317.545
  81  5396.426
  82  5325.97
  83  5027.134
  84  4850.369
  85  4816.979
  86  5014.982
  87  5043.554
  88  4985.035
  89  5112.28
  90  4796.532
  91  4759.505
  92  4636.72
  93  4916.271
  94  5102.391
  95  5175.152
  96  5410.269
  97  5554.879
  98  5200.839
  99  4985.998
 100  4955.979
 101  4956.441
 102  4877.353
 103  4765.548
 104  5037.641
 105  5036.812
 106  4633.195
 107  4665.652
 108  4680.896
 109  4822.239
 110  4869.122
 111  4876.305
 112  5121.492
 113  5082.611
 114  5268.533
 115  5288.804
 116  5089.484
 117  4970.545
 118  4693.234
 119  4620.798
 120  4624.984
 121  4551.201
 122  4633.144
 123  4635.036
 124  4929.357
 125  5199.27
 126  5168.864
 127  5237.296
 128  5106.792
 129  5006.345
 130  5036.38
 131  5151.241
 132  5342.378
 133  5159.585
 134  4855.72
 135  4729.486
 136  4719.973
 137  4616.137
 138  4636.081
 139  4740.401
 140  4831.243
 141  4748.167
 142  4736.542
 143  5030.787
 144  5125.235
 145  5117.63
 146  4975.408
 147  4949.251
 148  5080.841
 149  5028.806
 150  5107.752
 151  5087.606
 152  4974.97
 153  4978.233
 154  5060.059
 155  5008.358
 156  4721.774
 157  4612.418
 158  4597.216
 159  4707.194
 160  4805.654
 161  4964.369
 162  5136.512
 163  4884.317
 164  4852.795
 165  4846.285
 166  4671.417
 167  4648.085
 168  4610.753
 169  4466.066
 170  4427.521
 171  4364.902
 172  4643.875
 173  4584.566
 174  4656.532
 175  5078.165
 176  5028.046
 177  4913.096
 178  4650.608
 179  4763.597
 180  4824.549
 181  4818.517
 182  4802.101
 183  4998.298
 184  4834.195
 185  4760.018
 186  4801.932
 187  4977.414
 188  5007.017
 189  4751.769
 190  4876.942
 191  4768.461
 192  5018.409
 193  5010.482
 194  5030.995
 195  4976.205
 196  5018.422
 197  5080.75
 198  5048.917
 199  4915.169
 200  5143.755
 201  5232.002
 202  5069.033
 203  4970.412
 204  4918.708
 205  5093.427
 206  5031.324
 207  5143.654
 208  5382.855
 209  5387.192
 210  5365.987
 211  5249.827
 212  5166.041
 213  4922.311
 214  4896.811
 215  4872.551
 216  4720.992
 217  4669.362
 218  4520.795
 219  4663.12
 220  4371.845
 221  4285.509
 222  4721.656
 223  5032.637
 224  5271.363
 225  5323.451
 226  5492.726
 227  5466.8
 228  5205.14
 229  5137.608
 230  5090.004
 231  4999.615
 232  5203.494
 233  5150.83
 234  4942.19
 235  4989.269
 236  5007.128
 237  5177.546
 238  5063.187
 239  4980.66
 240  4932.934
 241  4563.729
 242  4725.455
 243  5078.418
 244  5197.486
 245  5227.472
 246  5085.731
 247  5263.529
 248  5207.961
 249  4968.661
 250  4971.093
 251  4806.669
 252  4814.104
 253  5048.761
 254  5020.539
 255  4832.843
 256  4736.511
 257  4949.724
 258  5278.847
 259  5091.906
 260  5065.732
 261  4944.751
 262  4884.558
 263  4932.276
 264  4882.838
 265  4961.362
 266  4920.881
 267  4921.592
 268  4948.423
 269  4820.989
 270  4808.417
 271  4566.088
 272  4397.517
 273  4317.168
 274  4478.897
 275  4840.692
 276  4910.522
 277  4724.446
 278  4502.46
 279  4448.928
 280  4568.607
 281  4697.435
 282  4611.397
 283  4510.371
 284  4468.682
 285  4558.694
 286  4700.095
 287  4797.439
 288  4693.213
 289  4489.785
 290  4743.891
 291  4818.425
 292  4815.283
 293  4661.643
 294  4691.841
 295  4839.601
 296  4690.99
 297  4684.867
 298  4818.701
 299  4866.994
 300  5032.266
 301  4771.396
 302  4687.19
 303  4658.797
 304  4657.673
 305  4811.526
 306  4606.885
 307  4688.372
 308  4935.051
 309  4996.206
 310  4837.415
 311  4635.039
 312  4669.744
 313  4863.783
 314  4818.19
 315  5039.748
 316  4894.137
 317  4822.458
 318  5013.756
 319  4818.727
 320  4681.534
 321  4310.492
 322  4446.457
 323  4811.238
 324  4893.984
 325  5186.516
 326  5421.025
 327  5403.144
 328  5183.484
 329  4924.751
 330  4995.543
 331  5105.052
 332  5032.773
 333  5228.217
 334  5022.095
 335  4705.489
 336  4697.298
 337  4640.94
 338  4827.084
 339  5038.815
 340  5403.704
 341  5299.83
 342  5015.237
 343  4959.294
 344  4945.48
 345  4747.494
 346  4789.623
 347  4901.215
 348  4884.869
 349  4604.542
 350  4523.49
 351  4568.308
 352  4772.103
 353  4883.348
 354  5091.441
 355  5187.044
 356  5104.703
 357  5176.642
 358  5157.263
 359  4959.853
 360  4739.304
 361  4703.942
 362  4491.362
 363  4396.049
 364  4508.674
 365  4865.805
 366  4930.682
 367  4896.896
 368  5011.421
 369  4852.545
 370  4756.463
 371  4700.558
 372  4695.422
 373  4737.546
 374  4604.484
 375  4740.346
 376  4942.381
 377  4806.328
 378  4836.211
 379  4661.176
 380  4781.92
 381  4642.964
 382  4639.657
 383  4873.215
 384  4819.061
 385  4647.072
 386  4434.925
 387  4266.608
 388  4361.202
 389  4370.565
 390  4668.381
 391  4890.98
 392  4972.005
 393  5175.439
 394  5242.277
 395  5299.527
 396  5263.012
 397  5121.483
 398  4951.743
 399  4763.699
 400  4565.591
 401  4450.63
 402  4338.708
 403  4670.109
 404  4906.494
 405  4877.698
 406  4846.649
 407  4891.907
 408  4875.019
 409  4985.892
 410  5214.833
 411  5472.542
 412  5485.395
 413  5152.714
 414  5006.622
 415  4960.635
 416  4873.905
 417  4844.097
 418  4731.02
 419  4871.367
 420  4750.275
 421  4603.995
 422  4548.814
 423  4667.646
 424  4827.983
 425  5169.685
 426  5213.649
 427  5043.463
 428  4910.134
 429  4675.071
 430  4585.83
 431  4467.7
 432  4724.691
 433  4895.628
 434  4623.614
 435  4412.883
 436  4496.615
 437  4631.017
 438  4775.015
 439  4780.848
 440  4865.584
 441  4969.2
 442  4721.788
 443  4796.165
 444  4735.104
 445  4669.646
 446  4678.591
 447  4555.379
 448  4785.886
 449  4746.903
 450  4708.465
 451  4611.665
 452  4327.977
 453  4395.029
 454  4412.048
 455  4472.016
 456  4680.997
 457  4782.31
 458  4962.542
 459  4798.557
 460  4613.622
 461  4671.75
 462  4637.941
 463  4654.891
 464  4542.006
 465  4421.374
 466  4700.98
 467  4839.454
 468  4881.831
 469  5213.115
 470  5185.014
 471  5372.031
 472  5165.684
 473  5189.648
 474  5328.245
 475  5237.745
 476  5098.392
 477  4865.545
 478  4708.734
 479  4830.848
 480  4853.868
 481  5156.476
 482  5165.053
 483  5172.511
 484  4931.558
 485  4885.229
 486  5031.514
 487  5127.131
 488  5227.529
 489  5141.78
 490  5460.348
 491  5586.06
 492  5517.063
 493  5529.498
 494  5332.934
 495  5208.567
 496  5249.064
 497  5269.308
 498  5285.719
 499  4988.265
 500  4961.549
 501  4788.039
 502  4645.414
 503  4718.127
 504  4728.931
 505  4821.242
 506  4847.148
 507  4955.996
 508  5183.238
 509  5052.419
 510  4947.462
 511  4868.283
 512  4660.631
 513  4461.969
 514  4401.485
 515  4324.512
 516  4336.271
 517  4367.348
 518  4497.693
 519  4706.226
 520  4737.475
 521  5066.585
 522  5006.117
 523  5065.492
 524  5064.686
 525  5068.307
 526  5201.31
 527  5056.152
 528  4953.266
 529  4904.126
 530  4613.232
 531  4532.052
 532  4241.55
 533  4310.669
 534  4560.614
 535  4764.603
 536  5117.399
 537  5096.664
 538  5296.292
 539  5457.046
 540  5553.759
 541  5326.568
 542  5075.481
 543  4799.882
 544  4911.584
 545  4597.715
 546  4694.608
 547  4857.399
 548  5087.784
 549  4974.25
 550  4863.653
 551  4748.613
 552  4519.55
 553  4468.193
 554  4599.396
 555  4879.277
 556  4813.664
 557  4803.259
 558  4803.95
 559  4765.157
 560  4699.716
 561  4558.792
 562  4475.131
 563  4388.847
 564  4525.497
 565  4517.958
 566  4694.911
 567  4656.877
 568  4799.536
 569  4933.662
 570  4844.63
 571  4888.49
 572  4980.809
 573  4878.209
 574  4868.933
 575  4723.489
 576  5169.25
 577  4953.791
 578  4705.896
 579  4470.267
 580  4361.616
 581  4638.326
 582  4732.604
 583  4870.793
 584  4849.461
 585  4666.325
 586  4761.192
 587  4562.963
 588  4558.614
 589  4697.713
 590  4773.619
 591  4871.004
 592  4798.617
 593  4854.392
 594  5055.628
 595  4908.941
 596  4865.618
 597  4916.026
 598  4953.64
 599  5032.369
 600  4769.793
 601  4818.13
 602  5017.127
 603  5255.944
 604  5563.464
 605  5514.613
 606  5364.78
 607  5468.57
 608  5078.575
 609  5094.97
 610  4994.144
 611  5352.372
 612  5375.031
 613  5208.4
 614  5111.298
 615  5165.154
 616  5302.901
 617  5570.44
 618  5986.503
 619  6045.921
 620  5879.414
 621  5713.812
 622  5818.583
 623  5906.993
 624  5627.567
 625  5625.355
 626  5682.874
 627  5509.778
 628  5205.47
 629  5119.358
 630  5119.906
 631  5133.357
 632  4867.067
 633  4786.92
 634  4795.149
 635  4633.681
 636  4859.005
 637  4887.181
 638  5144.913
 639  5242.369
 640  5177.715
 641  5050.349
 642  4751.658
 643  4594.01
 644  4762.721
 645  4733.335
 646  4713.948
 647  4708.293
 648  4774.588
 649  4866.248
 650  5058.097
 651  5177.296
 652  5105.778
 653  4750.983
 654  5166.743
 655  5383.801
 656  5583.379
 657  5325.638
 658  5018.326
 659  5333.803
 660  5314.189
 661  5185.435
 662  5095.503
 663  4967.657
 664  5104.225
 665  4915.791
 666  5086.028
 667  5101.973
 668  4868.634
 669  4947.434
 670  5145.231
 671  5119.774
 672  4978.24
 673  5113.552
 674  5253.139
 675  5495.912
 676  5430.087
 677  5394.971
 678  5301.177
 679  5232.421
 680  5223.314
 681  5147.148
 682  5165.857
 683  5058.966
 684  5008.422
 685  4990.744
 686  5083.66
 687  4956.811
 688  4987.341
 689  5139.532
 690  5254.014
 691  5372.129
 692  5343.449
 693  5356.729
 694  5250.844
 695  5119.927
 696  4963.659
 697  4753.525
 698  4592.452
 699  4672.652
 700  4715.112
 701  4969.111
 702  4987.276
 703  5194.137
 704  5461.776
 705  5412.214
 706  5138.038
 707  4871.265
 708  4776.686
 709  4993.128
 710  4908.54
 711  5008.154
 712  4991.838
 713  5043.993
 714  4968.481
 715  4680.292
 716  4533.274
 717  4786.846
 718  4881.13
 719  5254.226
 720  5157.341
 721  5219.516
 722  4956.843
 723  4929.729
 724  5058.957
 725  5060.967
 726  4830.929
 727  5068.577
 728  5039.315
 729  4971.75
 730  4944.187
 731  4738.21
 732  4759.938
 733  4484.325
 734  4588.979
 735  4746.992
 736  4798.482
 737  4994.487
 738  4831.253
 739  4636.405
 740  4869.596
 741  5042.076
 742  5153.985
 743  4927.63
 744  4741.893
 745  4788.39
 746  4938.403
 747  5016.859
 748  4999.791
 749  4919.418
 750  5028.107
 751  5042.958
 752  4828.245
 753  4760.751
 754  5001.076
 755  5199.363
 756  5210.971
 757  4995.774
 758  4970.604
 759  4899.454
 760  4754.562
 761  4665.879
 762  4721.992
 763  4868.063
 764  4916.894
 765  4974.179
 766  5069.99
 767  5215.28
 768  5031.185
 769  4959.266
 770  5015.727
 771  5066.54
 772  5103.595
 773  5186.41
 774  5378.536
 775  5242.228
 776  5134.911
 777  5170.813
 778  5086.314
 779  4966.272
 780  4813.604
 781  4970.68
 782  5080.356
 783  4910.072
 784  4682.447
 785  4701.307
 786  4774.061
 787  5134.89
 788  5078.437
 789  5120.764
 790  5067.027
 791  4959.842
 792  4935.484
 793  4918.846
 794  4928.793
 795  5222.696
 796  5262.398
 797  5104.928
 798  4856.832
 799  4775.018
 800  4969.653
 801  4643.36
 802  4785.564
 803  4950.342
 804  5092.58
 805  5163.771
 806  5020.267
 807  4999.337
 808  5042.746
 809  4913.215
 810  4957.175
 811  4766.813
 812  4978.625
 813  4960.505
 814  4906.613
 815  4902.014
 816  4901.685
 817  4772.598
 818  4694.96
 819  4924.143
 820  5276.622
 821  5583.302
 822  5527.458
 823  5566.275
 824  5567.235
 825  5622.904
 826  5606.117
 827  5427.714
 828  5282.971
 829  5281.472
 830  5204.534
 831  4987.382
 832  4932.656
 833  4773.694
 834  4776.717
 835  4803.476
 836  4816.715
 837  5185.895
 838  5079.079
 839  5274.373
 840  5145.934
 841  5058.442
 842  5031.78
 843  5041.278
 844  5227.26
 845  5087.877
 846  4858.041
 847  4951.558
 848  4964.729
 849  5279.019
 850  5449.602
 851  5335.788
 852  5254.635
 853  5187.091
 854  5380.046
 855  5421.949
 856  5288.627
 857  5291.47
 858  5136.644
 859  4952.772
 860  5028.801
 861  4953.269
 862  5231.543
 863  5309.552
 864  5250.991
 865  5073.814
 866  4696.302
 867  4673.716
 868  5149.157
 869  5442.953
 870  5812.211
 871  5531.954
 872  5418.033
 873  5247.2
 874  5070.68
 875  5003.656
 876  4983.227
 877  4932.297
 878  5104.382
 879  4903.239
 880  5049.785
 881  5000.285
 882  5099.159
 883  5022.782
 884  5020.083
 885  5083.365
 886  5099.322
 887  5191.541
 888  5197.576
 889  5170.655
 890  5306.647
 891  5411.475
 892  5401.553
 893  4936.267
 894  4682.477
 895  4590.847
 896  4828.792
 897  4943.957
 898  4957.194
 899  4694.864
 900  4777.032
 901  4856.009
 902  5098.417
 903  5223.648
 904  5366.64
 905  5381.628
 906  5375.443
 907  5547.891
 908  5445.577
 909  5320.102
 910  5147.817
 911  5014.556
 912  4901.11
 913  4776.26
 914  4760.706
 915  4860.751
 916  4691.407
 917  4733.952
 918  4802.029
 919  5109.462
 920  5493.852
 921  5548.351
 922  5471.759
 923  5269.275
 924  4983.865
 925  5164.084
 926  5158.903
 927  5361.633
 928  5379.9
 929  5269.99
 930  5259.456
 931  5214.278
 932  5284.758
 933  5409.508
 934  5149.833
 935  5045.748
 936  5245.144
 937  5235.407
 938  5490.038
 939  5396.251
 940  5439.776
 941  5526.316
 942  5334.106
 943  5299.855
 944  5001.169
 945  5097.25
 946  5061.351
 947  5048.804
 948  5217.518
 949  5330.308
 950  5286.975
 951  5121.535
 952  5060.578
 953  5224.754
 954  5227.003
 955  5252.421
 956  5326.023
 957  5188.55
 958  5154.941
 959  4909.773
 960  4859.523
 961  4747.736
 962  4867.01
 963  4964.706
 964  4747.128
 965  4734.806
 966  4602.451
 967  4811.576
 968  4980.278
 969  5158.279
 970  5215.801
 971  5217.38
 972  5158.797
 973  5125.246
 974  5027.939
 975  5106.774
 976  4968.868
 977  5066.681
 978  5179.316
 979  5198.554
 980  5053.938
 981  4989.46
 982  5019.91
 983  5168.182
 984  5120.747
 985  5333.808
 986  5362.512
 987  5520.23
 988  5710.623
 989  5420.989
 990  5529.887
 991  5606.316
 992  5647.539
 993  5541.098
 994  5120.866
 995  5011.393
 996  4808.246
 997  4834.972
 998  5109.186
 999  4960.448
1000  4862.441
1001  4867.721
1002  4847.715
1003  5283.387
1004  5127.724
1005  5200.032
1006  5207.739
1007  4965.34
1008  4923.132
1009  4665.739
1010  4415.659
1011  4369.997
1012  4414.696
1013  4694.774
1014  4737.683
1015  4689.598
1016  4733.639
1017  4782.213
1018  5024.692
1019  5253.777
1020  5256.887
1021  5251.86
1022  5087.495
1023  5114.7
