# Input file       =  1198503255.12908_cleaned.dat
# Candidate        =  PSR_0332+5434
# Telescope        =  AR
# Epoch_topo       =  58115.565672790275
# Epoch_bary       =  N/A
# T_sample         =  0.002
# Data Folded      =  7471104
# Data Avg         =  0.205024731508864
# Data StdDev      =  6.2631575833434  
# Profile Bins     =  1024
# Profile Avg      =  1495.80230156573 
# Profile StdDev   =  534.977788977286 
# Reduced chi-sqr  =  0.536
# Prob(Noise)      <  1   (~0.0 sigma)
# P_topo (ms)      =  714.552767249434  +/- 2.9e-05
# P'_topo (s/s)    =  -0                +/- 1.5e-11
# P''_topo (s/s^2) =  0                 +/- 6.52e-15
# P_bary (ms)      =  N/A
# P'_bary (s/s)    =  N/A
# P''_bary (s/s^2) =  N/A
# P_orb (s)        =  N/A
# asin(i)/c (s)    =  N/A
# eccentricity     =  N/A
# w (rad)          =  N/A
# T_peri           =  N/A
######################################################
   0  1513.958
   1  1660.391
   2  1620.168
   3  1526.271
   4  1644.872
   5  1590.91
   6  1563.243
   7  1537.577
   8  1289.549
   9  1221.441
  10  1204.139
  11  1385.504
  12  1239.874
  13  1120.662
  14  1292.835
  15  1434.568
  16  1415.474
  17  1373.473
  18  1308.781
  19  1505.839
  20  1393.732
  21  1603.697
  22  1558.079
  23  1437.973
  24  1586.505
  25  1446.101
  26  1523
  27  1385.327
  28  1371.734
  29  1644.669
  30  1618.106
  31  1710.3
  32  1779.125
  33  1640.934
  34  1784.121
  35  1727.413
  36  1667.257
  37  1829.304
  38  1581.546
  39  1722.103
  40  1329.274
  41  1077.452
  42  1188.162
  43  1371.083
  44  1662.828
  45  1555.185
  46  1515.803
  47  1521.973
  48  1375.207
  49  1440.414
  50  1354.333
  51  1640.25
  52  1515.864
  53  1388.611
  54  1291.873
  55  1422.331
  56  1703.126
  57  1731.189
  58  1683.455
  59  1913.002
  60  1812.346
  61  1944.422
  62  2120.852
  63  2135.227
  64  1982.363
  65  1538.921
  66  1433.108
  67  1587.943
  68  1663.379
  69  1776.255
  70  1696.147
  71  1554.274
  72  1774.011
  73  1592.307
  74  1621.42
  75  1353.963
  76  1365.693
  77  1583.229
  78  1373.838
  79  1502.996
  80  1428.51
  81  1495.315
  82  1623.972
  83  1679.593
  84  1807.375
  85  1574.097
  86  1598.961
  87  1629.841
  88  1650.232
  89  1562.934
  90  1270.785
  91  1294.531
  92  1446.97
  93  1483.143
  94  1679.814
  95  1452.471
  96  1650.966
  97  1765.129
  98  1645.632
  99  1590.216
 100  1375.561
 101  1450.038
 102  1398.746
 103  1144.745
 104  1477.095
 105  1686.003
 106  1600.941
 107  1645.642
 108  1327.893
 109  1370.51
 110  1217.493
 111  1334.646
 112  1547.044
 113  1437.005
 114  1255.091
 115  1198.903
 116  1126.971
 117  1313.256
 118  1332.408
 119  1294.157
 120  1239.626
 121  1130.375
 122  1216.32
 123  1042.064
 124  1038.383
 125  946.0875
 126  1183.053
 127  1336.441
 128  1303.952
 129  1387.38
 130  1254.977
 131  1223.457
 132  1231.62
 133  1267.422
 134  1532.072
 135  1404.666
 136  1356.166
 137  1371.193
 138  1163.623
 139  1197.581
 140  1068.965
 141  1069.07
 142  1304.611
 143  1312.625
 144  1553.7
 145  1555.131
 146  1483.133
 147  1543.077
 148  1316.387
 149  1466.342
 150  1668.612
 151  1622.208
 152  1533.348
 153  1256.406
 154  1334.623
 155  1401.153
 156  1198.66
 157  1289.052
 158  1269.589
 159  1344.333
 160  1161.788
 161  1193.384
 162  1491.423
 163  1637.782
 164  1586.23
 165  1475.511
 166  1357.576
 167  1289.667
 168  1210.896
 169  1250.383
 170  1365.176
 171  1081.078
 172  1176.054
 173  1155.72
 174  1510.231
 175  1712.547
 176  1455.093
 177  1496.051
 178  1290.361
 179  1497.149
 180  1576.009
 181  1470.771
 182  1836.113
 183  1812.964
 184  1759.565
 185  1649.575
 186  1366.775
 187  1504.845
 188  1559.065
 189  1608.476
 190  1571.205
 191  1268.801
 192  1307.248
 193  1423.344
 194  1439.522
 195  1591.62
 196  1526.487
 197  1547.313
 198  1398.604
 199  1431.741
 200  1443.15
 201  1647.615
 202  1901.164
 203  1997.419
 204  1757.889
 205  1498.555
 206  1424.909
 207  1554.51
 208  1337.396
 209  1244.898
 210  1263.471
 211  1258.612
 212  1421.487
 213  1222.754
 214  1358.276
 215  1692.862
 216  1705.904
 217  1807.59
 218  1561.753
 219  1539.537
 220  1579.512
 221  1178.327
 222  1228.046
 223  1154.897
 224  1159.603
 225  1427.561
 226  1653.005
 227  1816.208
 228  1586.627
 229  1293.66
 230  1576.628
 231  1616.422
 232  1659.13
 233  1634.553
 234  1560.501
 235  1563.88
 236  1299.676
 237  1362.232
 238  1310.732
 239  1311.901
 240  1325.185
 241  1503.951
 242  1751.94
 243  1768.421
 244  1770.161
 245  1663.923
 246  1560.25
 247  1665.123
 248  1672.329
 249  1675.229
 250  1674.118
 251  1504.009
 252  1672.388
 253  1531.221
 254  1437.81
 255  1396.3
 256  1359.393
 257  1661.679
 258  1814.437
 259  1806.193
 260  1876.287
 261  1716.469
 262  1694.028
 263  1638.926
 264  1265.478
 265  1339.121
 266  1416.483
 267  1579.459
 268  1584.988
 269  1536.89
 270  1727.602
 271  1644.684
 272  1552.066
 273  1487.872
 274  1506.787
 275  1633.958
 276  1715.104
 277  1825.44
 278  1694.053
 279  1638.54
 280  1781.115
 281  1852.792
 282  1904.787
 283  1714.874
 284  1781.512
 285  1902.64
 286  1669.234
 287  1540.23
 288  1369.258
 289  1415.865
 290  1619.226
 291  1528.781
 292  1657.228
 293  1812.675
 294  1616.896
 295  1634.21
 296  1309.09
 297  1327.145
 298  1233.933
 299  1192.598
 300  1433.046
 301  1469.956
 302  1421.511
 303  1298.075
 304  877.0109
 305  913.5813
 306  838.0546
 307  835.491
 308  897.7289
 309  1014.963
 310  1239.883
 311  1309.044
 312  1175.005
 313  1354.928
 314  1343.587
 315  1519.079
 316  1452.688
 317  1472.278
 318  1628.664
 319  1624.383
 320  1752.472
 321  1523.198
 322  1492.443
 323  1373.103
 324  1281.848
 325  1520.888
 326  1440.332
 327  1516.653
 328  1576.472
 329  1483.483
 330  1679.584
 331  1602.299
 332  1775.695
 333  2017.92
 334  1780.043
 335  1819.838
 336  1391.098
 337  1279.298
 338  1326.523
 339  1089.199
 340  1155.088
 341  1099.724
 342  1366.322
 343  1617.759
 344  1504.589
 345  1536.226
 346  1481.353
 347  1577.872
 348  1718.54
 349  1701.256
 350  1750.716
 351  1394.245
 352  1248.583
 353  1286.014
 354  1309.881
 355  1278.136
 356  1211.207
 357  1423.613
 358  1721.603
 359  1680.753
 360  1790.246
 361  1563.22
 362  1543.536
 363  1650.005
 364  1605.495
 365  1789.804
 366  1573.492
 367  1546.578
 368  1691.207
 369  1607.844
 370  1749.371
 371  1761.081
 372  1471.589
 373  1431.726
 374  1083.866
 375  1478.983
 376  1472.721
 377  1332.067
 378  1462.949
 379  1444.164
 380  1511.598
 381  1560.78
 382  1771.778
 383  2027.95
 384  1771.406
 385  1630.067
 386  1614.325
 387  1520.618
 388  1285.159
 389  1135.38
 390  1176.404
 391  1309.217
 392  1358.592
 393  1501.734
 394  1533.832
 395  1541.605
 396  1492.484
 397  1412.716
 398  1647.91
 399  1746.001
 400  1758.087
 401  1571.519
 402  1414.617
 403  1490.655
 404  1281.02
 405  1212.41
 406  1152.128
 407  1317.05
 408  1436.61
 409  1182.807
 410  1260.237
 411  1328.698
 412  1288.642
 413  1360.721
 414  1247.585
 415  1365.134
 416  1421.749
 417  1359.941
 418  1537.498
 419  1435.335
 420  1358.817
 421  1310.21
 422  1339.206
 423  1584.803
 424  1589.098
 425  1573.477
 426  1660.374
 427  1446.644
 428  1590.554
 429  1621.404
 430  1931.907
 431  1943.713
 432  1781.136
 433  1682.656
 434  1427.332
 435  1404.266
 436  1375.875
 437  1480.743
 438  1543.28
 439  1433.536
 440  1689.505
 441  1805.937
 442  1625.366
 443  1636.863
 444  1470.993
 445  1476.266
 446  1569.304
 447  1378.133
 448  1648.885
 449  1556.175
 450  1754.176
 451  1886.815
 452  1738.116
 453  1785.928
 454  1656.753
 455  1372.398
 456  1343.541
 457  1248.699
 458  1446.266
 459  1536.46
 460  1516.885
 461  1774.135
 462  1611.075
 463  1557.801
 464  1663.552
 465  1916.12
 466  2038.048
 467  1621.96
 468  1378.59
 469  1152.584
 470  902.4509
 471  825.2435
 472  871.8065
 473  1333.96
 474  1242.757
 475  1318.123
 476  1262.943
 477  1180.936
 478  1303.082
 479  1219.838
 480  1354.506
 481  1406.439
 482  1398.319
 483  1652.636
 484  1424.734
 485  1273.132
 486  1400.157
 487  1306.061
 488  1534.259
 489  1525.044
 490  1731.552
 491  1759.63
 492  1448.978
 493  1406.818
 494  1437.379
 495  1409.246
 496  1715.168
 497  1725.553
 498  1739.87
 499  1570.441
 500  1473.184
 501  1668.303
 502  1473.824
 503  1432.153
 504  1386.719
 505  1410.677
 506  1492.882
 507  1355.99
 508  1539.03
 509  1561.661
 510  1496.752
 511  1644.33
 512  1747.207
 513  1963.922
 514  1723.859
 515  1609.874
 516  1668.502
 517  1427.036
 518  1542.675
 519  1548.906
 520  1321.568
 521  1286.092
 522  1111.898
 523  1505.829
 524  1545.916
 525  1514.958
 526  1911.425
 527  1812.625
 528  1683.784
 529  1690.912
 530  1678.088
 531  1870.687
 532  1568.531
 533  1610.578
 534  1648.078
 535  1417.134
 536  1265.331
 537  1258.344
 538  1200.392
 539  1303.525
 540  1098.639
 541  1250.935
 542  1243.022
 543  1400.778
 544  1442.27
 545  1414.408
 546  1552.686
 547  1480.551
 548  1533.704
 549  1296.058
 550  1158.849
 551  1518.276
 552  1513.13
 553  1475.813
 554  1290.203
 555  1305.137
 556  1602.03
 557  1451.949
 558  1470.202
 559  1599.154
 560  1470.86
 561  1649.371
 562  1328.696
 563  1397.3
 564  1423.23
 565  1363.501
 566  1593.041
 567  1378.65
 568  1220.998
 569  1266.256
 570  1357.18
 571  1533.74
 572  1615.588
 573  1673.917
 574  1812.094
 575  1548.66
 576  1658.27
 577  1583.594
 578  1489.535
 579  1598.083
 580  1699.587
 581  1871.938
 582  1702.994
 583  1729.604
 584  1612.058
 585  1285.973
 586  1190.725
 587  1250.634
 588  1463.071
 589  1394.223
 590  1391.3
 591  1598.43
 592  1575.742
 593  1365.244
 594  1438.911
 595  1318.756
 596  1486.868
 597  1443.017
 598  1667.281
 599  1835.739
 600  1561.36
 601  1597.526
 602  1502.905
 603  1534.06
 604  1691.975
 605  1692.77
 606  1640.818
 607  1700.076
 608  1675.874
 609  1999.96
 610  1682.86
 611  1669.992
 612  1640.989
 613  1839.821
 614  1826.768
 615  1676.392
 616  1715.775
 617  1737.858
 618  1722.846
 619  1748.343
 620  1811.192
 621  1909.839
 622  1772.257
 623  1856.296
 624  1881.746
 625  1694.466
 626  1629.414
 627  1556.233
 628  1655.86
 629  1470.981
 630  1200.87
 631  1284.221
 632  1287.183
 633  1217.216
 634  1261.167
 635  984.2021
 636  1130.725
 637  1214.863
 638  1288.98
 639  1644.511
 640  1628.196
 641  1947.443
 642  1793.979
 643  1622.065
 644  1784.225
 645  1708.671
 646  1786.123
 647  1693.208
 648  1554.827
 649  1599.054
 650  1426.079
 651  1318.199
 652  1284.654
 653  1282.878
 654  1309.138
 655  1261.206
 656  1428.305
 657  1587.405
 658  1745.702
 659  1816.681
 660  1731.449
 661  1690.334
 662  1637.512
 663  1570.632
 664  1607.222
 665  1346.741
 666  1449.999
 667  1285.988
 668  1128.722
 669  1207.19
 670  1139.019
 671  1224.634
 672  1159.091
 673  1096.102
 674  1619.565
 675  1563.775
 676  1619.74
 677  1601.763
 678  1515.474
 679  1589.584
 680  1369.722
 681  1356.355
 682  1435.894
 683  1166.941
 684  1171.941
 685  1177.818
 686  1275.289
 687  1415.244
 688  1353.184
 689  1647.828
 690  1591.005
 691  1542.783
 692  1566.492
 693  1579.672
 694  1632.444
 695  1468.857
 696  1646.517
 697  1728.957
 698  1699.063
 699  1563.11
 700  1358.695
 701  1398.997
 702  1281.967
 703  1230.02
 704  1353.984
 705  1158.735
 706  1147.22
 707  1307.252
 708  1277.208
 709  1621.842
 710  1504.971
 711  1695.336
 712  1718.595
 713  1529.568
 714  1708.628
 715  1587.859
 716  1395.575
 717  1296.647
 718  1089.631
 719  1376.743
 720  1596.401
 721  1692.8
 722  1843.937
 723  1797.078
 724  1967.423
 725  1965.75
 726  1730.424
 727  1862.716
 728  1955.757
 729  1924.786
 730  1811.268
 731  1760.243
 732  1549.35
 733  1274.333
 734  1206.997
 735  1408.221
 736  1564.331
 737  1473.399
 738  1304.64
 739  1604.81
 740  1746.793
 741  1827.719
 742  1862.919
 743  1709.434
 744  1788.139
 745  1541.105
 746  1628.567
 747  1770.983
 748  1525.312
 749  1556.501
 750  1356.856
 751  1367.345
 752  1493.104
 753  1496.838
 754  1729.843
 755  1839.531
 756  1781.572
 757  1765.106
 758  1581.905
 759  1619.868
 760  1642.492
 761  1581.187
 762  1872.701
 763  1925.542
 764  1774.622
 765  1432.548
 766  1220.432
 767  1481.186
 768  1273.231
 769  1223.035
 770  1083.071
 771  1200.702
 772  1424.213
 773  1383.536
 774  1398.349
 775  1308.433
 776  1352.263
 777  1555.578
 778  1469.16
 779  1679.997
 780  1568.744
 781  1539.726
 782  1503.802
 783  1211.378
 784  1338.311
 785  1174.921
 786  1121.864
 787  1266.96
 788  1359.595
 789  1617.056
 790  1797.154
 791  1751.149
 792  1855.961
 793  1489.286
 794  1499.547
 795  1603.932
 796  1541.439
 797  1520.195
 798  1116.855
 799  921.0922
 800  1042.746
 801  1027.544
 802  1156.28
 803  1087.085
 804  1209.982
 805  1336.17
 806  1319.151
 807  1603.357
 808  1563.949
 809  1718.767
 810  1598.17
 811  1440.47
 812  1381.917
 813  1249.226
 814  1303.683
 815  1202.527
 816  1230.921
 817  1515.025
 818  1277.317
 819  1392.412
 820  1518.88
 821  1651.495
 822  1982.921
 823  1785.172
 824  1823.409
 825  1727.408
 826  1472.254
 827  1466.844
 828  1416.833
 829  1594.505
 830  1929.316
 831  1735.366
 832  1778.081
 833  1606.505
 834  1656.623
 835  1631.111
 836  1515.109
 837  1676.524
 838  1874.817
 839  1815.176
 840  1718.591
 841  1389.473
 842  1678.341
 843  1751.15
 844  1798.943
 845  1717.823
 846  1718.464
 847  1894.012
 848  1615.016
 849  1380.475
 850  1400.41
 851  1304.477
 852  1594.223
 853  1498.855
 854  1746.988
 855  1761.619
 856  1579.869
 857  1659.032
 858  1478.617
 859  1550.235
 860  1573.776
 861  1576.888
 862  1832.819
 863  1521.237
 864  1044.144
 865  888.8814
 866  847.7418
 867  1241.263
 868  1355.47
 869  1193.024
 870  1302.132
 871  1051.083
 872  1357.415
 873  1410.352
 874  1491.174
 875  1659.621
 876  1407.413
 877  1322.443
 878  1225.496
 879  1606.908
 880  1682.867
 881  1561.84
 882  1426.056
 883  1322.243
 884  1300.187
 885  1334.459
 886  1537.461
 887  1772.08
 888  1623.984
 889  1614.851
 890  1695.462
 891  1636.358
 892  1612.982
 893  1381.977
 894  1475.046
 895  1846.368
 896  1635.93
 897  1640.593
 898  1541.287
 899  1449.343
 900  1539.696
 901  1280.916
 902  1502.364
 903  1472.457
 904  1346.456
 905  1385.714
 906  1273.742
 907  1443.775
 908  1517.111
 909  1480.896
 910  1679.874
 911  1577.848
 912  1752.974
 913  1761.789
 914  1584.43
 915  1606.74
 916  1381.345
 917  1285.042
 918  1274.756
 919  1482.154
 920  1758.612
 921  1753.349
 922  1858.655
 923  1982.706
 924  1906.263
 925  1858.336
 926  1722.768
 927  1749.219
 928  1522.844
 929  1353.927
 930  1251.125
 931  1051.694
 932  939.3748
 933  928.2064
 934  1078.822
 935  1288.979
 936  1271.429
 937  1413.781
 938  1683.28
 939  1591.217
 940  1792.354
 941  1411.932
 942  1361.683
 943  1349.876
 944  1553.36
 945  1611.859
 946  1254.169
 947  1009.198
 948  1223.889
 949  1100.995
 950  1209.944
 951  1320.355
 952  1574.265
 953  1618.297
 954  1526.771
 955  1736.425
 956  1764.198
 957  1505.751
 958  1247.291
 959  1379.445
 960  1513.874
 961  1478.516
 962  1399.358
 963  1445.778
 964  1268.469
 965  1460.251
 966  1359.084
 967  1532.413
 968  1631.901
 969  1761.804
 970  1992.736
 971  1712.4
 972  1794.41
 973  1834.339
 974  1517.442
 975  1633.388
 976  1471.426
 977  1704.563
 978  1530.378
 979  1301.285
 980  1319.612
 981  1338.228
 982  1323.234
 983  1540.399
 984  1460.036
 985  1557.957
 986  1493.068
 987  1458.301
 988  1577.753
 989  1389.396
 990  1313.518
 991  1505.364
 992  1566.295
 993  1734.371
 994  1600.391
 995  1507.43
 996  1414.026
 997  1250.777
 998  1516.859
 999  1400.341
1000  1339.1
1001  1080.5
1002  1237.817
1003  1298.893
1004  1239.276
1005  1346.562
1006  1322.361
1007  1340.286
1008  1471.4
1009  1437.52
1010  1719.214
1011  1488.191
1012  1372.45
1013  1644.198
1014  1420.971
1015  1516.592
1016  1358.067
1017  1384.077
1018  1580.081
1019  1199.774
1020  1345.574
1021  1420.834
1022  1484.703
1023  1629.216
