# Input file       =  1199881642.101681_cleaned.dat
# Candidate        =  PSR_0332+5434
# Telescope        =  AR
# Epoch_topo       =  58131.519225713899
# Epoch_bary       =  N/A
# T_sample         =  0.002
# Data Folded      =  7143424
# Data Avg         =  0.154864951324171
# Data StdDev      =  4.56452196678143 
# Profile Bins     =  512
# Profile Avg      =  2160.80645504556 
# Profile StdDev   =  539.154873552611 
# Reduced chi-sqr  =  1.344
# Prob(Noise)      <  2.94e-07   (~5.0 sigma)
# P_topo (ms)      =  714.565532840753  +/- 2.79e-05
# P'_topo (s/s)    =  -0                +/- 1.51e-11
# P''_topo (s/s^2) =  0                 +/- 6.87e-15
# P_bary (ms)      =  N/A
# P'_bary (s/s)    =  N/A
# P''_bary (s/s^2) =  N/A
# P_orb (s)        =  N/A
# asin(i)/c (s)    =  N/A
# eccentricity     =  N/A
# w (rad)          =  N/A
# T_peri           =  N/A
######################################################
   0  2638.638
   1  1789.653
   2  1431.923
   3  1950.324
   4  1792.842
   5  1904.897
   6  2116.486
   7  2545.19
   8  2067.051
   9  1392.266
  10  1603.418
  11  2014.706
  12  1877.77
  13  1991.867
  14  2475.475
  15  2879.959
  16  2648.962
  17  1577.649
  18  1525.211
  19  1811.487
  20  2088.132
  21  2320.736
  22  2294.934
  23  2427.891
  24  2460.197
  25  1793.026
  26  1351.192
  27  1238.136
  28  1666.357
  29  1867.232
  30  2096.951
  31  2462.683
  32  2487.423
  33  2447.494
  34  1889.575
  35  1878.954
  36  1909.904
  37  2014.561
  38  1797.011
  39  1818.314
  40  2298.502
  41  2127.551
  42  1316.597
  43  1305.115
  44  1903.16
  45  2165.878
  46  1865.003
  47  2116.175
  48  2850.509
  49  2494.112
  50  1846.186
  51  2055.557
  52  2318.706
  53  2497.558
  54  2193.521
  55  2189.26
  56  2197.838
  57  2100.137
  58  1534.574
  59  1264.373
  60  1524.619
  61  2017.428
  62  2310.581
  63  2459.542
  64  2762.171
  65  3051.367
  66  2488.835
  67  1943.701
  68  2061.071
  69  2105.59
  70  2152.11
  71  2029.247
  72  2212.409
  73  2602.369
  74  2365.726
  75  1954.25
  76  1642.191
  77  2071.768
  78  2302.605
  79  2151.783
  80  2506.185
  81  2938.681
  82  2794.139
  83  2201.346
  84  1887.615
  85  2324.327
  86  2280.431
  87  2207.246
  88  2203.465
  89  2720.788
  90  2717.198
  91  2092.626
  92  1771.469
  93  1662.528
  94  2294.104
  95  2233.687
  96  2173.175
  97  2896.495
  98  3367.19
  99  2777.021
 100  1927.867
 101  1546.026
 102  1792.329
 103  2040.981
 104  1668.086
 105  2079.164
 106  2357.989
 107  2367.857
 108  1734.021
 109  1482.481
 110  1757.723
 111  1876.291
 112  1732.195
 113  1906.83
 114  2192.307
 115  2329.343
 116  2275.494
 117  2064.239
 118  2440.868
 119  2257.76
 120  2034.026
 121  1848.55
 122  2407.323
 123  2502.552
 124  1734.414
 125  1354.265
 126  1505.345
 127  1919.81
 128  2232.927
 129  2530.605
 130  2828.36
 131  2953.112
 132  2278.045
 133  1745.339
 134  1569.116
 135  1984.332
 136  2184.405
 137  2053.775
 138  2284.088
 139  2683.584
 140  2550.951
 141  1939.056
 142  1618.53
 143  1705.27
 144  2001.949
 145  2179.1
 146  2059.968
 147  2745.991
 148  2930.136
 149  2414.41
 150  2008.495
 151  2155.042
 152  2542.678
 153  2000.641
 154  1716.398
 155  2076.611
 156  2044.626
 157  1484.866
 158  1013.558
 159  1542.874
 160  2056.008
 161  2303.723
 162  2349.564
 163  2689.642
 164  2762.422
 165  2228.758
 166  1714.133
 167  1615.784
 168  2000.711
 169  2222.474
 170  2169.525
 171  2401.351
 172  2449.385
 173  2089.476
 174  1165.991
 175  1265.477
 176  1563.652
 177  2218.616
 178  2007.843
 179  2096.178
 180  3165.792
 181  3140.711
 182  2829.67
 183  2422.633
 184  2360.857
 185  2496.998
 186  2302.121
 187  2166.72
 188  2695.619
 189  2545.925
 190  1884.953
 191  1548.921
 192  2081.713
 193  2291.571
 194  2300.273
 195  2002.226
 196  2557.142
 197  2717.907
 198  2288.03
 199  1954.31
 200  1998.833
 201  2334.849
 202  2515.176
 203  2001.686
 204  2024.051
 205  2280.782
 206  2323.72
 207  1564.351
 208  1242.084
 209  1659.283
 210  1703.668
 211  1941.112
 212  2082.188
 213  2426.377
 214  2741.942
 215  2343.591
 216  1916.319
 217  1857.089
 218  1931.719
 219  1718.808
 220  1717.264
 221  2345.159
 222  2697.385
 223  2036.668
 224  1784.779
 225  1837.683
 226  2001.932
 227  1821.642
 228  1976.753
 229  2036.989
 230  2537.569
 231  2656.178
 232  1865.827
 233  1937.435
 234  2196.717
 235  2496.049
 236  2078.799
 237  1947.595
 238  2702.622
 239  2209.617
 240  1657.812
 241  1441.432
 242  1847.299
 243  2025.954
 244  2029.058
 245  2487.071
 246  2950.67
 247  2904.255
 248  2583.582
 249  2005.105
 250  1747.361
 251  2056.946
 252  2353.054
 253  2111.402
 254  2395.121
 255  2723.841
 256  2190.493
 257  1522.786
 258  1901.592
 259  2124.738
 260  2226.037
 261  2414.991
 262  2491.63
 263  2419.381
 264  2293.37
 265  2271.817
 266  2270.907
 267  2150.322
 268  2366.031
 269  2253.808
 270  1864.737
 271  2190.038
 272  2139.395
 273  1664.435
 274  1423.403
 275  1812.787
 276  2121.871
 277  2066.214
 278  2159.1
 279  2640.447
 280  3030.719
 281  2392.49
 282  1706.918
 283  1688.515
 284  1747.257
 285  1855.882
 286  1833.457
 287  2191.835
 288  2771.502
 289  2021.218
 290  1474.534
 291  1624.299
 292  1824.773
 293  1949.679
 294  1870.328
 295  2496.286
 296  2969.248
 297  2530.283
 298  2025.737
 299  1305.706
 300  1657.263
 301  2238.403
 302  2218.073
 303  2133.538
 304  2258.846
 305  2287.797
 306  1574.019
 307  1213.602
 308  1544.943
 309  2376.192
 310  2470.105
 311  2471.993
 312  2897.384
 313  2870.974
 314  2182.217
 315  1828.991
 316  1876.954
 317  2111.185
 318  2013.903
 319  2076.259
 320  2358.222
 321  2572.941
 322  2153.573
 323  1480.726
 324  1287.591
 325  1502.013
 326  1689.09
 327  2079.996
 328  2409.667
 329  2954.846
 330  2773.365
 331  2571.714
 332  2170.6
 333  2243.857
 334  1909.448
 335  1853.411
 336  2121.972
 337  2523.553
 338  2033.999
 339  1847.664
 340  1579.835
 341  1711.228
 342  2106.818
 343  2272.373
 344  2301.319
 345  2727.127
 346  2963.532
 347  2068.771
 348  1670.225
 349  1792.075
 350  1865.243
 351  1822.905
 352  1882.453
 353  2302.322
 354  2611.776
 355  2205.882
 356  1203.577
 357  1528.993
 358  1754.323
 359  2002.445
 360  2155.482
 361  2508.985
 362  3131.756
 363  2742.705
 364  2227.727
 365  2223.283
 366  2186.055
 367  2258.625
 368  2134.624
 369  2436.497
 370  2794.834
 371  2654.518
 372  2155.175
 373  1635.619
 374  1985.55
 375  2308.703
 376  2517.07
 377  3248.478
 378  3938.881
 379  4150.922
 380  3702.455
 381  3190.156
 382  3021.024
 383  2946.522
 384  2544.678
 385  2749.639
 386  2745.557
 387  2856.828
 388  2068.674
 389  1361.548
 390  1400.418
 391  1854.992
 392  2322.319
 393  2221.199
 394  2697.371
 395  3167.306
 396  2741.57
 397  2463.143
 398  2249.79
 399  2015.544
 400  1858.935
 401  1780.699
 402  1945.957
 403  2440.441
 404  2670.757
 405  1998.354
 406  1491.967
 407  1674.357
 408  2063.025
 409  2066.75
 410  2235.034
 411  2693.366
 412  2860.296
 413  2430.081
 414  1739.048
 415  1924.232
 416  2225.841
 417  2233.526
 418  2281.878
 419  2588.1
 420  2420.593
 421  1871.997
 422  1365.508
 423  1292.996
 424  1991.344
 425  2336.066
 426  2762.184
 427  2999.417
 428  3327.768
 429  2593.009
 430  2071.951
 431  1764.442
 432  1146.421
 433  1619.977
 434  2071.243
 435  2451.502
 436  2755.662
 437  2598.145
 438  1867.35
 439  1370.843
 440  1439.181
 441  1976.868
 442  2079.201
 443  2607.136
 444  2799.382
 445  3079.774
 446  2514.884
 447  1964.447
 448  2042.346
 449  2207.884
 450  2243.775
 451  2090.557
 452  2390.568
 453  2467.527
 454  2085.677
 455  1749.023
 456  1593.584
 457  1670.366
 458  1795.525
 459  2383.058
 460  2623.993
 461  2821.222
 462  2624.129
 463  2199.351
 464  1795.784
 465  1712.734
 466  2106.615
 467  2044.581
 468  2239.193
 469  2470.521
 470  2301.679
 471  1837.745
 472  1608.777
 473  2013.703
 474  2186.005
 475  1952.348
 476  2280.939
 477  3001.998
 478  2614.631
 479  2429.613
 480  2060.239
 481  2056.828
 482  2471.28
 483  2323.489
 484  1913.827
 485  1998.391
 486  2339.366
 487  1953.135
 488  1063.948
 489  1298.845
 490  1757.977
 491  1998.596
 492  2298.745
 493  2908.021
 494  3090.101
 495  2562.107
 496  1947.535
 497  1729.732
 498  1889.864
 499  2136.999
 500  2480.959
 501  2714.093
 502  2956.107
 503  2590.701
 504  1697.537
 505  1147.707
 506  1435.216
 507  1824.286
 508  1900.686
 509  2325.254
 510  2935.529
 511  2999.183
