# Input file       =  1199723963.108346_cleaned.dat
# Candidate        =  PSR_0332+5434
# Telescope        =  AR
# Epoch_topo       =  58129.694237365118
# Epoch_bary       =  N/A
# T_sample         =  0.002
# Data Folded      =  7340032
# Data Avg         =  0.0796965344603772
# Data StdDev      =  1.00017608694005 
# Profile Bins     =  512
# Profile Avg      =  1142.49701144571 
# Profile StdDev   =  119.754119800765 
# Reduced chi-sqr  =  0.778
# Prob(Noise)      <  1   (~0.0 sigma)
# P_topo (ms)      =  714.564238960847  +/- 0.000345
# P'_topo (s/s)    =  -0                +/- 1.82e-10
# P''_topo (s/s^2) =  0                 +/- 8.04e-14
# P_bary (ms)      =  N/A
# P'_bary (s/s)    =  N/A
# P''_bary (s/s^2) =  N/A
# P_orb (s)        =  N/A
# asin(i)/c (s)    =  N/A
# eccentricity     =  N/A
# w (rad)          =  N/A
# T_peri           =  N/A
######################################################
   0  1149.111
   1  1174.065
   2  1109.844
   3  1129.832
   4  1099.875
   5  1014.085
   6  1043.091
   7  1027.406
   8  1081.526
   9  975.9688
  10  998.2125
  11  1051.024
  12  1104.745
  13  1080.992
  14  1121.173
  15  1128.791
  16  1111.193
  17  1136.276
  18  1152.453
  19  1101.063
  20  1099.056
  21  1068.117
  22  1082.258
  23  1017.983
  24  1078.081
  25  1173.387
  26  1147.674
  27  1183.041
  28  1109.494
  29  1054.63
  30  1134.429
  31  1129.79
  32  1152.385
  33  1186.511
  34  1144.083
  35  1100.263
  36  1134.299
  37  1074.978
  38  1052.74
  39  1089.265
  40  1117.219
  41  1096.461
  42  1094.58
  43  1091.337
  44  1042.615
  45  1086.212
  46  1101.061
  47  1086.138
  48  1123.334
  49  1243.002
  50  1241.799
  51  1170.021
  52  1023.393
  53  1099.071
  54  1131.328
  55  1104.332
  56  1147.261
  57  1124.519
  58  1069.712
  59  1098.742
  60  1195.667
  61  1174.168
  62  1191.52
  63  1129.907
  64  1025.493
  65  1101.182
  66  1062.52
  67  1033.829
  68  1093.328
  69  1131.668
  70  1149.32
  71  1101.111
  72  1143.354
  73  1133.068
  74  1114.819
  75  1117.205
  76  1063.751
  77  1148.422
  78  1197.034
  79  1061.056
  80  1132.624
  81  1057.026
  82  1061.682
  83  1103.535
  84  1105.843
  85  1116.446
  86  1121.537
  87  1099.286
  88  1058.445
  89  1126.306
  90  1053.731
  91  1107.128
  92  1145.615
  93  1098.895
  94  1031.433
  95  992.5103
  96  1117.737
  97  1133.747
  98  1103.753
  99  1097.395
 100  1075.159
 101  1074.855
 102  1045.573
 103  1032.09
 104  1102.107
 105  1048.24
 106  1022.635
 107  1070.725
 108  1062.458
 109  1013.857
 110  1083.738
 111  1128.706
 112  1140.232
 113  1110.214
 114  1093.235
 115  1193.152
 116  1117.93
 117  1023.849
 118  1037.016
 119  1125.12
 120  1182.032
 121  1192.811
 122  1152.596
 123  1160.778
 124  1156.174
 125  1133.388
 126  1213.503
 127  1116.024
 128  1193.177
 129  1104.962
 130  1057.466
 131  1084.729
 132  1034.228
 133  1176.309
 134  1173.565
 135  1159.681
 136  1143.268
 137  1039.702
 138  1075.218
 139  1117.544
 140  1107.399
 141  1080.214
 142  1183.176
 143  1200.619
 144  1089.357
 145  1033.873
 146  1185.743
 147  1243.005
 148  1143.674
 149  1120.678
 150  1062.149
 151  1101.324
 152  1174.29
 153  1181.764
 154  1249.868
 155  1179.115
 156  1056.385
 157  1037.533
 158  1068.519
 159  1132.89
 160  1100.2
 161  1188.459
 162  1150.252
 163  1138.082
 164  1104.835
 165  1099.245
 166  1111.094
 167  1158.231
 168  1150.716
 169  1124.327
 170  1177.173
 171  1138.128
 172  1177.363
 173  1142.8
 174  1113.403
 175  1122.639
 176  1062.036
 177  1000.63
 178  1107.038
 179  1104.464
 180  1108.632
 181  999.037
 182  1099.357
 183  1230.292
 184  1176.082
 185  1196.145
 186  1228.371
 187  1120.289
 188  1135.426
 189  1083.567
 190  1108.626
 191  1097.471
 192  1146.717
 193  1145.754
 194  1018.696
 195  1004.664
 196  1075.976
 197  1097.862
 198  1151.058
 199  1205.634
 200  1194.079
 201  1224.438
 202  1105.207
 203  1042.919
 204  1171.907
 205  1090.978
 206  1079.653
 207  1168.557
 208  1142.055
 209  1111.128
 210  1066.428
 211  1098.03
 212  1088.977
 213  1184.261
 214  1142.831
 215  1057.085
 216  1082.18
 217  1078.045
 218  1084.146
 219  1167.408
 220  1095.152
 221  1084.758
 222  1125.374
 223  1177.892
 224  1029.316
 225  1084.144
 226  1087.604
 227  1078.442
 228  1145.887
 229  1161.877
 230  1141.654
 231  1202.77
 232  1254.729
 233  1171.328
 234  1095.819
 235  1164.118
 236  1113.175
 237  1130.859
 238  1193.614
 239  1219.953
 240  1209.264
 241  1156.267
 242  1100.355
 243  1064.028
 244  1083.134
 245  1111.428
 246  1163.194
 247  1187.036
 248  1131.717
 249  1094.991
 250  1042.501
 251  1045.656
 252  1134.513
 253  1183.473
 254  1082.276
 255  1155.156
 256  1270.67
 257  1093.043
 258  1097.688
 259  1096.719
 260  1288.738
 261  1295.307
 262  1272.281
 263  1233.858
 264  1158.504
 265  1134.267
 266  1127.358
 267  1205.36
 268  1251.898
 269  1183.645
 270  1150.181
 271  1174.152
 272  1346.142
 273  1353.291
 274  1310.459
 275  1221.611
 276  1182.983
 277  1139.513
 278  1127.131
 279  1108.597
 280  1176.988
 281  1092.543
 282  1027.673
 283  1176.859
 284  1158.005
 285  1170.183
 286  1198.519
 287  1072.755
 288  1171.703
 289  1241.077
 290  1295.468
 291  1185.068
 292  1179.772
 293  1202.465
 294  1135.778
 295  1202.662
 296  1198.65
 297  1202.604
 298  1172.134
 299  1097.747
 300  1145.123
 301  1335.901
 302  1301.689
 303  1285.289
 304  1238.431
 305  1326.139
 306  1216.423
 307  1156.521
 308  1130.493
 309  1185.199
 310  1273.576
 311  1231.806
 312  1228.826
 313  1297.478
 314  1314.994
 315  1249.233
 316  1220.856
 317  1212.268
 318  1211.602
 319  1179.419
 320  1095.065
 321  1089.449
 322  1052
 323  1034.039
 324  1033.515
 325  1078.617
 326  1085.956
 327  1095.282
 328  1136.968
 329  1098.504
 330  1144.519
 331  1227.113
 332  1193.818
 333  1183.601
 334  1139.624
 335  1161.016
 336  1204.777
 337  1202.79
 338  1178.311
 339  1151.064
 340  1161.67
 341  1182.191
 342  1190.616
 343  1223.522
 344  1193.236
 345  1202.194
 346  1258.614
 347  1190.432
 348  1234.874
 349  1178.686
 350  1181.416
 351  1137.979
 352  1148.571
 353  1246.693
 354  1290.813
 355  1285.362
 356  1235.538
 357  1195.86
 358  1158.975
 359  1072.579
 360  1062.596
 361  1136.993
 362  1148.145
 363  1160.887
 364  1145.734
 365  1182.707
 366  1156.497
 367  1148.166
 368  1175.908
 369  1177.508
 370  1135.914
 371  1119.031
 372  1222.421
 373  1236.679
 374  1163.028
 375  1269.006
 376  1207.202
 377  1146.595
 378  1134.243
 379  1126.168
 380  1215.868
 381  1272.03
 382  1237.034
 383  1183.675
 384  1231.647
 385  1316.409
 386  1256.466
 387  1134.147
 388  1164.499
 389  1224.56
 390  1237.124
 391  1188.652
 392  1159.569
 393  1198.607
 394  1223.884
 395  1240.257
 396  1246.819
 397  1265.706
 398  1263.782
 399  1242.107
 400  1233.816
 401  1232.177
 402  1120.506
 403  1169.144
 404  1189.668
 405  1120.342
 406  1078.9
 407  1146.917
 408  1157.854
 409  1130.906
 410  1112.906
 411  1119.08
 412  1118.892
 413  1145.107
 414  1111.877
 415  1110.049
 416  1143.076
 417  1157.867
 418  1134.672
 419  984.892
 420  999.1647
 421  1094.91
 422  1169.805
 423  1108.386
 424  1099.377
 425  1050.771
 426  1041.263
 427  1060.907
 428  1091.293
 429  1180.367
 430  1122.992
 431  1073.56
 432  1038.941
 433  1050.105
 434  1049.927
 435  1091.013
 436  1157.635
 437  1184.059
 438  1136.986
 439  1169.439
 440  1234.049
 441  1298.842
 442  1199.691
 443  1182.885
 444  1271.343
 445  1175.901
 446  1148.682
 447  1067.632
 448  1088.311
 449  1098.982
 450  1178.763
 451  1174.699
 452  1145.61
 453  1092.736
 454  1066.541
 455  1065.444
 456  1154.945
 457  1061.392
 458  1029.199
 459  959.2901
 460  1060.694
 461  1113.389
 462  1041.117
 463  1080.029
 464  1054.821
 465  984.9153
 466  1103.44
 467  1159.662
 468  1134.013
 469  1165.866
 470  1151.212
 471  1173.019
 472  1116.438
 473  1188.035
 474  1050.895
 475  1068.161
 476  1054.044
 477  1062.464
 478  1058.985
 479  1133.163
 480  1175.14
 481  1271.647
 482  1208.11
 483  1176.614
 484  1117.359
 485  1047.428
 486  1076.453
 487  1216.487
 488  1171.29
 489  1157.469
 490  1078.168
 491  1099.75
 492  1120.376
 493  1070.842
 494  1085.529
 495  1256.844
 496  1210.207
 497  1196.423
 498  1227.37
 499  1402.196
 500  1397.182
 501  1356.509
 502  1503.19
 503  1566.012
 504  1454.634
 505  1354.043
 506  1180.464
 507  1240.413
 508  1118.32
 509  1103.95
 510  1163.929
 511  1165.26
