# Input file       =  1199967776.101105_cleaned.dat
# Candidate        =  PSR_0332+5434
# Telescope        =  AR
# Epoch_topo       =  58132.516147003531
# Epoch_bary       =  N/A
# T_sample         =  0.002
# Data Folded      =  7405568
# Data Avg         =  0.114776884557976
# Data StdDev      =  4.00797601654488 
# Profile Bins     =  512
# Profile Avg      =  1659.79401715717 
# Profile StdDev   =  482.024730673037 
# Reduced chi-sqr  =  0.606
# Prob(Noise)      <  1   (~0.0 sigma)
# P_topo (ms)      =  714.56622922867   +/- 6.25e-05
# P'_topo (s/s)    =  -0                +/- 3.27e-11
# P''_topo (s/s^2) =  0                 +/- 1.43e-14
# P_bary (ms)      =  N/A
# P'_bary (s/s)    =  N/A
# P''_bary (s/s^2) =  N/A
# P_orb (s)        =  N/A
# asin(i)/c (s)    =  N/A
# eccentricity     =  N/A
# w (rad)          =  N/A
# T_peri           =  N/A
######################################################
   0  1809.345
   1  1585.944
   2  1400.559
   3  1841.63
   4  1586.64
   5  1424.444
   6  1471.576
   7  1800.308
   8  2200.681
   9  1838.75
  10  1801.41
  11  2031.492
  12  1752.724
  13  1586.607
  14  1520.46
  15  1394.653
  16  1974.439
  17  2137.014
  18  1963.54
  19  2100.864
  20  1744.259
  21  1796.071
  22  1261.675
  23  1157.066
  24  1358.792
  25  1585.836
  26  1775.497
  27  1661.796
  28  1869.066
  29  1845.843
  30  1933.736
  31  1621.64
  32  1650.811
  33  1491.169
  34  1499.639
  35  1612.815
  36  1469.06
  37  1781.194
  38  2273.82
  39  1945.434
  40  1974.26
  41  1586.422
  42  1715.452
  43  1581.826
  44  1629.79
  45  1773.081
  46  1915.57
  47  1761.603
  48  1569.399
  49  2022.006
  50  1842.779
  51  2001.068
  52  1624.931
  53  1436.397
  54  1377.037
  55  1697.053
  56  1768.449
  57  1802.799
  58  1864.673
  59  1498.596
  60  1426.598
  61  1758.392
  62  1995.371
  63  1999.89
  64  1787.568
  65  1501.805
  66  1525.063
  67  1560.525
  68  1711.184
  69  1627.158
  70  1891.202
  71  1897.244
  72  1561.881
  73  1516.243
  74  1755.084
  75  1669.399
  76  1324.363
  77  1486.643
  78  1786.977
  79  1901.858
  80  1855.929
  81  2168.665
  82  1819.13
  83  1869.42
  84  2002.073
  85  1612.606
  86  1620.399
  87  1443.914
  88  1265.352
  89  1258.057
  90  1464.506
  91  1684.198
  92  2071.974
  93  1905.51
  94  1939.444
  95  1442.29
  96  1026.63
  97  1059.275
  98  1277.808
  99  1443.095
 100  1924.045
 101  1911.192
 102  2108.656
 103  2058.621
 104  1547.382
 105  1550.496
 106  1372.103
 107  1483.296
 108  1727.391
 109  1550.115
 110  1517.131
 111  1613.438
 112  1762.003
 113  1995.796
 114  2170.254
 115  2241.367
 116  2222.324
 117  1977.436
 118  1600.204
 119  1591.39
 120  1579.414
 121  1642.563
 122  1807.815
 123  1588.993
 124  1506.893
 125  1718.211
 126  1718.957
 127  1606.018
 128  1628.249
 129  1661.668
 130  1432.244
 131  1402.956
 132  1568.395
 133  1376.4
 134  1417.84
 135  1738.498
 136  1772.953
 137  1852.39
 138  1363.013
 139  1289.144
 140  1447.75
 141  1219.795
 142  1448.795
 143  1229.757
 144  1684.848
 145  1987.322
 146  1986.684
 147  1899.972
 148  1566.176
 149  1412.518
 150  1617.67
 151  1392.306
 152  1423.459
 153  1308.904
 154  1595.117
 155  1715.758
 156  1639.74
 157  1962.812
 158  2001.999
 159  1614.26
 160  1691.261
 161  1375.412
 162  1071.842
 163  1258.977
 164  1750.577
 165  1861.939
 166  1743.432
 167  1969.576
 168  1762.048
 169  1641.451
 170  1757.277
 171  1508.906
 172  1333.527
 173  1463.279
 174  1645.399
 175  1712.909
 176  1677.366
 177  1769.442
 178  1694.038
 179  1590.118
 180  1707.606
 181  1363.819
 182  996.6306
 183  1278.648
 184  1757.001
 185  1520.535
 186  1505.919
 187  1762.772
 188  1668.067
 189  1816.29
 190  1739.911
 191  2155.402
 192  1572.059
 193  1117.566
 194  1552.634
 195  1520.141
 196  1441.686
 197  1717.245
 198  1886.654
 199  1945.269
 200  1435.494
 201  1510.495
 202  1787.988
 203  1407.579
 204  1414.352
 205  995.5214
 206  944.9302
 207  1469.268
 208  1458.334
 209  1620.013
 210  1441.54
 211  1471.264
 212  2086.645
 213  1626.866
 214  1453.575
 215  965.8958
 216  1352.499
 217  1235.753
 218  1593.087
 219  1706.509
 220  1674.297
 221  1683.027
 222  1576.68
 223  1734.889
 224  1541.84
 225  1303.371
 226  1185.129
 227  1456.301
 228  1710.211
 229  1579.018
 230  1837.295
 231  1849.51
 232  1664.888
 233  1669.277
 234  1565.697
 235  1281.786
 236  1213.891
 237  1281.435
 238  1584.066
 239  1630.42
 240  1868.37
 241  1996.102
 242  1601.583
 243  1684.255
 244  1580.673
 245  1476.598
 246  1460.325
 247  1444.445
 248  1428.921
 249  1629.804
 250  1424.856
 251  1480.014
 252  1699.227
 253  1682.674
 254  1666.565
 255  1358.155
 256  1248.905
 257  1426.711
 258  1215.21
 259  1348.409
 260  1502.658
 261  1658.722
 262  1675.084
 263  1776.794
 264  1975
 265  2020.18
 266  1824.453
 267  1496.966
 268  1437.441
 269  1674.993
 270  1510.987
 271  1625.717
 272  1700.684
 273  1713.46
 274  1677.356
 275  1907.352
 276  1698.271
 277  1828.537
 278  1548.058
 279  1290.814
 280  1440.884
 281  1290.872
 282  1306.471
 283  1487.404
 284  1603.938
 285  1711.226
 286  1622.7
 287  1185.441
 288  1238.37
 289  1505.82
 290  1656.729
 291  1610.773
 292  1613.543
 293  1813.148
 294  1748.42
 295  1816.26
 296  2010.297
 297  1974.565
 298  1760.151
 299  1739.468
 300  1646.49
 301  1556.068
 302  1683.909
 303  1920.444
 304  2206.631
 305  2297.581
 306  2417.823
 307  2725.834
 308  2875.485
 309  3172.437
 310  2931.908
 311  2549.787
 312  2032.047
 313  1708.995
 314  1897.097
 315  1730.44
 316  1626.007
 317  1455.844
 318  1502.039
 319  1489.038
 320  1243.541
 321  1519.005
 322  1404.009
 323  1367.724
 324  1628.282
 325  1581.796
 326  1735.964
 327  1989.688
 328  1861.501
 329  1577.44
 330  1829.411
 331  1586.93
 332  1787.667
 333  1277.502
 334  1413.121
 335  1798.319
 336  1617.432
 337  1639.129
 338  1622.495
 339  1802.86
 340  1934.163
 341  1225.062
 342  1384.901
 343  1675.873
 344  1496.247
 345  1585.288
 346  1497.73
 347  1380.014
 348  1509.984
 349  1486.872
 350  1430.116
 351  1618.023
 352  1848.045
 353  1525.84
 354  1212.518
 355  1519.299
 356  1912.128
 357  1948.484
 358  1744.163
 359  1635.203
 360  1686.091
 361  1810.028
 362  1720.178
 363  1770.624
 364  1739.953
 365  1437.997
 366  1583.658
 367  1655.234
 368  1965.188
 369  2097.836
 370  1964.267
 371  1642.392
 372  1973.126
 373  1867.209
 374  1659.456
 375  1513.281
 376  1432.968
 377  1673.205
 378  1807.924
 379  1828.775
 380  1960.137
 381  1960.626
 382  2203.262
 383  1786.539
 384  1511.421
 385  1798.7
 386  1767.869
 387  1924.08
 388  1664.399
 389  1769.834
 390  1737.941
 391  1576.324
 392  1589.505
 393  1787.851
 394  1740.389
 395  1392.607
 396  1410.244
 397  1528.305
 398  1173.205
 399  1342.385
 400  2020.452
 401  2207.883
 402  2324.1
 403  1907.285
 404  1877.456
 405  1649.173
 406  1312.087
 407  1282.298
 408  1692.617
 409  1715.654
 410  1995.994
 411  1930.223
 412  1949.947
 413  1901.889
 414  1819.775
 415  1771.368
 416  1521.759
 417  1636.704
 418  1645.014
 419  1420.748
 420  1483.688
 421  1507.79
 422  1670.046
 423  1663.321
 424  1929.127
 425  1583.547
 426  1392.162
 427  1514.348
 428  1072.079
 429  1253.566
 430  1303.194
 431  1282.56
 432  1611.234
 433  1614.376
 434  1792.128
 435  1855.04
 436  2001.208
 437  1893.148
 438  1618.869
 439  1534.359
 440  1469.628
 441  1618.655
 442  1918.292
 443  1804.299
 444  1703.255
 445  1729.464
 446  1875.804
 447  1571.872
 448  1589.954
 449  1577.46
 450  1229.63
 451  1212.126
 452  1518.187
 453  1808.561
 454  1868.296
 455  1879.167
 456  1916.816
 457  1816.035
 458  1718.416
 459  1694.78
 460  1410.734
 461  1303.4
 462  1448.484
 463  1840.073
 464  1885.968
 465  1732.739
 466  2154.095
 467  1940.148
 468  1906.469
 469  1515.956
 470  1628.23
 471  1505.507
 472  1270.959
 473  1527.225
 474  1573.18
 475  1681.617
 476  1916.154
 477  1820.434
 478  1923.847
 479  1736.767
 480  1442.287
 481  1287.177
 482  1296.982
 483  1550.352
 484  1772.783
 485  1632.061
 486  1847.551
 487  1998.01
 488  2101.683
 489  1761.193
 490  1489.358
 491  1289.269
 492  1813.567
 493  1740.317
 494  1684.33
 495  1680.733
 496  1647.121
 497  1799.694
 498  1662.445
 499  1351.424
 500  1535.067
 501  1489.586
 502  1599.006
 503  1299.226
 504  1219.751
 505  1431.979
 506  1328.007
 507  1560.358
 508  1882.517
 509  2062.668
 510  2082.811
 511  1963.456
