# Input file       =  1199810099.108133_cleaned.dat
# Candidate        =  PSR_0332+5434
# Telescope        =  AR
# Epoch_topo       =  58130.691181807095
# Epoch_bary       =  N/A
# T_sample         =  0.002
# Data Folded      =  7340032
# Data Avg         =  0.888872778196981
# Data StdDev      =  5.75884060564465 
# Profile Bins     =  1024
# Profile Avg      =  6371.480634065   
# Profile StdDev   =  487.566722643083 
# Reduced chi-sqr  =  0.573
# Prob(Noise)      <  1   (~0.0 sigma)
# P_topo (ms)      =  714.564959953438  +/- 3.83e-05
# P'_topo (s/s)    =  -0                +/- 2.02e-11
# P''_topo (s/s^2) =  0                 +/- 8.92e-15
# P_bary (ms)      =  N/A
# P'_bary (s/s)    =  N/A
# P''_bary (s/s^2) =  N/A
# P_orb (s)        =  N/A
# asin(i)/c (s)    =  N/A
# eccentricity     =  N/A
# w (rad)          =  N/A
# T_peri           =  N/A
######################################################
   0  6277.589
   1  6505.035
   2  6600.048
   3  6517.633
   4  6369.845
   5  6432.219
   6  6324.572
   7  6409.338
   8  6348.269
   9  6407.329
  10  6341.822
  11  6304.046
  12  6384.724
  13  6371.752
  14  6399.747
  15  6364.49
  16  6282.079
  17  6100.455
  18  6098.868
  19  6144.098
  20  6307.598
  21  6272.333
  22  6356.697
  23  6605.148
  24  6612.042
  25  6518.568
  26  6298.151
  27  6143.924
  28  5999.474
  29  6121.925
  30  6382.18
  31  6519.945
  32  6613.545
  33  6455.735
  34  6364.266
  35  6229.752
  36  6242.861
  37  6449.623
  38  6795.162
  39  7023.894
  40  7005.672
  41  6876.433
  42  6673.032
  43  6572.679
  44  6305.444
  45  6406.146
  46  6283.558
  47  6069.037
  48  5961.966
  49  6112.081
  50  6427.968
  51  6562.21
  52  6540.083
  53  6508.605
  54  6326.889
  55  6320.299
  56  6269.819
  57  6323.459
  58  6474.62
  59  6624.852
  60  6581.495
  61  6537.994
  62  6318.508
  63  6239.767
  64  6360.599
  65  6456.575
  66  6505.334
  67  6404.462
  68  6632.638
  69  6700.85
  70  6597.268
  71  6331.075
  72  6260.873
  73  6423.88
  74  6553.349
  75  6624.63
  76  6425.11
  77  6608.877
  78  6553.014
  79  6656.528
  80  6553.596
  81  6538.039
  82  6513.097
  83  6230.645
  84  5972.293
  85  5899.205
  86  6061.202
  87  6180.232
  88  6383.379
  89  6420.228
  90  6410.538
  91  6267.105
  92  6191.568
  93  6301.793
  94  6354.101
  95  6377.267
  96  6198.728
  97  6042.928
  98  6106.289
  99  6079.699
 100  6023.957
 101  5972.513
 102  5945.955
 103  6012.002
 104  6184.683
 105  6250.086
 106  6248.45
 107  6149.901
 108  6441.434
 109  6782.404
 110  6831.838
 111  6561.832
 112  6378.645
 113  6223.201
 114  5977.046
 115  6057.523
 116  6363.973
 117  6569.887
 118  6522.869
 119  6372.429
 120  6313.714
 121  6268.433
 122  6312.52
 123  6485.285
 124  6602.364
 125  6630.254
 126  6524.278
 127  6323.574
 128  6345.451
 129  6472.692
 130  6421.943
 131  6213.214
 132  6025.701
 133  6043.089
 134  6046.43
 135  6052.045
 136  6260.891
 137  6488.812
 138  6359.93
 139  6326.602
 140  6199.607
 141  6361.64
 142  6543.957
 143  6603.577
 144  6705.971
 145  6810.817
 146  6671.87
 147  6612.033
 148  6349.069
 149  6311.21
 150  6294.855
 151  6418.346
 152  6665.193
 153  6624.813
 154  6475.955
 155  6402.669
 156  6320.83
 157  6337.021
 158  6511.894
 159  6590.577
 160  6646.764
 161  6580.855
 162  6346.396
 163  6385.144
 164  6406.014
 165  6538.648
 166  6482.403
 167  6431.838
 168  6506.243
 169  6288.546
 170  6094.596
 171  6094.854
 172  6392.792
 173  6669.869
 174  6733.963
 175  6614.822
 176  6674.511
 177  6637.119
 178  6457.724
 179  6379.609
 180  6321.857
 181  6351.927
 182  6312.278
 183  6264.029
 184  6329.548
 185  6326.395
 186  6317.99
 187  6328.411
 188  6429.478
 189  6505.998
 190  6571.17
 191  6428.523
 192  6316.408
 193  6209.105
 194  6331.113
 195  6329.335
 196  6428.572
 197  6335.574
 198  6296.976
 199  6245.054
 200  6257.498
 201  6544.525
 202  6673.945
 203  6586.105
 204  6379.99
 205  6444.008
 206  6409.005
 207  6215.885
 208  6159.119
 209  6358.916
 210  6549.873
 211  6648.502
 212  6615.484
 213  6461.925
 214  6439.93
 215  6459.666
 216  6424.539
 217  6335
 218  6294.198
 219  6352.562
 220  6456.566
 221  6540.921
 222  6633.493
 223  6780.264
 224  6781.634
 225  6665.551
 226  6442.988
 227  6325.014
 228  6268.284
 229  6117.967
 230  6204.947
 231  6568.455
 232  6767.297
 233  6757.202
 234  6403.634
 235  6153.444
 236  6090.275
 237  6237.325
 238  6503.831
 239  6626.173
 240  6487.89
 241  6504.054
 242  6253.579
 243  6262.412
 244  6392.354
 245  6548.849
 246  6570.65
 247  6379.574
 248  6236.169
 249  6150.256
 250  6037.476
 251  6182.236
 252  6325.051
 253  6263.006
 254  6141.278
 255  6165.74
 256  6195.271
 257  6261.127
 258  6254.126
 259  6473.598
 260  6692.035
 261  6497.486
 262  6491.13
 263  6477.31
 264  6359.728
 265  6364.18
 266  6272.583
 267  6430.634
 268  6450.783
 269  6396.178
 270  6416.417
 271  6298.562
 272  6479.227
 273  6658.276
 274  6794.52
 275  6656.538
 276  6355.898
 277  6074.327
 278  6022.351
 279  6306.518
 280  6500.957
 281  6622.76
 282  6412.883
 283  6268.515
 284  6329.432
 285  6347.486
 286  6263.011
 287  6416.438
 288  6416.354
 289  6674.83
 290  6498.673
 291  6477.976
 292  6303.605
 293  6294.717
 294  6317.558
 295  6469.512
 296  6390.686
 297  6399.935
 298  6357.83
 299  6281.282
 300  6291.342
 301  6519.742
 302  6534.354
 303  6465.676
 304  6440.234
 305  6523.994
 306  6504.598
 307  6359.529
 308  6526.709
 309  6676.058
 310  6651.463
 311  6447.397
 312  6172.75
 313  5985.551
 314  6111.721
 315  6353.248
 316  6683.164
 317  6837.5
 318  6585.183
 319  6438.983
 320  6241.021
 321  6255.949
 322  6356.604
 323  6417.981
 324  6548.088
 325  6596.24
 326  6462.896
 327  6442.108
 328  6384.026
 329  6492.097
 330  6556.552
 331  6428.707
 332  6474.858
 333  6382.03
 334  6365.132
 335  6384.394
 336  6322.043
 337  6341.473
 338  6378.391
 339  6433.082
 340  6338.941
 341  6405.784
 342  6284.473
 343  6176.299
 344  6018.51
 345  6039.356
 346  6246.264
 347  6193.076
 348  6313.234
 349  6253.307
 350  6095.292
 351  6106.745
 352  6179.212
 353  6409.245
 354  6468.441
 355  6485.736
 356  6530.788
 357  6340.425
 358  6266.144
 359  6309.871
 360  6116.316
 361  6094.253
 362  6137.802
 363  6191.093
 364  6244.607
 365  6219.026
 366  6501.803
 367  6579.426
 368  6656.258
 369  6512.948
 370  6308.305
 371  5885.875
 372  5873.459
 373  6003.137
 374  6243.047
 375  6264.327
 376  6369.157
 377  6562.511
 378  6495.347
 379  6300.264
 380  6197.419
 381  6200.392
 382  6256.369
 383  6282.503
 384  6296.185
 385  6331.802
 386  6372.964
 387  6391.698
 388  6275.538
 389  6264.751
 390  6223.723
 391  6312.588
 392  6524.795
 393  6484.894
 394  6531.148
 395  6599.007
 396  6678.775
 397  6601.262
 398  6441.734
 399  6406.758
 400  6455.163
 401  6326.535
 402  6398.524
 403  6474.369
 404  6521.097
 405  6609.276
 406  6538.706
 407  6414.895
 408  6253.628
 409  6117.564
 410  6267.712
 411  6470.97
 412  6428.967
 413  6457.65
 414  6172.439
 415  6130.21
 416  6271.086
 417  6345.976
 418  6471.951
 419  6444.76
 420  6440.468
 421  6492.279
 422  6325.472
 423  6385.729
 424  6450.663
 425  6508.006
 426  6483.015
 427  6415.575
 428  6350.791
 429  6359.124
 430  6436.947
 431  6544.021
 432  6557.969
 433  6293.579
 434  6312.796
 435  6342.887
 436  6208.012
 437  6079.125
 438  6070.778
 439  6267.778
 440  6158.691
 441  6096.162
 442  6243.45
 443  6178.061
 444  6161.903
 445  6099.465
 446  6229.63
 447  6290.143
 448  6332.372
 449  6371.852
 450  6366.704
 451  6362.25
 452  6411.702
 453  6382.438
 454  6282.169
 455  6054.477
 456  5864.143
 457  5768.555
 458  5853.92
 459  6032.589
 460  6412.91
 461  6640.712
 462  6571.443
 463  6381.562
 464  6248.536
 465  6189.102
 466  6249.31
 467  6496.449
 468  6676.175
 469  6619.021
 470  6637.189
 471  6576.722
 472  6412.954
 473  6397.925
 474  6446.043
 475  6520.108
 476  6449.799
 477  6505.757
 478  6607.759
 479  6473.122
 480  6352.257
 481  6347.277
 482  6150.294
 483  6155.467
 484  6038.98
 485  5941.346
 486  6049.262
 487  6218.449
 488  6470.342
 489  6435.675
 490  6207.99
 491  6402.655
 492  6289.253
 493  6113.204
 494  6003.319
 495  6173.662
 496  6438.853
 497  6540.12
 498  6596.03
 499  6742.386
 500  6557.909
 501  6391.671
 502  6416.41
 503  6344.857
 504  6397.301
 505  6321.964
 506  6307.942
 507  6321.191
 508  6224.695
 509  6378.346
 510  6499.798
 511  6421.269
 512  6393.397
 513  6326.853
 514  6412.071
 515  6492.435
 516  6695.614
 517  6762.321
 518  6718.427
 519  6429.045
 520  6482.873
 521  6466.829
 522  6308.209
 523  6155.198
 524  6055.105
 525  6228.282
 526  6362.351
 527  6362.43
 528  6408.566
 529  6314.419
 530  6276.52
 531  6240.225
 532  6324.345
 533  6489.036
 534  6457.605
 535  6282.495
 536  6294.057
 537  6301.535
 538  6280.517
 539  6323.7
 540  6256.023
 541  6319.744
 542  6233.168
 543  6247.433
 544  6180.337
 545  6213.691
 546  6323.344
 547  6313.097
 548  6375.246
 549  6274.036
 550  6223.031
 551  6127.2
 552  6211.129
 553  6318.411
 554  6293.035
 555  6210.998
 556  6093.184
 557  6001.072
 558  5999.954
 559  6381.236
 560  6408.499
 561  6485.846
 562  6398.225
 563  6346.532
 564  6287.375
 565  6195.224
 566  6365.64
 567  6471.006
 568  6605.795
 569  6649.293
 570  6493.102
 571  6226.823
 572  6237.017
 573  6130.012
 574  6231.934
 575  6211.189
 576  6240.787
 577  6267.454
 578  6134.14
 579  6166.98
 580  6275.91
 581  6351.27
 582  6295.123
 583  6344.7
 584  6310.628
 585  6380.734
 586  6374.696
 587  6568.104
 588  6605.196
 589  6406.262
 590  6195.171
 591  6086.401
 592  6090.447
 593  6156.132
 594  6178.689
 595  6336.529
 596  6502.574
 597  6568.102
 598  6576.424
 599  6357.192
 600  6198.633
 601  6095.592
 602  6197.424
 603  6456.497
 604  6529.81
 605  6559.879
 606  6564.187
 607  6539.076
 608  6461.71
 609  6561.696
 610  6757.444
 611  6750.239
 612  6647.716
 613  6502.127
 614  6719.114
 615  6859.205
 616  7021.854
 617  7093.325
 618  7167.422
 619  7211.103
 620  7221.495
 621  6962.611
 622  6751.26
 623  6823.056
 624  6776.342
 625  6888.58
 626  6822.631
 627  6924.893
 628  6733.421
 629  6573.159
 630  6440.73
 631  6225.867
 632  6131.117
 633  6136.601
 634  6300.991
 635  6317.737
 636  6180.607
 637  6158.75
 638  6215.267
 639  6359.247
 640  6344.844
 641  6551.598
 642  6660.773
 643  6610.373
 644  6549.976
 645  6629.104
 646  6572.126
 647  6588.824
 648  6501.653
 649  6309.808
 650  6167.102
 651  6076.646
 652  6279.697
 653  6472.173
 654  6458.77
 655  6387.9
 656  6264.959
 657  6320.188
 658  6265.576
 659  6104.395
 660  6163.886
 661  6316.175
 662  6297.98
 663  6294.181
 664  6293.889
 665  6334.051
 666  6521.965
 667  6451.533
 668  6603.187
 669  6631.094
 670  6547.53
 671  6434.947
 672  6172.135
 673  6173.727
 674  6270.231
 675  6280.527
 676  6361.054
 677  6291.94
 678  6148.547
 679  6083.057
 680  6146.021
 681  6295.824
 682  6247.839
 683  6054.874
 684  6129.668
 685  6185.863
 686  5913.513
 687  5655.08
 688  5850.619
 689  6320.932
 690  6559.969
 691  6478.625
 692  6549.274
 693  6451.117
 694  6216.674
 695  6167.146
 696  6353.457
 697  6550.625
 698  6496.274
 699  6374.473
 700  6368.497
 701  6338.121
 702  6315.472
 703  6446.187
 704  6519.534
 705  6582.213
 706  6464.37
 707  6561.95
 708  6611.846
 709  6624.306
 710  6517.999
 711  6431.227
 712  6258.12
 713  6090.568
 714  6160.378
 715  6160.667
 716  6071.427
 717  5994.341
 718  6123.311
 719  6212.735
 720  6250.301
 721  6295.445
 722  6218.124
 723  6322.104
 724  6354.276
 725  6426.901
 726  6349.027
 727  6130.51
 728  6213.685
 729  6089.604
 730  6155.979
 731  6199.426
 732  6183.325
 733  6251.315
 734  6271.368
 735  6216.084
 736  6104.327
 737  6155.715
 738  6553.613
 739  6643.422
 740  6385.15
 741  6395.099
 742  6314.656
 743  6329.685
 744  6244.239
 745  6398.718
 746  6590.325
 747  6677.887
 748  6836.458
 749  6814.686
 750  6759.903
 751  6424.87
 752  6386.799
 753  6231.412
 754  6430.586
 755  6414.914
 756  6313.702
 757  6349.156
 758  6274.903
 759  6234.906
 760  6082.761
 761  5996.432
 762  6209.227
 763  6192.194
 764  6107.417
 765  5991.022
 766  6038.59
 767  6325.877
 768  6747.905
 769  6767.114
 770  6619.879
 771  6384.806
 772  6150.803
 773  6081.235
 774  6047.009
 775  6232.978
 776  6457.62
 777  6510.615
 778  6492.771
 779  6317.683
 780  6297.894
 781  6335.239
 782  6359.606
 783  6414.794
 784  6551.286
 785  6644.592
 786  6751.004
 787  6735.412
 788  6651.467
 789  6557.895
 790  6541.182
 791  6518.273
 792  6310.911
 793  6108.787
 794  6225.779
 795  6460.72
 796  6701.559
 797  6726.439
 798  6723.309
 799  6638.946
 800  6649.176
 801  6702.622
 802  6658.025
 803  6675.85
 804  6677.352
 805  6626.612
 806  6522.842
 807  6419.504
 808  6246.824
 809  6126.566
 810  6131.531
 811  6243.555
 812  6271.368
 813  6144.468
 814  6294.629
 815  6301.354
 816  6341.453
 817  6226.006
 818  6164.344
 819  6191.132
 820  6336.041
 821  6372.17
 822  6471.344
 823  6242.551
 824  6312.953
 825  6418.151
 826  6436.013
 827  6467.724
 828  6262.294
 829  6073.855
 830  6044.309
 831  6078.954
 832  6409.704
 833  6572.224
 834  6545.619
 835  6414.102
 836  6155.627
 837  6040.497
 838  6067.252
 839  6008.554
 840  6020.934
 841  5886.449
 842  5800.476
 843  5794.298
 844  5785.353
 845  6069.937
 846  6242.31
 847  6221.744
 848  6249.854
 849  6107.957
 850  6190.263
 851  6288.392
 852  6485.939
 853  6653.145
 854  6572.821
 855  6407.122
 856  6180.956
 857  6114.595
 858  6124.472
 859  6310.452
 860  6292.621
 861  6358.274
 862  6326.193
 863  6521.013
 864  6543.911
 865  6328.459
 866  6187.107
 867  6118.138
 868  6176.229
 869  6222.77
 870  6232.118
 871  6205.448
 872  6248.104
 873  6340.784
 874  6465.434
 875  6428.477
 876  6385.616
 877  6464.888
 878  6462.086
 879  6378.22
 880  6277.971
 881  6435.768
 882  6602.746
 883  6620.822
 884  6475.389
 885  6351.724
 886  6312.973
 887  6194.3
 888  6118.548
 889  6378.159
 890  6521.077
 891  6706.456
 892  6688.901
 893  6788.748
 894  6785.882
 895  6575.742
 896  6284.654
 897  6237.042
 898  6310.116
 899  6453.322
 900  6396.589
 901  6253.476
 902  6363.75
 903  6366.188
 904  6459.315
 905  6586.521
 906  6721.108
 907  6675.361
 908  6627.039
 909  6586.753
 910  6736.662
 911  6808.688
 912  6695.071
 913  6782.847
 914  6609.289
 915  6478.127
 916  6370.412
 917  6436.86
 918  6553.878
 919  6474.128
 920  6245.623
 921  6086.897
 922  5916.202
 923  5806.11
 924  5908.247
 925  5945.229
 926  6222.036
 927  6407.558
 928  6456.076
 929  6536.565
 930  6553.4
 931  6711.355
 932  6694.105
 933  6500.047
 934  6335.286
 935  6279.443
 936  6174.775
 937  6151.476
 938  6098.325
 939  6386.929
 940  6403.987
 941  6350.285
 942  6284.573
 943  6319.014
 944  6348.777
 945  6364.444
 946  6341.362
 947  6403.843
 948  6491.619
 949  6590.801
 950  6509.026
 951  6199.213
 952  6113.557
 953  6121.867
 954  6384.702
 955  6238.066
 956  6158.87
 957  5997.733
 958  6120.618
 959  6335.881
 960  6468.63
 961  6396.283
 962  6388.544
 963  6370.184
 964  6400.26
 965  6203.733
 966  6181.227
 967  6256.387
 968  6602.236
 969  6641.79
 970  6645.542
 971  6359.618
 972  6226.824
 973  6136.596
 974  6185.283
 975  6296.403
 976  6387.901
 977  6472.444
 978  6508.154
 979  6369.36
 980  6258.864
 981  6328.906
 982  6330.765
 983  6514.307
 984  6560.06
 985  6525.423
 986  6432.292
 987  6180.884
 988  6310.584
 989  6551.567
 990  6740.418
 991  6694.846
 992  6368.53
 993  6157.453
 994  6109.833
 995  6204.157
 996  6404.185
 997  6427.739
 998  6391.716
 999  6527.286
1000  6434.033
1001  6397.456
1002  6334.69
1003  6302.225
1004  6449.826
1005  6418.046
1006  6390.533
1007  6487.322
1008  6472.137
1009  6382.189
1010  6260.181
1011  6199.983
1012  6306.505
1013  6266.214
1014  6213.322
1015  6298.569
1016  6246.118
1017  6199.453
1018  6256.847
1019  6271.9
1020  6426.088
1021  6393.978
1022  6395.579
1023  6343.059
