# Input file       =  1199982936.105925_cleaned.dat
# Candidate        =  PSR_0332+5434
# Telescope        =  AR
# Epoch_topo       =  58132.691610022281
# Epoch_bary       =  N/A
# T_sample         =  0.002
# Data Folded      =  7340032
# Data Avg         =  0.251732082940829
# Data StdDev      =  3.75909309024656 
# Profile Bins     =  1024
# Profile Avg      =  1804.40870179969 
# Profile StdDev   =  318.260015101878 
# Reduced chi-sqr  =  0.751
# Prob(Noise)      <  1   (~0.0 sigma)
# P_topo (ms)      =  714.566373562054  +/- 0.000192
# P'_topo (s/s)    =  -0                +/- 1.01e-10
# P''_topo (s/s^2) =  0                 +/- 4.47e-14
# P_bary (ms)      =  N/A
# P'_bary (s/s)    =  N/A
# P''_bary (s/s^2) =  N/A
# P_orb (s)        =  N/A
# asin(i)/c (s)    =  N/A
# eccentricity     =  N/A
# w (rad)          =  N/A
# T_peri           =  N/A
######################################################
   0  1864.247
   1  1874.663
   2  1729.837
   3  1708.79
   4  1653.589
   5  1645.217
   6  1683.092
   7  1615.525
   8  1744.787
   9  1756.052
  10  1761.689
  11  1590.232
  12  1423.802
  13  1543.238
  14  1731.247
  15  1797.227
  16  1811.865
  17  1742.949
  18  1718.006
  19  1710.897
  20  1750.704
  21  1752.628
  22  1537.982
  23  1423.682
  24  1498.591
  25  1637.039
  26  1714.235
  27  1721.84
  28  1555.231
  29  1465.452
  30  1536.946
  31  1595.87
  32  1642.685
  33  1661.571
  34  1762.241
  35  1862.607
  36  1819.101
  37  1748.885
  38  1731.516
  39  1752.895
  40  1730.694
  41  1612.296
  42  1642.354
  43  1769.251
  44  1855.398
  45  1825.479
  46  1790.695
  47  1764.309
  48  1792.707
  49  1675.453
  50  1683.134
  51  1758.674
  52  1825.828
  53  1832.726
  54  1883.232
  55  1799.065
  56  1725.538
  57  1614.734
  58  1716.443
  59  1830.629
  60  1780.704
  61  1769.745
  62  1634.322
  63  1788.313
  64  1875.173
  65  1925.604
  66  1856.029
  67  1807.619
  68  1908.327
  69  1974.818
  70  1890.451
  71  1848.931
  72  1782.166
  73  1763.055
  74  1756.995
  75  1724.304
  76  1796.067
  77  1733.416
  78  1730.592
  79  1563.309
  80  1476.849
  81  1536.838
  82  1686.748
  83  1763.822
  84  1749.351
  85  1681.085
  86  1803.577
  87  1885.833
  88  1886.237
  89  1740.476
  90  1665.234
  91  1708.047
  92  1742.214
  93  1622.599
  94  1560.212
  95  1472.857
  96  1422.3
  97  1567.262
  98  1644.406
  99  1796.291
 100  1849.481
 101  1807.166
 102  1769.911
 103  1669.463
 104  1608.315
 105  1559.666
 106  1489.527
 107  1666.333
 108  1835.167
 109  1792.149
 110  1692.991
 111  1603.329
 112  1547.307
 113  1573.045
 114  1547.511
 115  1684.872
 116  1778.816
 117  1729.788
 118  1789.509
 119  1839.801
 120  1871.381
 121  2001.838
 122  1869.165
 123  1868.75
 124  1735.572
 125  1713.604
 126  1737.077
 127  1671.779
 128  1680.4
 129  1691.716
 130  1734.225
 131  1793.235
 132  1767.228
 133  1786.776
 134  1748.157
 135  1652.107
 136  1550.595
 137  1560.602
 138  1651.2
 139  1587.865
 140  1525.073
 141  1606
 142  1672.482
 143  1561.796
 144  1543.727
 145  1547.339
 146  1522.352
 147  1645.761
 148  1644.356
 149  1622.615
 150  1502.31
 151  1569.285
 152  1777.679
 153  1690.542
 154  1653.388
 155  1567.57
 156  1660.185
 157  1656.459
 158  1775.049
 159  1884.018
 160  1921.425
 161  1899.512
 162  1915.569
 163  1850.861
 164  1880.801
 165  1889.332
 166  1979.669
 167  1940.364
 168  1861.067
 169  1741.246
 170  1661.149
 171  1561.488
 172  1674.983
 173  1807.083
 174  1852.246
 175  1787.732
 176  1831.359
 177  1819.704
 178  1946.939
 179  1880.021
 180  1872.012
 181  1742.283
 182  1673.305
 183  1785.654
 184  1779.375
 185  1706.802
 186  1688.834
 187  1566.419
 188  1602.346
 189  1467.525
 190  1520.201
 191  1573.476
 192  1511.637
 193  1577.762
 194  1656.929
 195  1676.776
 196  1731.153
 197  1768.47
 198  1858.266
 199  1906.742
 200  1844.673
 201  1759.182
 202  1620.078
 203  1581.074
 204  1578.532
 205  1656.535
 206  1659.629
 207  1691.412
 208  1598.749
 209  1690.199
 210  1693.506
 211  1755.41
 212  1822.052
 213  1830.266
 214  1839.908
 215  1773.535
 216  1716.782
 217  1671.038
 218  1687.694
 219  1626.703
 220  1536.353
 221  1415.26
 222  1529.913
 223  1585.695
 224  1607.174
 225  1674.905
 226  1602.452
 227  1552.196
 228  1556.185
 229  1643.08
 230  1802.344
 231  1758.242
 232  1778.18
 233  1746.174
 234  1714.44
 235  1705.848
 236  1703.351
 237  1657.48
 238  1610.004
 239  1613.258
 240  1677.536
 241  1657.98
 242  1598.2
 243  1597.97
 244  1628.502
 245  1657.597
 246  1756.584
 247  1811.305
 248  1862.581
 249  1781.537
 250  1878.158
 251  1913.906
 252  1874.254
 253  1877.197
 254  1944.923
 255  1893.057
 256  1763.347
 257  1746.804
 258  1895.537
 259  1966.395
 260  1873.425
 261  1978.186
 262  2039.609
 263  1921.828
 264  1847.134
 265  1806.345
 266  1818.78
 267  1846.384
 268  1822.551
 269  1937.113
 270  1859.157
 271  1832.793
 272  1828.402
 273  1748.036
 274  1712.198
 275  1643.927
 276  1717.24
 277  1839.017
 278  1717.888
 279  1673.749
 280  1687.041
 281  1738.807
 282  1777.544
 283  1782.325
 284  1743.769
 285  1745.262
 286  1667.5
 287  1667.557
 288  1642.759
 289  1664.916
 290  1725.287
 291  1732.296
 292  1790.371
 293  1870.244
 294  1894.162
 295  1878.989
 296  1826.441
 297  1751.947
 298  1850.174
 299  1751.772
 300  1801.045
 301  1751.724
 302  1839.699
 303  1778.365
 304  1620.409
 305  1581.793
 306  1683.557
 307  1834.931
 308  1823.9
 309  1719.556
 310  1606.808
 311  1641.565
 312  1704.681
 313  1814.529
 314  1864.701
 315  1830.888
 316  1811.679
 317  1772.852
 318  1755.534
 319  1829.986
 320  1893.128
 321  1988.179
 322  1982.154
 323  1840.428
 324  1658.78
 325  1644.211
 326  1762.031
 327  1833.048
 328  1795.989
 329  1785.2
 330  1692.576
 331  1553.658
 332  1517.21
 333  1508.385
 334  1748.974
 335  1823.966
 336  1840.937
 337  1685.121
 338  1660.711
 339  1730.009
 340  1837.731
 341  1833.734
 342  1832.606
 343  1742.66
 344  1784.74
 345  1734.029
 346  1677.464
 347  1655.501
 348  1711.896
 349  1664.013
 350  1709.368
 351  1571.543
 352  1648.354
 353  1677.537
 354  1772.63
 355  1861.951
 356  1815.775
 357  1748.058
 358  1749.606
 359  1715.169
 360  1719.164
 361  1696.409
 362  1722.568
 363  1852.922
 364  1838.544
 365  1904.816
 366  1959.839
 367  1883.937
 368  1878.358
 369  1754.924
 370  1763.635
 371  1742.431
 372  1774.409
 373  1863.766
 374  1892.876
 375  1843.531
 376  1784.26
 377  1917.057
 378  2000.717
 379  2158.377
 380  2122.269
 381  2147.889
 382  1924.848
 383  1891.776
 384  1933.95
 385  2004.731
 386  1936.654
 387  1893.482
 388  1831.4
 389  1962.974
 390  2016.178
 391  2043.42
 392  1964.272
 393  1883.315
 394  1925.562
 395  1913.255
 396  1765.802
 397  1699.53
 398  1683.724
 399  1803.005
 400  1819.566
 401  1819.62
 402  1849.47
 403  1934.82
 404  1937.736
 405  1794.186
 406  1668.644
 407  1674.832
 408  1716.608
 409  1718.008
 410  1705.786
 411  1736.566
 412  1785.697
 413  1988.607
 414  1972.19
 415  1982.441
 416  1824.794
 417  1891.747
 418  1936.026
 419  1886.167
 420  1973.797
 421  1891.052
 422  1933.803
 423  1698.508
 424  1614.074
 425  1600.601
 426  1783.647
 427  2014.938
 428  2166.836
 429  2160.214
 430  2106.905
 431  2071.029
 432  2032.135
 433  1910.802
 434  1840.885
 435  1732.042
 436  1845.691
 437  1804.916
 438  1805.511
 439  1767.468
 440  1635.302
 441  1748.087
 442  1751.445
 443  1926.72
 444  1916.065
 445  1872.865
 446  1900.127
 447  2014.646
 448  2063.815
 449  2002.508
 450  1965.545
 451  1961.429
 452  2011.652
 453  1938.219
 454  1898.512
 455  1931.217
 456  1883.864
 457  2032.194
 458  1905.321
 459  2033.378
 460  1962.143
 461  1935.343
 462  1850.043
 463  1849.237
 464  1828.977
 465  1817.414
 466  1735.342
 467  1753.017
 468  1704.999
 469  1806.916
 470  1945.999
 471  1958.152
 472  1927.681
 473  1963.009
 474  1906.237
 475  1822.937
 476  1913.085
 477  1939.417
 478  1872.024
 479  1846.48
 480  1893.062
 481  1928.466
 482  1845.183
 483  1869.132
 484  1908.996
 485  1912.508
 486  2101.604
 487  2031.156
 488  1973.605
 489  1837.161
 490  1859.561
 491  1887.027
 492  1843.871
 493  1830.552
 494  1878.982
 495  1805.861
 496  1732.233
 497  1628.707
 498  1674.251
 499  1748.259
 500  1751.848
 501  1775.985
 502  1845.54
 503  1840.171
 504  1925.547
 505  1899.493
 506  2049.197
 507  1961.547
 508  2051.482
 509  2056.468
 510  2000.54
 511  2075.001
 512  1984.103
 513  2032.122
 514  2042.606
 515  1968.168
 516  2019.399
 517  2063.319
 518  2042.846
 519  2086.622
 520  2094.963
 521  2112.73
 522  1985.657
 523  1932.667
 524  2059.365
 525  2043.31
 526  1998.817
 527  1949.801
 528  2004.201
 529  2007.306
 530  2075.507
 531  1874.824
 532  1869.475
 533  1831.424
 534  1890.984
 535  1916.253
 536  1843.068
 537  1973.26
 538  2076.958
 539  1982.911
 540  1842.699
 541  1859.005
 542  1913.148
 543  1887.78
 544  1781.76
 545  1883.944
 546  1992.029
 547  1886.927
 548  1960.645
 549  1999.502
 550  2125.674
 551  2114.066
 552  2012.2
 553  1920.867
 554  1769.984
 555  1712.423
 556  1742.72
 557  1796.16
 558  1815.956
 559  1872.704
 560  1862.579
 561  1841.365
 562  1844.951
 563  1867.388
 564  2011.889
 565  2063.26
 566  1991.222
 567  1897.816
 568  1817.183
 569  1814.544
 570  1926.329
 571  1949.757
 572  1968.461
 573  1874.729
 574  1793.489
 575  1750.787
 576  1712.171
 577  1828.053
 578  1873.807
 579  1973.779
 580  2006.312
 581  2053.526
 582  1979.586
 583  1866.336
 584  1882.64
 585  1900.641
 586  1880.663
 587  1890.718
 588  1813.141
 589  1789.492
 590  1717.596
 591  1704.892
 592  1708.946
 593  1654.935
 594  1599.086
 595  1757.511
 596  1798.339
 597  1917.429
 598  1786.948
 599  1878.382
 600  2023.15
 601  1982.289
 602  1902.217
 603  1811.967
 604  1799.92
 605  1821.655
 606  1785.397
 607  1910.057
 608  2043.752
 609  2093.645
 610  2078.037
 611  2154.988
 612  2216.81
 613  2353.968
 614  2309.078
 615  2360.97
 616  2428.884
 617  2531.369
 618  2596.745
 619  2561.676
 620  2531.532
 621  2534.968
 622  2394.964
 623  2294.759
 624  2162.683
 625  2023.721
 626  1863.196
 627  1838.731
 628  1853.103
 629  1892.55
 630  1798.618
 631  1676.164
 632  1594.033
 633  1599.371
 634  1782.932
 635  1755.589
 636  1728.281
 637  1706.201
 638  1755.719
 639  1835.027
 640  1916.883
 641  1846.927
 642  1896.907
 643  1806.195
 644  1798.849
 645  1727.968
 646  1776.244
 647  1891.341
 648  1833.346
 649  1688.463
 650  1558.373
 651  1597.324
 652  1653.881
 653  1747.703
 654  1784.694
 655  1714.914
 656  1616.449
 657  1686.918
 658  1712.717
 659  1701.515
 660  1793.833
 661  1937.46
 662  1933.028
 663  1824.142
 664  1764.546
 665  1719.454
 666  1647.84
 667  1679.37
 668  1698.022
 669  1676.223
 670  1663.412
 671  1648.471
 672  1692.605
 673  1681.924
 674  1630.038
 675  1621.886
 676  1812.168
 677  1937.154
 678  1894.516
 679  1834.499
 680  1778.768
 681  1745.243
 682  1620.721
 683  1630.239
 684  1722.819
 685  1812.274
 686  1801.799
 687  1714.501
 688  1739.415
 689  1705.674
 690  1652.462
 691  1616.499
 692  1628.219
 693  1611.247
 694  1573.73
 695  1527.671
 696  1671.952
 697  1843.207
 698  1944.933
 699  1970.134
 700  1887.907
 701  1955.773
 702  1928.332
 703  1811.588
 704  1817.537
 705  1717.119
 706  1771.044
 707  1783.759
 708  1752.427
 709  1777.956
 710  1865.162
 711  1896.733
 712  1906.564
 713  1772.472
 714  1763.771
 715  1776.816
 716  1719.882
 717  1793.09
 718  1874.751
 719  1821.646
 720  1768.181
 721  1630.129
 722  1611.868
 723  1628.082
 724  1716.5
 725  1890.389
 726  1984.106
 727  1869.857
 728  1880.065
 729  1864.413
 730  1840.698
 731  1811.443
 732  1725.184
 733  1774.647
 734  1708.788
 735  1663.557
 736  1699.871
 737  1673.412
 738  1726.337
 739  1837.312
 740  1967.062
 741  2080.659
 742  2064.872
 743  2047.198
 744  2029.005
 745  1991.569
 746  1944.119
 747  1876.256
 748  1782.386
 749  1853.42
 750  1900.772
 751  1927.672
 752  1826.726
 753  1860.782
 754  1852.319
 755  1931.133
 756  2066.865
 757  2190.15
 758  2139.881
 759  2151.192
 760  2120.705
 761  2081.501
 762  1986.194
 763  1913.908
 764  1838.061
 765  1736.945
 766  1758.591
 767  1757.238
 768  1880.047
 769  1939.065
 770  1991.262
 771  1945.6
 772  1965.483
 773  1779.309
 774  1752.962
 775  1722.277
 776  1816.69
 777  1727.911
 778  1732.785
 779  1710.879
 780  1843.735
 781  1856.787
 782  1973.66
 783  1870.665
 784  1943.302
 785  2013.537
 786  1966.527
 787  1925.66
 788  1853.136
 789  1863.898
 790  1821.061
 791  1828.749
 792  1887.815
 793  1988.377
 794  1860.505
 795  1857.08
 796  1950.992
 797  1952.65
 798  1994.841
 799  1897.895
 800  1905.843
 801  1899.703
 802  1825.539
 803  1798.35
 804  1770.272
 805  1675.061
 806  1660.795
 807  1590.406
 808  1597.637
 809  1660.857
 810  1662.205
 811  1620.097
 812  1605.853
 813  1730.255
 814  1910.775
 815  1945.458
 816  1979.422
 817  2015.123
 818  1924.112
 819  1783.189
 820  1754.417
 821  1804.309
 822  1829.69
 823  1783.371
 824  1741.368
 825  1746.554
 826  1600.961
 827  1591.456
 828  1557.496
 829  1689.555
 830  1796.005
 831  1954.589
 832  1977.918
 833  1798.091
 834  1608.755
 835  1601.372
 836  1720.372
 837  1789.325
 838  1712.787
 839  1696.234
 840  1739.349
 841  1807.154
 842  1813.631
 843  1806.895
 844  1844.807
 845  1875.011
 846  1897.073
 847  1797.895
 848  1722.404
 849  1626.265
 850  1654.032
 851  1697.954
 852  1665.947
 853  1639.324
 854  1654.398
 855  1835.543
 856  1988.367
 857  1978.629
 858  2047.547
 859  2030.523
 860  2006.209
 861  1791.67
 862  1578.649
 863  1489.595
 864  1416.819
 865  1449.324
 866  1615.008
 867  1617.231
 868  1563.592
 869  1553.39
 870  1607.642
 871  1783.344
 872  1788.451
 873  1950.833
 874  1923.428
 875  1812.69
 876  1860.622
 877  1931.46
 878  1930.706
 879  1884.875
 880  1870.975
 881  1829.68
 882  1830.05
 883  1683.11
 884  1720
 885  1773.628
 886  1780.065
 887  1830.542
 888  1670.404
 889  1746.525
 890  1753.863
 891  1877.727
 892  1926.788
 893  1865.76
 894  1838.133
 895  1808.931
 896  1627.671
 897  1549.109
 898  1444.545
 899  1564.931
 900  1676.788
 901  1723.793
 902  1618.409
 903  1588.005
 904  1617.358
 905  1796.937
 906  1784.609
 907  1851.829
 908  1855.194
 909  1931.871
 910  1860.782
 911  1837.769
 912  1724.464
 913  1812.214
 914  1884.454
 915  2047.767
 916  2003.973
 917  1869.497
 918  1757.974
 919  1679.312
 920  1739.45
 921  1680.427
 922  1599.021
 923  1672.952
 924  1715.825
 925  1752.264
 926  1778.78
 927  1820.861
 928  1940.053
 929  1941.555
 930  1968.106
 931  1910.638
 932  1795.514
 933  1824.734
 934  1814.425
 935  1757.782
 936  1798.351
 937  1790.313
 938  1757.236
 939  1693.325
 940  1744.561
 941  1748.022
 942  1733.145
 943  1768.58
 944  1939.953
 945  1959.078
 946  2039.056
 947  1997.796
 948  1956.316
 949  1898.444
 950  1904.346
 951  1856.646
 952  1856.06
 953  1820.693
 954  1919.741
 955  1908.86
 956  1913.477
 957  1997.276
 958  1905.451
 959  1964.756
 960  1938.008
 961  1887.045
 962  1953.814
 963  1911.219
 964  1835.474
 965  1842.883
 966  1838.145
 967  1846.576
 968  1791.689
 969  1768.514
 970  1733.958
 971  1631.874
 972  1629.327
 973  1757.869
 974  1736.815
 975  1758.077
 976  1790.244
 977  1748.159
 978  1672.501
 979  1670.886
 980  1759.715
 981  1873.607
 982  1892.562
 983  1918.486
 984  1889.243
 985  1767.841
 986  1743.844
 987  1781.26
 988  1783.54
 989  1753.058
 990  1715.458
 991  1725.817
 992  1710.53
 993  1794.285
 994  1662.894
 995  1620.876
 996  1576.853
 997  1806.81
 998  1815.297
 999  1835.608
1000  1786.361
1001  1745.755
1002  1663.815
1003  1607.24
1004  1777.022
1005  1813.346
1006  1841.407
1007  1998.127
1008  1962.422
1009  1881.134
1010  1729.832
1011  1765.741
1012  1779.367
1013  1691.882
1014  1795.769
1015  1787.408
1016  1720.476
1017  1758.634
1018  1777.797
1019  1739.109
1020  1669.766
1021  1767.839
1022  1817.068
1023  1860.166
