# Input file       =  1199377074.114452_cleaned.dat
# Candidate        =  PSR_0332+5434
# Telescope        =  AR
# Epoch_topo       =  58125.679318454306
# Epoch_bary       =  N/A
# T_sample         =  0.002
# Data Folded      =  7340032
# Data Avg         =  1.92806085441719 
# Data StdDev      =  10.4048497683702 
# Profile Bins     =  1024
# Profile Avg      =  13820.1807619425 
# Profile StdDev   =  880.91663731506  
# Reduced chi-sqr  =  0.495
# Prob(Noise)      <  1   (~0.0 sigma)
# P_topo (ms)      =  714.561177566821  +/- 0.000768
# P'_topo (s/s)    =  -0                +/- 4.05e-10
# P''_topo (s/s^2) =  0                 +/- 1.79e-13
# P_bary (ms)      =  N/A
# P'_bary (s/s)    =  N/A
# P''_bary (s/s^2) =  N/A
# P_orb (s)        =  N/A
# asin(i)/c (s)    =  N/A
# eccentricity     =  N/A
# w (rad)          =  N/A
# T_peri           =  N/A
######################################################
   0  13706.76
   1  13892.07
   2  13964.04
   3  14011.88
   4  13906.24
   5  13816.73
   6  13794.73
   7  13665.3
   8  13619
   9  13729.73
  10  13833.33
  11  14008.3
  12  14038.63
  13  14192.03
  14  14024.65
  15  14069.41
  16  14251.33
  17  14338.4
  18  14380.34
  19  14134.41
  20  14290.19
  21  14248.47
  22  13986.4
  23  13909.24
  24  13993.49
  25  14164.28
  26  14143.91
  27  13880.84
  28  13725.87
  29  13734.52
  30  13848.43
  31  13924.51
  32  13768.72
  33  13659
  34  14114.82
  35  14276.04
  36  14477.41
  37  14191.65
  38  14277.28
  39  14176.41
  40  14023.02
  41  13920.4
  42  14025.24
  43  13763.56
  44  13911.25
  45  14264.04
  46  14661.64
  47  14456.06
  48  14334.21
  49  14564.75
  50  14536.38
  51  13994.76
  52  13805.37
  53  13584.51
  54  13835.36
  55  13833.06
  56  14246.53
  57  14422.59
  58  14566.49
  59  14222.2
  60  14240.64
  61  14082.87
  62  14071.24
  63  14148.31
  64  14059.2
  65  13897.65
  66  13745.36
  67  13840.59
  68  13991.32
  69  13780.9
  70  14207.43
  71  14399.47
  72  14095.39
  73  13587.82
  74  13517.74
  75  13785.61
  76  14245.35
  77  14636.89
  78  14729.11
  79  14384.17
  80  14010.72
  81  13953.39
  82  13841.54
  83  13517.14
  84  13659.28
  85  13598.46
  86  13506.4
  87  13361.74
  88  13682.01
  89  14012.47
  90  13894.95
  91  14110.72
  92  14185.96
  93  14065.73
  94  13810.34
  95  13903.19
  96  13977.77
  97  13486.25
  98  13337.01
  99  13707.38
 100  13755.78
 101  13611.45
 102  13534.84
 103  13451.55
 104  13379.04
 105  13448.28
 106  13676.03
 107  13720.26
 108  13671.34
 109  13627.85
 110  13448.82
 111  13500.95
 112  13756.96
 113  14131.79
 114  14293.02
 115  14444.51
 116  14547.83
 117  14421.93
 118  13997.47
 119  13781.04
 120  13879.68
 121  14030.03
 122  14091.83
 123  14079.54
 124  13951.41
 125  13812.15
 126  13728.05
 127  13839.54
 128  14238.62
 129  13951.12
 130  14142.97
 131  14232.11
 132  14369.96
 133  14039.72
 134  13845.93
 135  13911.57
 136  14050.62
 137  13794.43
 138  14012.57
 139  14151.41
 140  13996.36
 141  13849.67
 142  13487.37
 143  13641.77
 144  13681.69
 145  13849.94
 146  13940.87
 147  13638.4
 148  13422.24
 149  13734.87
 150  13693.8
 151  13683.59
 152  13863.13
 153  14161.79
 154  13968.8
 155  13417.53
 156  13677.92
 157  14089.39
 158  14188.05
 159  14149.2
 160  14507.06
 161  14479.29
 162  14414.92
 163  14050.25
 164  13996.5
 165  13805
 166  13981.05
 167  14332.64
 168  14244.53
 169  13893.25
 170  13817.66
 171  14005.33
 172  14048.2
 173  14020.67
 174  14328.13
 175  14486.17
 176  14203.56
 177  14060.83
 178  14203
 179  13919.28
 180  13907.23
 181  13700.33
 182  13849.05
 183  13776.41
 184  13755.87
 185  14126.52
 186  13980.04
 187  13917.75
 188  14003.04
 189  13951.88
 190  13745.04
 191  13532.64
 192  13714.89
 193  13831.39
 194  13548.34
 195  13736.48
 196  14080.37
 197  14119.31
 198  13727.48
 199  14021.62
 200  14354.08
 201  14514.65
 202  13999.92
 203  13722.82
 204  13617.18
 205  13490.56
 206  13629.33
 207  13599.92
 208  13795.47
 209  13939.54
 210  13815.15
 211  13784.78
 212  13569.22
 213  13628.16
 214  13609.54
 215  13288.89
 216  13282.88
 217  13417.46
 218  13649.93
 219  13926.71
 220  14033.74
 221  14267.47
 222  14196.12
 223  13711.08
 224  13814.25
 225  13777.89
 226  13775.31
 227  14021.01
 228  14043.57
 229  14190.87
 230  13738.46
 231  13645.23
 232  13626.88
 233  13958.53
 234  14058.9
 235  14229.78
 236  13808.67
 237  13843.29
 238  13708.98
 239  13575.6
 240  13210.76
 241  13124.88
 242  13493.49
 243  13805.13
 244  13356.88
 245  13097.22
 246  13366.12
 247  13623.73
 248  13934
 249  13846.13
 250  13851.46
 251  13675.98
 252  13855.63
 253  14218.61
 254  14037.97
 255  13735.41
 256  13908.09
 257  13910.04
 258  13857.21
 259  13331.84
 260  13439.58
 261  13495.1
 262  13804.88
 263  14019.63
 264  14100.6
 265  13574.89
 266  13305.14
 267  13625.01
 268  13695.84
 269  13554.68
 270  13517.36
 271  13791.53
 272  13907.12
 273  13586.45
 274  13595.69
 275  13511.17
 276  13774.29
 277  13893.06
 278  13797.62
 279  14137.9
 280  14167.76
 281  14351.23
 282  14130.26
 283  13628.02
 284  13213.03
 285  13008.46
 286  13286.93
 287  13453.87
 288  13753.19
 289  14057.82
 290  13905.74
 291  13471.98
 292  13670.61
 293  13761.76
 294  13892.13
 295  13885.46
 296  13807.46
 297  13878.73
 298  14026.84
 299  13786.56
 300  13715.2
 301  12963.26
 302  13265.22
 303  13373.31
 304  13637.92
 305  13776.73
 306  13974.08
 307  14179.2
 308  14215.23
 309  13915.58
 310  14327
 311  14025.31
 312  13763.71
 313  13491.97
 314  13661.97
 315  13945.59
 316  14135.3
 317  14103.63
 318  14261.67
 319  14167.36
 320  14161.39
 321  14445.63
 322  14153.18
 323  14193.13
 324  13840.56
 325  13904.26
 326  13649.41
 327  13275.65
 328  13766.86
 329  13834.18
 330  13621
 331  13237.32
 332  13766.16
 333  13978.09
 334  14162.7
 335  14110.93
 336  14376.75
 337  14515.87
 338  14528.06
 339  14328.52
 340  13762.23
 341  13368.36
 342  13300.1
 343  13308.25
 344  13459.85
 345  13662.69
 346  14030.1
 347  14234.17
 348  14083.69
 349  14037.48
 350  13952.91
 351  13880.26
 352  13651.04
 353  13470.59
 354  13438.07
 355  13531.41
 356  13402.77
 357  13683.76
 358  13765.99
 359  13812.34
 360  13768.5
 361  13568.9
 362  13761.51
 363  13623.71
 364  13788.22
 365  14227.54
 366  14308.83
 367  14229.17
 368  13892.22
 369  13612.62
 370  13485.9
 371  13662.81
 372  13818.52
 373  14016.27
 374  14021.08
 375  14315.26
 376  14391.16
 377  14216.71
 378  14181.56
 379  13986.12
 380  14012.42
 381  14179.09
 382  13985.05
 383  14025.5
 384  13760.8
 385  13889.36
 386  14180.67
 387  13846.68
 388  13881.24
 389  13922.83
 390  14161.44
 391  14171.17
 392  14067.79
 393  14315.68
 394  14035.41
 395  13666.89
 396  13742.53
 397  13681.18
 398  13569.6
 399  13406.32
 400  13268.66
 401  13464.47
 402  13653.62
 403  13910.74
 404  13980.71
 405  14196.51
 406  14561.29
 407  14464.09
 408  14182.95
 409  14044.08
 410  14237.99
 411  14259.98
 412  14066.49
 413  13873.19
 414  13896.3
 415  13991.09
 416  13809.67
 417  13905.77
 418  13949.44
 419  13937.77
 420  13685.57
 421  13704.03
 422  13732.94
 423  13814.32
 424  13452.92
 425  13360.21
 426  13425.44
 427  13315.52
 428  13320.6
 429  13291.96
 430  13636.03
 431  13729.42
 432  13657.68
 433  13709.74
 434  13785.59
 435  14005.83
 436  14010.67
 437  13817.21
 438  13948.46
 439  13789.58
 440  13565.55
 441  13045.77
 442  12885.75
 443  12952.01
 444  12955.65
 445  12977.18
 446  13152.37
 447  13269.91
 448  13345.12
 449  13338.67
 450  13170.77
 451  13331.36
 452  13078.6
 453  13176.93
 454  13246.85
 455  13191.23
 456  13044.12
 457  12944.37
 458  13161.54
 459  13608.68
 460  13961.43
 461  14079.42
 462  13752.08
 463  13623.1
 464  13841.27
 465  13806.16
 466  14033.47
 467  14117.91
 468  13902.67
 469  13451.62
 470  13543.09
 471  13641.66
 472  13753.59
 473  13670.92
 474  13912.66
 475  13979.35
 476  13560.86
 477  13640.97
 478  14047.02
 479  14559.39
 480  14302.13
 481  13660.16
 482  13562.41
 483  13302.77
 484  13497.96
 485  13799.63
 486  14123.95
 487  13916.43
 488  13736.86
 489  13712.73
 490  13695.47
 491  13437.32
 492  13644.65
 493  13922.34
 494  13939.89
 495  14098.06
 496  14559.6
 497  14535.12
 498  14201.73
 499  13579.8
 500  13740.59
 501  13886.56
 502  13768.31
 503  13900.5
 504  13625.76
 505  13750.74
 506  13771.57
 507  13730.9
 508  13752.07
 509  13926.7
 510  14444.87
 511  14558.54
 512  13880.49
 513  13198.4
 514  13100.4
 515  13497.9
 516  13712.59
 517  13885.94
 518  13941.37
 519  14031.04
 520  13753.76
 521  13990.65
 522  14094.13
 523  13892.98
 524  13850.23
 525  13668.65
 526  13641.81
 527  13769.26
 528  14016.4
 529  14193.01
 530  13832.2
 531  13964.22
 532  13940.21
 533  13872.03
 534  13794.18
 535  13604.67
 536  14004.08
 537  14156.79
 538  14397.43
 539  14170.26
 540  13611.31
 541  13273.97
 542  13179.89
 543  13291.81
 544  13365.53
 545  13383.84
 546  13546.78
 547  13679.24
 548  13406.19
 549  13258.41
 550  13262.31
 551  13191.06
 552  13409.11
 553  13871.07
 554  13798.44
 555  13559.35
 556  13538.62
 557  13865.9
 558  14041.27
 559  13671.92
 560  13790.77
 561  13758.33
 562  13731.34
 563  13384.31
 564  13271.26
 565  13193.08
 566  13292.19
 567  13381.97
 568  13440.48
 569  13416.3
 570  13376.45
 571  13832.01
 572  13621.12
 573  13380.22
 574  13331.66
 575  13687.98
 576  13994.44
 577  13963.76
 578  14099.53
 579  14092.92
 580  13895.48
 581  13858.36
 582  13801.21
 583  13607.02
 584  13367.64
 585  13085.14
 586  13515
 587  13810.08
 588  13949.57
 589  13984.37
 590  13790.09
 591  13439.96
 592  13377.35
 593  13509.67
 594  13559.51
 595  13765.41
 596  13910.06
 597  13860.06
 598  13229.17
 599  13243.73
 600  13402.27
 601  13453.55
 602  13336.68
 603  13516.27
 604  13839.03
 605  14017.3
 606  13828.21
 607  14001.75
 608  14249.56
 609  14143.6
 610  13960.2
 611  13855.08
 612  14031.46
 613  13947.56
 614  14250.08
 615  14321.21
 616  14202.46
 617  14123.11
 618  14583.99
 619  14615.55
 620  14417.54
 621  14029.45
 622  14076.79
 623  14379.31
 624  14432.92
 625  14125.96
 626  13961.36
 627  14056.84
 628  14137.1
 629  13947.44
 630  13838.75
 631  14044.94
 632  14210.91
 633  14157.27
 634  14011.72
 635  13939.5
 636  14234.21
 637  13916.45
 638  13357.33
 639  13334.87
 640  13360.53
 641  13345.86
 642  13253.19
 643  13380.88
 644  13637
 645  13393.13
 646  13860.59
 647  14128.85
 648  14227.02
 649  14095.39
 650  13862.18
 651  14061.93
 652  13961.23
 653  13920.61
 654  13654.85
 655  13451.34
 656  13588.21
 657  13796.8
 658  13606.25
 659  13485.97
 660  13429.69
 661  13553.53
 662  13484.88
 663  13653.46
 664  14288.75
 665  14599.88
 666  14020.48
 667  13714.05
 668  13708.36
 669  14251.52
 670  14232.58
 671  13966.32
 672  13969.33
 673  13747.98
 674  13576.83
 675  13654.6
 676  13888.47
 677  14021.14
 678  13956.69
 679  13971.99
 680  13523.31
 681  13342.35
 682  13327.26
 683  13761.43
 684  13589
 685  13715.59
 686  13766.69
 687  13951.73
 688  13772.54
 689  13650.6
 690  13846.64
 691  13861.36
 692  13627.18
 693  13371.03
 694  13387.67
 695  13329.41
 696  13474.01
 697  13699.57
 698  13797.61
 699  13947.03
 700  14080.24
 701  14161.47
 702  13666.52
 703  13435.26
 704  13715.11
 705  13526.58
 706  13817.17
 707  13917.66
 708  14212.72
 709  14141.48
 710  14019.34
 711  14005.64
 712  13959.83
 713  13605.95
 714  13568.65
 715  13405.17
 716  13469.55
 717  13563.26
 718  13669.93
 719  13643.85
 720  13557.7
 721  13466.8
 722  14037.56
 723  13715.53
 724  13798.03
 725  14028.37
 726  14063.9
 727  13849.6
 728  13875.42
 729  14224.98
 730  14384.59
 731  14081.86
 732  14397.51
 733  14564.53
 734  14350.78
 735  13892.83
 736  13669.09
 737  13970.93
 738  14053.07
 739  13692.24
 740  13727.92
 741  13710.06
 742  13684.63
 743  13673.53
 744  13615.68
 745  13594.32
 746  13791.26
 747  14065.89
 748  14332.6
 749  13883.93
 750  14050.97
 751  14094.2
 752  13888.24
 753  13609.43
 754  13811.41
 755  13906.4
 756  13933.1
 757  13537.06
 758  13732.33
 759  13994.1
 760  13943.77
 761  13837
 762  13856.2
 763  13673.01
 764  13534.63
 765  13334.48
 766  13524.97
 767  13385.85
 768  13375.79
 769  13359.84
 770  13139.72
 771  13020.04
 772  13173.07
 773  13352.14
 774  13607.64
 775  13886.86
 776  14297.01
 777  14243.66
 778  14068.68
 779  13915.37
 780  13643.13
 781  13372.55
 782  13515.22
 783  13581.33
 784  13788.13
 785  13634.48
 786  13944.38
 787  13983.67
 788  13724.38
 789  13786.57
 790  13669.93
 791  13594.11
 792  13391.11
 793  13466.02
 794  13841.74
 795  13707.23
 796  13556.6
 797  13365.99
 798  13479.47
 799  13555.92
 800  13767.15
 801  13712.82
 802  13527.92
 803  13389.12
 804  13454.39
 805  13467.92
 806  13297.85
 807  13548.52
 808  13863.45
 809  13669.29
 810  13617.54
 811  13715.46
 812  14040.47
 813  13555.88
 814  13260.07
 815  13063.72
 816  13397.99
 817  13494.72
 818  13471.18
 819  13412.59
 820  13492.47
 821  13620.31
 822  13364.24
 823  13246.52
 824  13407.12
 825  13602.36
 826  13623.84
 827  13571.41
 828  13823.47
 829  14234.22
 830  14159.59
 831  14042.08
 832  13798.39
 833  13611.86
 834  13365.66
 835  13263.93
 836  13521.11
 837  13806.35
 838  13837.74
 839  14048.66
 840  14522.29
 841  14356.16
 842  14335.74
 843  13891.62
 844  14021.79
 845  13784.62
 846  13587.22
 847  13476.92
 848  13388.08
 849  13394.41
 850  13384.41
 851  13186.17
 852  13273.39
 853  13346.55
 854  13785.1
 855  13881.58
 856  13553.92
 857  13480.98
 858  13653.83
 859  13599.96
 860  13505.81
 861  13664.21
 862  13915.02
 863  13866.12
 864  13574.23
 865  13414.14
 866  13473.6
 867  13548.98
 868  13573.62
 869  13473.14
 870  13273.72
 871  13351.34
 872  13277.86
 873  13740.27
 874  13846.45
 875  14232.09
 876  14038.11
 877  13825.21
 878  13723.99
 879  13566.06
 880  13727.54
 881  13835.74
 882  13839.09
 883  13698.39
 884  13669.06
 885  13642.82
 886  13574.44
 887  13392.11
 888  13260.14
 889  13409.96
 890  13605.84
 891  13983.29
 892  13825.95
 893  13756.38
 894  13708.39
 895  13427.48
 896  13527.96
 897  13931.07
 898  14063.48
 899  13741.24
 900  13406.79
 901  13468.79
 902  13578.18
 903  13372.92
 904  13202.72
 905  13243.09
 906  13476.18
 907  13862.01
 908  13694.59
 909  13732.65
 910  13649.03
 911  13589.95
 912  13588.7
 913  13601.89
 914  13612.83
 915  13562.64
 916  13642.13
 917  13687.37
 918  14208.8
 919  14375.01
 920  14094.08
 921  13378.49
 922  13345.07
 923  13663.48
 924  13336.21
 925  13439.78
 926  13617.31
 927  13590.8
 928  13215.48
 929  12994.97
 930  13302.26
 931  13449.62
 932  13753.98
 933  13641.22
 934  13899.51
 935  13926.12
 936  14043.06
 937  13989.57
 938  14110.04
 939  14081.78
 940  14179.49
 941  14104.17
 942  13737.36
 943  13484.43
 944  13741.03
 945  14002.05
 946  14216.41
 947  14189.14
 948  14156.57
 949  14122.44
 950  13957.95
 951  14256.86
 952  14241.65
 953  14265.99
 954  14074.16
 955  14061.78
 956  13963.15
 957  13727.9
 958  13907.13
 959  14139.23
 960  13702.37
 961  13654.2
 962  13924.81
 963  14309.41
 964  14289.23
 965  14226.7
 966  13991.18
 967  14004.48
 968  13702.11
 969  14025.89
 970  13856.79
 971  13516.49
 972  13619.63
 973  13670.24
 974  14215.95
 975  14460.14
 976  14695.3
 977  14955.47
 978  14664.55
 979  14801.11
 980  14917.16
 981  14515.91
 982  14367.9
 983  14348.53
 984  14376.05
 985  14046.29
 986  14002.98
 987  14285.26
 988  14334.69
 989  14317.84
 990  14609.67
 991  14456.78
 992  14232.46
 993  14438.55
 994  14670.78
 995  14786.4
 996  14545.16
 997  14125.51
 998  13974.42
 999  14132.16
1000  14050.73
1001  13754.46
1002  13117.08
1003  13283.76
1004  13613.23
1005  13960.27
1006  13929.25
1007  13929.72
1008  14464.57
1009  14664.28
1010  14484.38
1011  14371.67
1012  14408.46
1013  14070.7
1014  13932.18
1015  14013.74
1016  14271.04
1017  14133.84
1018  14166.01
1019  13977.35
1020  13770.23
1021  13310.6
1022  13216.9
1023  13270.4
