# Input file       =  1199738862.105873_cleaned.dat
# Candidate        =  PSR_0332+5434
# Telescope        =  AR
# Epoch_topo       =  58129.866679466126
# Epoch_bary       =  N/A
# T_sample         =  0.002
# Data Folded      =  7340032
# Data Avg         =  0.61735784204731 
# Data StdDev      =  6.15119160422469 
# Profile Bins     =  512
# Profile Avg      =  8850.33238999546 
# Profile StdDev   =  736.500848109093 
# Reduced chi-sqr  =  0.544
# Prob(Noise)      <  1   (~0.0 sigma)
# P_topo (ms)      =  714.564700556469  +/- 6.49e-05
# P'_topo (s/s)    =  -0                +/- 3.43e-11
# P''_topo (s/s^2) =  0                 +/- 1.51e-14
# P_bary (ms)      =  N/A
# P'_bary (s/s)    =  N/A
# P''_bary (s/s^2) =  N/A
# P_orb (s)        =  N/A
# asin(i)/c (s)    =  N/A
# eccentricity     =  N/A
# w (rad)          =  N/A
# T_peri           =  N/A
######################################################
   0  9278.24
   1  8555.931
   2  8649.082
   3  9263.433
   4  9506.345
   5  8920.988
   6  8964.579
   7  9313.907
   8  8933.533
   9  8876.633
  10  8893.952
  11  9122.446
  12  9224.401
  13  9504.055
  14  9387.896
  15  9678.603
  16  9091.079
  17  8600.434
  18  8820.743
  19  9366.59
  20  9558.867
  21  9137.787
  22  9310.402
  23  9144.691
  24  8581.829
  25  8986.384
  26  9093.867
  27  9167.612
  28  9022.805
  29  9035.493
  30  8975.236
  31  9299.883
  32  9113.124
  33  9631.053
  34  9204.593
  35  8821.164
  36  9217.948
  37  9453.161
  38  8663.686
  39  8510.223
  40  9247.062
  41  8954.731
  42  8741.24
  43  8684.81
  44  9076.88
  45  8587.68
  46  8386.786
  47  8960.34
  48  8530.756
  49  8817.455
  50  9210.126
  51  8427.301
  52  8783.941
  53  8914.508
  54  8521.683
  55  8581.914
  56  8529.607
  57  9158.838
  58  9394.774
  59  9078.008
  60  8694.289
  61  8411.72
  62  8193.996
  63  8064.071
  64  8377.485
  65  8465.716
  66  8613.572
  67  8584.335
  68  8661.224
  69  8976.414
  70  8519.189
  71  8572.23
  72  8500.658
  73  8703.611
  74  8707.26
  75  8538.657
  76  8746.964
  77  8828.839
  78  8917.687
  79  8960.585
  80  8822.35
  81  8847.616
  82  8951.194
  83  8498.771
  84  8413.702
  85  8194.915
  86  8776.599
  87  9135.162
  88  8573.277
  89  9016.897
  90  9094.568
  91  8592.356
  92  8867.393
  93  9251.908
  94  9006.683
  95  8831.683
  96  8867.874
  97  8473.774
  98  8535.534
  99  8597.357
 100  9036.389
 101  9063.877
 102  8953.058
 103  9196.477
 104  8899.33
 105  8748.522
 106  8589.326
 107  8934.436
 108  8110.69
 109  7557.69
 110  8491.871
 111  9252.797
 112  8960.362
 113  8882.872
 114  8728.772
 115  8532.171
 116  8688.104
 117  8801.796
 118  8769.74
 119  9079.859
 120  8277.771
 121  8693.176
 122  8439.064
 123  8686.354
 124  8652.895
 125  9313.789
 126  9206.255
 127  8908.907
 128  9094.083
 129  9208.29
 130  9183.321
 131  8792.67
 132  8692.286
 133  8937.547
 134  8046.158
 135  8356.246
 136  8977.608
 137  9103.112
 138  9057.716
 139  8807.215
 140  8812.657
 141  8862.741
 142  9129.549
 143  9218.285
 144  9182.975
 145  9214.556
 146  9521.707
 147  9542.359
 148  9214.78
 149  8889.437
 150  9449.84
 151  9137.94
 152  9003.151
 153  8733.568
 154  8600.723
 155  8476.042
 156  8287.494
 157  8549.567
 158  8303.847
 159  8437.595
 160  8612.742
 161  8705.469
 162  8343.452
 163  8112.33
 164  9057.838
 165  9430.521
 166  9229.115
 167  8730.825
 168  8633.245
 169  8551.006
 170  8261.489
 171  8384.273
 172  9138.185
 173  9320.476
 174  8836.216
 175  9345.523
 176  9345.964
 177  8639.962
 178  8387.452
 179  8987.184
 180  8818.372
 181  8351.674
 182  8428.692
 183  9052.521
 184  9351.124
 185  8911.671
 186  8682.784
 187  8594.427
 188  8768.429
 189  8597.433
 190  8295.3
 191  8019.223
 192  8380.426
 193  8581.586
 194  7888.508
 195  8090.943
 196  8481.065
 197  9040.509
 198  8505.987
 199  8575.026
 200  8700.104
 201  8561.478
 202  8402.19
 203  9075.658
 204  9097.403
 205  9068.255
 206  8910.705
 207  8634.182
 208  8305.185
 209  8666.16
 210  8308.555
 211  8242.687
 212  7866.924
 213  8398.769
 214  8723.484
 215  8609.429
 216  8230.021
 217  8639.799
 218  8919.41
 219  8915.869
 220  8585.191
 221  8753.83
 222  9097.595
 223  8659.561
 224  8438.383
 225  8770.639
 226  8886.581
 227  8714.487
 228  8982.028
 229  8981.169
 230  9001.403
 231  8795.808
 232  8710.952
 233  9520.803
 234  8944.251
 235  8864.901
 236  9212.316
 237  8799.372
 238  8970.953
 239  8967.693
 240  9417.902
 241  9639.784
 242  9183.276
 243  9169.907
 244  9015.972
 245  9306.829
 246  9341.663
 247  9759.029
 248  9230.135
 249  8764.04
 250  9036.72
 251  9568.258
 252  8612.91
 253  9580.605
 254  9971.321
 255  9410.418
 256  9210.726
 257  9157.857
 258  9010.284
 259  9133.802
 260  8799.768
 261  9144.016
 262  9200.705
 263  8459.265
 264  9184.384
 265  9493.76
 266  8947.731
 267  8878.682
 268  9057.253
 269  9180.285
 270  9064.72
 271  8996.516
 272  9233.231
 273  9420.852
 274  8728.024
 275  8914.566
 276  8909.386
 277  8985.411
 278  8951.12
 279  9369.042
 280  8893.823
 281  8944.2
 282  8945.803
 283  8886.057
 284  8733.7
 285  9040.073
 286  8508.636
 287  8569.255
 288  8931.431
 289  8993.506
 290  8574.153
 291  8865.43
 292  8939.888
 293  8895.587
 294  8513.615
 295  8557.297
 296  8858.959
 297  9477.743
 298  8874.512
 299  9125.007
 300  9347.558
 301  9208.693
 302  8677.89
 303  8640.189
 304  9341.754
 305  9257.705
 306  9405.639
 307  10022.1
 308  10203.03
 309  9747.109
 310  10064.07
 311  10564.36
 312  9845.073
 313  8963.145
 314  8594.899
 315  8430.072
 316  8413.556
 317  8336.313
 318  8452.782
 319  8642.982
 320  8406.657
 321  8510.462
 322  8748.034
 323  9022.558
 324  9154.978
 325  9107.559
 326  9142.274
 327  8148.571
 328  7992.59
 329  8331.275
 330  8458.386
 331  7968.175
 332  8070.834
 333  8637.327
 334  9135.788
 335  9203.631
 336  9290.705
 337  9008.458
 338  8860.877
 339  8691.164
 340  9209.444
 341  8632.431
 342  8330.722
 343  8764.986
 344  8874.441
 345  9417.776
 346  9519.423
 347  9495.883
 348  9104.114
 349  8614.371
 350  8757.175
 351  8928.873
 352  8701
 353  8448.623
 354  8794.545
 355  8964.399
 356  8749.223
 357  8345.668
 358  8568.23
 359  9146.135
 360  9097.445
 361  9085.008
 362  8833.928
 363  8379.515
 364  8129.412
 365  8897.329
 366  8939.712
 367  8922.426
 368  9307.897
 369  9210.963
 370  8235.062
 371  8076.864
 372  8012.863
 373  8412.679
 374  8911.175
 375  9020.966
 376  9155.757
 377  8530.512
 378  8528.639
 379  8435.377
 380  8518.044
 381  8509.669
 382  9007.806
 383  9257.523
 384  8861.988
 385  8988.399
 386  9128.706
 387  9269.384
 388  9018.456
 389  9262.798
 390  9499.135
 391  9091.237
 392  8635.766
 393  8440.327
 394  8764.228
 395  8428.213
 396  8793.535
 397  9007.418
 398  8525.484
 399  8453.022
 400  8844.078
 401  8547.112
 402  8061.027
 403  8776.61
 404  8866.988
 405  8677.853
 406  8433.523
 407  8059.753
 408  8768.066
 409  8560.657
 410  8194.267
 411  8986.106
 412  9184.408
 413  9175.045
 414  9020.54
 415  8853.595
 416  9218.492
 417  9536.415
 418  9825.317
 419  9379.317
 420  8858.72
 421  9383.166
 422  9288.804
 423  8787.825
 424  8852.421
 425  9194.423
 426  9010.62
 427  8711.545
 428  8428.264
 429  8913.692
 430  8982.07
 431  8640.052
 432  8654.898
 433  8786.282
 434  9160.546
 435  9136.128
 436  8802.556
 437  8859.813
 438  8701.963
 439  8515.447
 440  8586.983
 441  8763.75
 442  9110.837
 443  8993.888
 444  8778.39
 445  9015.729
 446  8422.684
 447  8419.085
 448  9273.697
 449  9229.83
 450  9179.562
 451  9122.022
 452  8797.15
 453  8459.749
 454  8357.717
 455  8332.351
 456  8256.057
 457  8236.914
 458  9008.729
 459  9135.388
 460  8341.261
 461  8868.389
 462  8862.741
 463  8997.685
 464  8819.394
 465  9178.283
 466  9009.492
 467  8518.153
 468  8264.024
 469  8472.41
 470  8782.731
 471  8307.411
 472  7858.211
 473  8479.54
 474  8993.296
 475  8718.742
 476  8578.062
 477  8568.876
 478  8777.234
 479  9071.53
 480  9114.317
 481  8685.569
 482  8261.597
 483  8426.142
 484  9079.729
 485  8703.055
 486  8679.367
 487  8472.129
 488  8781.279
 489  8729.087
 490  9139.54
 491  9485.663
 492  9112.595
 493  8964.083
 494  9412.494
 495  9108.5
 496  9357.521
 497  9402.861
 498  9251.1
 499  8996.443
 500  8224.427
 501  8157.11
 502  8528.544
 503  8195.427
 504  7922.807
 505  8148.137
 506  8770.977
 507  8724.683
 508  8706.874
 509  8842.644
 510  8979.261
 511  9305.864
