# Input file       =  1199551715.14724_cleaned.dat
# Candidate        =  PSR_0332+5434
# Telescope        =  AR
# Epoch_topo       =  58127.700626704165
# Epoch_bary       =  N/A
# T_sample         =  0.002
# Data Folded      =  7340032
# Data Avg         =  2.00417131026812 
# Data StdDev      =  13.6123958858011 
# Profile Bins     =  1024
# Profile Avg      =  14365.8588654192 
# Profile StdDev   =  1152.48045637083 
# Reduced chi-sqr  =  0.333
# Prob(Noise)      <  1   (~0.0 sigma)
# P_topo (ms)      =  714.562758892901  +/- 0.0174
# P'_topo (s/s)    =  -0                +/- 1.85e-08
# P''_topo (s/s^2) =  0                 +/- 8.1e-12
# P_bary (ms)      =  N/A
# P'_bary (s/s)    =  N/A
# P''_bary (s/s^2) =  N/A
# P_orb (s)        =  N/A
# asin(i)/c (s)    =  N/A
# eccentricity     =  N/A
# w (rad)          =  N/A
# T_peri           =  N/A
######################################################
   0  14056.38
   1  13912.17
   2  14107.62
   3  14433.37
   4  14649.23
   5  14739.38
   6  14647.36
   7  14605.24
   8  14816.62
   9  14490.2
  10  14618.6
  11  14686.85
  12  14505.7
  13  14185.27
  14  14053.38
  15  14158.51
  16  14295.17
  17  14185.87
  18  14056.92
  19  14145.78
  20  14489.8
  21  14772.95
  22  14539.36
  23  14471.58
  24  14585.17
  25  14534.88
  26  14623.26
  27  14442.15
  28  14407.94
  29  14186.41
  30  13900.87
  31  13910.76
  32  13978.28
  33  14302.09
  34  14402.71
  35  14338.07
  36  14389.76
  37  14511.48
  38  14691.3
  39  14525.62
  40  14509.9
  41  14604.65
  42  15006.17
  43  14675.41
  44  14457.86
  45  14246.39
  46  14392.88
  47  14439.62
  48  14471.83
  49  14549.36
  50  14704.9
  51  14663.27
  52  14967.7
  53  14823.46
  54  14677.06
  55  14595.57
  56  14268.28
  57  13972.45
  58  14022.53
  59  14376
  60  14739.78
  61  14198.4
  62  14242.93
  63  14564.76
  64  14724.75
  65  14933.26
  66  14669.38
  67  14400.97
  68  14236.38
  69  14212.97
  70  14528.2
  71  14834.34
  72  14849.83
  73  15046.33
  74  14670.28
  75  14805.45
  76  14818.17
  77  14868.48
  78  15163.53
  79  15277.83
  80  15283.45
  81  15155.85
  82  14916.17
  83  14825.92
  84  14979.35
  85  14595.67
  86  14285.66
  87  14040.18
  88  14247.86
  89  14284.53
  90  14082.76
  91  14132.25
  92  14432.12
  93  14354.98
  94  14446.89
  95  14332.42
  96  14112.5
  97  14448.03
  98  14615.25
  99  14905.25
 100  14682.75
 101  14407.61
 102  14392.32
 103  14043.85
 104  14037.74
 105  13966.19
 106  13942.55
 107  14071.9
 108  14277.97
 109  14531.12
 110  14811.36
 111  14870.04
 112  14850.31
 113  14641.68
 114  14603.06
 115  14636.8
 116  14382.4
 117  14493.86
 118  14604.22
 119  14621.89
 120  14636.04
 121  14338.21
 122  14411.05
 123  14610.2
 124  14418.03
 125  14178.43
 126  13815.73
 127  14233.65
 128  14702.16
 129  14691.35
 130  14587.32
 131  14268.42
 132  13973.82
 133  13894.62
 134  13698.51
 135  13988.27
 136  14496.88
 137  14610.28
 138  14512.1
 139  14091.25
 140  14117.38
 141  14160.92
 142  14246.83
 143  14266.64
 144  14528.41
 145  14324.64
 146  14177.07
 147  13768.83
 148  13727.65
 149  13838.97
 150  13676.78
 151  13933.66
 152  13867.7
 153  14047.11
 154  14444.32
 155  14519.4
 156  14268.24
 157  14378.71
 158  14318.74
 159  14650.12
 160  14490.2
 161  14851.67
 162  14922.01
 163  14683.42
 164  14494.12
 165  14642.13
 166  14885.37
 167  15176.69
 168  14956.85
 169  14650.4
 170  14245.88
 171  14089.41
 172  14466.05
 173  14607.65
 174  14675.7
 175  14767.98
 176  14863.1
 177  14900.74
 178  14889.36
 179  15062.16
 180  14813.72
 181  14403.26
 182  14072.25
 183  14081.47
 184  14079.8
 185  14489.02
 186  14961.44
 187  14984.17
 188  14915.48
 189  14414.1
 190  14443.78
 191  14212.04
 192  14315.23
 193  14455.93
 194  14240.41
 195  14295.51
 196  14618.86
 197  14938.47
 198  15087.58
 199  14564.46
 200  14394.43
 201  14377.43
 202  14194.22
 203  14313.7
 204  14553.8
 205  14713.92
 206  14344.86
 207  13720.54
 208  13977.46
 209  14201.82
 210  14145.52
 211  13890.21
 212  13783.6
 213  13845.46
 214  13978.82
 215  14078.09
 216  14359.58
 217  14146.4
 218  13968.12
 219  13765.88
 220  13665.1
 221  13930.03
 222  14275.45
 223  14461.89
 224  14589.23
 225  14536.57
 226  14464.81
 227  14578.42
 228  14259.49
 229  14527.9
 230  14696.34
 231  14796.55
 232  14638.33
 233  14275.32
 234  14412.88
 235  14198.93
 236  14207.28
 237  14267.18
 238  14348.38
 239  14366.88
 240  14383.8
 241  14313.04
 242  14389.35
 243  14920.78
 244  15152.44
 245  15192.83
 246  14617.91
 247  14613.16
 248  14748.91
 249  14524.79
 250  14558.49
 251  14998.75
 252  15300.91
 253  15092.78
 254  14476.74
 255  14309.08
 256  14554.58
 257  14641.97
 258  14698.76
 259  14372.71
 260  14339.76
 261  14392.58
 262  14539.79
 263  14669.5
 264  14607.42
 265  14541.3
 266  14442.53
 267  14205.12
 268  13985.75
 269  14316.49
 270  14656.56
 271  15150.97
 272  15109.35
 273  14770.64
 274  14716.24
 275  14465.44
 276  14574.92
 277  14110.76
 278  13706.4
 279  13732.26
 280  14046.82
 281  14196.9
 282  14008.22
 283  14025.88
 284  14048.35
 285  14064.32
 286  13744.94
 287  13860.82
 288  14061.22
 289  14400.91
 290  14232.27
 291  14137.75
 292  13910.82
 293  14039.29
 294  13992.21
 295  14318.63
 296  14183.79
 297  14377.12
 298  14298.94
 299  14348.29
 300  14339.54
 301  14437.74
 302  14694.19
 303  14696.09
 304  14393.82
 305  14397.96
 306  14128.89
 307  14529.73
 308  14847.58
 309  14705.22
 310  14326.07
 311  13696.58
 312  13961.93
 313  14315.69
 314  14145.81
 315  14031.22
 316  14001.57
 317  14166
 318  14323.4
 319  13956.1
 320  14095.71
 321  13981.77
 322  13960.39
 323  14031.91
 324  14103.47
 325  13859.33
 326  14159.15
 327  14468.47
 328  14490.74
 329  14195.93
 330  13962.43
 331  14289.67
 332  13983.88
 333  13720.72
 334  13961.34
 335  14055.13
 336  14502.65
 337  14658.8
 338  14852.97
 339  14921.73
 340  14754.29
 341  14517.4
 342  14477
 343  14012.47
 344  13913.42
 345  13822.85
 346  14106.85
 347  14290.35
 348  13814.17
 349  13862.03
 350  14079.16
 351  14151.73
 352  14075.1
 353  13651.91
 354  13507.73
 355  13465.73
 356  13695.14
 357  14059.1
 358  14344.78
 359  14418.95
 360  14423.76
 361  14004.2
 362  13889.94
 363  13794.47
 364  13768.79
 365  14025.66
 366  14092.45
 367  14404.63
 368  14559.74
 369  14574.82
 370  14640.76
 371  14767.54
 372  14523.71
 373  14298.57
 374  13692.25
 375  13866.88
 376  13976.5
 377  14505.35
 378  14464.03
 379  14476.58
 380  14591.71
 381  14630.51
 382  14170.3
 383  13948.71
 384  13796.13
 385  14449.08
 386  14890.56
 387  14682.8
 388  14440.1
 389  14139.25
 390  14224.39
 391  14352.87
 392  14336.06
 393  14502.3
 394  14577.73
 395  14642.71
 396  14493.75
 397  14135.02
 398  13919.25
 399  14209.82
 400  14077.02
 401  14451.76
 402  14261.8
 403  14138.48
 404  14093.28
 405  13772.96
 406  13768.62
 407  14182.66
 408  14493.79
 409  14438.37
 410  13836.61
 411  13595.63
 412  13933.82
 413  13656.56
 414  13618.18
 415  13549.5
 416  14096.2
 417  14582.95
 418  14345.24
 419  13653.75
 420  13505.78
 421  13441.49
 422  14050.89
 423  14379.11
 424  14467.12
 425  14671.37
 426  14380.84
 427  14308.64
 428  14044.88
 429  13990.73
 430  14111.22
 431  14106.03
 432  14011.28
 433  14213.7
 434  14076.39
 435  13913.6
 436  14000.16
 437  13933.87
 438  14238.46
 439  14047.7
 440  14197.63
 441  13954.89
 442  13845.28
 443  14161.71
 444  14495.58
 445  14719.98
 446  14696.7
 447  14038.79
 448  13660.5
 449  13696.84
 450  14188.46
 451  14616.41
 452  14481.25
 453  14696.77
 454  14729.37
 455  14759.42
 456  14578.19
 457  14455.86
 458  14315.26
 459  14173.59
 460  13599.03
 461  13373.12
 462  13329.36
 463  13496.29
 464  13623.15
 465  13534.41
 466  14136.63
 467  14613.66
 468  14779.78
 469  14343.37
 470  14030.47
 471  14058.52
 472  14467.75
 473  14218.91
 474  14255.34
 475  14190.04
 476  14398.87
 477  14457.78
 478  13893.89
 479  14073.96
 480  14197.52
 481  14740.93
 482  14910.75
 483  14820.36
 484  14669.04
 485  14521.71
 486  14198.8
 487  14153.72
 488  14209.05
 489  14118.21
 490  14173.96
 491  14039.58
 492  14184.43
 493  14361.13
 494  14381.3
 495  14953.19
 496  14785.31
 497  14644.77
 498  14516.8
 499  14210.43
 500  13950.34
 501  14061.13
 502  14214.26
 503  14704.01
 504  14540.18
 505  14415.58
 506  14414.15
 507  14324.11
 508  14870.03
 509  14795.55
 510  14808.48
 511  14697.43
 512  14578.13
 513  14711.01
 514  14444.8
 515  14325.92
 516  14343.13
 517  14569.51
 518  14337.29
 519  14416.56
 520  14497.85
 521  14459.88
 522  14598.57
 523  14392.77
 524  14762.3
 525  14440.07
 526  14411
 527  14307.9
 528  14082.67
 529  14277.19
 530  14178.92
 531  14336.95
 532  14671.5
 533  14520.49
 534  14420.7
 535  13866.3
 536  13971.68
 537  14217.73
 538  14261.76
 539  14588.76
 540  14691.88
 541  14988.87
 542  14679.38
 543  14097.26
 544  13930.55
 545  13762.2
 546  13576.22
 547  13375.66
 548  13514.48
 549  13793.56
 550  14309.1
 551  14053.26
 552  14072.23
 553  13697.28
 554  13697.13
 555  13812.44
 556  13683.64
 557  14066.75
 558  14545.38
 559  14705.6
 560  14562.88
 561  14392.96
 562  14474.81
 563  14347.46
 564  14042.34
 565  14048.48
 566  14537.26
 567  14544.76
 568  14566.49
 569  14188.43
 570  14079.33
 571  14175.76
 572  13933.75
 573  14267.73
 574  14371.78
 575  14602.92
 576  14434.25
 577  14044.02
 578  14231.84
 579  15009.17
 580  15248.93
 581  15276.01
 582  14994.72
 583  14729.32
 584  14461.94
 585  14176.48
 586  14784.74
 587  14457.54
 588  14214.21
 589  13753.87
 590  13591.27
 591  13268.04
 592  13583.56
 593  13755.98
 594  14383.88
 595  14564.75
 596  14643.59
 597  14378.08
 598  13984.28
 599  13989.15
 600  14072.24
 601  14101.33
 602  14368.08
 603  14173.13
 604  14131.87
 605  14177.45
 606  14439.39
 607  14847.88
 608  14994.89
 609  14919.76
 610  14848
 611  14518.46
 612  14126.91
 613  13914.57
 614  14005.81
 615  14907.37
 616  15141.47
 617  15391.14
 618  15601.48
 619  15906.36
 620  15979.27
 621  15600.6
 622  15149.37
 623  15151.42
 624  14772.95
 625  14597.71
 626  14357.74
 627  14299.86
 628  14282.2
 629  14299.63
 630  14463.26
 631  14689.64
 632  14510.58
 633  14039.65
 634  13764.29
 635  13989.12
 636  14502.11
 637  14636.03
 638  14320.93
 639  14322.27
 640  14104.94
 641  14179.46
 642  13734.1
 643  13975.46
 644  14331.08
 645  14621.61
 646  14865.39
 647  14923.3
 648  14846.4
 649  14571.98
 650  14441.67
 651  14667.27
 652  14614.87
 653  14311.26
 654  14300.25
 655  14262.52
 656  14427.91
 657  14290.19
 658  14112.89
 659  14378.35
 660  14642.64
 661  14736.59
 662  14958.21
 663  14737.13
 664  14820.92
 665  14736.68
 666  14669.48
 667  14581.2
 668  14407.7
 669  14423.31
 670  14409.29
 671  14170.02
 672  14182.54
 673  14166.44
 674  14389.52
 675  14725.37
 676  14771.69
 677  14737.85
 678  14716
 679  14326.14
 680  14693.38
 681  14550.23
 682  14648.58
 683  14533.97
 684  14362.61
 685  14405.34
 686  14352.62
 687  14403.91
 688  14404.53
 689  14011.94
 690  13851.68
 691  13969.12
 692  14124.99
 693  13948.44
 694  14095.44
 695  13903.18
 696  14324.14
 697  14096.74
 698  14501.35
 699  14435.12
 700  14309.28
 701  14566.98
 702  14653.95
 703  14502.05
 704  14519
 705  14161.96
 706  13984.15
 707  13676.5
 708  13848.06
 709  14186.54
 710  14315.33
 711  14231.14
 712  14329.49
 713  14298.37
 714  14278.41
 715  14122.1
 716  14263.88
 717  14523.18
 718  14450.29
 719  14287.51
 720  14032.27
 721  14182.46
 722  14350.01
 723  14512.11
 724  14533.4
 725  14187.03
 726  13654.36
 727  13763.14
 728  13872.74
 729  14391.29
 730  14857.21
 731  15203.54
 732  15170.41
 733  14648.72
 734  14401.42
 735  14432.92
 736  14462.35
 737  15100.94
 738  15330.07
 739  15311.06
 740  15019.81
 741  14502.77
 742  14341.67
 743  14402.55
 744  14632.08
 745  14881.65
 746  14757.82
 747  14252.73
 748  13891.51
 749  13629.35
 750  14056
 751  14315.23
 752  14332.04
 753  14607.31
 754  14779.96
 755  14646.96
 756  14518.4
 757  14288.93
 758  14367.5
 759  14447.17
 760  14476.04
 761  14636.22
 762  14345.85
 763  14155.71
 764  14402.42
 765  14400.38
 766  14353.82
 767  14078.74
 768  14087.83
 769  14269.99
 770  14055.54
 771  14032.73
 772  14022.91
 773  13902.61
 774  14193.26
 775  13935.56
 776  13761.71
 777  13649.78
 778  14129.84
 779  14749.24
 780  15076.3
 781  14843.07
 782  14560.09
 783  14037.37
 784  13739.24
 785  13740.36
 786  13902.79
 787  14193.93
 788  14064.67
 789  14278.67
 790  14411.08
 791  14536.71
 792  14425.46
 793  14472.32
 794  14406.49
 795  14262.2
 796  13959.5
 797  13943.6
 798  14061.85
 799  14211.21
 800  14192.83
 801  14019.91
 802  13709.33
 803  14213.7
 804  14321.93
 805  14840.71
 806  14455.38
 807  14522.61
 808  14534.19
 809  14502.26
 810  14862.8
 811  14789.85
 812  14473.11
 813  14492.7
 814  14240.88
 815  14532.63
 816  14292.63
 817  14221.12
 818  14189.48
 819  14464.76
 820  14806.82
 821  15113.61
 822  14795.53
 823  14780.31
 824  14892.27
 825  15005.14
 826  14836.68
 827  14577.65
 828  14752.62
 829  15149.69
 830  14694.91
 831  14454.56
 832  14245.2
 833  14515.31
 834  14648.38
 835  14390.19
 836  14530.27
 837  14617.58
 838  14854.14
 839  14983.26
 840  14463.82
 841  14283.55
 842  14385.58
 843  14660.3
 844  14814.6
 845  15161.11
 846  15113.29
 847  15220.4
 848  14672.54
 849  14815.57
 850  14869.98
 851  14850.94
 852  14629.54
 853  14507.11
 854  14506.67
 855  14562.39
 856  14266.94
 857  14162.58
 858  14340.31
 859  14213.33
 860  14440.07
 861  14268.19
 862  14454.24
 863  14522.56
 864  14452.39
 865  14539.12
 866  14322.63
 867  14276.27
 868  14530.15
 869  14725.42
 870  14606.17
 871  14374.27
 872  14152.77
 873  14071.72
 874  14039.23
 875  14313.8
 876  14775.78
 877  14866.58
 878  14821.14
 879  14490.22
 880  14402.08
 881  14208.09
 882  14177.53
 883  14446.62
 884  14644.24
 885  14640.7
 886  14818.68
 887  14967.53
 888  14950.12
 889  14783.2
 890  14475.79
 891  14068.3
 892  14057.71
 893  14329.96
 894  14712.33
 895  14549.92
 896  14220.5
 897  13964.79
 898  13730.76
 899  14000.49
 900  13859.55
 901  13913.58
 902  13970.89
 903  14056.99
 904  14465.37
 905  14486.22
 906  14583.8
 907  14626.74
 908  14649.89
 909  14516.64
 910  14445.56
 911  14157.31
 912  14452.75
 913  14199.8
 914  14138.71
 915  14172.93
 916  13932.7
 917  14278.01
 918  14209.75
 919  14306.17
 920  14555.57
 921  14299.61
 922  14568.63
 923  14922.13
 924  15186.22
 925  15071.5
 926  14833.36
 927  14579.35
 928  14485.56
 929  13960.01
 930  14056.39
 931  13879.88
 932  13934.26
 933  13924.55
 934  13566.38
 935  13675.69
 936  14004.04
 937  14055.31
 938  14257.32
 939  14364.07
 940  14590.17
 941  14359.73
 942  13869.52
 943  13567.16
 944  13638.84
 945  13631.32
 946  14174.07
 947  14312.78
 948  14295.33
 949  14298.13
 950  14420.33
 951  14951.89
 952  15184.48
 953  14858.9
 954  14764.95
 955  14530.86
 956  14795.86
 957  14673.04
 958  14583.46
 959  14720.09
 960  14883.16
 961  14763.99
 962  14745.79
 963  14548.28
 964  14785.68
 965  14775.39
 966  14509.17
 967  14586.27
 968  14495.04
 969  14347.2
 970  13851.65
 971  14065.46
 972  14405.21
 973  14330.43
 974  14283.08
 975  14319.79
 976  14374.04
 977  14403.42
 978  14194.8
 979  14108.25
 980  14180.27
 981  14335.17
 982  14199.52
 983  14107.64
 984  13959.96
 985  14110.39
 986  14129.84
 987  14325.57
 988  14365.36
 989  14141.44
 990  14159.92
 991  14084.24
 992  14128.33
 993  14051.79
 994  14117.59
 995  14241.15
 996  14598.97
 997  14338.37
 998  14621.11
 999  14439.75
1000  14428.83
1001  14269.41
1002  13919.42
1003  14226.5
1004  14123.88
1005  14001.79
1006  14020.49
1007  14032.44
1008  14339.18
1009  14615.09
1010  14563.68
1011  14416.25
1012  14103.6
1013  14060.13
1014  14275.38
1015  13898.79
1016  13959.58
1017  14430.8
1018  14590.83
1019  14681.25
1020  14145.68
1021  14150.38
1022  14233.39
1023  13917.46
