# Input file       =  1199623241.089426-PSRB0329-2ms-sampling-dd.dat
# Candidate        =  PSR_0332+5434
# Telescope        =  AR
# Epoch_topo       =  58128.528473257247
# Epoch_bary       =  N/A
# T_sample         =  0.002
# Data Folded      =  7208960
# Data Avg         =  -1.75331360686373e-09
# Data StdDev      =  44.4736516225854 
# Profile Bins     =  512
# Profile Avg      =  0.112289866363011
# Profile StdDev   =  5277.2068460646  
# Reduced chi-sqr  =  1.207
# Prob(Noise)      <  0.000886   (~3.1 sigma)
# P_topo (ms)      =  714.563361430396  +/- 0.000468
# P'_topo (s/s)    =  -0                +/- 2.51e-10
# P''_topo (s/s^2) =  0                 +/- 1.13e-13
# P_bary (ms)      =  N/A
# P'_bary (s/s)    =  N/A
# P''_bary (s/s^2) =  N/A
# P_orb (s)        =  N/A
# asin(i)/c (s)    =  N/A
# eccentricity     =  N/A
# w (rad)          =  N/A
# T_peri           =  N/A
######################################################
   0  -1013.128
   1  -1077.672
   2  -1402.472
   3  -1797.281
   4  -1337.24
   5  -2340.762
   6  -2488.163
   7  -2780.062
   8  -1895.446
   9  -1424.704
  10  -946.4987
  11  -1971.339
  12  -1845.048
  13  -1734.83
  14  -2709.71
  15  -2086.481
  16  -2088.055
  17  -1376.911
  18  -1993.262
  19  -1327.573
  20  -369.8671
  21  -35.58355
  22  -131.736
  23  -1132.461
  24  -944.6967
  25  -470.6296
  26  -698.7786
  27  -365.5457
  28  -438.8576
  29  -159.4827
  30  -1560.722
  31  -1396.731
  32  -1417.265
  33  -909.4211
  34  -1129.374
  35  -1213.975
  36  -418.0456
  37  447.8726
  38  867.894
  39  -133.9533
  40  -400.9615
  41  -1183.032
  42  -1016.665
  43  -589.1484
  44  -846.8225
  45  532.2563
  46  381.5752
  47  -8.38437
  48  -85.27409
  49  785.2756
  50  1801.606
  51  1876.607
  52  860.6213
  53  632.0787
  54  240.2937
  55  -706.1904
  56  -895.0251
  57  -799.4176
  58  -303.4313
  59  -1610.055
  60  -1705.255
  61  -1189.467
  62  -1039.76
  63  -164.3574
  64  -691.1663
  65  -1219.669
  66  -1525.33
  67  -647.0867
  68  -1192.736
  69  -1528.585
  70  -1055.46
  71  -168.8151
  72  -333.2698
  73  -762.7387
  74  -824.3057
  75  -1157.491
  76  -878.4755
  77  -1296.264
  78  -1060.247
  79  -955.4459
  80  -1992.269
  81  -1327.006
  82  -1444.152
  83  -893.6047
  84  -913.1498
  85  -1010.323
  86  -856.0066
  87  -535.0182
  88  -613.1677
  89  -1029.084
  90  -455.4084
  91  -894.8214
  92  -670.7073
  93  -1803.33
  94  -1992.705
  95  -1851.506
  96  -1391.74
  97  -2071.951
  98  -2473.37
  99  -809.8032
 100  -987.0042
 101  -420.7509
 102  -264.1957
 103  -654.0681
 104  4379.829
 105  7609.945
 106  10268.44
 107  10095.98
 108  7797.091
 109  2240.875
 110  632.7476
 111  5082.09
 112  8958.511
 113  9352.949
 114  8078.787
 115  6113.752
 116  -763.7209
 117  -1577.059
 118  -1386.089
 119  -1279.062
 120  -495.2488
 121  -63.44046
 122  -823.0784
 123  -1213.828
 124  -299.2115
 125  -893.1761
 126  -434.1354
 127  -696.4947
 128  -420.0064
 129  -963.8303
 130  -1387.403
 131  -917.2497
 132  -1312.443
 133  -862.8983
 134  -882.8263
 135  -567.3823
 136  -183.4084
 137  -416.3721
 138  -342.7897
 139  -471.2178
 140  -391.5798
 141  -1227.335
 142  -879.4427
 143  -1660.74
 144  -1234.031
 145  -932.1697
 146  -755.9041
 147  47.545
 148  145.6932
 149  346.9318
 150  -190.8998
 151  -732.3347
 152  -578.1503
 153  -46.2916
 154  862.5334
 155  139.8189
 156  304.6949
 157  -82.74861
 158  -510.6764
 159  -1943.133
 160  -885.1443
 161  -1414.44
 162  -905.1088
 163  -968.2436
 164  -1623.95
 165  -1874.924
 166  -1962.277
 167  -705.6885
 168  -901.1168
 169  -971.8145
 170  -1615.404
 171  -1508.738
 172  -1613.504
 173  -811.1328
 174  -269.2924
 175  -1249.427
 176  -998.2234
 177  -1778.278
 178  -1079.258
 179  -1955.974
 180  -1751.796
 181  386.5284
 182  1651.757
 183  720.7823
 184  -1116.53
 185  -460.2173
 186  -471.9116
 187  -771.5223
 188  -318.6327
 189  -346.0321
 190  -112.0751
 191  -721.7051
 192  -143.4668
 193  -800.679
 194  -533.9291
 195  -878.5327
 196  -1414.664
 197  -1235.53
 198  -1115.248
 199  -876.7518
 200  -887.9592
 201  -1007.044
 202  -1236.39
 203  -1507.368
 204  -1484.603
 205  -1577.146
 206  -1277.756
 207  -770.8066
 208  -1142.386
 209  -1853.124
 210  -1365.757
 211  -1720.117
 212  -1283.277
 213  -1211.542
 214  -408.2469
 215  -69.55535
 216  -603.8869
 217  -434.2888
 218  -257.8018
 219  -1335.101
 220  -793.0682
 221  424.4969
 222  1457.676
 223  1632.404
 224  975.5479
 225  566.5685
 226  -552.1354
 227  -793.2301
 228  325.457
 229  578.9178
 230  -174.3974
 231  -682.8043
 232  8.843053
 233  -1073.79
 234  -1490.623
 235  -57.80412
 236  -1071.941
 237  -1325.206
 238  -1046.759
 239  1760.922
 240  14404.6
 241  24311.07
 242  29397.99
 243  31238.51
 244  25493.51
 245  3548.78
 246  6324.414
 247  17281.32
 248  34507.35
 249  34778.27
 250  31666.57
 251  26655.44
 252  3232.506
 253  2026.635
 254  784.5259
 255  -453.9171
 256  766.7217
 257  1119.495
 258  827.3438
 259  888.8569
 260  200.8889
 261  -769.1946
 262  -741.7632
 263  -1138.344
 264  -1295.528
 265  -1587.824
 266  -1720.793
 267  -957.3301
 268  -416.3856
 269  -270.0648
 270  -662.7692
 271  -148.6739
 272  -125.9547
 273  -853.0982
 274  -1313.411
 275  -1325.229
 276  -1063.175
 277  -1782.008
 278  -1897.915
 279  -2141.972
 280  -931.0659
 281  -450.4581
 282  -1556.308
 283  -1473.434
 284  -1470.407
 285  -1312.934
 286  -1626.897
 287  -1198.292
 288  -1486.043
 289  -878.2615
 290  -1618.791
 291  -1922.518
 292  -1122.375
 293  -131.9786
 294  526.6695
 295  84.32037
 296  346.195
 297  -664.3356
 298  -276.893
 299  -184.6612
 300  -345.5871
 301  571.7936
 302  120.1022
 303  -488.4674
 304  -1199.631
 305  -878.4261
 306  -556.5249
 307  -1618.286
 308  -1522.907
 309  -851.3478
 310  -887.4396
 311  -1051.885
 312  -1989.526
 313  -1631.81
 314  -1431.278
 315  -1230.913
 316  -1145.35
 317  -1354.119
 318  -1545.136
 319  -2071.481
 320  -1660.783
 321  -519.9642
 322  370.5078
 323  812.5071
 324  209.4785
 325  -729.6477
 326  -1585.487
 327  -1351.98
 328  -276.1465
 329  382.6078
 330  1802.262
 331  1545.101
 332  360.8488
 333  -1474.778
 334  -1929.749
 335  -681.3657
 336  -788.3915
 337  17.79743
 338  -205.1586
 339  52.74409
 340  -786.9162
 341  -1663.432
 342  -1077.277
 343  291.7724
 344  771.3359
 345  329.2926
 346  493.1337
 347  -385.7664
 348  -964.7993
 349  -1401.299
 350  554.0371
 351  1564.612
 352  1283.939
 353  1613.824
 354  605.3665
 355  158.3521
 356  -374.2457
 357  453.7598
 358  768.5853
 359  1008.468
 360  655.4255
 361  -975.5428
 362  -2055.581
 363  -1716.425
 364  -750.298
 365  -672.135
 366  -1103.319
 367  -597.6283
 368  -211.0547
 369  -663.1022
 370  -1603.45
 371  -961.1203
 372  -502.3685
 373  -1293.279
 374  -2483.482
 375  -1907.721
 376  -1322.71
 377  -1618
 378  -494.3438
 379  -192.5186
 380  1088.268
 381  1034.99
 382  1377.868
 383  777.8849
 384  1259.421
 385  1418.612
 386  506.6732
 387  400.7499
 388  1397.068
 389  1481.283
 390  -22.91284
 391  14.77924
 392  -63.76741
 393  97.22765
 394  937.0305
 395  1662.573
 396  1477.99
 397  968.9429
 398  -531.5153
 399  -827.8107
 400  -364.4738
 401  91.13881
 402  -37.8473
 403  -442.9143
 404  -705.9339
 405  -1567.842
 406  -1965.927
 407  -1350.495
 408  -1852.256
 409  -1063.653
 410  -1626.682
 411  -2179.938
 412  -1812.786
 413  -2057.788
 414  -1239.638
 415  -1334.444
 416  -479.4222
 417  -246.8566
 418  -220.1742
 419  -484.2184
 420  -1574.588
 421  -1636.687
 422  -1312.941
 423  -884.6296
 424  -1148.897
 425  -1361.622
 426  -1564.643
 427  -2459.243
 428  -3153.861
 429  -2299.337
 430  -1678.742
 431  -1175.128
 432  -886.738
 433  -699.3841
 434  -616.0764
 435  -1738.797
 436  -2019.624
 437  -1363.737
 438  -412.3428
 439  -298.181
 440  -1025.272
 441  -835.5255
 442  -2003.446
 443  -1561.826
 444  -826.6913
 445  120.2257
 446  1542.973
 447  1799.101
 448  1097.879
 449  839.7796
 450  1846.447
 451  1016.636
 452  -255.7354
 453  629.2983
 454  312.4164
 455  -68.1035
 456  -1101.418
 457  -1275.847
 458  -674.4146
 459  -930.4202
 460  -1027.328
 461  -677.4777
 462  -962.212
 463  -907.3997
 464  89.32839
 465  -378.4141
 466  294.4568
 467  -182.0718
 468  84.19789
 469  -1293.164
 470  -2596.333
 471  -2130.123
 472  -2596.67
 473  -2583.713
 474  -2783.685
 475  -1315.434
 476  -1699.38
 477  -1730.799
 478  -1709.344
 479  -850.585
 480  -876.1684
 481  -1985.483
 482  -1480.622
 483  -952.2147
 484  -881.2743
 485  -1630.31
 486  -1104.248
 487  -1680.734
 488  -1712.096
 489  -1961.631
 490  -2231.779
 491  -1823.529
 492  -1538.369
 493  -1250.309
 494  -2225.341
 495  -1354.236
 496  -856.2258
 497  -2210.53
 498  -2209.792
 499  -2231.413
 500  -1235.111
 501  -1675.994
 502  -1323.711
 503  -1029.476
 504  -770.355
 505  -268.2515
 506  -1081.608
 507  -1458.618
 508  -1452.935
 509  -912.0967
 510  -1112.23
 511  -941.0515
