# Input file       =  1199738862.105873_cleaned.dat
# Candidate        =  PSR_0332+5434
# Telescope        =  AR
# Epoch_topo       =  58129.866679466126
# Epoch_bary       =  N/A
# T_sample         =  0.002
# Data Folded      =  7340032
# Data Avg         =  0.61735784204731 
# Data StdDev      =  6.15119160422469 
# Profile Bins     =  512
# Profile Avg      =  8850.33238999546 
# Profile StdDev   =  736.500848109093 
# Reduced chi-sqr  =  0.544
# Prob(Noise)      <  1   (~0.0 sigma)
# P_topo (ms)      =  714.56470067004   +/- 6.57e-05
# P'_topo (s/s)    =  -0                +/- 3.47e-11
# P''_topo (s/s^2) =  0                 +/- 1.53e-14
# P_bary (ms)      =  N/A
# P'_bary (s/s)    =  N/A
# P''_bary (s/s^2) =  N/A
# P_orb (s)        =  N/A
# asin(i)/c (s)    =  N/A
# eccentricity     =  N/A
# w (rad)          =  N/A
# T_peri           =  N/A
######################################################
   0  8627.023
   1  9010.863
   2  8743.005
   3  8323.002
   4  8939.045
   5  8634.356
   6  8638.729
   7  9280.35
   8  8528.845
   9  8708.475
  10  8919.56
  11  8530.975
  12  8594.475
  13  8509.226
  14  9027.775
  15  9328.597
  16  9247.218
  17  8741.7
  18  8473.586
  19  8179.053
  20  8102.781
  21  8322.211
  22  8431.771
  23  8579.2
  24  8641.533
  25  8629.174
  26  8899.689
  27  8597.721
  28  8543.052
  29  8619.23
  30  8617.92
  31  8690.141
  32  8539.751
  33  8764.63
  34  8732.677
  35  8946.034
  36  8953.339
  37  8880.293
  38  8771.763
  39  9000.776
  40  8545.219
  41  8462.047
  42  8213.481
  43  8589.816
  44  9172.398
  45  8654.14
  46  8859.267
  47  9182.024
  48  8713.122
  49  8679.865
  50  9280.615
  51  9036.07
  52  8876.296
  53  8896.614
  54  8523.879
  55  8475.966
  56  8550.525
  57  9003.626
  58  9102.983
  59  8957.623
  60  9122.346
  61  9022.5
  62  8734.924
  63  8618.702
  64  8907.139
  65  8291.329
  66  7549.928
  67  8257.085
  68  9262.945
  69  8992.372
  70  8835.33
  71  8777.757
  72  8624.458
  73  8614.169
  74  8781.186
  75  8695.542
  76  9145.51
  77  8371.658
  78  8620.678
  79  8500.333
  80  8677.392
  81  8565.4
  82  9151.148
  83  9345.055
  84  8900.887
  85  9104.982
  86  9134.904
  87  9220.379
  88  8902.658
  89  8581.772
  90  9039.19
  91  8183.816
  92  8226.168
  93  8922.053
  94  9071.742
  95  9075.622
  96  8846.017
  97  8779.898
  98  8885.532
  99  9092.518
 100  9152.599
 101  9222.208
 102  9209.109
 103  9506.882
 104  9488.654
 105  9321.808
 106  8886.837
 107  9408.918
 108  9175.06
 109  8989.047
 110  8810.572
 111  8618.663
 112  8539.001
 113  8272.746
 114  8533.846
 115  8334.044
 116  8364.604
 117  8574.668
 118  8731.233
 119  8470.438
 120  8054.648
 121  8837.904
 122  9437.02
 123  9307.314
 124  8795.199
 125  8599.934
 126  8612.719
 127  8335.127
 128  8306.848
 129  8953.36
 130  9419.407
 131  8856.852
 132  9284.868
 133  9357.667
 134  8828.514
 135  8312.137
 136  8940.924
 137  8846.786
 138  8446.756
 139  8356.64
 140  8885.474
 141  9416.549
 142  8956.556
 143  8738.384
 144  8540.186
 145  8850.048
 146  8527.063
 147  8485.299
 148  7935.187
 149  8354.587
 150  8645.223
 151  7946.627
 152  8020.839
 153  8345.728
 154  9064.803
 155  8596.112
 156  8492.1
 157  8669.143
 158  8630.981
 159  8386.958
 160  8917.958
 161  9188.112
 162  9072.452
 163  8936.848
 164  8644.487
 165  8312.573
 166  8721.677
 167  8297.082
 168  8293.572
 169  7820.444
 170  8369.42
 171  8636.293
 172  8729.995
 173  8230.738
 174  8527.152
 175  8935.041
 176  8926.607
 177  8624.135
 178  8674.365
 179  9099.967
 180  8736.752
 181  8481.04
 182  8650.209
 183  8903.2
 184  8770.482
 185  8921.366
 186  9021.229
 187  8925.501
 188  8975.099
 189  8569.858
 190  9442.806
 191  9071.51
 192  8801.175
 193  9247.195
 194  8821.842
 195  8878.827
 196  8969.113
 197  9384.636
 198  9630.934
 199  9251.597
 200  9121.501
 201  9088.858
 202  9252.064
 203  9274.641
 204  9778.783
 205  9313.425
 206  8838.611
 207  8786.513
 208  9725.335
 209  8703.162
 210  9334.003
 211  10013.14
 212  9474.444
 213  9231.698
 214  9168.89
 215  8988.932
 216  9212.856
 217  8814.403
 218  9066.649
 219  9232.188
 220  8605.986
 221  8919.588
 222  9584.521
 223  9011.896
 224  8910.968
 225  8986.513
 226  9169.677
 227  9095.448
 228  9009.185
 229  9158.284
 230  9422.251
 231  8873.324
 232  8819.756
 233  8990.608
 234  8859.697
 235  9017.895
 236  9343.08
 237  8957.372
 238  8876.911
 239  8947.293
 240  8990.573
 241  8669.062
 242  9023.569
 243  8626.093
 244  8481.642
 245  8912.597
 246  8967.358
 247  8716.258
 248  8758.171
 249  8940.159
 250  8873.842
 251  8616.05
 252  8502.726
 253  8760.825
 254  9399.602
 255  9004.457
 256  9069.639
 257  9306.339
 258  9286.869
 259  8765.506
 260  8590.557
 261  9185.036
 262  9342.299
 263  9335.902
 264  9871.71
 265  10308.67
 266  9740.492
 267  9975.858
 268  10547.52
 269  10004.44
 270  9156.142
 271  8649.055
 272  8475.909
 273  8353.338
 274  8359.584
 275  8424.046
 276  8659.715
 277  8389.113
 278  8495.966
 279  8683.038
 280  8963.377
 281  9135.425
 282  9130.79
 283  9218.416
 284  8322.884
 285  7940.249
 286  8274.371
 287  8457.192
 288  8052
 289  7962.934
 290  8606.957
 291  9047.79
 292  9175.173
 293  9229.888
 294  9121.524
 295  8916.641
 296  8660.188
 297  9152.666
 298  8778.19
 299  8299.401
 300  8702.768
 301  8829.209
 302  9311.363
 303  9531.669
 304  9552.184
 305  9201.316
 306  8700.48
 307  8644.111
 308  8918.052
 309  8772.536
 310  8482.043
 311  8756.03
 312  8884.212
 313  8882.175
 314  8379.085
 315  8456.515
 316  9087.113
 317  9121.811
 318  9072.03
 319  8934.633
 320  8449.14
 321  8121.832
 322  8738.686
 323  8964.199
 324  8837.81
 325  9230.814
 326  9411.118
 327  8372.555
 328  8031.564
 329  8018.335
 330  8334.751
 331  8848.292
 332  8914.784
 333  9281.466
 334  8609.662
 335  8507.887
 336  8365.63
 337  8579.49
 338  8532.156
 339  8860.998
 340  9282.151
 341  8929.583
 342  8949.536
 343  9106.082
 344  9190.103
 345  9144.609
 346  9099.176
 347  9555.062
 348  9196.814
 349  8714.646
 350  8391.15
 351  8735.859
 352  8436.724
 353  8724.686
 354  9073.464
 355  8523.725
 356  8544.251
 357  8744.875
 358  8705.391
 359  8021.302
 360  8643.754
 361  8916.204
 362  8718.083
 363  8413.696
 364  8149.852
 365  8610.389
 366  8727.135
 367  8086.433
 368  8876.526
 369  9195.689
 370  9139.881
 371  9132.945
 372  8770.172
 373  9204.434
 374  9413.846
 375  9853.404
 376  9512.281
 377  8897.048
 378  9244.729
 379  9347.79
 380  8847.618
 381  8813.705
 382  9198.266
 383  9028.414
 384  8731.56
 385  8499.774
 386  8794.778
 387  9019.733
 388  8681.084
 389  8614.782
 390  8774.92
 391  9093.745
 392  9232.412
 393  8780.899
 394  8855.908
 395  8753.977
 396  8579.296
 397  8529.54
 398  8688.881
 399  9056.73
 400  9094.638
 401  8793.171
 402  8978.601
 403  8601.631
 404  8298.627
 405  9109.805
 406  9250.816
 407  9187.893
 408  9213.587
 409  8873.153
 410  8480.134
 411  8364.737
 412  8335.073
 413  8319.774
 414  8181.467
 415  8791.988
 416  9266.979
 417  8395.121
 418  8758.384
 419  8883.59
 420  9012.26
 421  8801.04
 422  9107.903
 423  9091.733
 424  8620.696
 425  8262.152
 426  8359.525
 427  8807.927
 428  8461.146
 429  7865.16
 430  8292.326
 431  8956.041
 432  8801.007
 433  8597.438
 434  8573.811
 435  8708.613
 436  9030.27
 437  9105.754
 438  8840.151
 439  8338.707
 440  8282.021
 441  8991.014
 442  8819.971
 443  8653.65
 444  8497.332
 445  8712.092
 446  8770.054
 447  8985.12
 448  9481.605
 449  9183.368
 450  8923.482
 451  9449.993
 452  9109.77
 453  9313.663
 454  9383.154
 455  9305.881
 456  9091.729
 457  8354.292
 458  8094.853
 459  8532.227
 460  8258.534
 461  7924.436
 462  8067.313
 463  8695.486
 464  8749.409
 465  8674.86
 466  8814.842
 467  8966.806
 468  9212.368
 469  9354.266
 470  8717.117
 471  8541.764
 472  9180.003
 473  9456.18
 474  9115.39
 475  8766.493
 476  9422.929
 477  8935.12
 478  8934.939
 479  8844.106
 480  9074.049
 481  9189.81
 482  9525.081
 483  9364.242
 484  9571.119
 485  9366.989
 486  8577.34
 487  8800.795
 488  9219.993
 489  9613.71
 490  9180.03
 491  9253.199
 492  9230.526
 493  8641.884
 494  8905.746
 495  9069.389
 496  9179.915
 497  8986.827
 498  9153.285
 499  8893.595
 500  9303.195
 501  9034.013
 502  9572.979
 503  9340.277
 504  8811.683
 505  9150.963
 506  9538.952
 507  8741.32
 508  8453.705
 509  9123.738
 510  9120.593
 511  8763.79
