# Input file       =  1199911133.099623_cleaned.dat
# Candidate        =  PSR_0332+5434
# Telescope        =  AR
# Epoch_topo       =  58131.860556708598
# Epoch_bary       =  N/A
# T_sample         =  0.002
# Data Folded      =  7340032
# Data Avg         =  0.148039466593468
# Data StdDev      =  1.00097667593988 
# Profile Bins     =  512
# Profile Avg      =  2122.28846107582 
# Profile StdDev   =  119.849976752604 
# Reduced chi-sqr  =  0.769
# Prob(Noise)      <  1   (~0.0 sigma)
# P_topo (ms)      =  714.566123365759  +/- 3.09e-05
# P'_topo (s/s)    =  -0                +/- 1.63e-11
# P''_topo (s/s^2) =  0                 +/- 7.2e-15
# P_bary (ms)      =  N/A
# P'_bary (s/s)    =  N/A
# P''_bary (s/s^2) =  N/A
# P_orb (s)        =  N/A
# asin(i)/c (s)    =  N/A
# eccentricity     =  N/A
# w (rad)          =  N/A
# T_peri           =  N/A
######################################################
   0  2140.049
   1  2118.307
   2  2063.695
   3  2021.025
   4  2103.946
   5  2180.983
   6  2167.35
   7  2082.855
   8  2114.316
   9  2152.942
  10  2080.316
  11  2045.361
  12  2145.64
  13  2156.606
  14  2071.136
  15  2088.471
  16  2107.393
  17  2099.418
  18  2120.578
  19  2103.254
  20  2177.994
  21  2124.507
  22  2156.703
  23  2131.449
  24  2132.632
  25  2226.287
  26  2174.768
  27  2195.749
  28  2201.926
  29  2135.796
  30  2094.915
  31  2034.515
  32  2117.622
  33  2118.038
  34  2123.237
  35  2103.438
  36  2066.921
  37  2023.428
  38  2066.245
  39  2202.597
  40  2092.365
  41  1982.876
  42  2102.49
  43  2100.64
  44  2096.01
  45  2115.005
  46  2229.723
  47  2275.025
  48  2165.491
  49  2138.262
  50  2125.981
  51  2087.473
  52  2053.451
  53  2138.38
  54  1971.277
  55  1898.226
  56  2075.759
  57  2173.743
  58  2164.666
  59  2069.904
  60  2076.364
  61  2155.88
  62  2134.579
  63  2099.827
  64  2110.062
  65  2069.368
  66  2181.688
  67  2123.786
  68  2160.286
  69  2090.696
  70  1960.053
  71  2140.033
  72  2088.525
  73  2047.045
  74  2095.527
  75  2110.665
  76  2194.202
  77  2120.626
  78  2141.653
  79  2178.176
  80  2165.943
  81  2236.502
  82  2202.009
  83  2198.959
  84  2144.207
  85  2205.298
  86  2203.075
  87  2198.896
  88  2142.441
  89  2080.036
  90  2159.149
  91  2175.491
  92  2130.044
  93  2040.773
  94  2039.59
  95  2030.575
  96  2077.009
  97  1970.948
  98  1998.087
  99  2024.595
 100  2097.542
 101  2053.905
 102  2028.722
 103  2089.054
 104  2142.473
 105  2259.11
 106  2141.218
 107  2047.185
 108  2071.288
 109  2124.133
 110  2229.318
 111  2214.867
 112  2077.259
 113  2068.98
 114  2138.125
 115  2099.515
 116  2125.44
 117  2056.783
 118  2180.66
 119  2243.014
 120  2148.818
 121  2056.9
 122  1998.017
 123  2022.603
 124  2184.852
 125  2159.578
 126  2109.403
 127  2138.59
 128  2163.142
 129  2187.813
 130  1997.496
 131  1994.823
 132  2122.079
 133  2153.703
 134  2164.32
 135  2182.761
 136  2039.849
 137  1963.636
 138  2072.904
 139  2070.204
 140  2103.056
 141  2142.797
 142  2166.909
 143  2233.172
 144  2201.64
 145  2068.957
 146  1968.135
 147  2038.408
 148  2190.109
 149  2153.832
 150  2078.059
 151  2067.167
 152  2132.246
 153  2226.765
 154  2083.755
 155  1953.664
 156  2009.335
 157  2129.877
 158  2171.804
 159  2027.025
 160  1997.619
 161  1994.743
 162  2213.815
 163  2233.667
 164  2106.639
 165  2107.35
 166  2054.565
 167  2117.106
 168  2155.041
 169  2156.792
 170  2003.452
 171  2071.63
 172  2172.77
 173  2084.259
 174  2058.944
 175  2055.552
 176  2133.386
 177  2155.417
 178  2168.491
 179  2058.231
 180  2076.371
 181  2204.569
 182  2260.37
 183  2125.707
 184  1994.847
 185  1945.652
 186  2030.751
 187  2174.408
 188  2231.618
 189  2240.565
 190  2090.731
 191  2099.848
 192  2257.748
 193  2228.861
 194  2059.713
 195  2110.64
 196  2197.751
 197  2088.331
 198  1972.67
 199  2003.5
 200  2134.432
 201  2125.023
 202  2081.487
 203  2090.756
 204  2066.767
 205  2092.888
 206  2244.74
 207  2241.902
 208  2218.464
 209  2138.356
 210  2177.03
 211  2164.326
 212  2119.079
 213  2018.051
 214  2146.191
 215  2195.893
 216  2150.873
 217  2059.518
 218  2038.01
 219  2108.058
 220  2148.98
 221  2102.543
 222  2088.686
 223  2152.739
 224  2235.554
 225  2227.347
 226  2195.821
 227  2072.112
 228  2153.059
 229  2139.245
 230  2099.063
 231  2083.002
 232  2160.958
 233  2196.942
 234  2233.042
 235  2303.036
 236  2124.869
 237  2079.705
 238  2186.661
 239  2217.27
 240  2215.008
 241  2184.456
 242  2163.824
 243  2207.01
 244  2155.045
 245  2180.542
 246  2117.786
 247  2115.282
 248  2200.391
 249  2238.235
 250  2209.81
 251  2202.702
 252  2114.364
 253  2161.02
 254  2079.962
 255  2104.938
 256  2024.344
 257  2169.193
 258  2167.988
 259  2165.027
 260  2108.907
 261  2139.942
 262  2183.553
 263  2273.543
 264  2370.977
 265  2370.531
 266  2343.266
 267  2372.968
 268  2477.224
 269  2228.626
 270  2149.052
 271  2171.21
 272  2158.353
 273  2250.158
 274  2072.888
 275  1977.031
 276  1983.603
 277  2074.325
 278  2099.089
 279  2104.539
 280  2093.697
 281  2064.573
 282  2211.95
 283  2301.88
 284  2155.267
 285  2042.726
 286  2126.137
 287  2199.954
 288  2119.045
 289  1999.542
 290  2030.117
 291  2082.113
 292  2223.527
 293  2127.399
 294  2084.588
 295  2070.121
 296  2193.981
 297  2200.246
 298  2075.625
 299  2052.121
 300  2147.843
 301  2144.545
 302  2069.295
 303  2066.688
 304  2095.18
 305  2183.226
 306  2175.193
 307  2256.178
 308  2251.484
 309  2160.411
 310  2136.549
 311  2153.971
 312  2071.843
 313  2057.146
 314  2088.141
 315  2072.646
 316  2104.378
 317  2134.963
 318  2088.648
 319  2139.671
 320  2089.964
 321  2049.434
 322  2114.982
 323  2000.718
 324  1989.741
 325  2184.399
 326  2161.518
 327  2040.929
 328  2068.903
 329  2162.076
 330  2154.091
 331  2060.87
 332  2100.233
 333  2075.064
 334  2159.249
 335  2312.769
 336  2134.952
 337  1985.356
 338  1972.721
 339  2108.14
 340  2123.031
 341  2053.157
 342  2013.329
 343  2078.704
 344  2164.362
 345  2256.985
 346  2095.64
 347  2205.842
 348  2168.747
 349  2161.696
 350  2195.065
 351  2047.909
 352  2097.954
 353  2055.093
 354  2155.564
 355  2131.118
 356  2093.934
 357  2086.107
 358  2123.175
 359  2104.903
 360  2059.437
 361  2066.994
 362  2117.016
 363  2288.262
 364  2263.379
 365  2293.589
 366  2122.552
 367  2061.636
 368  2278.512
 369  2314.428
 370  2168.758
 371  2146.418
 372  2202.01
 373  2157.252
 374  2119.112
 375  2152.135
 376  2135.671
 377  2168.51
 378  2166.922
 379  2125.393
 380  2073.582
 381  2072.846
 382  2126.719
 383  2115.797
 384  1991.403
 385  1885.933
 386  2143.006
 387  2196.266
 388  2179.553
 389  2127.771
 390  2173.472
 391  2115.107
 392  2200.995
 393  2288.816
 394  2159.181
 395  2167.656
 396  2205.661
 397  2074.194
 398  2037.898
 399  2033.949
 400  2111.111
 401  2131.978
 402  2085.271
 403  2010.479
 404  2039.681
 405  2090.863
 406  2123.417
 407  2161.783
 408  2184.092
 409  2148.352
 410  2123.536
 411  2202.007
 412  2266.473
 413  2151.708
 414  2069.412
 415  2097.408
 416  2109.823
 417  2047.075
 418  2016.099
 419  2017.577
 420  2057.591
 421  2137.073
 422  2147.713
 423  2212.881
 424  2053.761
 425  2107.842
 426  2089.564
 427  2037.01
 428  2036.607
 429  2065.476
 430  2089.952
 431  2109.826
 432  2045.893
 433  2008.372
 434  2057.661
 435  2002.266
 436  2064.489
 437  2049.16
 438  2034.484
 439  2057.931
 440  2108.791
 441  2114.162
 442  2109.136
 443  2151.971
 444  2206.082
 445  2166.65
 446  2097.339
 447  2054.914
 448  2138.023
 449  2210.837
 450  2231.714
 451  2257.356
 452  2102.871
 453  2104.778
 454  2042.542
 455  2129.893
 456  2101.812
 457  1901.54
 458  2015.742
 459  2109.608
 460  2195.714
 461  2096.136
 462  2053.357
 463  2180.631
 464  2109.387
 465  2021.911
 466  2037.554
 467  2068.476
 468  2138.268
 469  2144.356
 470  2109.869
 471  2127.427
 472  2063.923
 473  2107.238
 474  2093.319
 475  2029.688
 476  2097.251
 477  2104.54
 478  2224.682
 479  2236.933
 480  2070.917
 481  2052.92
 482  2009.178
 483  2127.588
 484  2135.01
 485  2115.834
 486  2064.858
 487  2076.736
 488  2178.266
 489  2219.161
 490  2159.885
 491  2149.724
 492  2187.861
 493  2220.025
 494  2243.468
 495  2147.263
 496  2058.945
 497  2069.57
 498  2122.971
 499  2121.419
 500  2072.889
 501  2118.428
 502  2115.758
 503  2108.289
 504  2067.357
 505  2079.124
 506  2177.104
 507  2208.271
 508  2123.353
 509  2103.804
 510  1959.975
 511  2034.878
