# Input file       =  1199982936.105925_cleaned.dat
# Candidate        =  PSR_0332+5434
# Telescope        =  AR
# Epoch_topo       =  58132.691610022281
# Epoch_bary       =  N/A
# T_sample         =  0.002
# Data Folded      =  7340032
# Data Avg         =  0.251732082940829
# Data StdDev      =  3.75909309024656 
# Profile Bins     =  256
# Profile Avg      =  7217.63480703201 
# Profile StdDev   =  636.520030203755 
# Reduced chi-sqr  =  1.002
# Prob(Noise)      <  0.48   (~0.0 sigma)
# P_topo (ms)      =  714.566373536341  +/- 0.000218
# P'_topo (s/s)    =  -0                +/- 1.15e-10
# P''_topo (s/s^2) =  0                 +/- 5.08e-14
# P_bary (ms)      =  N/A
# P'_bary (s/s)    =  N/A
# P''_bary (s/s^2) =  N/A
# P_orb (s)        =  N/A
# asin(i)/c (s)    =  N/A
# eccentricity     =  N/A
# w (rad)          =  N/A
# T_peri           =  N/A
######################################################
   0  7218.988
   1  6648.873
   2  6892.259
   3  6367.905
   4  7008.335
   5  6633.08
   6  6409.742
   7  6207.494
   8  6817.792
   9  7091.535
  10  6761.697
  11  7254.002
  12  6894.902
  13  7322.646
  14  6866.644
  15  6981.758
  16  7453.105
  17  7605.839
  18  7110.94
  19  6889.309
  20  6366.916
  21  7041.635
  22  7089.125
  23  6546.075
  24  6267.829
  25  7153.502
  26  6285.809
  27  6985.15
  28  6289.689
  29  7057.454
  30  7634.053
  31  6931.199
  32  6850.059
  33  7023.676
  34  6382.521
  35  6375.404
  36  6222.419
  37  6335.385
  38  6744.8
  39  6813.205
  40  7617.96
  41  7621.752
  42  7021.359
  43  7018.626
  44  7437.729
  45  7102.013
  46  6866.042
  47  6129.706
  48  6390.35
  49  7129.606
  50  6970.542
  51  6550.181
  52  6696.312
  53  7273.035
  54  6780.279
  55  6078.04
  56  6440.789
  57  6679.881
  58  6960.244
  59  6613.961
  60  6535.48
  61  6764.055
  62  7359.301
  63  7648.655
  64  7306.063
  65  7847.493
  66  7357.472
  67  7452.196
  68  7025.995
  69  6956.464
  70  6899.017
  71  6896.581
  72  6719.599
  73  7366.188
  74  7243.703
  75  7176.683
  76  6643.883
  77  6912.207
  78  7121.398
  79  7173.413
  80  7722.591
  81  6893.234
  82  6955.901
  83  6447.111
  84  6954.204
  85  7275.014
  86  6874.377
  87  6708.424
  88  6804.07
  89  7125.881
  90  6905.451
  91  7565.861
  92  7223.731
  93  7324.94
  94  7688.352
  95  8213.861
  96  7794.355
  97  7783.266
  98  7760.867
  99  6977.511
 100  7336.435
 101  7220.286
 102  6848.311
 103  7619.749
 104  7569.23
 105  7591.082
 106  6845.766
 107  8495.1
 108  7689.739
 109  7214.806
 110  6958.926
 111  7655.228
 112  8034.95
 113  7787.458
 114  7811.387
 115  7684.733
 116  7198.45
 117  7317.832
 118  7656.129
 119  7550.41
 120  7534.55
 121  7896.802
 122  7640.627
 123  7390.603
 124  6815.111
 125  7159.103
 126  7781.989
 127  8117.59
 128  8086.968
 129  8140.172
 130  8192.297
 131  8036.107
 132  8046.8
 133  7442.63
 134  7871.757
 135  7560.184
 136  7525.755
 137  8114.24
 138  7576.445
 139  7162.687
 140  7398.528
 141  7992.344
 142  7447.449
 143  7516.136
 144  7239.383
 145  7993.253
 146  7521.852
 147  7124.594
 148  6659.143
 149  7330.736
 150  7765.068
 151  7247.56
 152  8257.605
 153  9167.66
 154  10009.86
 155  9910.812
 156  8107.858
 157  7302.341
 158  6683.932
 159  6956.11
 160  7504.354
 161  7138.393
 162  6822.116
 163  6873.233
 164  6705.415
 165  7442.116
 166  6846.524
 167  6723.58
 168  6639.265
 169  7387.318
 170  6853.776
 171  7041.127
 172  6727.92
 173  6407.302
 174  7194.638
 175  7673.464
 176  7089.648
 177  7228.31
 178  7283.978
 179  7208.296
 180  6731.523
 181  7343.549
 182  7439.411
 183  6915.729
 184  6835.643
 185  8081.931
 186  7929.71
 187  7444.893
 188  7436.959
 189  8431.35
 190  8239.317
 191  7149.548
 192  7687.616
 193  7323.054
 194  7021.783
 195  7447.993
 196  7829.043
 197  7401.981
 198  7588.512
 199  7767.948
 200  7498.852
 201  6796.822
 202  6524.002
 203  6992.884
 204  7820.94
 205  7162.977
 206  6786.556
 207  6775.132
 208  7207.285
 209  6837.795
 210  7138.266
 211  7411.964
 212  6752.823
 213  6693.037
 214  7998.641
 215  7106.986
 216  6025.22
 217  6427.202
 218  7470.736
 219  7575.779
 220  7313.485
 221  7042.345
 222  7010.032
 223  7505.478
 224  6247.333
 225  6640.119
 226  6911.55
 227  7500.476
 228  7343.349
 229  7503.008
 230  6657.201
 231  7015.958
 232  7726.561
 233  7275.502
 234  7064.159
 235  6959.663
 236  7849.729
 237  7661.99
 238  7492.943
 239  7745.19
 240  7710.961
 241  7398.838
 242  7038.266
 243  6824.325
 244  6887.191
 245  7348.826
 246  7238.717
 247  7007.239
 248  6851.008
 249  6937.267
 250  6889.037
 251  7248.653
 252  7452.422
 253  7074.931
 254  6991.074
 255  7080.871
