# Input file       =  1199537139.093935_cleaned.dat
# Candidate        =  PSR_0332+5434
# Telescope        =  AR
# Epoch_topo       =  58127.531922383510
# Epoch_bary       =  N/A
# T_sample         =  0.002
# Data Folded      =  7143424
# Data Avg         =  0.0425485478132963
# Data StdDev      =  1.00014200011045 
# Profile Bins     =  512
# Profile Avg      =  593.477745827139 
# Profile StdDev   =  118.13535733391  
# Reduced chi-sqr  =  1.086
# Prob(Noise)      <  0.0878   (~1.4 sigma)
# P_topo (ms)      =  714.562611662369  +/- 0.000177
# P'_topo (s/s)    =  -0                +/- 9.61e-11
# P''_topo (s/s^2) =  0                 +/- 4.36e-14
# P_bary (ms)      =  N/A
# P'_bary (s/s)    =  N/A
# P''_bary (s/s^2) =  N/A
# P_orb (s)        =  N/A
# asin(i)/c (s)    =  N/A
# eccentricity     =  N/A
# w (rad)          =  N/A
# T_peri           =  N/A
######################################################
   0  588.0348
   1  506.9425
   2  589.2494
   3  579.7287
   4  575.0452
   5  572.291
   6  554.1755
   7  632.6203
   8  538.8196
   9  576.1701
  10  590.5735
  11  584.475
  12  613.3237
  13  677.6129
  14  719.821
  15  641.9617
  16  513.226
  17  338.2017
  18  489.729
  19  494.3142
  20  487.1253
  21  529.3699
  22  571.6804
  23  560.114
  24  580.6467
  25  639.8466
  26  647.6891
  27  482.7966
  28  507.9375
  29  561.1752
  30  551.9799
  31  719.6754
  32  801.8899
  33  595.6027
  34  479.8293
  35  563.6283
  36  604.9052
  37  622.0327
  38  656.243
  39  498.2721
  40  484.4037
  41  548.5651
  42  578.3665
  43  583.4206
  44  529.0631
  45  538.2977
  46  511.8366
  47  514.3936
  48  619.2541
  49  512.4677
  50  592.3997
  51  571.311
  52  480.9216
  53  571.8106
  54  531.9558
  55  451.9589
  56  517.8602
  57  546.5851
  58  543.4172
  59  576.573
  60  630.7365
  61  565.7552
  62  596.0814
  63  536.395
  64  636.6589
  65  745.5558
  66  661.049
  67  579.0184
  68  511.3705
  69  684.4959
  70  692.3439
  71  584.2687
  72  582.4957
  73  599.2952
  74  613.1976
  75  570.5643
  76  655.2919
  77  763.4816
  78  708.9465
  79  541.0704
  80  593.4051
  81  596.3008
  82  578.4952
  83  575.9767
  84  600.4147
  85  719.1555
  86  645.5887
  87  656.8228
  88  462.3234
  89  453.0938
  90  641.5707
  91  610.6693
  92  575.8212
  93  607.6778
  94  593.9269
  95  598.274
  96  551.5504
  97  596.9737
  98  510.4129
  99  458.9806
 100  463.6484
 101  504.4021
 102  590.9938
 103  563.4931
 104  563.8107
 105  631.6275
 106  720.9838
 107  606.5099
 108  574.2955
 109  612.7191
 110  566.5457
 111  708.8388
 112  859.2828
 113  711.2452
 114  758.7977
 115  683.3555
 116  553.1097
 117  553.1302
 118  657.8935
 119  685.0522
 120  650.2603
 121  628.6827
 122  621.2186
 123  654.096
 124  615.9121
 125  655.2015
 126  677.4857
 127  654.1846
 128  625.9534
 129  526.9812
 130  526.7562
 131  477.6307
 132  485.3426
 133  533.5881
 134  599.4581
 135  719.4714
 136  599.7074
 137  495.7885
 138  582.019
 139  473.7138
 140  484.9272
 141  609.1395
 142  650.5728
 143  720.2125
 144  608.7843
 145  548.3821
 146  654.2158
 147  515.7756
 148  520.4506
 149  514.4254
 150  532.656
 151  613.231
 152  711.4615
 153  695.9515
 154  654.4052
 155  698.6235
 156  765.5333
 157  632.0538
 158  381.8795
 159  500.5221
 160  563.7761
 161  535.1214
 162  558.5392
 163  613.8544
 164  564.5909
 165  459.7462
 166  517.7855
 167  540.491
 168  529.8722
 169  542.7662
 170  565.6384
 171  534.4064
 172  523.5225
 173  575.166
 174  405.3871
 175  427.298
 176  441.6158
 177  462.5474
 178  536.897
 179  602.9669
 180  630.6976
 181  601.9984
 182  681.5197
 183  642.6059
 184  577.5972
 185  513.6358
 186  536.9096
 187  564.9164
 188  659.2775
 189  773.7269
 190  744.0154
 191  579.4858
 192  605.0335
 193  675.8312
 194  755.7194
 195  654.1751
 196  644.1271
 197  566.255
 198  535.0377
 199  518.3036
 200  607.3251
 201  601.2401
 202  645.6726
 203  545.4817
 204  691.9964
 205  774.7321
 206  612.8419
 207  543.5381
 208  568.805
 209  608.1917
 210  694.511
 211  603.2385
 212  639.8805
 213  594.1516
 214  541.4861
 215  644.9933
 216  495.7421
 217  606.0162
 218  726.8987
 219  683.6533
 220  569.037
 221  530.5008
 222  485.3682
 223  555.9832
 224  553.9161
 225  443.6833
 226  637.2594
 227  632.9718
 228  680.0427
 229  635.2217
 230  574.3238
 231  549.561
 232  527.6019
 233  556.1079
 234  482.1268
 235  378.9124
 236  477.6003
 237  509.2151
 238  558.4734
 239  633.1616
 240  552.1891
 241  538.3433
 242  555.6025
 243  643.3227
 244  593.5068
 245  591.1639
 246  656.3941
 247  769.2793
 248  671.2239
 249  638.5385
 250  495.5876
 251  572.5616
 252  632.0757
 253  638.675
 254  553.3477
 255  513.0616
 256  465.4232
 257  510.873
 258  579.0174
 259  539.1984
 260  508.4839
 261  502.7064
 262  551.7717
 263  587.0921
 264  586.7344
 265  547.9089
 266  567.2249
 267  698.8927
 268  635.1552
 269  555.6953
 270  574.8683
 271  577.4533
 272  627.2735
 273  585.9409
 274  668.2793
 275  687.4775
 276  690.2297
 277  634.5853
 278  589.2362
 279  599.4982
 280  704.9898
 281  604.4361
 282  472.2809
 283  708.0891
 284  739.4758
 285  653.5831
 286  726.1501
 287  600.0723
 288  589
 289  586.7859
 290  651.2844
 291  739.1046
 292  654.1938
 293  634.3069
 294  608.2895
 295  505.7935
 296  578.4066
 297  693.9724
 298  601.7234
 299  621.0743
 300  598.7455
 301  467.9073
 302  491.4971
 303  585.0078
 304  600.784
 305  523.5185
 306  591.5132
 307  541.9095
 308  455.5263
 309  541.5209
 310  606.6635
 311  574.673
 312  644.532
 313  565.7345
 314  545.6147
 315  557.1921
 316  534.6937
 317  550.6136
 318  538.4993
 319  491.1333
 320  569.7495
 321  645.2371
 322  617.2571
 323  545.0837
 324  473.5457
 325  626.704
 326  574.6935
 327  364.0088
 328  559.0863
 329  799.2859
 330  677.236
 331  704.0863
 332  590.2474
 333  517.3147
 334  526.0174
 335  447.1088
 336  476.1922
 337  574.8967
 338  678.9349
 339  681.405
 340  550.5862
 341  503.1102
 342  364.3688
 343  406.1847
 344  486.1938
 345  454.8203
 346  572.7977
 347  617.2548
 348  575.965
 349  556.6132
 350  517.5147
 351  533.5829
 352  541.4567
 353  524.9908
 354  624.1732
 355  468.5111
 356  406.3099
 357  534.7581
 358  573.3438
 359  547.8082
 360  537.6748
 361  592.9414
 362  579.3964
 363  531.4686
 364  490.5166
 365  434.355
 366  525.1307
 367  564.8591
 368  518.9451
 369  549.2321
 370  543.3836
 371  512.5538
 372  542.2872
 373  533.8495
 374  681.355
 375  604.8855
 376  530.6516
 377  376.483
 378  596.1117
 379  582.2802
 380  608.7166
 381  584.1315
 382  636.2263
 383  612.5201
 384  555.2098
 385  494.5148
 386  555.4948
 387  591.8802
 388  580.2544
 389  618.9228
 390  542.6948
 391  578.7762
 392  518.2595
 393  498.8585
 394  649.3691
 395  704.2279
 396  632.5566
 397  621.684
 398  495.3241
 399  550.632
 400  587.0712
 401  547.6514
 402  365.9252
 403  482.4149
 404  720.5964
 405  670.5904
 406  577.165
 407  547.6991
 408  577.4694
 409  625.4523
 410  634.7801
 411  673.8741
 412  730.9358
 413  713.751
 414  738.4517
 415  662.0027
 416  618.3498
 417  625.9116
 418  594.118
 419  651.5132
 420  664.989
 421  740.2196
 422  674.0965
 423  617.1548
 424  532.1075
 425  519.2733
 426  666.6083
 427  700.6568
 428  753.8647
 429  757.0927
 430  909.3401
 431  1018.254
 432  1082.835
 433  1005.683
 434  906.5043
 435  816.6898
 436  800.7336
 437  710.9412
 438  652.5498
 439  613.8941
 440  627.6139
 441  607.36
 442  696.5178
 443  623.2172
 444  675.8259
 445  729.8206
 446  730.3922
 447  742.4995
 448  619.8904
 449  587.1659
 450  649.9211
 451  580.173
 452  579.3609
 453  568.791
 454  585.1564
 455  593.2696
 456  688.0586
 457  588.1514
 458  511.7688
 459  617.2407
 460  546.6033
 461  561.5509
 462  625.9713
 463  696.7811
 464  641.7281
 465  419.0717
 466  461.2334
 467  637.3614
 468  664.9764
 469  578.8253
 470  517.7809
 471  574.7988
 472  600.3891
 473  641.4144
 474  641.0248
 475  713.7185
 476  667.2819
 477  646.8066
 478  723.6494
 479  622.6703
 480  481.3865
 481  515.2571
 482  396.4358
 483  470.3273
 484  597.2716
 485  655.2602
 486  690.3674
 487  635.9117
 488  602.6551
 489  641.7292
 490  595.2364
 491  524.5404
 492  695.0993
 493  594.0099
 494  643.8762
 495  609.8185
 496  658.6765
 497  667.0818
 498  693.7922
 499  611.2535
 500  540.0845
 501  514.9929
 502  580.288
 503  740.069
 504  648.5654
 505  604.7808
 506  619.1063
 507  539.0151
 508  575.7128
 509  600.1465
 510  533.8626
 511  595.8806
