# Input file       =  1200514251.114862_cleaned.dat
# Candidate        =  PSR_0332+5434
# Telescope        =  AR
# Epoch_topo       =  58138.841089292386
# Epoch_bary       =  N/A
# T_sample         =  0.002
# Data Folded      =  7340032
# Data Avg         =  0.922323214759151
# Data StdDev      =  9.61775404574686 
# Profile Bins     =  512
# Profile Avg      =  13222.4212168631 
# Profile StdDev   =  1151.5628950222  
# Reduced chi-sqr  =  0.546
# Prob(Noise)      <  1   (~0.0 sigma)
# P_topo (ms)      =  714.570647750658  +/- 4.89e-05
# P'_topo (s/s)    =  -0                +/- 2.58e-11
# P''_topo (s/s^2) =  0                 +/- 1.14e-14
# P_bary (ms)      =  N/A
# P'_bary (s/s)    =  N/A
# P''_bary (s/s^2) =  N/A
# P_orb (s)        =  N/A
# asin(i)/c (s)    =  N/A
# eccentricity     =  N/A
# w (rad)          =  N/A
# T_peri           =  N/A
######################################################
   0  13897.25
   1  13009.58
   2  12434.48
   3  12662.72
   4  12812.19
   5  13718.11
   6  13174.63
   7  13123.5
   8  13179.9
   9  13734.44
  10  13108.31
  11  12937.04
  12  12970.1
  13  13698.75
  14  14392.96
  15  14375
  16  14010.5
  17  13394.15
  18  13095.54
  19  13886.11
  20  14140.23
  21  13451.27
  22  13311.11
  23  13107.69
  24  14178.13
  25  13789.26
  26  12451.19
  27  12361.87
  28  12536.34
  29  13575.15
  30  13158.4
  31  13031.56
  32  13457.71
  33  13487.1
  34  13898.96
  35  14499.38
  36  13291.05
  37  13163.93
  38  13222.67
  39  13467.03
  40  12695.26
  41  13761.36
  42  14704.04
  43  14037.6
  44  13380.14
  45  12944.33
  46  12646.16
  47  12327.6
  48  13069.93
  49  12759.21
  50  13559.2
  51  13494.08
  52  13556.6
  53  13358.47
  54  13769.11
  55  13560.88
  56  13530.05
  57  13319.62
  58  13095.87
  59  13231.95
  60  12448.08
  61  12412.17
  62  12800.86
  63  12953.27
  64  11419.43
  65  11578.9
  66  11992.22
  67  12917.45
  68  13224.7
  69  12678.83
  70  12711.93
  71  13065.34
  72  13329.32
  73  12862.08
  74  12606.17
  75  12676.86
  76  12971.47
  77  13865.52
  78  13457.38
  79  12737.54
  80  13425.07
  81  13598.08
  82  12692.94
  83  12325.14
  84  12494.84
  85  12466.77
  86  11952.71
  87  12565.46
  88  12499.02
  89  12430.9
  90  12820.77
  91  13699.52
  92  12406.88
  93  12296.27
  94  12741.88
  95  12997.04
  96  12719.5
  97  12931.07
  98  13457.76
  99  13074.75
 100  13390.92
 101  12874.3
 102  12555.61
 103  12421.85
 104  12355.59
 105  13311.6
 106  13195.3
 107  12822.74
 108  12730.77
 109  12774.64
 110  14051.79
 111  13733.79
 112  12887.86
 113  13081.92
 114  13161.2
 115  14024
 116  13520.49
 117  13217.15
 118  13032.63
 119  13883.9
 120  13927.8
 121  12777.42
 122  12855.09
 123  13074.82
 124  13238.4
 125  13356.92
 126  12336.25
 127  12195.19
 128  12825.06
 129  13427.45
 130  13598.77
 131  13591.28
 132  13446.63
 133  12763.83
 134  12141.62
 135  11613.54
 136  12088.66
 137  12789.81
 138  14092.32
 139  13943.72
 140  13221.34
 141  12729.66
 142  13227.43
 143  13253.49
 144  13092.05
 145  12880.08
 146  12918.57
 147  12994.61
 148  13379.53
 149  13756.35
 150  13098.83
 151  13320.32
 152  14032.14
 153  13455.16
 154  12880.2
 155  11773.98
 156  13276.8
 157  13485.76
 158  13646.91
 159  13543.55
 160  13677.13
 161  13158.69
 162  13548.84
 163  13894.36
 164  14100.7
 165  13510.86
 166  12500.77
 167  13325.53
 168  13411.93
 169  13054.02
 170  13146.31
 171  13686.87
 172  13524.49
 173  13319.39
 174  13136.5
 175  13582.84
 176  13417.07
 177  13422.25
 178  13223.89
 179  13958.43
 180  14374.51
 181  14204.36
 182  14656.91
 183  14574.05
 184  12642.18
 185  12273.61
 186  13079.26
 187  12909.26
 188  12847.09
 189  12778.79
 190  13270.5
 191  13202.84
 192  14101.82
 193  13096.45
 194  13190
 195  13483.01
 196  13393.58
 197  12912.82
 198  12479.48
 199  13460.9
 200  13235.71
 201  13688.17
 202  13535.25
 203  12550.05
 204  11873.79
 205  12015.88
 206  12747.31
 207  12953.67
 208  13704.79
 209  14048.59
 210  13798.76
 211  14216.79
 212  14108.63
 213  13381.38
 214  12849.11
 215  13378.18
 216  13122.92
 217  13120.89
 218  13874.34
 219  14091.47
 220  13332.76
 221  13220.57
 222  12807.45
 223  11981.57
 224  12299.42
 225  13212.76
 226  14203.19
 227  13962.25
 228  13026.98
 229  12832.84
 230  13520.03
 231  13673.25
 232  12867.24
 233  12631.7
 234  12559.48
 235  13008.08
 236  13014.15
 237  13742.07
 238  14023.5
 239  13912.93
 240  13960.76
 241  12575.95
 242  12626.82
 243  13406.75
 244  14814.85
 245  13890.07
 246  13003.7
 247  12135.52
 248  12515.46
 249  12719.97
 250  12518.23
 251  12710.57
 252  13189.73
 253  13068.71
 254  13399.81
 255  13237.78
 256  12991.63
 257  13511.7
 258  13480.77
 259  13410.09
 260  12109.57
 261  12875.05
 262  12942.63
 263  13433.68
 264  13032.55
 265  13104.06
 266  12173.35
 267  12434.49
 268  13282.92
 269  12518.69
 270  12935.99
 271  12881.45
 272  13063.39
 273  12857.13
 274  12886.37
 275  12326.67
 276  12586.28
 277  12173.29
 278  12832.64
 279  13371
 280  13550.23
 281  12761.74
 282  12877.8
 283  13400.77
 284  12392.77
 285  12488.42
 286  12972.19
 287  13922.83
 288  14295.69
 289  14214.25
 290  13557.48
 291  12889.37
 292  12933.25
 293  12829
 294  12098.21
 295  12715.73
 296  13196.51
 297  13708.32
 298  12939.33
 299  13251.58
 300  14325.33
 301  14390.57
 302  14374.96
 303  13839.36
 304  12329.24
 305  11974.66
 306  13364.55
 307  13104.91
 308  12653.5
 309  12386.17
 310  12906.19
 311  12988.53
 312  12951.31
 313  13277.12
 314  12921.32
 315  13287.86
 316  13805.58
 317  14059.69
 318  13604.24
 319  14067.1
 320  13621.82
 321  13454.32
 322  13489.62
 323  12903.37
 324  13237.85
 325  12969.15
 326  13654.5
 327  13760.51
 328  13681.53
 329  13558.64
 330  14879.45
 331  15006.9
 332  14304.94
 333  13450.34
 334  13438.73
 335  13801.39
 336  13441.37
 337  13411.93
 338  13522.71
 339  13720.53
 340  14120
 341  13543.68
 342  12435.69
 343  13210.45
 344  13665.88
 345  13850.94
 346  13113.88
 347  13079.75
 348  12223.8
 349  12237.69
 350  12692.05
 351  13386.09
 352  13147.83
 353  13873.57
 354  14174.78
 355  13094.21
 356  12648.89
 357  11960.5
 358  12587.04
 359  13230.11
 360  13042.37
 361  11750.72
 362  12129.69
 363  11783.42
 364  12497.56
 365  12254.62
 366  12883.63
 367  13410.56
 368  13221.07
 369  13956.56
 370  13423.06
 371  12944.77
 372  12985.5
 373  13567.68
 374  13811.04
 375  13483.96
 376  13417.3
 377  13289.51
 378  13816.93
 379  13517.6
 380  12679.49
 381  13240.33
 382  13597.88
 383  13273.09
 384  12993.11
 385  12824.39
 386  13457.91
 387  13911.77
 388  13489.01
 389  12750.9
 390  12577.34
 391  12868.63
 392  13423.99
 393  13640.61
 394  13904.67
 395  12948.87
 396  13305.86
 397  13686.6
 398  12978.03
 399  13528.85
 400  12543.87
 401  12861.87
 402  13204.36
 403  13407.92
 404  13135.23
 405  13099.46
 406  12830
 407  13272.43
 408  12405.84
 409  12799.83
 410  13470.19
 411  13009.51
 412  13410.46
 413  13006.06
 414  12928.76
 415  12867.61
 416  13873.83
 417  13838.05
 418  14264.9
 419  13369.06
 420  13532.43
 421  13831.33
 422  13739.24
 423  13905.97
 424  13468.33
 425  13745.01
 426  13832.97
 427  13622.83
 428  13133.69
 429  13123.43
 430  13494.34
 431  14609.18
 432  13428.32
 433  13736.93
 434  13674.33
 435  13918.41
 436  13591.3
 437  13601.9
 438  13021.53
 439  13244.23
 440  13684.55
 441  12789.59
 442  12964.8
 443  12825.96
 444  13437.66
 445  13235.27
 446  13037.38
 447  12697.6
 448  12758.66
 449  12893.67
 450  13174.57
 451  13101.36
 452  13241.17
 453  13866.74
 454  13707.8
 455  13355.61
 456  12307.91
 457  12135.31
 458  13477.75
 459  14962.91
 460  15178.08
 461  13883
 462  13338.73
 463  13506.71
 464  13355.41
 465  13796.81
 466  13583.03
 467  13380.88
 468  13139.61
 469  13421.16
 470  13323.07
 471  13778.17
 472  14138.92
 473  14783.42
 474  15006.31
 475  14484.18
 476  14047.16
 477  13629.5
 478  13773.07
 479  14008.81
 480  14180.69
 481  13813.36
 482  13432.65
 483  13585.22
 484  13815.34
 485  13129.92
 486  12757.42
 487  13522.04
 488  13019.26
 489  12643.24
 490  11681
 491  12500.75
 492  12644.85
 493  12951.05
 494  12885.28
 495  11698.11
 496  11883.62
 497  11400.51
 498  12636.87
 499  11926.47
 500  12454.99
 501  12408.43
 502  13090.72
 503  13710.04
 504  13743.34
 505  13388.47
 506  13162.88
 507  14378.19
 508  13888.85
 509  13370.99
 510  13773.19
 511  13839.49
