# Input file       =  1200169617.116321_cleaned.dat
# Candidate        =  PSR_0332+5434
# Telescope        =  AR
# Epoch_topo       =  58134.852269864830
# Epoch_bary       =  N/A
# T_sample         =  0.002
# Data Folded      =  7340032
# Data Avg         =  1.32548223514979 
# Data StdDev      =  9.9315986167488  
# Profile Bins     =  1024
# Profile Avg      =  9499.4926531803  
# Profile StdDev   =  840.849281959373 
# Reduced chi-sqr  =  0.507
# Prob(Noise)      <  1   (~0.0 sigma)
# P_topo (ms)      =  714.568154074856  +/- 4.45e-05
# P'_topo (s/s)    =  -0                +/- 2.35e-11
# P''_topo (s/s^2) =  0                 +/- 1.04e-14
# P_bary (ms)      =  N/A
# P'_bary (s/s)    =  N/A
# P''_bary (s/s^2) =  N/A
# P_orb (s)        =  N/A
# asin(i)/c (s)    =  N/A
# eccentricity     =  N/A
# w (rad)          =  N/A
# T_peri           =  N/A
######################################################
   0  9440.213
   1  9429.651
   2  9123.213
   3  8645.464
   4  8644.898
   5  8659.708
   6  8949.218
   7  9640.639
   8  9892.941
   9  9839.132
  10  9471.19
  11  9107.16
  12  8913.342
  13  8821.613
  14  8870.414
  15  8983.225
  16  9173.091
  17  9384.459
  18  9464.538
  19  8788.665
  20  8816.565
  21  9208.053
  22  9483.252
  23  9434.238
  24  9050.209
  25  9064.049
  26  9205.182
  27  9118.103
  28  9548.08
  29  9824.845
  30  9611.301
  31  9229.217
  32  8936.014
  33  9044.74
  34  9028.592
  35  8947.019
  36  9399.331
  37  9869.542
  38  9462.527
  39  9408.822
  40  9099.537
  41  9379.566
  42  9717.392
  43  10006.67
  44  10083.89
  45  9642.326
  46  9452.407
  47  9684.912
  48  9675.845
  49  9789.605
  50  9801.259
  51  9854.918
  52  9591.65
  53  9548.438
  54  9497.893
  55  9559.866
  56  9600.095
  57  9910.687
  58  9958.323
  59  9547.199
  60  9391.354
  61  9440.7
  62  9650.661
  63  9659.141
  64  9684.064
  65  9760.761
  66  9788.079
  67  9577.115
  68  9310.98
  69  9052.135
  70  8890.376
  71  8974.413
  72  9156.765
  73  9439.786
  74  9351.933
  75  9509.798
  76  9342.042
  77  9465.933
  78  9665.104
  79  9686.358
  80  9821.614
  81  9541.675
  82  9909.404
  83  9971.982
  84  9771.265
  85  9549.511
  86  9383.95
  87  9349.579
  88  8839.203
  89  8554.346
  90  8607.175
  91  8962.501
  92  9025.754
  93  9404.181
  94  9696.649
  95  9843.346
  96  9818.04
  97  9304.521
  98  8961.451
  99  8958.752
 100  8999.945
 101  9367.95
 102  9139.871
 103  9298.091
 104  9510.904
 105  9408.379
 106  9268.15
 107  9285.411
 108  9314.908
 109  9666.732
 110  9479.821
 111  9650.747
 112  9342.109
 113  9119.539
 114  9185.135
 115  9188.117
 116  9200.715
 117  9430.533
 118  9550.421
 119  9502.879
 120  9149.015
 121  9019.39
 122  9382.777
 123  9700.104
 124  9550.133
 125  9458.028
 126  9273.488
 127  9316.601
 128  9208.094
 129  9292.41
 130  9793.785
 131  9817.1
 132  9840.371
 133  9852.121
 134  9751.583
 135  9527.888
 136  9382.067
 137  9297.062
 138  9286.473
 139  9287.656
 140  9476.997
 141  9628.312
 142  9752.513
 143  9814.444
 144  9634.188
 145  9127.682
 146  9042.452
 147  9276.868
 148  9614.32
 149  9495.37
 150  9291.107
 151  9397.929
 152  9674.773
 153  9573.955
 154  9276.379
 155  9410.079
 156  9361.687
 157  9444.17
 158  9558.688
 159  9526.974
 160  9517.715
 161  9202.618
 162  9509.678
 163  9786.783
 164  9796.043
 165  9478.891
 166  9415.628
 167  9401.027
 168  9434.355
 169  9478.426
 170  9599.573
 171  9721.979
 172  9582.903
 173  9163.111
 174  9338.071
 175  9158.259
 176  9065.45
 177  8813.991
 178  8761.305
 179  9557.063
 180  9728.938
 181  9587.835
 182  9471.099
 183  9325.8
 184  9666.148
 185  9797.813
 186  10114.1
 187  10438.77
 188  10209.34
 189  9712.936
 190  9468.342
 191  9107.887
 192  9199.112
 193  9129.637
 194  9124.393
 195  9296.381
 196  8892.8
 197  9190.107
 198  9628.533
 199  9523.103
 200  9312.459
 201  9360.31
 202  9272.006
 203  9404.902
 204  9284.496
 205  9672.784
 206  9857.715
 207  9564.268
 208  9446.082
 209  8957.483
 210  8786.246
 211  8817.758
 212  9244.962
 213  9602.998
 214  9709.339
 215  9457.628
 216  9514.667
 217  9379.325
 218  9471.266
 219  9681.574
 220  9850.299
 221  9458.987
 222  9174.036
 223  8786.071
 224  8954.629
 225  9128.923
 226  9537.528
 227  9895.981
 228  9890.096
 229  10039.61
 230  9887.787
 231  9666.657
 232  9669.493
 233  9685.225
 234  10002.86
 235  9844.208
 236  9679.071
 237  9798.297
 238  9784.383
 239  9831.871
 240  9598.82
 241  9543.953
 242  9402.697
 243  9279.02
 244  9360.359
 245  9208.892
 246  9157.701
 247  9126.123
 248  9404.714
 249  9822.053
 250  9653.493
 251  9281.786
 252  9252.545
 253  9185.353
 254  9125.657
 255  8978.126
 256  9154.055
 257  9496.508
 258  9755.86
 259  9613.002
 260  9481.301
 261  9126.641
 262  9191.877
 263  9151.852
 264  9060.468
 265  9128.14
 266  9021.093
 267  9080.983
 268  9466.521
 269  9408.905
 270  9672.528
 271  9817.172
 272  9695.232
 273  9980.067
 274  9634.221
 275  9513.003
 276  9292.944
 277  9308.643
 278  9781.724
 279  9973.357
 280  9832.829
 281  9720.604
 282  9361.627
 283  9480.705
 284  9724.114
 285  9903.875
 286  10166.63
 287  10074.74
 288  9791.903
 289  9492.171
 290  9173.213
 291  9348.771
 292  9417.856
 293  9450.994
 294  9543.514
 295  9616.42
 296  9411.731
 297  9016.546
 298  8695.825
 299  8784.306
 300  9298.677
 301  9430.922
 302  9810.828
 303  9610.602
 304  9283.337
 305  9091.146
 306  9480.849
 307  9768.276
 308  9854.68
 309  9686.884
 310  9596.157
 311  9495.152
 312  9547.056
 313  9779.467
 314  9937.298
 315  9921.668
 316  9678.005
 317  9349.385
 318  9380.137
 319  9561.237
 320  9714.962
 321  9788.18
 322  9849.878
 323  10021.03
 324  10016.58
 325  9903.447
 326  9437.943
 327  9554.037
 328  9712.525
 329  9617.311
 330  9564.525
 331  9339.901
 332  9447.515
 333  9241.129
 334  9265.529
 335  9484.317
 336  9327.941
 337  9201.894
 338  9234.237
 339  9006.947
 340  8669.854
 341  8653.148
 342  8987.706
 343  9651.896
 344  9648.896
 345  9466.105
 346  9273.604
 347  8979.642
 348  9012.092
 349  9376.168
 350  9490.423
 351  9609.478
 352  9359.291
 353  9335.68
 354  9373.923
 355  9103.976
 356  9346.408
 357  9434.167
 358  9403.384
 359  9559.336
 360  9655.329
 361  9826.295
 362  9826.613
 363  9774.4
 364  10070.29
 365  10071.59
 366  9910.736
 367  10049.91
 368  9675.047
 369  9503.854
 370  9152.63
 371  9165.519
 372  9474.508
 373  9715.871
 374  9509.71
 375  9585.964
 376  9257.608
 377  9335.113
 378  9434.416
 379  9750.393
 380  10170.43
 381  10067.25
 382  9800.999
 383  9619.746
 384  9735.05
 385  9825.431
 386  9770.276
 387  9592.009
 388  9464.818
 389  9441.274
 390  9465.255
 391  9705.156
 392  9673.856
 393  9679.651
 394  10136.47
 395  10129.68
 396  9836.761
 397  9631.054
 398  9638.432
 399  9857.222
 400  9686.257
 401  9524.848
 402  9313.787
 403  9143.946
 404  9057.23
 405  9340.417
 406  9837.119
 407  9926.673
 408  10208.71
 409  10177.13
 410  10109.97
 411  9551.438
 412  9376.539
 413  9751.667
 414  9572.875
 415  9424.567
 416  9461.472
 417  9501.771
 418  9533.073
 419  9515.507
 420  9817.053
 421  10157.67
 422  9867.178
 423  9649.052
 424  9428.248
 425  9316.727
 426  9508.008
 427  9611.543
 428  9503.426
 429  9760.382
 430  10052.21
 431  10086.16
 432  10021.91
 433  9596.297
 434  9840.386
 435  9984.54
 436  10166.02
 437  10344.62
 438  9938.361
 439  9487.063
 440  9440.228
 441  9289.152
 442  9334.707
 443  9136.79
 444  9241.867
 445  9417.679
 446  9572.695
 447  9668.077
 448  9990.445
 449  9753.509
 450  9980.719
 451  9970.628
 452  9678.893
 453  9728.108
 454  9682.55
 455  9812.706
 456  9796.394
 457  9617.005
 458  10154.21
 459  10235.8
 460  10121.28
 461  9793.295
 462  9448.992
 463  9425.899
 464  9210.6
 465  9083.047
 466  9493.284
 467  9575.761
 468  9583.224
 469  9204.984
 470  9136.756
 471  8991.316
 472  9252.467
 473  9206.837
 474  9366.341
 475  9152.123
 476  9428.757
 477  9582.816
 478  9832.354
 479  9985.664
 480  10144.73
 481  9879.011
 482  9335.301
 483  9136.008
 484  9242.784
 485  9356.284
 486  9515.745
 487  9652.903
 488  9893.665
 489  9614.612
 490  9361.833
 491  9288.382
 492  9390.205
 493  9471.464
 494  9834.226
 495  9988.419
 496  10002.64
 497  9860.847
 498  9999.024
 499  10085.94
 500  9755.169
 501  9268.62
 502  9429.482
 503  9455.36
 504  9674.864
 505  9568.82
 506  9645.659
 507  9678.987
 508  9536.247
 509  9414.98
 510  9435.821
 511  9140.851
 512  9361.531
 513  9446.515
 514  9564.312
 515  9503.444
 516  9450.347
 517  9419.035
 518  9222.242
 519  9019.767
 520  9441.935
 521  9613.755
 522  9637.607
 523  9834.829
 524  10113.26
 525  10175.58
 526  10033.28
 527  9538.432
 528  9383.644
 529  9375.921
 530  9291.516
 531  9630.426
 532  9370.374
 533  9440.793
 534  9252.12
 535  9393.984
 536  9719.396
 537  9804.69
 538  9614.837
 539  9832.675
 540  9597.106
 541  9618.934
 542  9595.095
 543  9744.86
 544  9837.659
 545  9854.671
 546  9737.667
 547  9764.859
 548  9544.979
 549  9768.303
 550  9866.935
 551  9853.101
 552  10066.96
 553  10126.84
 554  9882.479
 555  9786.543
 556  9866.997
 557  10129.39
 558  10322.32
 559  10047.26
 560  9725.088
 561  9509.569
 562  9380.729
 563  9406.437
 564  9503.006
 565  9297.064
 566  9223.918
 567  8779.882
 568  9257.936
 569  9640.075
 570  9941.366
 571  9630.982
 572  9671.856
 573  9542.149
 574  9469.789
 575  9016.937
 576  8985.56
 577  9127.925
 578  9521.785
 579  9531.859
 580  9514.371
 581  9456.001
 582  9690.49
 583  9712.126
 584  9655.539
 585  9907.02
 586  9955.011
 587  9762.793
 588  9741.384
 589  9733.572
 590  9422.174
 591  9185.998
 592  9153.901
 593  9743.142
 594  9845.078
 595  9908.724
 596  9729.517
 597  9778.141
 598  9962.781
 599  10006.21
 600  9783.647
 601  9998.718
 602  9600.756
 603  9311.985
 604  9287.304
 605  9581.034
 606  9832.229
 607  9810.435
 608  10164.28
 609  10378.89
 610  10293.69
 611  9795.129
 612  9888.271
 613  9847.255
 614  10065.18
 615  10107.88
 616  10231.64
 617  10602.97
 618  10428.99
 619  10449.74
 620  10314.83
 621  10221.4
 622  10313.17
 623  10140.17
 624  10126.24
 625  9996.623
 626  9741.264
 627  9488.205
 628  9476.507
 629  9360.934
 630  9692.438
 631  9636.109
 632  9706.095
 633  9730.617
 634  9611.175
 635  9373.791
 636  9492.405
 637  9519.459
 638  9824.548
 639  9539.129
 640  9304.147
 641  9364.6
 642  9342.732
 643  9473.017
 644  9574.658
 645  9818.928
 646  9736.07
 647  9439.137
 648  9121.722
 649  9480.174
 650  9773.53
 651  9876.677
 652  9641.416
 653  9235.995
 654  9329.451
 655  9363.636
 656  9406.772
 657  9596.679
 658  9767.721
 659  9671.943
 660  9687.308
 661  9596.834
 662  9399.751
 663  9473.929
 664  9671.491
 665  9788.671
 666  9672.894
 667  9547.338
 668  9547.285
 669  9456.782
 670  9108.212
 671  9578.232
 672  9833.091
 673  10090.48
 674  10080.87
 675  9930.933
 676  9987.971
 677  9835.688
 678  9748.594
 679  9850.713
 680  9836.697
 681  9746.958
 682  9627.479
 683  9445.34
 684  9585.056
 685  9584.652
 686  9751.831
 687  9943.504
 688  10041.29
 689  9859.156
 690  9956.373
 691  9735.024
 692  10013.24
 693  10057.39
 694  9926.819
 695  9787.061
 696  9845.717
 697  9848.793
 698  9921.874
 699  9597.153
 700  9586.562
 701  9549.77
 702  9731.158
 703  9966.391
 704  9673.036
 705  9574.293
 706  9561.178
 707  9409.305
 708  9637.298
 709  9841.064
 710  9708.815
 711  9576.514
 712  9071.707
 713  9210.152
 714  9631.573
 715  9939.205
 716  10067.65
 717  10042.45
 718  9802.936
 719  9690.042
 720  9695.061
 721  9896.913
 722  9777.263
 723  9426.167
 724  9606.762
 725  9776.315
 726  9884.847
 727  10003.17
 728  9876.38
 729  9907.492
 730  9999.319
 731  9838.152
 732  9809.566
 733  9531.554
 734  9304.577
 735  9202.088
 736  9294.881
 737  9635.854
 738  9653.243
 739  9680.854
 740  9691.207
 741  9619.73
 742  9182.597
 743  8854.832
 744  8986.712
 745  9397.631
 746  9694.198
 747  9513.169
 748  9273.053
 749  9142.838
 750  9505.54
 751  9826.602
 752  9692.888
 753  9382.316
 754  9300.178
 755  9140.372
 756  9134.235
 757  9231.356
 758  8985.016
 759  8893.361
 760  9072.312
 761  9077.022
 762  9243.839
 763  9316.009
 764  9484.791
 765  9482.091
 766  9451.62
 767  9214.785
 768  9242.711
 769  9101.318
 770  9547.78
 771  9511.544
 772  9560.961
 773  9596.105
 774  9500.88
 775  9263.557
 776  9127.849
 777  9054.547
 778  9317.432
 779  9396.395
 780  9351.75
 781  9471.188
 782  9227.764
 783  9093.196
 784  9264.759
 785  9285.296
 786  9768.04
 787  9907.189
 788  9663.871
 789  9540.178
 790  9054.491
 791  9041.646
 792  9004.695
 793  9007.538
 794  9471.825
 795  9725.896
 796  9725.524
 797  9579.253
 798  9419.318
 799  9158.502
 800  9020.993
 801  8792.992
 802  9144.59
 803  9545.103
 804  9501.104
 805  9519.276
 806  8916.771
 807  8979.766
 808  9314.327
 809  9709.535
 810  9961.332
 811  9911.395
 812  9602.8
 813  9649.541
 814  9630.382
 815  9725.084
 816  9850.868
 817  9444.108
 818  9146.571
 819  9064.909
 820  9309.569
 821  9399.336
 822  9314.888
 823  9588.723
 824  9694.553
 825  9497.561
 826  9469.574
 827  9579.992
 828  9462.529
 829  8969.757
 830  8706.968
 831  9047.851
 832  9434.409
 833  9238.724
 834  8908.523
 835  8966.621
 836  9457.407
 837  9681.857
 838  9891.257
 839  9398.271
 840  9416.839
 841  9379.194
 842  9543.442
 843  9696.788
 844  9720.394
 845  9565.969
 846  9369.801
 847  9092.142
 848  9191.701
 849  9575.812
 850  9918.582
 851  9984.619
 852  9937.691
 853  9693.39
 854  9541.107
 855  9094.225
 856  9475.559
 857  9471.972
 858  9427.899
 859  9591.355
 860  9527.607
 861  9216.836
 862  9073.378
 863  8986.338
 864  9193.078
 865  9264.969
 866  9208.794
 867  9331.454
 868  9281.54
 869  9348.782
 870  9737.437
 871  9606.397
 872  9636.602
 873  9357.659
 874  9332.314
 875  9506.535
 876  9372.882
 877  9341.154
 878  9422.948
 879  9193.439
 880  9425.063
 881  9328.613
 882  8978.015
 883  9053.267
 884  9304.601
 885  9542.251
 886  9639.456
 887  9474.528
 888  9601.591
 889  9275.667
 890  8743.824
 891  8673.056
 892  8886.241
 893  9266.73
 894  9402.234
 895  9151.881
 896  9294.824
 897  9251.345
 898  9228.272
 899  9229.206
 900  9410.219
 901  9421.7
 902  9549.822
 903  9333.162
 904  9579.49
 905  9590.958
 906  9807.703
 907  9663.237
 908  9577.663
 909  9317.792
 910  9335.795
 911  9035.598
 912  9182.769
 913  9204.009
 914  9275.106
 915  9241.621
 916  9459.146
 917  9702.755
 918  9900.522
 919  9625.098
 920  9174.748
 921  8953.377
 922  9109.479
 923  9372.027
 924  9539.762
 925  9378.269
 926  9240.004
 927  9138.475
 928  9002.368
 929  9161.794
 930  8785.767
 931  8779.184
 932  8651.939
 933  8688.278
 934  8926.18
 935  9454.237
 936  9822.622
 937  9959.102
 938  9720.333
 939  9538.09
 940  9159.445
 941  9049.456
 942  9328.647
 943  9653.926
 944  9441.091
 945  9534.253
 946  9467.805
 947  9646.478
 948  9819.346
 949  9484.267
 950  9403.895
 951  9231.449
 952  9128.194
 953  9087.89
 954  9001.051
 955  9047.734
 956  9356.884
 957  9622.409
 958  9693.101
 959  9483.854
 960  9077.747
 961  9081.956
 962  8963.984
 963  9122.072
 964  9121.648
 965  9139.854
 966  9234.292
 967  9577.564
 968  9567.734
 969  9332.035
 970  8881.005
 971  8639.196
 972  8630.01
 973  8688.317
 974  9191.085
 975  9496.3
 976  9231.332
 977  9063.127
 978  8917.394
 979  9156.181
 980  9214.148
 981  9294.957
 982  9706.545
 983  9685.952
 984  9526.127
 985  9307.624
 986  9385.308
 987  9748.332
 988  9989.145
 989  9729.081
 990  9415.284
 991  9327.741
 992  9451.151
 993  9639.053
 994  9816.491
 995  10176.61
 996  9971.674
 997  9298.696
 998  8852.568
 999  9187.067
1000  9327.731
1001  9387.828
1002  9490.668
1003  9716.008
1004  9917.093
1005  9345.748
1006  9301.479
1007  9223.882
1008  9207.803
1009  9090.561
1010  8957.432
1011  9184.868
1012  9257.75
1013  9491.595
1014  9533.979
1015  9552.343
1016  9688.908
1017  9565.869
1018  9359.589
1019  9064.655
1020  9039.975
1021  8949.539
1022  8867.707
1023  9145.277
