# Input file       =  1200757855.109703_cleaned.dat
# Candidate        =  PSR_0332+5434
# Telescope        =  AR
# Epoch_topo       =  58141.660579973417
# Epoch_bary       =  N/A
# T_sample         =  0.002
# Data Folded      =  7340032
# Data Avg         =  0.272708692338451
# Data StdDev      =  4.61267415281823 
# Profile Bins     =  1024
# Profile Avg      =  1954.78148366788 
# Profile StdDev   =  390.527637994643 
# Reduced chi-sqr  =  0.728
# Prob(Noise)      <  1   (~0.0 sigma)
# P_topo (ms)      =  714.571919966461  +/- 5.32e-05
# P'_topo (s/s)    =  -0                +/- 2.81e-11
# P''_topo (s/s^2) =  0                 +/- 1.24e-14
# P_bary (ms)      =  N/A
# P'_bary (s/s)    =  N/A
# P''_bary (s/s^2) =  N/A
# P_orb (s)        =  N/A
# asin(i)/c (s)    =  N/A
# eccentricity     =  N/A
# w (rad)          =  N/A
# T_peri           =  N/A
######################################################
   0  2024.528
   1  2011.786
   2  2134.785
   3  2081.872
   4  2108.204
   5  2056.987
   6  1876.836
   7  1814.88
   8  1779.708
   9  2056.44
  10  2047.657
  11  2009.483
  12  1948.645
  13  1788.741
  14  1790.836
  15  1783.818
  16  2002.236
  17  2033.464
  18  2052.074
  19  2079.746
  20  2165.93
  21  2214.948
  22  2173.078
  23  2200.719
  24  2132.088
  25  2258.69
  26  2243.989
  27  2127.885
  28  1881.199
  29  1842.278
  30  1855.536
  31  1988.034
  32  1873.391
  33  1763.019
  34  1658.986
  35  1714.863
  36  1661.072
  37  1777.808
  38  1891.094
  39  1811.451
  40  1698.041
  41  1679.689
  42  1609.942
  43  1585.804
  44  1734.622
  45  1983.074
  46  2048.64
  47  1885.807
  48  1867.385
  49  1732.847
  50  1798.2
  51  1791.572
  52  1883.866
  53  1952.285
  54  1958.858
  55  1839
  56  1761.412
  57  1680.369
  58  1738.974
  59  1965.171
  60  2072.424
  61  1938.071
  62  1695.263
  63  1570.112
  64  1695.578
  65  1804.709
  66  1950.984
  67  1914.549
  68  1846.342
  69  1922.201
  70  1962.603
  71  1953.349
  72  2004.464
  73  1894.7
  74  1874.78
  75  1714.557
  76  1789.787
  77  1805.864
  78  1840.306
  79  1863.837
  80  1926.751
  81  1832.02
  82  1769.046
  83  1832.399
  84  1906.803
  85  1918.085
  86  1893.557
  87  1864.389
  88  1808.185
  89  1729.762
  90  1876.846
  91  1922.852
  92  2058.56
  93  2265.591
  94  2227.599
  95  2159.026
  96  2062.592
  97  2253.129
  98  2159.64
  99  1998.786
 100  2035.211
 101  2053.821
 102  2163.533
 103  2085.514
 104  2148.516
 105  2201.379
 106  2210.294
 107  2202.077
 108  2179.514
 109  2211.725
 110  2235.016
 111  2331.81
 112  2301.447
 113  2208.29
 114  1955.117
 115  1861.906
 116  2001.667
 117  2116.675
 118  2141.421
 119  1973.635
 120  1799.425
 121  1757.924
 122  1720.993
 123  1698.281
 124  1896.469
 125  1876.875
 126  1942.945
 127  1747.687
 128  1699.474
 129  1850.472
 130  2076.196
 131  2349.32
 132  2340.165
 133  2201.391
 134  2016.529
 135  1829.717
 136  1789.242
 137  2011.784
 138  2081.165
 139  2142.322
 140  2100.553
 141  2103.726
 142  1988.243
 143  2080.216
 144  2211.707
 145  2377.832
 146  2272.334
 147  2246.925
 148  2313.185
 149  2262.76
 150  2241.292
 151  2158.635
 152  2210.671
 153  2168.504
 154  2128.757
 155  2129.833
 156  2090.561
 157  2157.332
 158  2255.294
 159  2381.637
 160  2379.825
 161  2212.478
 162  2082.642
 163  2071.94
 164  1966.248
 165  1939.179
 166  1945.887
 167  2130.333
 168  2281.887
 169  2452.229
 170  2365.891
 171  2031.476
 172  1820.369
 173  1864.289
 174  2084.417
 175  1966.154
 176  1888.258
 177  1837.491
 178  1947.319
 179  2008.77
 180  2051.81
 181  2166.175
 182  2170.311
 183  2136.303
 184  2219.85
 185  2232.513
 186  2188.805
 187  2082.203
 188  2252.263
 189  2240.581
 190  2074.568
 191  1946.13
 192  1891.294
 193  1959.056
 194  1902.805
 195  1959.864
 196  2021.303
 197  2080.652
 198  2153.233
 199  2074.617
 200  1889.895
 201  1824.727
 202  2059.352
 203  2242.159
 204  2123.416
 205  1903.163
 206  1856.077
 207  1997.395
 208  2125.975
 209  2095.784
 210  2082.249
 211  1890.339
 212  1779.128
 213  1783.682
 214  1827.668
 215  1959.254
 216  2024.019
 217  2179.855
 218  2223.558
 219  2186.561
 220  2085.542
 221  2049.724
 222  2036.519
 223  2102.446
 224  1997.975
 225  2117.343
 226  2114.714
 227  1964.238
 228  1915.667
 229  1934.773
 230  1993.288
 231  1872.623
 232  1764.629
 233  1763.64
 234  1797.839
 235  1770.175
 236  1870.875
 237  1941.933
 238  2123.008
 239  2197.306
 240  2224.267
 241  2299.516
 242  2276.196
 243  2219.896
 244  2093.921
 245  2009.125
 246  2146.961
 247  2155.806
 248  2028.991
 249  2005.741
 250  1928.708
 251  1914.966
 252  2038.053
 253  2050.73
 254  2011.466
 255  1793.502
 256  1835.945
 257  1871.626
 258  1863.403
 259  1893.667
 260  1871.926
 261  1732.604
 262  1684.385
 263  1747.444
 264  1785.504
 265  1762.642
 266  1789.199
 267  1866.395
 268  1824.098
 269  1753.667
 270  1681.407
 271  1815.004
 272  1917.986
 273  1826.634
 274  1931.846
 275  1992.569
 276  2004.237
 277  1861.049
 278  1768.372
 279  1722.487
 280  1683.507
 281  1732.954
 282  1773.769
 283  1863.09
 284  1747.219
 285  1770.26
 286  1743.416
 287  1823.156
 288  1987.963
 289  1925.862
 290  1852.904
 291  1843.958
 292  1950.252
 293  2097.262
 294  1952.059
 295  1985.552
 296  2074.707
 297  2041.083
 298  1924.515
 299  1841.34
 300  1863.915
 301  1962.032
 302  2151.026
 303  2332.375
 304  2330.904
 305  2319.394
 306  2358.848
 307  2255.235
 308  2128.77
 309  2147.135
 310  2225.118
 311  2138.005
 312  2038.424
 313  1888.56
 314  1996.165
 315  2142.41
 316  2156.733
 317  2086.908
 318  1956.709
 319  2002.469
 320  1892.313
 321  1878.047
 322  1954.325
 323  2005.774
 324  2037.712
 325  2038.975
 326  2057.903
 327  1922.206
 328  1807.727
 329  1753.427
 330  1783.699
 331  1758.912
 332  1840.269
 333  1840.314
 334  1764.062
 335  1788.377
 336  1838.792
 337  1902.87
 338  1941.597
 339  1952.416
 340  1867.393
 341  1755.702
 342  1688.135
 343  1766.592
 344  1871.018
 345  1998.172
 346  2026.538
 347  1922.952
 348  1967.744
 349  1828.635
 350  1714.136
 351  1647.221
 352  1770.677
 353  1948.719
 354  1893.627
 355  1866.184
 356  1877.289
 357  2030.618
 358  2163.132
 359  2188.627
 360  2315.692
 361  2340.468
 362  2117.55
 363  1964.986
 364  1800.795
 365  1900.646
 366  1873.406
 367  1987.142
 368  1993.388
 369  1939.431
 370  1948.292
 371  1985.089
 372  2165.985
 373  2189.782
 374  2179.188
 375  2077.987
 376  2039.343
 377  1962.17
 378  1857.732
 379  1894.802
 380  1828.005
 381  1815.857
 382  1773.618
 383  1678.54
 384  1750.466
 385  1814.723
 386  1937.005
 387  1994.587
 388  1974.904
 389  2042.484
 390  1958.941
 391  2040.866
 392  2019.252
 393  1774.637
 394  1831.947
 395  2087.401
 396  2108.173
 397  2017.59
 398  2068.919
 399  2215.225
 400  2175.398
 401  1955.721
 402  1941.545
 403  2030.397
 404  2031.091
 405  1966.645
 406  1865.764
 407  1795.658
 408  1783.337
 409  1769.876
 410  1889.703
 411  1913.542
 412  1989.41
 413  2032.28
 414  2043.032
 415  2066.976
 416  2239.396
 417  2201.941
 418  2240.659
 419  2205.974
 420  2121.473
 421  2072.026
 422  2022.437
 423  1984.448
 424  1903.081
 425  1794.167
 426  1807.012
 427  1942.018
 428  1921.842
 429  1939.976
 430  1926.657
 431  2019.203
 432  1945.015
 433  1830.674
 434  1816.938
 435  1738.273
 436  1704.446
 437  1704.539
 438  1713.938
 439  1801.847
 440  1752.848
 441  1654.087
 442  1615.767
 443  1535.041
 444  1652.818
 445  1764.963
 446  1973.767
 447  1916.514
 448  1706.999
 449  1588.592
 450  1667.603
 451  1781.145
 452  1973.075
 453  1864.205
 454  1759.983
 455  1712.07
 456  1711.783
 457  1666.506
 458  1508.521
 459  1567.343
 460  1649.859
 461  1563.34
 462  1604.67
 463  1746.21
 464  1761.806
 465  1715.51
 466  1660.973
 467  1750.644
 468  1792.969
 469  1702.405
 470  1863.828
 471  1850.269
 472  1745.413
 473  1731.809
 474  1857.408
 475  1957.952
 476  1783.097
 477  1603.756
 478  1571.593
 479  1489.413
 480  1652.296
 481  1846.059
 482  2000.718
 483  1914.228
 484  1777.948
 485  1751.417
 486  1717.175
 487  1852.336
 488  1908.971
 489  1977.871
 490  1850.467
 491  1832.45
 492  1700.354
 493  1726.844
 494  1743.911
 495  1807.824
 496  1887.634
 497  2012.318
 498  2063.039
 499  2084.711
 500  1965.218
 501  1879.784
 502  1755.345
 503  1658.004
 504  1820.887
 505  1956.006
 506  2126.201
 507  2031.573
 508  1966.505
 509  1983.264
 510  1998.738
 511  1810.036
 512  1780.298
 513  1869.568
 514  1869.141
 515  1741.216
 516  1835.098
 517  2119.354
 518  2228.672
 519  2101.558
 520  1976.564
 521  1861.646
 522  1792.512
 523  1838.594
 524  2031.334
 525  2252.198
 526  2228.721
 527  2000.425
 528  1847.447
 529  1716.268
 530  1872
 531  1955.786
 532  2076.917
 533  2099.684
 534  1981.448
 535  2041.255
 536  1877.199
 537  1811.1
 538  1743.399
 539  1767.922
 540  1762.886
 541  1836.274
 542  1729.676
 543  1743.044
 544  1679.498
 545  1813.835
 546  1891.408
 547  1991.081
 548  2043.337
 549  2023.032
 550  1891.94
 551  2021.349
 552  2178.512
 553  2244.235
 554  2263.411
 555  2180.826
 556  1932.45
 557  1585.427
 558  1593.624
 559  1897.701
 560  1989.015
 561  2044.897
 562  2110.866
 563  2174.199
 564  2104.608
 565  1953.045
 566  1916.913
 567  1935.453
 568  1967.807
 569  2126.545
 570  2016.466
 571  1784.417
 572  1732.56
 573  1919.316
 574  2012.825
 575  1916.505
 576  1865.88
 577  2002.523
 578  2004.531
 579  2037.756
 580  1963.14
 581  1964.848
 582  1996.522
 583  1885.34
 584  1804.316
 585  1674.876
 586  1698.216
 587  1746.25
 588  1829.41
 589  1889.995
 590  1877.264
 591  1989.526
 592  1914.224
 593  1798.629
 594  1608.219
 595  1580.518
 596  1635.066
 597  1645.753
 598  1792.443
 599  1765.428
 600  1800.905
 601  1806.319
 602  1960.015
 603  1993.501
 604  1976.989
 605  1793.954
 606  1915.083
 607  1854.872
 608  1952.247
 609  1956.661
 610  2130.475
 611  2341.704
 612  2401.483
 613  2523.1
 614  2679.019
 615  2601.078
 616  2556.907
 617  2559.295
 618  2743.25
 619  2694.012
 620  2431.46
 621  2266.985
 622  2112.488
 623  2072.628
 624  2075.645
 625  2105.315
 626  2123.79
 627  2062.708
 628  2041.568
 629  1983.295
 630  1980.784
 631  1941.838
 632  1959.217
 633  1941
 634  2033.729
 635  2056.065
 636  2032.535
 637  2099.287
 638  2126.928
 639  2175.08
 640  2231.998
 641  2128.857
 642  2173.609
 643  2195.998
 644  2239.699
 645  2203.92
 646  2080.733
 647  2055.398
 648  1894.431
 649  1946.594
 650  1953.693
 651  1883.869
 652  1762.901
 653  1823.203
 654  1870.964
 655  1858.292
 656  1848.328
 657  1853.072
 658  1779.061
 659  1802.508
 660  1794.762
 661  1808.965
 662  1604.625
 663  1643.449
 664  1735.912
 665  1832.404
 666  1820.336
 667  1761.499
 668  1858.557
 669  2003.103
 670  1948.051
 671  1888.897
 672  1839.829
 673  1979.655
 674  2042.931
 675  2028.436
 676  2060.53
 677  2035.596
 678  2053.149
 679  1882.315
 680  1871.375
 681  1917.02
 682  2048.958
 683  2019.341
 684  2049.66
 685  1961.429
 686  1886.741
 687  1676.93
 688  1737.668
 689  1880.591
 690  1948.92
 691  1873.191
 692  1799.772
 693  1795.877
 694  1739.745
 695  1847.673
 696  1824.347
 697  1899.909
 698  1937.293
 699  2012.628
 700  2069.583
 701  2028.129
 702  2125.052
 703  2081.852
 704  2037.18
 705  2036.643
 706  1973.161
 707  1950.974
 708  1914.795
 709  1996.028
 710  2109.506
 711  1972.238
 712  1964.702
 713  2024.781
 714  2099.046
 715  2042.19
 716  1945.816
 717  2086.35
 718  2236.799
 719  2262.433
 720  2323.258
 721  2216.688
 722  2048.125
 723  1991.733
 724  1823.458
 725  1753.007
 726  1638.943
 727  1803.804
 728  2042.453
 729  1940.645
 730  2081.41
 731  2180.064
 732  2269.657
 733  2183.195
 734  2136.141
 735  2140.734
 736  2053.894
 737  1815.104
 738  1722.348
 739  1758.862
 740  1812.179
 741  1844.936
 742  1966.189
 743  1727.431
 744  1645.197
 745  1572.981
 746  1791.973
 747  1906.342
 748  1848.694
 749  1962.346
 750  1869.387
 751  1913.242
 752  1877.023
 753  1945.542
 754  2093.666
 755  2028.059
 756  2010.414
 757  2060.337
 758  2136.51
 759  2175.993
 760  2267.278
 761  2316.081
 762  2103.089
 763  1982.108
 764  1945.137
 765  2157.821
 766  2117.271
 767  2161.136
 768  2187.733
 769  2108.329
 770  2222.937
 771  2144.338
 772  2136.775
 773  1863.057
 774  1748.239
 775  1800.025
 776  1838.485
 777  1865.275
 778  1930.153
 779  1963.325
 780  1855.95
 781  1742.009
 782  1795.485
 783  1962.332
 784  2042.275
 785  2017.677
 786  1970.729
 787  1936.578
 788  2007.025
 789  1901.686
 790  1872.121
 791  1925.555
 792  1895.484
 793  1797.089
 794  1712.702
 795  1717.581
 796  1817.831
 797  1798.076
 798  1839.051
 799  1836.59
 800  1902.383
 801  1994.003
 802  1888.143
 803  1961.383
 804  1930.2
 805  1931.11
 806  1867.461
 807  1836.32
 808  1839.262
 809  1913.211
 810  1940.392
 811  2001.956
 812  1970.027
 813  1989.082
 814  1983.51
 815  1904.741
 816  1983.99
 817  2061.586
 818  2055.045
 819  1870.212
 820  1833.163
 821  1699.042
 822  1611.77
 823  1434.619
 824  1624.321
 825  1888.269
 826  1803.69
 827  1792.323
 828  1929.086
 829  2040.344
 830  1923.694
 831  1632.8
 832  1744.175
 833  1841.275
 834  1882.328
 835  1884.339
 836  1905.354
 837  1866.833
 838  1802.488
 839  1807.168
 840  1988.684
 841  2093.794
 842  2071.215
 843  2110.319
 844  1989.913
 845  1959.889
 846  2078.218
 847  2124.608
 848  2146.473
 849  1974.344
 850  1900.587
 851  1784.301
 852  1711.585
 853  1804.355
 854  1965.415
 855  2155.102
 856  2208.696
 857  2062.129
 858  1942.459
 859  1942.172
 860  2063.549
 861  2163.332
 862  2232.694
 863  2145.372
 864  2074.253
 865  1968.067
 866  2007.057
 867  1969.661
 868  2008.633
 869  2048.686
 870  2057.673
 871  1972.981
 872  1879.004
 873  1832.024
 874  1987.693
 875  2096.02
 876  2107.406
 877  1987.865
 878  1791.062
 879  1713.863
 880  1668.501
 881  1774.227
 882  1796.229
 883  1903.899
 884  1985.855
 885  2073.692
 886  1985.546
 887  1887.374
 888  1730.966
 889  1730.991
 890  1860.406
 891  1807.719
 892  1772.191
 893  1811.746
 894  1761.591
 895  1741.857
 896  1695.176
 897  1827.535
 898  1912.015
 899  1923.943
 900  1878.768
 901  1773.203
 902  1745.073
 903  1937.355
 904  2019.001
 905  2103.449
 906  1974.599
 907  1919.74
 908  1819.853
 909  1641.368
 910  1669.805
 911  1971.025
 912  2013.225
 913  1987.598
 914  1765.357
 915  1798.817
 916  1774.365
 917  1724.798
 918  1797.384
 919  1973.01
 920  1991.489
 921  1988.01
 922  1916.047
 923  1927.45
 924  1803.32
 925  1850.116
 926  1984.911
 927  2099.865
 928  1902.851
 929  1875.25
 930  1838.599
 931  1920.061
 932  1905.637
 933  1855.32
 934  1899.723
 935  1900.022
 936  1822.264
 937  1706.729
 938  1689.325
 939  1768.628
 940  1835.616
 941  1837.741
 942  1796.205
 943  1784.159
 944  1633.506
 945  1579.25
 946  1644.771
 947  1805.373
 948  1865.997
 949  1814.364
 950  1777.398
 951  1859.689
 952  2011.614
 953  1985.363
 954  1939.334
 955  1991.063
 956  1876.798
 957  1877.119
 958  1829.135
 959  1842.447
 960  1814.033
 961  1854.402
 962  1922.806
 963  1889.763
 964  1804.528
 965  1788.612
 966  1801.773
 967  1781.14
 968  1823.909
 969  1781.737
 970  1795.896
 971  1853.75
 972  1849.199
 973  1943.785
 974  1870.702
 975  2007.989
 976  2036.768
 977  1997.936
 978  2110.869
 979  2217.079
 980  2353.558
 981  2325.659
 982  2353.186
 983  2552.859
 984  2647.577
 985  2495.123
 986  2316.729
 987  2214.698
 988  2263.144
 989  2218.073
 990  2093.639
 991  2087.844
 992  1944.563
 993  1865.281
 994  1875.669
 995  1860.638
 996  1970.292
 997  2138.523
 998  2244.618
 999  2328.525
1000  2158.589
1001  2060.102
1002  1988.898
1003  2072.924
1004  2292.56
1005  2356.481
1006  2087.166
1007  2009.575
1008  1964.25
1009  2014.266
1010  2105.014
1011  2132.076
1012  2346.013
1013  2346.052
1014  2324.012
1015  2365.831
1016  2094.251
1017  2181.699
1018  2315.499
1019  2401.848
1020  2325.842
1021  2051.68
1022  2112.388
1023  1983.146
