# Input file       =  1200083424.112911_cleaned.dat
# Candidate        =  PSR_0332+5434
# Telescope        =  AR
# Epoch_topo       =  58133.854665658691
# Epoch_bary       =  N/A
# T_sample         =  0.002
# Data Folded      =  7340032
# Data Avg         =  0.0432346057255522
# Data StdDev      =  1.00020667165905 
# Profile Bins     =  512
# Profile Avg      =  619.832760532959 
# Profile StdDev   =  119.757781802038 
# Reduced chi-sqr  =  0.935
# Prob(Noise)      <  0.853   (~0.0 sigma)
# P_topo (ms)      =  714.567489630731  +/- 0.000326
# P'_topo (s/s)    =  -0                +/- 1.72e-10
# P''_topo (s/s^2) =  0                 +/- 7.59e-14
# P_bary (ms)      =  N/A
# P'_bary (s/s)    =  N/A
# P''_bary (s/s^2) =  N/A
# P_orb (s)        =  N/A
# asin(i)/c (s)    =  N/A
# eccentricity     =  N/A
# w (rad)          =  N/A
# T_peri           =  N/A
######################################################
   0  1159.283
   1  1080.682
   2  902.0744
   3  760.5328
   4  667.8341
   5  622.0729
   6  641.9352
   7  767.9302
   8  685.5917
   9  705.1809
  10  737.8525
  11  657.0518
  12  694.2129
  13  671.334
  14  626.0155
  15  586.2402
  16  653.142
  17  636.679
  18  667.1644
  19  651.527
  20  557.6277
  21  568.5966
  22  520.3617
  23  429.7392
  24  473.072
  25  558.2104
  26  541.9589
  27  522.368
  28  607.5416
  29  674.4464
  30  691.7603
  31  601.6628
  32  608.5753
  33  559.1618
  34  611.8711
  35  668.3438
  36  608.1285
  37  575.0927
  38  515.9167
  39  487.2835
  40  514.4217
  41  578.2175
  42  565.2291
  43  598.0102
  44  658.7114
  45  702.6111
  46  702.4637
  47  635.6273
  48  543.3335
  49  558.2584
  50  617.0405
  51  634.0419
  52  589.0989
  53  706.1857
  54  640.378
  55  647.6846
  56  603.2853
  57  570.0043
  58  599.1082
  59  640.0843
  60  544.6893
  61  468.7586
  62  587.5508
  63  564.9161
  64  509.9806
  65  420.8703
  66  558.0397
  67  533.4783
  68  617.2266
  69  508.9975
  70  482.7339
  71  496.4661
  72  467.9323
  73  578.2562
  74  602.8175
  75  643.6507
  76  654.9713
  77  642.9146
  78  704.6297
  79  661.4575
  80  634.8094
  81  727.2811
  82  646.7938
  83  567.6798
  84  653.3196
  85  775.0879
  86  641.6197
  87  545.2872
  88  561.9355
  89  594.683
  90  612.963
  91  735.6271
  92  719.5391
  93  599.8053
  94  525.8882
  95  567.6432
  96  518.9438
  97  567.9568
  98  558.7604
  99  579.3376
 100  602.7207
 101  645.6479
 102  699.4264
 103  658.6316
 104  598.2969
 105  584.3936
 106  620.0538
 107  586.8415
 108  606.2489
 109  583.2457
 110  607.0808
 111  580.446
 112  530.1633
 113  600.9713
 114  593.2247
 115  585.2805
 116  666.7304
 117  617.3517
 118  549.6321
 119  541.1331
 120  591.2775
 121  524.6866
 122  462.8484
 123  538.0173
 124  554.221
 125  581.6911
 126  687.497
 127  655.7646
 128  588.9588
 129  502.106
 130  550.7332
 131  582.632
 132  648.3713
 133  617.5848
 134  624.4434
 135  598.5361
 136  535.7839
 137  667.07
 138  577.7779
 139  667.9608
 140  668.9758
 141  591.6262
 142  580.99
 143  650.0256
 144  745.0483
 145  676.4473
 146  573.8376
 147  518.4432
 148  584.9983
 149  684.212
 150  777.2126
 151  603.2212
 152  583.6863
 153  580.0931
 154  677.0264
 155  578.3465
 156  542.9257
 157  632.6566
 158  612.2764
 159  535.5927
 160  545.1385
 161  583.8928
 162  539.0558
 163  637.2989
 164  667.9835
 165  655.9562
 166  664.0596
 167  535.5968
 168  485.2907
 169  636.3836
 170  656.2194
 171  605.0092
 172  597.8019
 173  602.5289
 174  543.9172
 175  608.4229
 176  630.0414
 177  679.886
 178  764.7682
 179  655.5615
 180  591.3307
 181  554.1917
 182  624.139
 183  707.7939
 184  720.6747
 185  634.4211
 186  647.831
 187  623.9656
 188  715.2907
 189  597.9467
 190  630.3314
 191  610.3256
 192  623.7806
 193  738.7249
 194  688.5523
 195  653.0161
 196  612.3723
 197  683.9376
 198  661.2369
 199  612.9413
 200  658.3577
 201  645.9304
 202  587.3391
 203  609.9644
 204  634.6779
 205  595.5861
 206  478.2093
 207  552.356
 208  541.288
 209  551.2962
 210  508.15
 211  568.1401
 212  580.9776
 213  567.1149
 214  571.0653
 215  597.4689
 216  482.184
 217  473.4882
 218  584.6421
 219  552.541
 220  486.2686
 221  626.7072
 222  674.7497
 223  648.6721
 224  652.7437
 225  560.3463
 226  604.2065
 227  704.1169
 228  643.1959
 229  661.3605
 230  671.18
 231  578.894
 232  681.6089
 233  660.319
 234  604.7283
 235  619.8882
 236  537.4604
 237  623.3337
 238  637.5009
 239  592.5616
 240  633.3297
 241  665.0241
 242  692.054
 243  708.7936
 244  684.0367
 245  658.7244
 246  626.7005
 247  723.947
 248  691.3964
 249  649.6365
 250  735.7621
 251  678.1263
 252  669.6936
 253  713.1697
 254  649.6876
 255  591.452
 256  533.8121
 257  601.9033
 258  549.0509
 259  621.3882
 260  670.9885
 261  559.0779
 262  559.775
 263  575.7304
 264  630.09
 265  637.0839
 266  552.051
 267  562.9443
 268  572.8742
 269  647.6528
 270  565.8447
 271  605.199
 272  713.3506
 273  809.1294
 274  731.8773
 275  541.4119
 276  528.5913
 277  548.1049
 278  583.2091
 279  602.4477
 280  640.5829
 281  710.2167
 282  705.1982
 283  582.7233
 284  580.4959
 285  612.3118
 286  518.5954
 287  545.4039
 288  595.3937
 289  585.8824
 290  506.0574
 291  561.8087
 292  617.0201
 293  618.9796
 294  555.4432
 295  493.751
 296  416.9971
 297  527.8397
 298  584.8889
 299  546.8588
 300  628.6693
 301  588.7101
 302  645.7421
 303  577.5016
 304  636.7756
 305  578.4592
 306  524.9821
 307  617.0847
 308  598.9235
 309  648.129
 310  745.0448
 311  594.1854
 312  598.9951
 313  661.174
 314  614.463
 315  602.3866
 316  568.676
 317  610.0515
 318  704.545
 319  658.939
 320  722.6412
 321  713.593
 322  545.9023
 323  616.9203
 324  626.7626
 325  596.9608
 326  626.7394
 327  637.0569
 328  620.0255
 329  644.1091
 330  661.6091
 331  587.7991
 332  586.4512
 333  543.9451
 334  635.6465
 335  663.6118
 336  593.3725
 337  533.527
 338  547.6293
 339  597.1716
 340  582.6834
 341  635.9366
 342  576.6134
 343  622.6705
 344  596.4561
 345  569.848
 346  633.1406
 347  655.1919
 348  620.2974
 349  561.8387
 350  679.1438
 351  780.3339
 352  647.8176
 353  684.5411
 354  692.9164
 355  657.0475
 356  618.0756
 357  674.8914
 358  721.8627
 359  831.1237
 360  694.6502
 361  735.0543
 362  701.9435
 363  687.3676
 364  646.1345
 365  626.8324
 366  675.3907
 367  689.742
 368  777.192
 369  724.6778
 370  667.9679
 371  536.1608
 372  583.9252
 373  681.7415
 374  743.4862
 375  751.5278
 376  763.7007
 377  654.5044
 378  632.5488
 379  557.7632
 380  547.2855
 381  616.0024
 382  631.593
 383  618.4396
 384  574.6573
 385  534.2905
 386  672.7377
 387  533.9905
 388  557.5905
 389  538.728
 390  520.9895
 391  598.8354
 392  627.3341
 393  577.8809
 394  597.2733
 395  484.8306
 396  494.8394
 397  476.947
 398  508.5206
 399  517.282
 400  670.7519
 401  611.0721
 402  550.3433
 403  543.8743
 404  535.9351
 405  569.3771
 406  510.6683
 407  586.0356
 408  595.535
 409  589.4387
 410  610.5505
 411  589.3098
 412  632.4627
 413  643.1744
 414  644.3931
 415  664.5403
 416  603.3957
 417  529.1261
 418  588.0177
 419  495.8788
 420  601.4526
 421  587.4571
 422  496.8592
 423  448.1802
 424  547.3792
 425  573.2912
 426  562.9458
 427  560.3749
 428  632.7458
 429  731.1635
 430  671.0062
 431  752.7773
 432  730.0048
 433  629.0703
 434  627.6455
 435  627.1385
 436  610.9191
 437  624.1967
 438  618.9817
 439  674.0621
 440  643.0762
 441  655.6865
 442  773.6582
 443  742.9293
 444  674.5285
 445  717.4332
 446  711.0601
 447  710.7799
 448  654.4242
 449  755.2366
 450  789.4213
 451  641.5982
 452  511.0948
 453  614.1091
 454  612.6483
 455  579.8527
 456  694.7057
 457  612.0977
 458  514.3185
 459  568.2219
 460  639.8134
 461  478.6722
 462  573.4384
 463  683.3602
 464  703.487
 465  771.0074
 466  628.4338
 467  675.3804
 468  624.9138
 469  617.6459
 470  605.8132
 471  615.1455
 472  707.8603
 473  682.499
 474  753.0817
 475  677.2391
 476  753.4594
 477  589.3806
 478  531.8646
 479  477.7451
 480  576.3894
 481  634.8727
 482  608.6387
 483  539.3365
 484  532.7761
 485  521.5243
 486  516.4632
 487  479.6949
 488  472.6881
 489  574.2352
 490  619.5846
 491  672.5993
 492  661.2788
 493  615.9215
 494  677.9548
 495  636.2692
 496  591.4258
 497  650.2164
 498  540.8463
 499  570.1245
 500  733.0532
 501  662.1406
 502  644.2896
 503  643.9867
 504  563.8126
 505  712.5872
 506  703.5476
 507  690.5812
 508  768.8636
 509  900.985
 510  1061.06
 511  1150.188
