# Input file       =  1200585540.105412_cleaned.dat
# Candidate        =  PSR_0332+5434
# Telescope        =  AR
# Epoch_topo       =  58139.666193349673
# Epoch_bary       =  N/A
# T_sample         =  0.002
# Data Folded      =  7340032
# Data Avg         =  0.0617995608627213
# Data StdDev      =  1.00012896078148 
# Profile Bins     =  512
# Profile Avg      =  885.809762678299 
# Profile StdDev   =  119.748477242706 
# Reduced chi-sqr  =  1.027
# Prob(Noise)      <  0.329   (~0.4 sigma)
# P_topo (ms)      =  714.570796021083  +/- 0.00028
# P'_topo (s/s)    =  -0                +/- 1.48e-10
# P''_topo (s/s^2) =  0                 +/- 6.53e-14
# P_bary (ms)      =  N/A
# P'_bary (s/s)    =  N/A
# P''_bary (s/s^2) =  N/A
# P_orb (s)        =  N/A
# asin(i)/c (s)    =  N/A
# eccentricity     =  N/A
# w (rad)          =  N/A
# T_peri           =  N/A
######################################################
   0  1399.766
   1  1299.477
   2  1181.331
   3  964.6849
   4  809.2055
   5  828.8455
   6  817.2901
   7  763.6694
   8  765.1141
   9  813.8322
  10  879.8036
  11  913.1093
  12  882.3632
  13  806.9379
  14  896.9335
  15  941.7799
  16  966.3339
  17  977.0381
  18  830.2104
  19  906.5539
  20  917.0891
  21  842.9769
  22  849.5967
  23  862.0915
  24  835.3954
  25  819.9697
  26  899.0333
  27  836.6428
  28  883.0493
  29  811.3632
  30  887.2949
  31  956.0193
  32  942.7735
  33  878.1626
  34  854.4776
  35  950.0225
  36  890.7745
  37  822.019
  38  938.5596
  39  854.5164
  40  937.8728
  41  953.345
  42  1003.481
  43  914.9112
  44  854.3409
  45  916.2304
  46  882.7759
  47  987.4394
  48  1018.956
  49  1009.746
  50  935.8372
  51  888.7833
  52  870.9816
  53  850.6449
  54  927.7931
  55  924.013
  56  879.4068
  57  872.4442
  58  935.7594
  59  956.2357
  60  884.3873
  61  886.4736
  62  972.8976
  63  992.8965
  64  896.0526
  65  902.746
  66  907.1266
  67  995.7323
  68  998.6201
  69  937.7556
  70  869.7311
  71  861.2253
  72  766.3165
  73  723.8569
  74  762.0992
  75  877.5995
  76  939.5867
  77  989.042
  78  939.1923
  79  903.732
  80  941.3655
  81  973.4474
  82  942.502
  83  960.0533
  84  1016.841
  85  998.9742
  86  1033.413
  87  1034.333
  88  1039.73
  89  954.8892
  90  1001.236
  91  1068.261
  92  983.5793
  93  959.995
  94  923.3886
  95  1042.199
  96  1086.071
  97  965.3917
  98  828.4895
  99  891.1789
 100  799.0507
 101  869.6487
 102  860.9384
 103  887.0854
 104  869.5497
 105  886.7082
 106  887.287
 107  923.9803
 108  946.8719
 109  940.8978
 110  990.7271
 111  920.2567
 112  944.587
 113  953.2991
 114  952.7327
 115  977.8378
 116  954.8308
 117  959.7259
 118  880.3423
 119  894.9671
 120  848.8705
 121  888.5406
 122  938.2465
 123  759.1523
 124  795.9468
 125  880.9634
 126  1030.839
 127  943.1768
 128  926.1432
 129  970.7157
 130  869.6492
 131  884.0088
 132  836.9283
 133  914.1071
 134  861.5598
 135  976.8788
 136  890.6517
 137  886.8601
 138  927.2426
 139  995.2177
 140  928.6657
 141  842.9
 142  835.6854
 143  892.8253
 144  859.0722
 145  814.2453
 146  887.3945
 147  901.7111
 148  943.4264
 149  1003.677
 150  950.5901
 151  863.0839
 152  872.0778
 153  887.123
 154  877.4611
 155  834.9066
 156  890.829
 157  927.9962
 158  879.6008
 159  947.6495
 160  881.8698
 161  743.0062
 162  775.0735
 163  893.8483
 164  889.6827
 165  828.072
 166  885.9925
 167  920.1897
 168  813.5402
 169  775.6258
 170  818.9518
 171  863.7675
 172  957.0156
 173  817.8406
 174  760.0093
 175  828.8285
 176  836.6901
 177  774.7443
 178  753.6211
 179  759.0225
 180  785.6796
 181  898.9325
 182  919.2935
 183  918.1237
 184  790.6785
 185  767.1718
 186  810.5253
 187  817.4829
 188  877.2794
 189  843.1526
 190  835.3773
 191  790.2655
 192  877.5242
 193  819.0423
 194  839.3941
 195  865.187
 196  847.4838
 197  882.0491
 198  801.8651
 199  875.0093
 200  812.7935
 201  897.9232
 202  901.3848
 203  872.2654
 204  663.3007
 205  720.5699
 206  803.8552
 207  894.1234
 208  869.5004
 209  783.1051
 210  795.4968
 211  691.0886
 212  714.4957
 213  691.9979
 214  734.0968
 215  779.3824
 216  726.2913
 217  755.2607
 218  729.6318
 219  751.7371
 220  689.9814
 221  667.4766
 222  657.0579
 223  734.92
 224  844.7227
 225  870.593
 226  941.4838
 227  926.855
 228  824.1266
 229  709.925
 230  789.1537
 231  805.0776
 232  802.2733
 233  868.2462
 234  874.8032
 235  817.1541
 236  855.4376
 237  910.7234
 238  982.9221
 239  941.9042
 240  880.4504
 241  844.6302
 242  916.2279
 243  819.6736
 244  789.2113
 245  869.7314
 246  978.0652
 247  819.2633
 248  905.2797
 249  908.1971
 250  810.8561
 251  831.3703
 252  926.1908
 253  995.9306
 254  1020.479
 255  955.7971
 256  908.1914
 257  957.3845
 258  1014.157
 259  993.0933
 260  1061.731
 261  937.4044
 262  953.3492
 263  956.9703
 264  914.1019
 265  875.1625
 266  914.5251
 267  884.8607
 268  847.6635
 269  974.8121
 270  973.532
 271  902.3145
 272  816.9607
 273  874.1154
 274  856.3992
 275  880.6752
 276  815.7127
 277  840.3933
 278  895.1071
 279  926.4575
 280  884.0574
 281  795.8451
 282  811.6763
 283  847.8303
 284  818.6574
 285  872.4434
 286  869.5317
 287  969.3203
 288  983.683
 289  923.6584
 290  851.4063
 291  1012.501
 292  949.7437
 293  817.7667
 294  987.4487
 295  959.7446
 296  907.0514
 297  810.9282
 298  908.2132
 299  998.2849
 300  968.1985
 301  934.1642
 302  839.4493
 303  809.1099
 304  886.1994
 305  797.7474
 306  826.0086
 307  868.0842
 308  840.8723
 309  860.7816
 310  862.9091
 311  853.1941
 312  934.5868
 313  942.5825
 314  921.1326
 315  831.3049
 316  838.1862
 317  892.7776
 318  917.548
 319  968.1207
 320  899.0345
 321  897.1346
 322  870.0538
 323  812.1575
 324  835.8241
 325  870.077
 326  859.1275
 327  871.4319
 328  828.0451
 329  711.432
 330  701.8309
 331  838.855
 332  856.0691
 333  815.1161
 334  848.9155
 335  810.0015
 336  741.6872
 337  777.4644
 338  795.3995
 339  723.7579
 340  714.9546
 341  677.7883
 342  657.5399
 343  666.3125
 344  753.0969
 345  728.8505
 346  751.6874
 347  711.3955
 348  742.6836
 349  891.4072
 350  881.3707
 351  854.8682
 352  772.02
 353  813.1393
 354  881.7927
 355  848.2516
 356  918.5863
 357  948.0695
 358  884.4182
 359  856.3268
 360  936.5195
 361  818.8834
 362  818.5521
 363  839.6039
 364  841.0427
 365  794.1973
 366  872.6246
 367  900.4888
 368  836.5078
 369  721.1719
 370  768.8958
 371  899.0286
 372  861.0195
 373  913.5006
 374  856.1421
 375  898.7849
 376  937.4795
 377  873.442
 378  815.5535
 379  856.787
 380  902.5992
 381  866.8906
 382  917.5995
 383  942.5009
 384  881.2592
 385  897.4289
 386  935.1929
 387  971.2642
 388  874.5693
 389  850.5616
 390  969.6232
 391  867.5154
 392  901.2435
 393  1013.09
 394  990.2681
 395  935.5359
 396  881.7191
 397  949.991
 398  992.6185
 399  1002.163
 400  1012.76
 401  952.4102
 402  912.0664
 403  879.5819
 404  805.7946
 405  828.4777
 406  828.3735
 407  947.9354
 408  898.7231
 409  797.8757
 410  735.0769
 411  920.9905
 412  938.3918
 413  833.0616
 414  894.8849
 415  891.5649
 416  907.3103
 417  988.895
 418  914.4646
 419  872.2239
 420  913.4
 421  944.8807
 422  964.8913
 423  989.7615
 424  1006.049
 425  981.4547
 426  908.709
 427  894.7074
 428  878.315
 429  829.1586
 430  851.1428
 431  848.4568
 432  901.0132
 433  878.5889
 434  784.2949
 435  906.8636
 436  916.7929
 437  795.2275
 438  801.432
 439  844.2405
 440  781.6581
 441  910.0546
 442  1008.974
 443  1017.357
 444  861.6252
 445  850.2988
 446  873.3787
 447  763.2497
 448  858.4463
 449  894.0574
 450  955.8978
 451  913.957
 452  926.1795
 453  1013.983
 454  1065.254
 455  1009.734
 456  977.4998
 457  995.271
 458  924.7349
 459  885.6808
 460  799.5603
 461  909.2203
 462  942.4075
 463  855.266
 464  919.7001
 465  959.8275
 466  1001.827
 467  846.4327
 468  820.6425
 469  866.6101
 470  886.2487
 471  984.0192
 472  927.493
 473  935.3777
 474  1004.42
 475  864.6885
 476  859.1603
 477  791.8337
 478  879.0883
 479  1001.078
 480  990.6469
 481  965.5953
 482  889.3173
 483  824.2257
 484  889.0934
 485  906.1655
 486  885.6178
 487  789.105
 488  772.1802
 489  866.3701
 490  934.5227
 491  988.4501
 492  872.736
 493  894.9377
 494  1014.227
 495  927.6927
 496  778.396
 497  857.0949
 498  859.5955
 499  883.6562
 500  983.2684
 501  940.1719
 502  845.4385
 503  872.6275
 504  983.2063
 505  943.9202
 506  805.7593
 507  840.1511
 508  943.9144
 509  1029.411
 510  1206.509
 511  1407.641
