# Input file       =  1200499343.110404_cleaned.dat
# Candidate        =  PSR_0332+5434
# Telescope        =  AR
# Epoch_topo       =  58138.668542944491
# Epoch_bary       =  N/A
# T_sample         =  0.002
# Data Folded      =  7340032
# Data Avg         =  0.669373534619806
# Data StdDev      =  5.65319837378489 
# Profile Bins     =  512
# Profile Avg      =  9595.57048112848 
# Profile StdDev   =  676.874606533461 
# Reduced chi-sqr  =  0.595
# Prob(Noise)      <  1   (~0.0 sigma)
# P_topo (ms)      =  714.570210070394  +/- 0.000856
# P'_topo (s/s)    =  -0                +/- 4.52e-10
# P''_topo (s/s^2) =  0                 +/- 1.99e-13
# P_bary (ms)      =  N/A
# P'_bary (s/s)    =  N/A
# P''_bary (s/s^2) =  N/A
# P_orb (s)        =  N/A
# asin(i)/c (s)    =  N/A
# eccentricity     =  N/A
# w (rad)          =  N/A
# T_peri           =  N/A
######################################################
   0  9037.537
   1  9136.327
   2  9086.012
   3  9218.227
   4  9441.778
   5  9577.799
   6  9349.56
   7  9053.631
   8  9336.273
   9  9616.138
  10  9558.012
  11  8823.85
  12  9387.508
  13  9563.068
  14  9660.212
  15  9426.243
  16  9503.565
  17  9849.536
  18  9621.411
  19  9791.676
  20  9935.547
  21  9617.702
  22  9693.113
  23  9619.021
  24  9647.002
  25  9580.556
  26  9359.148
  27  9836.302
  28  9986.031
  29  9641.905
  30  9512.14
  31  9485.491
  32  10263.36
  33  9954.561
  34  9575.995
  35  9576.467
  36  9454.759
  37  9570.951
  38  9895.512
  39  9513.799
  40  9314.249
  41  8986.346
  42  9192.169
  43  9507.94
  44  9367.046
  45  9845.596
  46  9633.531
  47  9891.888
  48  9849.937
  49  9224.208
  50  9714.305
  51  9340.479
  52  9153.189
  53  9517.016
  54  9674.298
  55  9782.04
  56  9991.731
  57  9615.568
  58  9249.314
  59  9488.374
  60  9738.323
  61  9737.66
  62  9312.138
  63  8835.185
  64  9435.52
  65  9463.921
  66  9666.898
  67  9411.357
  68  9209.117
  69  9257.136
  70  9185.655
  71  9410.634
  72  9024.036
  73  8942.053
  74  9277.337
  75  9370.429
  76  9466.393
  77  9688.688
  78  9250.95
  79  9437.758
  80  9601.874
  81  9440.803
  82  9713.151
  83  9221.32
  84  9564.223
  85  9638.241
  86  9093.828
  87  8933.949
  88  9171.721
  89  10120.46
  90  9979.47
  91  9710.83
  92  9288.003
  93  9169.635
  94  9240.759
  95  9555.676
  96  9636.436
  97  9686.17
  98  9612.751
  99  8978.222
 100  9246.297
 101  9486.216
 102  9593.678
 103  9604.04
 104  9622.353
 105  10128.46
 106  10555.94
 107  10662.96
 108  10400.84
 109  10268.02
 110  10485.89
 111  9973.381
 112  9942.952
 113  9813.317
 114  10055.11
 115  9712.39
 116  9947.639
 117  10097.35
 118  10061.75
 119  10070.87
 120  10152.83
 121  10209.22
 122  9962.899
 123  10144.73
 124  10321.44
 125  10268.63
 126  9736.914
 127  9997.882
 128  9370.924
 129  9551.481
 130  10212.3
 131  10195.54
 132  10005.86
 133  9507.971
 134  9237.621
 135  9244
 136  9484.847
 137  9712.158
 138  9740.394
 139  9625.131
 140  9525.767
 141  9418.832
 142  9422.514
 143  9631.153
 144  9462.749
 145  9671.801
 146  9616.9
 147  9911.785
 148  9997.836
 149  9903.71
 150  9708.965
 151  9889.499
 152  9192.904
 153  9369.035
 154  9753.674
 155  9700.473
 156  10015.68
 157  10191.96
 158  9809.12
 159  8986.994
 160  9402.953
 161  9977.858
 162  9910.56
 163  10109.6
 164  10157.11
 165  10020.4
 166  10260.81
 167  10020.03
 168  9735.801
 169  9784.127
 170  10234.79
 171  10089.43
 172  10031.99
 173  9792.32
 174  9651.612
 175  10036.75
 176  9980.861
 177  9552.627
 178  9493.83
 179  9556.498
 180  9200.116
 181  9478.653
 182  9406.817
 183  9585.536
 184  10202.21
 185  9705.398
 186  9637.091
 187  9413.611
 188  9759.518
 189  10033.19
 190  9900.138
 191  9746.082
 192  9611.43
 193  9413.593
 194  9881.088
 195  10207.43
 196  9905.906
 197  9839.561
 198  10055.91
 199  10284.86
 200  10089.58
 201  9734.754
 202  9321.373
 203  9442.737
 204  9987.526
 205  10028.89
 206  9643.143
 207  9800.064
 208  9668.213
 209  9591.428
 210  9083.656
 211  9433.547
 212  9350.237
 213  10276.88
 214  10247.28
 215  9805.772
 216  9781.224
 217  9926.367
 218  9914.271
 219  10022.77
 220  9606.804
 221  9397.093
 222  9468.138
 223  9584.971
 224  9534.876
 225  9699.059
 226  9442.96
 227  9393.277
 228  9556.616
 229  9959.239
 230  9753.515
 231  9635.464
 232  9514.873
 233  9398.434
 234  9643.854
 235  10139.4
 236  9600.993
 237  9536.254
 238  9827.706
 239  10079.53
 240  9382.121
 241  9701.543
 242  9822.985
 243  9387.203
 244  8730.23
 245  8846.915
 246  8871.525
 247  9118.059
 248  9402.463
 249  9737.919
 250  9333.467
 251  9319.025
 252  8975.619
 253  8764.455
 254  8690.037
 255  9038.037
 256  9788.81
 257  9727.267
 258  9893.246
 259  9996.819
 260  9269.274
 261  10096.92
 262  9704.032
 263  9026.328
 264  9093.55
 265  9050.582
 266  9474.853
 267  9526.029
 268  9768.855
 269  9558.025
 270  9655.716
 271  9559.625
 272  10071.83
 273  10165.19
 274  10531.21
 275  10144.08
 276  9532.536
 277  9513.429
 278  9447.557
 279  9361.54
 280  9328.52
 281  9468.793
 282  9411.359
 283  9756.61
 284  9316.311
 285  9687.713
 286  9947.871
 287  9610.067
 288  10587.97
 289  10119
 290  9946.515
 291  10206.31
 292  9817.897
 293  9439.011
 294  9150.601
 295  9384.01
 296  9356.975
 297  9309.529
 298  9057.229
 299  9491.185
 300  9741.184
 301  9431.374
 302  9687.668
 303  9975.517
 304  9609.61
 305  9733.977
 306  10186.03
 307  10985.43
 308  10564.52
 309  10528.64
 310  10974.39
 311  10865
 312  10258.12
 313  10035.45
 314  10001.17
 315  9495.501
 316  9686.314
 317  10109.47
 318  9963.021
 319  10286.71
 320  9996.21
 321  9989.407
 322  9662.139
 323  9555.575
 324  9509.688
 325  10031.03
 326  9480.004
 327  9641.188
 328  9743.448
 329  9849.228
 330  9503.03
 331  9194.046
 332  9355.351
 333  9678.187
 334  9392.704
 335  8963.733
 336  8838.346
 337  8748.178
 338  9387.876
 339  9807.863
 340  10185.26
 341  9965.081
 342  10194.1
 343  9923.199
 344  9743.13
 345  9957.041
 346  9664.574
 347  9276.355
 348  9485.077
 349  9685.652
 350  9243.949
 351  8905.336
 352  9346.61
 353  9120.704
 354  9113.021
 355  8887.827
 356  9475.078
 357  9649.478
 358  9473.282
 359  8816.991
 360  9178.742
 361  9262.383
 362  9447.551
 363  8982.933
 364  8926.735
 365  8759.464
 366  9284.376
 367  9725.933
 368  9367.13
 369  8942.367
 370  8730.523
 371  9314.072
 372  9586.52
 373  9069.613
 374  8988.905
 375  9364.016
 376  9359.337
 377  9357.138
 378  9216.835
 379  8884.947
 380  8642.017
 381  9228.903
 382  9578.909
 383  9382.265
 384  9040.558
 385  9588.1
 386  9938.957
 387  9781.572
 388  9865.542
 389  9528.852
 390  9228.581
 391  9318.954
 392  9160.73
 393  9503.771
 394  9357.303
 395  10320.44
 396  9825.982
 397  9880.127
 398  9428.853
 399  9943.418
 400  10232.69
 401  9842.362
 402  9393.595
 403  9452.202
 404  9235.174
 405  9256.411
 406  9548.347
 407  9361.231
 408  9355.564
 409  9440.415
 410  9625.487
 411  9817.955
 412  10195.78
 413  9627.885
 414  9436.281
 415  10092.34
 416  10035.84
 417  9509.905
 418  9568.235
 419  9656.431
 420  9464.259
 421  9344.73
 422  9401.109
 423  8870.402
 424  9168.805
 425  9359.377
 426  9234.585
 427  9515.607
 428  9492.883
 429  9603.845
 430  9584.308
 431  9616.142
 432  9507.91
 433  9457.983
 434  9302.414
 435  9254.657
 436  9537.021
 437  9367.355
 438  9024.316
 439  9323.598
 440  9707.556
 441  9251.146
 442  9232.497
 443  9437.177
 444  9476.385
 445  9337.657
 446  9383.843
 447  9677.393
 448  9818.016
 449  9771.319
 450  9460.603
 451  8814.674
 452  9250.551
 453  9948.938
 454  10086.44
 455  9617.325
 456  10121.9
 457  10465.99
 458  10173.76
 459  9826.868
 460  9755.452
 461  9657.734
 462  9430.473
 463  9221.094
 464  9237.524
 465  9602.589
 466  9940.757
 467  9865.604
 468  9327.569
 469  9453.34
 470  9371.91
 471  9622.504
 472  9513.224
 473  9312.063
 474  9426.958
 475  9109.047
 476  9003.715
 477  9241.474
 478  9745.26
 479  9663.918
 480  9444.979
 481  9794.812
 482  9389.812
 483  8997.291
 484  9078.289
 485  9527.513
 486  9417.116
 487  9544.377
 488  9547.387
 489  9177.643
 490  9115.789
 491  9393.625
 492  9767.943
 493  9837.071
 494  9983.034
 495  9718.045
 496  9666.765
 497  9859.47
 498  9538.059
 499  9540.463
 500  9423.517
 501  9522.541
 502  9351.679
 503  9554.824
 504  9339.952
 505  9470.314
 506  9131.88
 507  9089.541
 508  9224.246
 509  9230.556
 510  9451.615
 511  9840.316
