# Input file       =  1200499343.110404_cleaned.dat
# Candidate        =  PSR_0332+5434
# Telescope        =  AR
# Epoch_topo       =  58138.668542944491
# Epoch_bary       =  N/A
# T_sample         =  0.002
# Data Folded      =  7340032
# Data Avg         =  0.669373534619806
# Data StdDev      =  5.65319837378489 
# Profile Bins     =  512
# Profile Avg      =  9595.57048091227 
# Profile StdDev   =  676.874606533461 
# Reduced chi-sqr  =  0.594
# Prob(Noise)      <  1   (~0.0 sigma)
# P_topo (ms)      =  714.570210169907  +/- 0.000856
# P'_topo (s/s)    =  -0                +/- 4.52e-10
# P''_topo (s/s^2) =  0                 +/- 1.99e-13
# P_bary (ms)      =  N/A
# P'_bary (s/s)    =  N/A
# P''_bary (s/s^2) =  N/A
# P_orb (s)        =  N/A
# asin(i)/c (s)    =  N/A
# eccentricity     =  N/A
# w (rad)          =  N/A
# T_peri           =  N/A
######################################################
   0  10205.26
   1  9713.125
   2  9651.548
   3  9400.867
   4  9747.957
   5  10026.53
   6  9919.492
   7  9745.503
   8  9618.453
   9  9415.292
  10  9849.559
  11  10221.24
  12  9910.905
  13  9838.726
  14  10048.1
  15  10268.31
  16  10113.75
  17  9737.137
  18  9346.977
  19  9416.134
  20  9971.854
  21  10048.19
  22  9644.415
  23  9793.998
  24  9667.758
  25  9611.235
  26  9086.147
  27  9420.138
  28  9343.295
  29  10256.03
  30  10266.77
  31  9802.844
  32  9783.73
  33  9925.394
  34  9909.303
  35  10025.35
  36  9617.6
  37  9401.306
  38  9468.843
  39  9577.806
  40  9531.814
  41  9709.152
  42  9447.688
  43  9388.698
  44  9546.939
  45  9957.578
  46  9764.043
  47  9626.774
  48  9523.49
  49  9399.52
  50  9625.46
  51  10143.28
  52  9619.847
  53  9531.018
  54  9811.084
  55  10081.39
  56  9400.899
  57  9676.845
  58  9842.786
  59  9402.503
  60  8741.955
  61  8845.361
  62  8855.608
  63  9126.71
  64  9375.527
  65  9746.808
  66  9336.205
  67  9324.101
  68  8993.554
  69  8766.437
  70  8692.871
  71  9002.843
  72  9787.696
  73  9726.204
  74  9875.259
  75  10024.73
  76  9258.688
  77  10084.52
  78  9727.836
  79  9046.432
  80  9088.223
  81  9048.825
  82  9454.724
  83  9527.929
  84  9769.952
  85  9557.007
  86  9653.422
  87  9556.442
  88  10051.86
  89  10165.64
  90  10518.73
  91  10177.3
  92  9547.473
  93  9508.744
  94  9442.879
  95  9377.672
  96  9306.65
  97  9493.658
  98  9383.137
  99  9762.687
 100  9325.779
 101  9664.285
 102  9960.421
 103  9599.736
 104  10567.58
 105  10130.57
 106  9948.181
 107  10205.35
 108  9837.538
 109  9454.857
 110  9135.754
 111  9395.254
 112  9352.158
 113  9323.478
 114  9042.033
 115  9481.936
 116  9741.914
 117  9437.85
 118  9669.924
 119  9982.072
 120  9616.434
 121  9721.127
 122  10159.58
 123  10989.02
 124  10577.39
 125  10511.41
 126  10967.65
 127  10879.31
 128  10284.52
 129  10021.85
 130  10014.59
 131  9508.625
 132  9660.188
 133  10117.16
 134  9947.271
 135  10306.59
 136  9989.973
 137  9995.076
 138  9675.182
 139  9564.432
 140  9485.986
 141  10035.35
 142  9495.834
 143  9632.725
 144  9736.66
 145  9840.77
 146  9535.893
 147  9187.564
 148  9342.073
 149  9665.603
 150  9423.916
 151  8967.674
 152  8850.759
 153  8733.082
 154  9378.637
 155  9780.63
 156  10183.64
 157  9971.763
 158  10189.48
 159  9939.642
 160  9738.413
 161  9951.215
 162  9683.402
 163  9283.725
 164  9460.435
 165  9696.592
 166  9260.64
 167  8908.091
 168  9329.858
 169  9133.816
 170  9119.295
 171  8879.471
 172  9459.606
 173  9638.838
 174  9502.098
 175  8819.485
 176  9170.526
 177  9256.146
 178  9448.443
 179  9002.144
 180  8918.204
 181  8768.911
 182  9256.982
 183  9728.176
 184  9380.325
 185  8955.72
 186  8728.188
 187  9287.564
 188  9599.031
 189  9080.886
 190  8980.646
 191  9350.621
 192  9362.475
 193  9365.562
 194  9213.388
 195  8910.965
 196  8623.799
 197  9221.856
 198  9564.874
 199  9397.069
 200  9038.899
 201  9573.18
 202  9938.694
 203  9772.964
 204  9873.236
 205  9546.652
 206  9229.836
 207  9313.56
 208  9167.555
 209  9500.62
 210  9344.24
 211  10293.44
 212  9852.708
 213  9874.624
 214  9446.295
 215  9915.73
 216  10229.23
 217  9868.483
 218  9393.583
 219  9459.837
 220  9236.405
 221  9253.557
 222  9536.529
 223  9370.504
 224  9358.902
 225  9431.537
 226  9626.576
 227  9793.771
 228  10200.79
 229  9644.088
 230  9439.678
 231  10065.22
 232  10050.96
 233  9519.142
 234  9566.588
 235  9653.769
 236  9479.104
 237  9343.301
 238  9399.815
 239  8888.082
 240  9152.563
 241  9360.343
 242  9230.782
 243  9512.212
 244  9495.151
 245  9595.36
 246  9583.688
 247  9620.817
 248  9509.459
 249  9466.201
 250  9296.961
 251  9258.299
 252  9531.922
 253  9382.171
 254  9028.712
 255  9296.58
 256  9711.907
 257  9266.293
 258  9221.538
 259  9435.275
 260  9478.867
 261  9344.398
 262  9372.486
 263  9672.777
 264  9821.842
 265  9766.259
 266  9478.657
 267  8832.772
 268  9217.723
 269  9940.26
 270  10081.29
 271  9630.676
 272  10094.88
 273  10470.09
 274  10188.16
 275  9824.844
 276  9763.712
 277  9660.812
 278  9441.266
 279  9230.369
 280  9228.774
 281  9587.311
 282  9922.598
 283  9898.524
 284  9324.908
 285  9447.851
 286  9371.142
 287  9627.352
 288  9516.294
 289  9313.346
 290  9422.256
 291  9128.267
 292  8999.467
 293  9217.961
 294  9740.062
 295  9677.042
 296  9439.275
 297  9784.661
 298  9414.613
 299  9007.842
 300  9066.998
 301  9518.521
 302  9418.005
 303  9552.475
 304  9541.345
 305  9184.346
 306  9112.74
 307  9382.564
 308  9760.845
 309  9834.048
 310  9981.188
 311  9732.187
 312  9659.717
 313  9863.391
 314  9542.353
 315  9540.538
 316  9422.362
 317  9524.469
 318  9356.896
 319  9546.371
 320  9350.103
 321  9460.84
 322  9158.198
 323  9078.251
 324  9219.889
 325  9227.223
 326  9436.156
 327  9845.341
 328  9063.911
 329  9123.468
 330  9096.578
 331  9205.58
 332  9435.396
 333  9577.321
 334  9356.989
 335  9069.109
 336  9308.812
 337  9621.729
 338  9572.55
 339  8829.232
 340  9366.084
 341  9553.87
 342  9670.275
 343  9428.18
 344  9499.587
 345  9837.014
 346  9645.106
 347  9760.093
 348  9951.87
 349  9620.999
 350  9691.207
 351  9625.029
 352  9631.531
 353  9600.187
 354  9352.903
 355  9824.154
 356  9983.88
 357  9656.164
 358  9518.222
 359  9469.981
 360  10243.99
 361  9979.581
 362  9574.994
 363  9576.679
 364  9464.303
 365  9562.32
 366  9890
 367  9531.696
 368  9308.436
 369  9012.352
 370  9153.695
 371  9526.019
 372  9350.896
 373  9847.953
 374  9632.498
 375  9873.254
 376  9876.242
 377  9225.806
 378  9716.347
 379  9350.188
 380  9150.778
 381  9506.296
 382  9667.694
 383  9778.477
 384  9989.737
 385  9635.957
 386  9243.691
 387  9479.461
 388  9725.484
 389  9758.549
 390  9320.99
 391  8838.072
 392  9418.685
 393  9463.932
 394  9669.423
 395  9408.171
 396  9226.449
 397  9251.084
 398  9194.452
 399  9394.13
 400  9042.956
 401  8937.063
 402  9263.027
 403  9382.191
 404  9454.051
 405  9684.954
 406  9266.176
 407  9417.192
 408  9610.986
 409  9443.615
 410  9708.859
 411  9229.666
 412  9548.722
 413  9651.159
 414  9110.076
 415  8938.101
 416  9139.784
 417  10097.7
 418  10000.09
 419  9717.64
 420  9303.188
 421  9171.561
 422  9226.01
 423  9554.375
 424  9632.715
 425  9679.704
 426  9629.659
 427  8987.498
 428  9238.816
 429  9479.634
 430  9584.109
 431  9608.455
 432  9607.843
 433  10123.62
 434  10536.65
 435  10670.31
 436  10411.37
 437  10264.57
 438  10491.87
 439  9981.822
 440  9935.584
 441  9823.479
 442  10034.04
 443  9747.279
 444  9925.32
 445  10098.64
 446  10063.96
 447  10070.47
 448  10144.49
 449  10217.19
 450  9964.082
 451  10146.76
 452  10308.66
 453  10283.04
 454  9737.586
 455  10005.85
 456  9391.293
 457  9517.384
 458  10205.46
 459  10199.08
 460  10025.28
 461  9516.475
 462  9244.426
 463  9239.786
 464  9481.75
 465  9700.917
 466  9744.51
 467  9629.524
 468  9529.309
 469  9417.555
 470  9418.346
 471  9633.112
 472  9460.455
 473  9668.408
 474  9611.693
 475  9907.203
 476  10000.42
 477  9899.026
 478  9715.191
 479  9889.726
 480  9217.749
 481  9340.83
 482  9753.85
 483  9695.102
 484  10014.3
 485  10179.35
 486  9841.62
 487  8999.847
 488  9377.941
 489  9974.406
 490  9913.966
 491  10093.46
 492  10166.79
 493  10017.03
 494  10253.88
 495  10036.35
 496  9742.29
 497  9763.879
 498  10240.2
 499  10092.88
 500  10031.78
 501  9799.289
 502  9651.056
 503  10021.41
 504  9995.886
 505  9568.73
 506  9480.935
 507  9575.895
 508  9194.792
 509  9463.729
 510  9425.125
 511  9555.314
