# Input file       =  1200154712.110376_cleaned.dat
# Candidate        =  PSR_0332+5434
# Telescope        =  AR
# Epoch_topo       =  58134.679758221944
# Epoch_bary       =  N/A
# T_sample         =  0.002
# Data Folded      =  7340032
# Data Avg         =  0.0916096594550515
# Data StdDev      =  3.19775444496352 
# Profile Bins     =  512
# Profile Avg      =  1313.81568273889 
# Profile StdDev   =  382.876849282783 
# Reduced chi-sqr  =  1.127
# Prob(Noise)      <  0.024   (~2.0 sigma)
# P_topo (ms)      =  714.567705575364  +/- 0.000445
# P'_topo (s/s)    =  -0                +/- 2.35e-10
# P''_topo (s/s^2) =  0                 +/- 1.04e-13
# P_bary (ms)      =  N/A
# P'_bary (s/s)    =  N/A
# P''_bary (s/s^2) =  N/A
# P_orb (s)        =  N/A
# asin(i)/c (s)    =  N/A
# eccentricity     =  N/A
# w (rad)          =  N/A
# T_peri           =  N/A
######################################################
   0  1383.08
   1  1405.176
   2  1381.628
   3  1550.669
   4  1523.856
   5  1464.794
   6  1276.181
   7  1178.395
   8  994.6425
   9  1177.275
  10  1207.475
  11  1301.329
  12  1208.335
  13  1227.962
  14  1091.917
  15  1011.744
  16  1012.226
  17  1162.053
  18  1394.237
  19  1538.062
  20  1475.22
  21  1430.573
  22  1541.486
  23  1573.899
  24  1425.177
  25  1307.125
  26  1113.086
  27  1006.855
  28  1209.325
  29  1399.583
  30  1374.583
  31  1430.056
  32  1376.174
  33  957.1606
  34  1141.653
  35  987.4938
  36  940.0336
  37  709.507
  38  1041.584
  39  1198.631
  40  1184.302
  41  1235.227
  42  1262.949
  43  1175.705
  44  1246.694
  45  1160.335
  46  1185.583
  47  1411.454
  48  1188.712
  49  1375.021
  50  1225.308
  51  1282.707
  52  1750.786
  53  1575.763
  54  1265.259
  55  937.0952
  56  1532.75
  57  1656.832
  58  1351.544
  59  1159.131
  60  1295.983
  61  1322.941
  62  1235.862
  63  1071.933
  64  882.5261
  65  1098.073
  66  1223.041
  67  1124.311
  68  892.001
  69  960.1933
  70  1304.853
  71  1014.267
  72  873.5789
  73  1124.378
  74  1302.986
  75  1258.818
  76  1043.799
  77  966.361
  78  1260.592
  79  1530.724
  80  1107.952
  81  1192.459
  82  1436.033
  83  1130.916
  84  761.6476
  85  741.7681
  86  1200.017
  87  1167.055
  88  1090.176
  89  1194.402
  90  1105.247
  91  1149.164
  92  1113.383
  93  1020.414
  94  1228.434
  95  1364.579
  96  1479.443
  97  1389.716
  98  1331.739
  99  1287.306
 100  1380.943
 101  1338.278
 102  1415.219
 103  1757.79
 104  1715.23
 105  1208.42
 106  1202.919
 107  1217.558
 108  1325.164
 109  1280.446
 110  1334.961
 111  1180.429
 112  1227.007
 113  1314.456
 114  1055.699
 115  969.9748
 116  987.1439
 117  1140.902
 118  1163.443
 119  1049.254
 120  1020.262
 121  1093.478
 122  1167.24
 123  1433.164
 124  1699.449
 125  1556.327
 126  1293.105
 127  1104.294
 128  1389.316
 129  1287.267
 130  1171.271
 131  1396.454
 132  1362.085
 133  1475.947
 134  1445.922
 135  1819.62
 136  1595.047
 137  1246.139
 138  1403.378
 139  1132.697
 140  1148.266
 141  1362.787
 142  1486.038
 143  1261.051
 144  1244.258
 145  1276.17
 146  1275.736
 147  1221.485
 148  1422.667
 149  1488.7
 150  1789.141
 151  1906.045
 152  1720.227
 153  1848.052
 154  1892.532
 155  2033.129
 156  1979.253
 157  1916.758
 158  1991.325
 159  1869.57
 160  1622.309
 161  1539.701
 162  1453.444
 163  1836.953
 164  1886.998
 165  1918.515
 166  1844.308
 167  1816.925
 168  1967.412
 169  2051.747
 170  2024.065
 171  1802.505
 172  1831.955
 173  1497.207
 174  1581.608
 175  1647.019
 176  1724.028
 177  1653.355
 178  1617.858
 179  1604.526
 180  1648.701
 181  1374.39
 182  1425.977
 183  1532.41
 184  1806.582
 185  1541.744
 186  1372.397
 187  1635.951
 188  1784.722
 189  1609.675
 190  1450.856
 191  1371.304
 192  1570.189
 193  1320.543
 194  1304.666
 195  1157.025
 196  1222.62
 197  1207.045
 198  1652.022
 199  1793.065
 200  1499.961
 201  1421.208
 202  1389.934
 203  1298.51
 204  1225.457
 205  1421.837
 206  1431.884
 207  1480.435
 208  1275.599
 209  1395.999
 210  1232.793
 211  1133.804
 212  1086.989
 213  1159.333
 214  1255.512
 215  1123.175
 216  1209.107
 217  1297.545
 218  1569.738
 219  1828.284
 220  1687.305
 221  1484.47
 222  1217.726
 223  1156.549
 224  1179.605
 225  1279.725
 226  1371.123
 227  1278.91
 228  1446.256
 229  1343.181
 230  1038.001
 231  1227.557
 232  1244.344
 233  1627.829
 234  1442.112
 235  1344.157
 236  1053.333
 237  1299.025
 238  1180.858
 239  1025.261
 240  1056.12
 241  982.6872
 242  1202.366
 243  1160.059
 244  1028.8
 245  981.1443
 246  1018.943
 247  1316.949
 248  1521.999
 249  1335.227
 250  1255.521
 251  1303.343
 252  1037.961
 253  1034.088
 254  982.321
 255  1278.54
 256  1413.93
 257  1249.119
 258  1294.825
 259  1329.907
 260  1278.97
 261  1275.778
 262  1516.513
 263  1319.939
 264  1261.994
 265  1415.723
 266  1157.169
 267  1043.08
 268  1094.314
 269  1240.487
 270  1109.416
 271  1126.655
 272  1069.285
 273  1095.318
 274  1429.424
 275  1506.495
 276  1525.157
 277  1312.235
 278  1197.132
 279  1040.533
 280  1134.807
 281  1128.599
 282  1222.508
 283  1519.552
 284  1336.979
 285  1271.224
 286  1275.672
 287  921.2708
 288  1013.58
 289  1013.342
 290  878.9718
 291  925.7309
 292  1296.841
 293  1276.88
 294  1376.773
 295  1131.832
 296  1004.48
 297  920.5777
 298  1111.579
 299  1020.342
 300  1331.403
 301  1454.497
 302  1365.349
 303  1342.739
 304  1501.728
 305  2024.298
 306  2436.366
 307  2659.926
 308  2786.37
 309  3041.559
 310  3048.768
 311  2655.427
 312  2123.583
 313  1668.274
 314  1785.062
 315  1676.952
 316  1763.675
 317  1769.725
 318  1603.479
 319  1449.89
 320  1659.333
 321  1750.501
 322  1396.995
 323  1356.359
 324  1549.951
 325  1369.438
 326  1268.682
 327  1193.53
 328  1332.741
 329  1480.114
 330  1319.144
 331  1161.471
 332  1297.106
 333  1010.607
 334  1019.289
 335  1087.394
 336  1084.133
 337  1237.094
 338  1243.724
 339  1416.98
 340  1308.619
 341  977.5276
 342  992.0229
 343  1137.196
 344  1193.598
 345  1188.571
 346  1198.007
 347  1257.142
 348  1124.812
 349  1219.522
 350  1460.798
 351  1129.417
 352  1207.649
 353  1417.146
 354  1303.079
 355  1082.227
 356  988.7317
 357  1189.62
 358  1310.849
 359  1092.839
 360  1182.365
 361  1056.361
 362  1058.764
 363  861.9279
 364  683.651
 365  960.915
 366  1071.049
 367  1159.98
 368  1368.145
 369  1405.892
 370  1081.034
 371  1077.486
 372  1386.521
 373  1347.768
 374  1143.877
 375  1040.807
 376  1173.189
 377  1239.524
 378  1513.256
 379  1280.626
 380  1268.95
 381  1219.179
 382  1246.655
 383  1068.62
 384  1171.985
 385  1331.151
 386  1486.585
 387  1165.725
 388  1301.758
 389  1277.84
 390  1391.184
 391  1398.73
 392  1346.583
 393  1190.383
 394  1129.989
 395  1114.094
 396  1058.219
 397  859.2621
 398  1282.462
 399  1507.785
 400  1607.725
 401  1761.603
 402  1662.972
 403  1413.307
 404  1276.661
 405  1277.312
 406  1094.652
 407  1293.987
 408  1644.503
 409  1408.103
 410  796.5353
 411  1032.584
 412  1457.305
 413  1400.174
 414  1448.531
 415  1358.704
 416  1443.159
 417  1397.036
 418  1447.966
 419  1217.463
 420  1201.016
 421  1428.162
 422  1300.472
 423  984.4283
 424  833.2739
 425  1115.223
 426  1297.1
 427  1060.194
 428  1268.779
 429  1081.495
 430  589.5139
 431  526.7357
 432  573.334
 433  907.0079
 434  1080.623
 435  1144.67
 436  1216.411
 437  1163.757
 438  1010.251
 439  1208.204
 440  1218.663
 441  1137.085
 442  1136.357
 443  1278.256
 444  1356.15
 445  1197.793
 446  1105.727
 447  1353.443
 448  1466.363
 449  1046.232
 450  1157.755
 451  1453.869
 452  1608.374
 453  1631.062
 454  1667.226
 455  1637.507
 456  1400.944
 457  1206.265
 458  1433.066
 459  1588.972
 460  1584.38
 461  1548.164
 462  1699.416
 463  1440.066
 464  1322.489
 465  1065.642
 466  1172.954
 467  1220.509
 468  1312.738
 469  1336.176
 470  1420.92
 471  1393.179
 472  1064.36
 473  1045.605
 474  1074.966
 475  1145.642
 476  1248.83
 477  1296.539
 478  1064.427
 479  995.3558
 480  1008.643
 481  828.9354
 482  1374.426
 483  1454.11
 484  1309.903
 485  1047.831
 486  1509.977
 487  1557.676
 488  1399.628
 489  1353.714
 490  1106.559
 491  1142.979
 492  1171.119
 493  1284.511
 494  1509.283
 495  1201.895
 496  1151.326
 497  888.3432
 498  1199.029
 499  1254.905
 500  1309.724
 501  1055.213
 502  967.9116
 503  1059.324
 504  1186.751
 505  1217.438
 506  1252.694
 507  1292.992
 508  1032.708
 509  1049.888
 510  942.2728
 511  1161.096
