# Input file       =  1200226254.109845_cleaned.dat
# Candidate        =  PSR_0332+5434
# Telescope        =  AR
# Epoch_topo       =  58135.507790623204
# Epoch_bary       =  N/A
# T_sample         =  0.002
# Data Folded      =  7208960
# Data Avg         =  0.114300271722658
# Data StdDev      =  4.36032147614486 
# Profile Bins     =  512
# Profile Avg      =  1609.36015670092 
# Profile StdDev   =  517.39215255418  
# Reduced chi-sqr  =  0.782
# Prob(Noise)      <  1   (~0.0 sigma)
# P_topo (ms)      =  714.568231172983  +/- 7.98e-05
# P'_topo (s/s)    =  -0                +/- 4.29e-11
# P''_topo (s/s^2) =  0                 +/- 1.93e-14
# P_bary (ms)      =  N/A
# P'_bary (s/s)    =  N/A
# P''_bary (s/s^2) =  N/A
# P_orb (s)        =  N/A
# asin(i)/c (s)    =  N/A
# eccentricity     =  N/A
# w (rad)          =  N/A
# T_peri           =  N/A
######################################################
   0  2179.031
   1  1422.78
   2  1389.51
   3  1631.949
   4  1542.73
   5  1579.868
   6  1622.495
   7  1634.94
   8  1594.268
   9  1432.639
  10  1567.479
  11  1879.692
  12  1806.905
  13  2035.291
  14  1767.744
  15  2106.937
  16  1798.626
  17  1238.782
  18  1617.78
  19  1689.198
  20  1762.519
  21  1677.044
  22  1715.635
  23  1605.309
  24  1752.729
  25  1280.027
  26  1126.738
  27  1683.346
  28  1558.607
  29  1396.159
  30  1642.922
  31  2178.465
  32  2193.289
  33  1918.638
  34  1847.724
  35  1684.155
  36  1318.014
  37  1393.831
  38  1233.023
  39  1506.729
  40  1334.795
  41  1749.878
  42  1626.139
  43  1607.68
  44  1562.84
  45  1942.44
  46  1905.03
  47  1805.092
  48  1920.611
  49  1720.344
  50  1470.115
  51  1433.6
  52  1604.411
  53  1805.336
  54  1533.417
  55  1767.685
  56  1353.392
  57  1578.041
  58  1423.547
  59  1463.054
  60  1650.704
  61  1605.327
  62  1741.027
  63  1767.226
  64  1987.565
  65  2046.204
  66  1345.033
  67  1313.994
  68  1591.4
  69  1511.028
  70  1001.4
  71  1149.263
  72  1559.455
  73  1712.853
  74  1603.619
  75  1568.223
  76  1263.565
  77  1292.935
  78  1324.967
  79  1336.78
  80  1701.826
  81  2182.003
  82  2343.092
  83  1443.233
  84  1360.822
  85  1678.308
  86  1774.485
  87  1590.313
  88  1332.926
  89  1517.935
  90  1445.074
  91  1283.3
  92  1305.245
  93  1530.375
  94  1890.413
  95  2044.204
  96  1810.262
  97  2229.596
  98  2392.775
  99  1988.782
 100  1505.905
 101  1182.571
 102  876.1479
 103  1050.897
 104  1227.032
 105  1427.096
 106  1541.959
 107  1059.206
 108  1234.598
 109  1023.247
 110  831.2454
 111  1316.886
 112  1153.093
 113  1715.572
 114  1518.026
 115  1043.896
 116  1059.617
 117  1384.852
 118  1427.017
 119  1095.683
 120  1026.229
 121  1096.576
 122  1190.87
 123  850.0903
 124  1228.642
 125  1015.806
 126  1480.373
 127  1854.934
 128  1720.201
 129  1578.334
 130  1831.197
 131  2023.917
 132  1590.685
 133  1446.996
 134  1567.834
 135  1480.078
 136  1567.751
 137  1632.166
 138  1561.959
 139  1437.761
 140  1314.785
 141  1166.285
 142  1294.98
 143  1522.815
 144  1845.035
 145  2047.674
 146  2350.009
 147  2591.276
 148  2447.695
 149  2155.318
 150  1391.011
 151  1450.618
 152  1367.356
 153  1196.159
 154  1644.332
 155  1573.805
 156  1622.986
 157  1196.516
 158  1449.203
 159  1691.864
 160  1828.163
 161  1582.149
 162  1656.548
 163  1842.724
 164  1664.191
 165  2035.816
 166  1799.853
 167  1585.321
 168  1589.75
 169  1288.183
 170  1627.831
 171  1537.147
 172  1829.159
 173  1588.771
 174  1124.442
 175  991.8736
 176  1292.225
 177  1794.869
 178  2189.871
 179  2112.017
 180  2146.382
 181  2190.571
 182  2318.239
 183  2109.948
 184  1592.544
 185  1470.043
 186  1121.448
 187  970.7689
 188  1385.939
 189  1271.757
 190  1248.733
 191  1387.707
 192  1474.818
 193  1490.144
 194  1545.537
 195  1774.737
 196  1614.647
 197  1741.37
 198  1611.782
 199  1444.92
 200  1645.539
 201  1608.252
 202  1355.368
 203  1138.377
 204  1352.635
 205  1840.224
 206  1650.405
 207  1161.16
 208  1626.145
 209  1338.747
 210  1488.864
 211  1937.102
 212  1965.63
 213  1961.75
 214  1810.068
 215  2009.436
 216  1923.972
 217  1720.562
 218  1618.813
 219  1445.339
 220  1540.024
 221  1989.601
 222  1599.813
 223  1385.487
 224  1327.399
 225  1486.591
 226  1770.626
 227  1890.429
 228  1799.806
 229  2184.84
 230  2050.275
 231  1652.84
 232  1574.135
 233  1707.558
 234  1528.139
 235  1338.484
 236  1142.547
 237  1361.25
 238  1419.492
 239  920.0723
 240  1087.542
 241  1372.416
 242  1252.282
 243  1466.022
 244  1684.427
 245  1771.941
 246  1909.203
 247  1541.687
 248  1695.343
 249  1586.313
 250  1603.275
 251  1359.199
 252  1281.289
 253  1214.634
 254  1572.366
 255  1355.242
 256  1116.851
 257  1477.759
 258  1099.526
 259  1221.185
 260  1238.997
 261  1616.082
 262  1994.858
 263  1689.324
 264  1565.302
 265  1873.283
 266  1646.498
 267  1701.312
 268  1351.834
 269  1240.34
 270  1306.97
 271  1519.474
 272  1380.665
 273  1321.82
 274  1278.097
 275  1461.377
 276  1763.925
 277  1605.782
 278  1506.528
 279  1768.811
 280  1735.929
 281  1607.213
 282  1316.29
 283  1301.667
 284  1620.328
 285  1231.745
 286  955.4321
 287  1199.627
 288  1573.687
 289  1612.803
 290  1328.333
 291  1618.278
 292  1371.632
 293  1508.926
 294  1744.142
 295  1625.919
 296  1832.083
 297  1713.421
 298  1412.46
 299  1876.934
 300  1277.439
 301  1204.494
 302  1211.897
 303  1327.627
 304  1836.546
 305  1318.862
 306  1010.979
 307  1492.029
 308  1940.158
 309  1850.302
 310  1975.748
 311  2145.609
 312  1968.373
 313  1830.682
 314  1879.282
 315  1430.119
 316  1370.063
 317  1660.901
 318  1708.03
 319  1525.89
 320  1196.392
 321  1032.672
 322  1173.177
 323  1642.204
 324  1610.715
 325  1569.96
 326  1431.382
 327  1547.093
 328  2110.86
 329  2451.049
 330  2196.398
 331  1822.003
 332  1687.895
 333  1537.906
 334  1287.075
 335  1311.371
 336  1920.143
 337  2030.161
 338  1510.059
 339  1275.621
 340  1772.733
 341  1851.187
 342  1595.756
 343  1768.822
 344  1942.71
 345  2074.899
 346  2030.826
 347  1674.253
 348  1663.543
 349  1749.849
 350  1653.827
 351  1463.215
 352  1382.423
 353  1771.029
 354  1689.643
 355  1466.945
 356  1340.45
 357  1601.4
 358  1618.068
 359  1752.936
 360  1853.646
 361  2192.105
 362  2609.543
 363  2259.835
 364  1613.47
 365  1277.401
 366  1514.144
 367  1386.736
 368  1622.953
 369  1718.043
 370  1817.464
 371  1525.114
 372  1524.315
 373  1952.439
 374  1900.281
 375  1876.748
 376  1949.675
 377  1776.104
 378  1840.99
 379  1725.993
 380  1477.521
 381  1522.321
 382  1584.234
 383  1980.031
 384  1760.624
 385  1545.635
 386  1561.432
 387  1529.701
 388  1439.398
 389  1015.086
 390  1276.408
 391  1427.315
 392  1853.573
 393  1979.803
 394  2028.552
 395  1985.01
 396  1878.811
 397  1689.019
 398  1775.037
 399  1706.965
 400  1120.191
 401  983.9864
 402  1515.045
 403  1868.538
 404  1365.567
 405  1438.784
 406  1346.225
 407  1583.069
 408  1632.028
 409  1727.75
 410  1862.105
 411  1859.292
 412  1850.442
 413  1782.884
 414  1532.397
 415  1573.678
 416  1440.492
 417  1682.69
 418  1509.93
 419  1536.707
 420  1697.584
 421  1188.361
 422  1051.156
 423  1341.162
 424  1633.276
 425  1575.948
 426  1470.659
 427  1905.409
 428  1654.878
 429  1670.918
 430  1530.021
 431  1717.914
 432  1784.077
 433  1603.855
 434  1477.595
 435  1353.347
 436  1301.445
 437  1437.08
 438  1264.95
 439  1316.525
 440  1650.341
 441  1754.419
 442  1531.371
 443  1827.039
 444  1837.691
 445  1683.068
 446  1729.777
 447  1784.111
 448  1691.894
 449  1582.871
 450  1551.771
 451  1438.39
 452  1676.075
 453  1561.074
 454  954.6909
 455  627.8146
 456  1251.838
 457  1682.703
 458  1927.773
 459  1922.857
 460  2084.356
 461  2209.081
 462  1923.84
 463  1627.205
 464  1384.617
 465  1487
 466  1626.34
 467  1669.661
 468  1689.891
 469  1875.775
 470  1578.605
 471  1588.499
 472  1576.556
 473  1248.723
 474  1094.861
 475  1548.073
 476  1957.336
 477  1836.989
 478  1696.905
 479  1496.73
 480  1683.664
 481  1783.576
 482  1527.571
 483  1350.689
 484  1314.407
 485  1776.973
 486  1599.498
 487  1416.87
 488  1306.872
 489  1479.957
 490  1889.441
 491  2089.372
 492  1923.888
 493  2094.151
 494  2551.512
 495  2207.627
 496  1842.394
 497  1430.188
 498  1240.373
 499  1113.51
 500  1652.915
 501  1713.82
 502  2023.945
 503  1961.557
 504  1892.148
 505  1616.469
 506  1848.967
 507  2220.449
 508  2887.141
 509  3380.762
 510  3267.023
 511  2878.39
