# Input file       =  1200772773.113199_cleaned.dat
# Candidate        =  PSR_0332+5434
# Telescope        =  AR
# Epoch_topo       =  58141.833242050918
# Epoch_bary       =  N/A
# T_sample         =  0.002
# Data Folded      =  7340032
# Data Avg         =  0.0661826556405068
# Data StdDev      =  0.99985667560902 
# Profile Bins     =  512
# Profile Avg      =  948.78635223784  
# Profile StdDev   =  119.715875712247 
# Reduced chi-sqr  =  0.788
# Prob(Noise)      <  1   (~0.0 sigma)
# P_topo (ms)      =  714.572348013828  +/- 8.44e-05
# P'_topo (s/s)    =  -0                +/- 4.46e-11
# P''_topo (s/s^2) =  0                 +/- 1.97e-14
# P_bary (ms)      =  N/A
# P'_bary (s/s)    =  N/A
# P''_bary (s/s^2) =  N/A
# P_orb (s)        =  N/A
# asin(i)/c (s)    =  N/A
# eccentricity     =  N/A
# w (rad)          =  N/A
# T_peri           =  N/A
######################################################
   0  1354.231
   1  1311.848
   2  1200.323
   3  1056.216
   4  990.5198
   5  1017.978
   6  1042.295
   7  1116.236
   8  946.2574
   9  1026.802
  10  1036.838
  11  1004.281
  12  985.8329
  13  1032.883
  14  929.0819
  15  895.6459
  16  978.1938
  17  924.7913
  18  998.5185
  19  1023.633
  20  949.2037
  21  941.7009
  22  924.3596
  23  923.2285
  24  956.1405
  25  902.0073
  26  896.6454
  27  882.2944
  28  944.7482
  29  1013.373
  30  914.1426
  31  958.8698
  32  1006.281
  33  910.58
  34  1001.045
  35  993.32
  36  906.8577
  37  960.439
  38  999.1952
  39  858.2305
  40  883.7331
  41  911.8187
  42  1007.122
  43  870.2524
  44  879.0969
  45  913.1283
  46  1015.109
  47  1066.943
  48  934.67
  49  913.7035
  50  944.4724
  51  882.7839
  52  853.3921
  53  938.634
  54  966.102
  55  927.949
  56  947.2519
  57  976.7557
  58  953.3311
  59  852.2628
  60  913.1052
  61  1021.407
  62  1016.71
  63  969.9235
  64  1026.968
  65  1041.796
  66  997.9279
  67  900.5267
  68  914.9314
  69  893.9373
  70  959.9539
  71  937.0384
  72  936.6938
  73  914.4871
  74  843.5339
  75  934.0338
  76  919.2436
  77  989.2255
  78  979.4132
  79  1042.443
  80  987.6837
  81  845.6165
  82  875.2971
  83  902.3451
  84  878.7749
  85  1108.737
  86  1016.917
  87  828.6821
  88  845.4009
  89  972.0099
  90  860.1631
  91  851.977
  92  955.1407
  93  1100.647
  94  1020.718
  95  932.6068
  96  946.8514
  97  1049.272
  98  1044.678
  99  968.176
 100  1030.171
 101  1067.454
 102  1034.777
 103  1084.377
 104  956.5804
 105  794.1546
 106  847.1198
 107  870.8695
 108  900.7488
 109  928.1148
 110  1017.655
 111  1037.924
 112  1049.183
 113  982.5481
 114  950.288
 115  1007.391
 116  980.252
 117  940.2853
 118  977.2719
 119  924.8489
 120  993.5726
 121  1067.102
 122  927.8713
 123  877.8313
 124  941.6166
 125  912.9763
 126  936.34
 127  920.202
 128  958.2932
 129  957.8596
 130  933.5255
 131  972.7678
 132  956.4793
 133  944.9265
 134  897.5356
 135  937.3482
 136  921.5629
 137  944.2838
 138  948.2438
 139  933.3085
 140  962.7732
 141  897.1357
 142  1011.029
 143  906.9333
 144  755.8547
 145  856.2909
 146  896.7881
 147  856.5864
 148  837.2847
 149  904.2388
 150  898.2364
 151  860.9575
 152  873.1284
 153  907.7274
 154  958.9286
 155  892.6896
 156  912.4014
 157  914.2947
 158  933.1034
 159  972.1325
 160  994.6575
 161  996.5488
 162  908.4392
 163  895.0739
 164  891.6143
 165  898.4357
 166  861.0331
 167  992.2179
 168  1011.613
 169  949.2515
 170  991.8122
 171  910.6782
 172  992.6738
 173  920.3747
 174  913.3367
 175  924.1868
 176  930.5748
 177  977.8564
 178  954.4982
 179  901.4462
 180  882.771
 181  1023.476
 182  1103.008
 183  1037.623
 184  982.3265
 185  996.7859
 186  880.0207
 187  851.063
 188  897.6296
 189  922.1881
 190  949.5668
 191  924.145
 192  872.3291
 193  869.6088
 194  950.0462
 195  982.9807
 196  1028.895
 197  1019.298
 198  981.4934
 199  967.2951
 200  898.8729
 201  847.3359
 202  837.8994
 203  919.2369
 204  1061.123
 205  959.6985
 206  1029.455
 207  946.4276
 208  899.0547
 209  924.452
 210  936.827
 211  970.9614
 212  1001.31
 213  925.2313
 214  890.6265
 215  886.9857
 216  872.1198
 217  883.3571
 218  873.0306
 219  895.1262
 220  1062.204
 221  996.1119
 222  1065.156
 223  1062.843
 224  905.2449
 225  912.4349
 226  925.7661
 227  885.3095
 228  884.9014
 229  818.2374
 230  838.9697
 231  817.0796
 232  866.7018
 233  841.4825
 234  960.3787
 235  998.9464
 236  995.3897
 237  944.1962
 238  966.5491
 239  972.2778
 240  896.1141
 241  1011.06
 242  1021.781
 243  1013.571
 244  1023.126
 245  1009.59
 246  1065.674
 247  1106.375
 248  1041.264
 249  937.4768
 250  872.8899
 251  994.1891
 252  1022.995
 253  1108.007
 254  1060.895
 255  1009.447
 256  960.4907
 257  995.6805
 258  985.4997
 259  822.715
 260  880.8822
 261  976.5688
 262  1024.294
 263  1011.563
 264  991.2214
 265  1057.117
 266  962.0627
 267  1005.6
 268  1047.605
 269  1029.819
 270  925.5558
 271  930.3583
 272  904.9523
 273  881.559
 274  855.4957
 275  918.6086
 276  865.181
 277  834.7794
 278  927.1459
 279  1113.553
 280  948.663
 281  956.6239
 282  987.1769
 283  1045.642
 284  1008.019
 285  1062.565
 286  993.928
 287  975.2867
 288  973.329
 289  1017.651
 290  1073.154
 291  967.1146
 292  1009.196
 293  1040.36
 294  1056.972
 295  962.7523
 296  1001.433
 297  1017.818
 298  972.3822
 299  919.8389
 300  992.5499
 301  924.9588
 302  1011.364
 303  1120.746
 304  1138.719
 305  1024.218
 306  1031.909
 307  1001.157
 308  982.3821
 309  968.1317
 310  1049.607
 311  1072.651
 312  996.782
 313  859.9767
 314  891.8494
 315  863.9273
 316  802.0479
 317  907.3864
 318  1003.935
 319  938.5812
 320  1008.88
 321  938.85
 322  952.7062
 323  970.9584
 324  1004.439
 325  990.2329
 326  952.5208
 327  883.8819
 328  888.595
 329  951.2488
 330  981.0696
 331  968.7701
 332  1005.738
 333  980.4972
 334  988.9139
 335  1018.369
 336  932.861
 337  977.3176
 338  980.5767
 339  1022.184
 340  977.3936
 341  837.7803
 342  900.9365
 343  1016.228
 344  994.7607
 345  1024.807
 346  963.9136
 347  980.8766
 348  920.88
 349  877.6465
 350  965.6252
 351  965.962
 352  876.8952
 353  919.5391
 354  962.4862
 355  924.9033
 356  1025.993
 357  908.0388
 358  910.3275
 359  914.9995
 360  962.23
 361  1020.479
 362  934.9222
 363  929.841
 364  947.8797
 365  1034.839
 366  970.0471
 367  975.6531
 368  934.0167
 369  820.7732
 370  892.0068
 371  914.7414
 372  885.3662
 373  890.5226
 374  842.1094
 375  892.0756
 376  880.2202
 377  888.3621
 378  961.8669
 379  857.0345
 380  862.6649
 381  806.3817
 382  880.6343
 383  968.5355
 384  929.0429
 385  987.0073
 386  907.5763
 387  907.4205
 388  927.9846
 389  1010.83
 390  953.5189
 391  916.3082
 392  977.6363
 393  941.1594
 394  935.7009
 395  899.3979
 396  955.0337
 397  935.6649
 398  942.2822
 399  870.6934
 400  898.7838
 401  1010.253
 402  945.1168
 403  917.8331
 404  1021.562
 405  961.433
 406  879.9064
 407  897.2138
 408  916.9402
 409  925.5087
 410  964.3893
 411  1003.593
 412  866.5384
 413  764.6228
 414  869.2189
 415  1019.02
 416  1002.873
 417  908.9109
 418  948.3159
 419  964.9654
 420  867.9267
 421  871.9034
 422  868.206
 423  914.5295
 424  841.1798
 425  921.3522
 426  882.2725
 427  880.5921
 428  863.1097
 429  957.8215
 430  977.3423
 431  931.5402
 432  965.4357
 433  864.1902
 434  933.7797
 435  1035.732
 436  978.762
 437  933.2576
 438  968.0127
 439  916.7335
 440  838.2831
 441  813.8243
 442  820.6794
 443  949.4276
 444  998.026
 445  807.0519
 446  905.3475
 447  936.2087
 448  916.2672
 449  877.1401
 450  822.7585
 451  845.1475
 452  857.3394
 453  934.1312
 454  924.593
 455  867.9202
 456  850.969
 457  816.7289
 458  909.7872
 459  854.2866
 460  867.5656
 461  898.2979
 462  923.3522
 463  881.5546
 464  899.9713
 465  984.8146
 466  975.4323
 467  906.1926
 468  932.3425
 469  863.2376
 470  809.743
 471  818.9509
 472  875.6182
 473  867.6396
 474  779.5303
 475  842.4692
 476  857.9338
 477  844.547
 478  920.912
 479  912.4745
 480  913.0139
 481  894.9424
 482  928.5361
 483  915.981
 484  882.0477
 485  795.4141
 486  842.2783
 487  912.9927
 488  910.5471
 489  961.0209
 490  993.345
 491  955.1461
 492  1039.284
 493  1052.193
 494  1023.998
 495  989.6114
 496  1022.567
 497  955.7004
 498  936.2091
 499  954.5394
 500  941.1769
 501  887.1776
 502  808.4767
 503  935.7122
 504  1105.613
 505  1098.981
 506  1127.626
 507  1089.412
 508  1063.408
 509  1138.326
 510  1235.404
 511  1413.206
