# Input file       =  1200398598.099281_cleaned.dat
# Candidate        =  PSR_0332+5434
# Telescope        =  AR
# Epoch_topo       =  58137.502512723164
# Epoch_bary       =  N/A
# T_sample         =  0.002
# Data Folded      =  7143424
# Data Avg         =  0.0997258324866017
# Data StdDev      =  5.44120976039213 
# Profile Bins     =  512
# Profile Avg      =  1391.20480231912 
# Profile StdDev   =  642.707994766438 
# Reduced chi-sqr  =  0.726
# Prob(Noise)      <  1   (~0.0 sigma)
# P_topo (ms)      =  714.569489329757  +/- 7.38e-05
# P'_topo (s/s)    =  -0                +/- 4e-11
# P''_topo (s/s^2) =  0                 +/- 1.82e-14
# P_bary (ms)      =  N/A
# P'_bary (s/s)    =  N/A
# P''_bary (s/s^2) =  N/A
# P_orb (s)        =  N/A
# asin(i)/c (s)    =  N/A
# eccentricity     =  N/A
# w (rad)          =  N/A
# T_peri           =  N/A
######################################################
   0  1250.189
   1  1109.325
   2  1117.522
   3  1173.533
   4  1088.114
   5  994.0047
   6  1324.625
   7  1170.953
   8  721.0854
   9  870.0849
  10  950.1548
  11  1225.109
  12  1064.465
  13  1216.263
  14  1406.979
  15  979.2921
  16  854.8015
  17  1199.697
  18  1560.482
  19  945.8704
  20  1238.325
  21  1036.903
  22  801.7214
  23  1069.872
  24  928.2236
  25  849.9699
  26  1487.257
  27  1497.598
  28  1512.899
  29  1034.518
  30  1265.83
  31  1331.542
  32  1437.825
  33  1038.802
  34  939.6414
  35  1183.763
  36  982.3964
  37  747.3239
  38  628.9661
  39  616.2429
  40  828.9861
  41  904.897
  42  1311.895
  43  627.0551
  44  791.861
  45  1398.491
  46  1858.038
  47  2022.712
  48  2241.808
  49  1420.666
  50  1326.391
  51  1445.209
  52  1116.022
  53  1215.085
  54  1599.713
  55  1303.545
  56  1160.873
  57  1217.737
  58  1369.364
  59  1247.578
  60  1182.382
  61  1846.774
  62  2644.21
  63  2861.359
  64  2770.144
  65  1928.434
  66  1547.108
  67  1307.096
  68  1247.811
  69  1094.976
  70  1271.645
  71  1315.13
  72  819.0942
  73  777.6847
  74  901.1893
  75  1224.208
  76  1346.953
  77  1631.951
  78  2203.765
  79  2099.116
  80  1641.549
  81  1780.536
  82  1300.996
  83  1427.583
  84  1331.396
  85  1357.959
  86  1041.562
  87  1089.99
  88  1612.273
  89  1505.431
  90  1280.881
  91  1175.582
  92  1047.01
  93  1522.485
  94  1066.277
  95  1372.311
  96  1690.585
  97  1678.864
  98  1478.912
  99  1984.134
 100  1668.545
 101  1321.572
 102  1349.445
 103  1628.438
 104  1399.777
 105  1589.522
 106  1718.057
 107  1336.229
 108  1104.663
 109  1267.911
 110  1193.724
 111  1602.266
 112  1597.099
 113  1460.121
 114  1230.065
 115  780.4289
 116  755.0639
 117  1330.021
 118  1254.531
 119  1289.961
 120  1417.903
 121  1530.055
 122  1419.5
 123  861.3459
 124  740.564
 125  403.0402
 126  1021.687
 127  1056.197
 128  1191.326
 129  1454.829
 130  1499.139
 131  1311.788
 132  1173.978
 133  1146.625
 134  1232.874
 135  1310.151
 136  1731.411
 137  1325.675
 138  1636.405
 139  1171.406
 140  742.7758
 141  684.91
 142  682.8726
 143  1170.225
 144  1490.372
 145  2176.645
 146  1969.851
 147  1220.133
 148  1008.005
 149  552.02
 150  502.5981
 151  1060.117
 152  1587.628
 153  1515.712
 154  1121.328
 155  1132.24
 156  870.3821
 157  592.4895
 158  635.0762
 159  1070.939
 160  1391.981
 161  1438.519
 162  1496.42
 163  1377.437
 164  1144.545
 165  1238.222
 166  1446.123
 167  1241.347
 168  1149.85
 169  1446.403
 170  1373.254
 171  1630.314
 172  1608.431
 173  1526.583
 174  1329.058
 175  1767.354
 176  2146.249
 177  1908.585
 178  1900.646
 179  1802.662
 180  1718.982
 181  1839.498
 182  1463.755
 183  1581.119
 184  1573.032
 185  1547.465
 186  1383.172
 187  1211.246
 188  1013.068
 189  953.2747
 190  884.3384
 191  815.1122
 192  1425.279
 193  1541.186
 194  1492.37
 195  1730.633
 196  2174.822
 197  1627.297
 198  1320.853
 199  1502.9
 200  1718.763
 201  1470.772
 202  1552.761
 203  2127.817
 204  2221.505
 205  1864.288
 206  1588.099
 207  1285.37
 208  1237.225
 209  915.7426
 210  1474.086
 211  1608.316
 212  1650.05
 213  1391.78
 214  1629.834
 215  1219.654
 216  1099.66
 217  1323.845
 218  1353.427
 219  1487.868
 220  2072.709
 221  2229.955
 222  1547.144
 223  635.1924
 224  1030.763
 225  1161.343
 226  1246.616
 227  1405.501
 228  1830.993
 229  2054.811
 230  1650.03
 231  1092.094
 232  862.5575
 233  809.2509
 234  803.1854
 235  1702.16
 236  1598.736
 237  779.7619
 238  780.7401
 239  1096.168
 240  787.4888
 241  834.4861
 242  1269.928
 243  1345.222
 244  1195.632
 245  1549.693
 246  1822.447
 247  1544.35
 248  777.5679
 249  1027.187
 250  1443.062
 251  1069.585
 252  948.9593
 253  1495.079
 254  1752.902
 255  1510.08
 256  707.1479
 257  841.5709
 258  964.8245
 259  1116.084
 260  1609.856
 261  1530.651
 262  1566.579
 263  1561.199
 264  999.6801
 265  806.4711
 266  639.2697
 267  1111.497
 268  1427.001
 269  1245.74
 270  1422.645
 271  1620.938
 272  1246.182
 273  416.6791
 274  685.9673
 275  853.3336
 276  1105.958
 277  1552.306
 278  1946.394
 279  2215.065
 280  1766.607
 281  1697.705
 282  1499.988
 283  1402.952
 284  1395.019
 285  1356.355
 286  1173.45
 287  1497.434
 288  1878.042
 289  1264.175
 290  1160.173
 291  969.2487
 292  1251.134
 293  1297.36
 294  1703.238
 295  1333.723
 296  1451.56
 297  1350.443
 298  809.6651
 299  1222.333
 300  1669.037
 301  1400.432
 302  1159.861
 303  987.1426
 304  2444.819
 305  1692.11
 306  1471.356
 307  1145.048
 308  1224.752
 309  1180.799
 310  1743.359
 311  1421.998
 312  1146.351
 313  957.282
 314  740.5688
 315  1162.089
 316  712.7974
 317  1008.098
 318  824.7994
 319  1069.578
 320  1028.488
 321  1079.761
 322  1081.344
 323  1075.835
 324  1255.596
 325  1861.59
 326  1560.549
 327  1387.457
 328  1644.301
 329  2243.026
 330  1435.055
 331  835.3309
 332  1306.742
 333  1192.762
 334  1840.323
 335  1701.84
 336  2101.298
 337  2090.563
 338  1349.385
 339  994.0651
 340  1317.904
 341  2030.703
 342  1482.392
 343  1361.102
 344  2006.36
 345  1719.184
 346  1634.167
 347  1708.061
 348  1408.772
 349  1529.654
 350  1372.568
 351  1502.189
 352  1233.338
 353  1382.047
 354  1620.763
 355  544.3506
 356  529.3052
 357  778.0425
 358  518.0842
 359  748.6226
 360  1380.444
 361  1642.015
 362  1049.761
 363  951.7285
 364  1352.907
 365  1629.657
 366  1796.784
 367  1263.349
 368  1880.903
 369  1875.845
 370  1920.955
 371  2102.312
 372  1746.333
 373  1117.19
 374  984.4778
 375  1428.045
 376  1586.452
 377  2222.642
 378  2221.501
 379  1929.808
 380  1378.67
 381  996.8494
 382  1637.108
 383  1805.171
 384  1877.831
 385  1588.405
 386  1327.807
 387  1106.21
 388  1026.045
 389  1503.603
 390  1816.418
 391  1767.548
 392  1520.789
 393  1776.295
 394  1599.142
 395  1859.52
 396  1442.929
 397  1803.338
 398  1416.645
 399  1355.61
 400  1483.392
 401  1351.713
 402  1330.57
 403  1439.64
 404  1155.836
 405  1018.975
 406  1043.522
 407  1754.177
 408  1794.735
 409  1591.384
 410  1421.685
 411  1544.541
 412  723.7396
 413  834.1563
 414  1359.531
 415  1308.3
 416  1092.266
 417  1510.25
 418  1600.883
 419  1780.605
 420  1050.704
 421  599.6235
 422  1317.175
 423  1960.549
 424  1414.437
 425  2185.855
 426  1811.792
 427  1475.413
 428  1863.639
 429  1599.915
 430  1734.142
 431  1904.598
 432  2131.639
 433  2332.461
 434  1906.55
 435  2197.818
 436  1886.127
 437  1988.462
 438  1413.018
 439  1945.893
 440  1982.591
 441  1691.656
 442  1720.564
 443  1837.044
 444  1887.455
 445  1860.277
 446  2339.326
 447  2341.573
 448  1457.896
 449  1292.579
 450  1303.226
 451  1654.216
 452  1940.109
 453  1696.449
 454  1446.621
 455  1141.598
 456  1739.385
 457  1569.624
 458  1645.554
 459  1571.06
 460  1945.667
 461  1697.148
 462  1563.286
 463  1739.053
 464  1602.081
 465  1630.137
 466  1197.181
 467  1559.68
 468  1546.988
 469  1415.6
 470  1583.535
 471  1369.817
 472  1786.466
 473  1729.756
 474  1834.257
 475  1967.774
 476  1785.382
 477  1641.901
 478  1063.228
 479  1056.492
 480  1627.783
 481  1786.756
 482  2061.557
 483  1397.005
 484  1356.974
 485  1346.162
 486  1004.466
 487  676.809
 488  1083.617
 489  1681.015
 490  1730.979
 491  1357.046
 492  1419.727
 493  1338.845
 494  1228.677
 495  856.5738
 496  646.2466
 497  1454.36
 498  1388.303
 499  1813.729
 500  2052.372
 501  1402.129
 502  1377.169
 503  1459.475
 504  1377.509
 505  1086.294
 506  1212.766
 507  1657.213
 508  1670.716
 509  1508.525
 510  1117.046
 511  1292.46
