# Input file       =  1200068525.116485_cleaned.dat
# Candidate        =  PSR_0332+5434
# Telescope        =  AR
# Epoch_topo       =  58133.682223570431
# Epoch_bary       =  N/A
# T_sample         =  0.002
# Data Folded      =  7340032
# Data Avg         =  1.03751963769277 
# Data StdDev      =  8.28054734662343 
# Profile Bins     =  512
# Profile Avg      =  14873.1663150867 
# Profile StdDev   =  991.455076672797 
# Reduced chi-sqr  =  0.779
# Prob(Noise)      <  1   (~0.0 sigma)
# P_topo (ms)      =  714.56704016545   +/- 2.01e-05
# P'_topo (s/s)    =  -0                +/- 1.06e-11
# P''_topo (s/s^2) =  0                 +/- 4.68e-15
# P_bary (ms)      =  N/A
# P'_bary (s/s)    =  N/A
# P''_bary (s/s^2) =  N/A
# P_orb (s)        =  N/A
# asin(i)/c (s)    =  N/A
# eccentricity     =  N/A
# w (rad)          =  N/A
# T_peri           =  N/A
######################################################
   0  15365.03
   1  14115.49
   2  14549.93
   3  15067.33
   4  15781.36
   5  15003.21
   6  14232.36
   7  13794.59
   8  14644.77
   9  16284.59
  10  14880.14
  11  14831.29
  12  15001.42
  13  15526.87
  14  15484.81
  15  14544.81
  16  13964.85
  17  13939.39
  18  14845.09
  19  15440.9
  20  14830.88
  21  14309.74
  22  14726.42
  23  16130.55
  24  15729.22
  25  14578.64
  26  13985.18
  27  14890.5
  28  15372.29
  29  14867.24
  30  14650.46
  31  14547.48
  32  15177.49
  33  15164.08
  34  14787.67
  35  13882.21
  36  13958.89
  37  14998.41
  38  15764.36
  39  14235.17
  40  13281.17
  41  14801.36
  42  14628.91
  43  15779.4
  44  14691.07
  45  14242
  46  13774.47
  47  14173.95
  48  15050.9
  49  14843.04
  50  14960.51
  51  15086.36
  52  15833.28
  53  14801.92
  54  13357.16
  55  13435.36
  56  15054.06
  57  15131.3
  58  14262.99
  59  13645.32
  60  14672.76
  61  15644.66
  62  15186.28
  63  14676.78
  64  14049.91
  65  14303.45
  66  15440.11
  67  14585.55
  68  14206.08
  69  13951.47
  70  14843.55
  71  15099.2
  72  15242.16
  73  14328.08
  74  13521.5
  75  14489.65
  76  15033.45
  77  14520.85
  78  14364
  79  15381.2
  80  15500.12
  81  15416.28
  82  13752.58
  83  13333.16
  84  14564.43
  85  14995.03
  86  15975.36
  87  15014.21
  88  14430.75
  89  14276.96
  90  14611.13
  91  14977.28
  92  14818.47
  93  14159.77
  94  14350.36
  95  15338.44
  96  14648.06
  97  14243.19
  98  14017.1
  99  15154.45
 100  15952.35
 101  14926.38
 102  14510.57
 103  13726.07
 104  14750.19
 105  14880.44
 106  14726.16
 107  14386.71
 108  14753.84
 109  16011.16
 110  15436.87
 111  14802.43
 112  14564.46
 113  14940.95
 114  15222.23
 115  15329.23
 116  15013.97
 117  14661.8
 118  14882.95
 119  14525.86
 120  14781.26
 121  14415.21
 122  14693.03
 123  15236.6
 124  15678.31
 125  14742.78
 126  13960.76
 127  14808.76
 128  15169.78
 129  15612
 130  14619.99
 131  14642.55
 132  14735.23
 133  14826.08
 134  15629.19
 135  14961.81
 136  15411.63
 137  15420.44
 138  16476.04
 139  14601.95
 140  14059.58
 141  14731.34
 142  15792.04
 143  16095.27
 144  15076.67
 145  14415.92
 146  15119.67
 147  15636.49
 148  15535.07
 149  14526.81
 150  14031.97
 151  14299.46
 152  15078.12
 153  14534.81
 154  14064.26
 155  13645.2
 156  14816.05
 157  15447.98
 158  14858.54
 159  14380.64
 160  14137.21
 161  14959.21
 162  14739.07
 163  15222.79
 164  14063.32
 165  14540.51
 166  14877.67
 167  14997.11
 168  14849.1
 169  14111.8
 170  14301.59
 171  15243.46
 172  15631.67
 173  13984.6
 174  14034.18
 175  14410.27
 176  15512.77
 177  15566.85
 178  14410.63
 179  13797.86
 180  15129.99
 181  17353.45
 182  16512.59
 183  16389.11
 184  15491.96
 185  15583.11
 186  15742.7
 187  14364.83
 188  14473.32
 189  14191.88
 190  14812.45
 191  15039.62
 192  15225.32
 193  14821.99
 194  14491.5
 195  15421.11
 196  14649.85
 197  14258.82
 198  13548.61
 199  14495.15
 200  15229.21
 201  15515.26
 202  14744.02
 203  14079.93
 204  14477.3
 205  15224.42
 206  15223.81
 207  13777.56
 208  14671.6
 209  15738.26
 210  15885.25
 211  15028.64
 212  14180.02
 213  14546.51
 214  15279.26
 215  15446.11
 216  14237.45
 217  14408.12
 218  14206.53
 219  15452.93
 220  15447.98
 221  14958.72
 222  14969.04
 223  15073.41
 224  15901.07
 225  15698.36
 226  15612.07
 227  15200.69
 228  15103.03
 229  14834.44
 230  14899.12
 231  14255.86
 232  14085.14
 233  14912.79
 234  15563.38
 235  15500
 236  14716.01
 237  14587.86
 238  15245.41
 239  15373.57
 240  14376.03
 241  13665.38
 242  14136.8
 243  14968.99
 244  15119.76
 245  14371.37
 246  14156.81
 247  15545.62
 248  15362.6
 249  14666.6
 250  13472.01
 251  14301.59
 252  14947.66
 253  15219.65
 254  14928.16
 255  13753.33
 256  14266.91
 257  14786.78
 258  15694.9
 259  14527.52
 260  14218.64
 261  14750.29
 262  14959.24
 263  14616.2
 264  13913.65
 265  14267.02
 266  14139.38
 267  15135.63
 268  14527.34
 269  15146.96
 270  14811.68
 271  15018.53
 272  15636.74
 273  15227.47
 274  14385.85
 275  14547.62
 276  16623.39
 277  16787.01
 278  16209.51
 279  14692.04
 280  14528.52
 281  15353.37
 282  15801.19
 283  15455.91
 284  14830.31
 285  15557.97
 286  14896.48
 287  14435.21
 288  13945.52
 289  14252.8
 290  15296.25
 291  15662.24
 292  15916.17
 293  15048.86
 294  14685.35
 295  14912.75
 296  15399.2
 297  15498.71
 298  14586.99
 299  14902.54
 300  14894.39
 301  14915.05
 302  13273.38
 303  12909.22
 304  13909.55
 305  15253.63
 306  16152.55
 307  15130.8
 308  14608.42
 309  15005.18
 310  15910.46
 311  15589.04
 312  14809.19
 313  14614.92
 314  15069.01
 315  15511.77
 316  15551.68
 317  14768.28
 318  14667.12
 319  15806.05
 320  15660.78
 321  15207.67
 322  14432.21
 323  13446.34
 324  14558.78
 325  14960.33
 326  14299.53
 327  14339.57
 328  15212.43
 329  15198.94
 330  15198.87
 331  15058.93
 332  15338.32
 333  15158.91
 334  15763.2
 335  15850.33
 336  14613.75
 337  14726.13
 338  14682.14
 339  15316.49
 340  15475.92
 341  14675.67
 342  14452.73
 343  14315.16
 344  14993.02
 345  14438.22
 346  14908.46
 347  14562.03
 348  15391.49
 349  15606.24
 350  14201.06
 351  13896.87
 352  14599.77
 353  15701.96
 354  14756.62
 355  14732.92
 356  14775.01
 357  15299.97
 358  15622.3
 359  14749.08
 360  14780.55
 361  14470.71
 362  15606.58
 363  15367.45
 364  15511.07
 365  14919.08
 366  15112.1
 367  15440.2
 368  15381.19
 369  15596.79
 370  14087.98
 371  14622.1
 372  15097.42
 373  15543.91
 374  15361.78
 375  14018.31
 376  14982.02
 377  15346.33
 378  15350.6
 379  14456.96
 380  14653.69
 381  14721.3
 382  14278.85
 383  14984.78
 384  13188.52
 385  13361.43
 386  13662.29
 387  14403.43
 388  14151.37
 389  14235.04
 390  15083.48
 391  15465.91
 392  15963.72
 393  14425.15
 394  14130.73
 395  14493.07
 396  15825.52
 397  14931.64
 398  15057.01
 399  14613.15
 400  13865.13
 401  14760.63
 402  14888.73
 403  15119.04
 404  14511.79
 405  14868.02
 406  14849.11
 407  14327.24
 408  14519.53
 409  14238.92
 410  15665.89
 411  15681.75
 412  15055.96
 413  14197.61
 414  14755.86
 415  15401.46
 416  14746.52
 417  15393.02
 418  14538.02
 419  14701.92
 420  14806.47
 421  15167.47
 422  14633.37
 423  14885.74
 424  14829.46
 425  14845.23
 426  15576.99
 427  14703.96
 428  14853.76
 429  14972.59
 430  16073.08
 431  14848.9
 432  14228.79
 433  15062.97
 434  15620.96
 435  15625.33
 436  14413.99
 437  13769.07
 438  13750.51
 439  15465.33
 440  14796.73
 441  14373.12
 442  14478.26
 443  15163.44
 444  15274.33
 445  14486.59
 446  14956.23
 447  14629.04
 448  15202.58
 449  15915.87
 450  14667.08
 451  13982.87
 452  13702.12
 453  14988.55
 454  15409.51
 455  14817.16
 456  14310.52
 457  15080.26
 458  15719.41
 459  15350.38
 460  14664.85
 461  15050.91
 462  15786.87
 463  15775.94
 464  16169.95
 465  14785.73
 466  13886.19
 467  14694.98
 468  15751.72
 469  15769.33
 470  14908.52
 471  15020.62
 472  15073.17
 473  15632.56
 474  15514.93
 475  15608.63
 476  15544.72
 477  15276.63
 478  16316.75
 479  14421.68
 480  13997.29
 481  13816.74
 482  15340.61
 483  15725.25
 484  14968.93
 485  14676.03
 486  14998.71
 487  15153.36
 488  14375.82
 489  14594.27
 490  14828.66
 491  14639.54
 492  14912.42
 493  14832.36
 494  14680.35
 495  14579.39
 496  15512.31
 497  15511.41
 498  14239.55
 499  13284.16
 500  14126.69
 501  15256.12
 502  15597.04
 503  15665.99
 504  14846.77
 505  14956.88
 506  15805.06
 507  16036.16
 508  14892.19
 509  14224.14
 510  14993.59
 511  15663.92
