# Input file       =  1200484724.120746_cleaned.dat
# Candidate        =  PSR_0332+5434
# Telescope        =  AR
# Epoch_topo       =  58138.499341675299
# Epoch_bary       =  N/A
# T_sample         =  0.002
# Data Folded      =  7143424
# Data Avg         =  0.0908358809837233
# Data StdDev      =  5.02236706952496 
# Profile Bins     =  512
# Profile Avg      =  1272.19205696583 
# Profile StdDev   =  593.234889000631 
# Reduced chi-sqr  =  0.928
# Prob(Noise)      <  0.877   (~0.0 sigma)
# P_topo (ms)      =  714.570094848059  +/- 3.74e-05
# P'_topo (s/s)    =  -0                +/- 2.03e-11
# P''_topo (s/s^2) =  0                 +/- 9.2e-15
# P_bary (ms)      =  N/A
# P'_bary (s/s)    =  N/A
# P''_bary (s/s^2) =  N/A
# P_orb (s)        =  N/A
# asin(i)/c (s)    =  N/A
# eccentricity     =  N/A
# w (rad)          =  N/A
# T_peri           =  N/A
######################################################
   0  1307.766
   1  898.0405
   2  552.4149
   3  723.799
   4  1039.682
   5  1249.049
   6  1301.781
   7  1770.628
   8  1596.866
   9  1142.128
  10  745.2496
  11  1077.326
  12  1315.215
  13  1546.603
  14  1470.551
  15  1543.488
  16  1628.031
  17  1630.501
  18  1161.014
  19  1082.429
  20  931.7644
  21  819.7861
  22  1013.687
  23  1453.507
  24  1399.646
  25  1114.176
  26  931.9025
  27  1438.417
  28  1691.309
  29  1753.262
  30  1600.482
  31  1439.497
  32  1565.083
  33  1550.697
  34  930.4777
  35  592.0408
  36  660.0132
  37  1011.658
  38  1283.25
  39  1187.574
  40  1325.724
  41  1452.333
  42  850.2308
  43  833.954
  44  1227.32
  45  1134.864
  46  1765.256
  47  2206.83
  48  2326.066
  49  1713.523
  50  924.9446
  51  999.8727
  52  1190.195
  53  1304.27
  54  1258.544
  55  1219.052
  56  1156.252
  57  1224.126
  58  815.3541
  59  613.542
  60  809.7401
  61  1475.176
  62  1600.675
  63  1701.44
  64  1827.422
  65  2108.85
  66  1944.211
  67  828.5099
  68  739.2916
  69  1129.643
  70  1401.377
  71  1535.091
  72  1433.17
  73  1323.023
  74  1391.403
  75  1312.589
  76  932.5099
  77  1071.802
  78  1657.715
  79  1797.041
  80  2084.26
  81  1870.595
  82  1600.292
  83  1256.592
  84  1304.705
  85  1223.185
  86  1513.803
  87  1364.988
  88  1306.971
  89  1333.215
  90  1382.117
  91  1216.282
  92  905.931
  93  1196.572
  94  1205.508
  95  1323.364
  96  1204.221
  97  995.0112
  98  1460.491
  99  1511.16
 100  1125.92
 101  1018.671
 102  1254.061
 103  1114.53
 104  476.0197
 105  698.7498
 106  1293.197
 107  991.7824
 108  642.4551
 109  583.6541
 110  969.7352
 111  1232.05
 112  1818.055
 113  1885.474
 114  1948.453
 115  1761.196
 116  1268.698
 117  811.6223
 118  956.3704
 119  1030.46
 120  1098.397
 121  1216.91
 122  1236.473
 123  1333.828
 124  1064.255
 125  803.221
 126  986.6993
 127  1556.445
 128  1554.647
 129  1544.1
 130  1652.319
 131  1346.415
 132  937.2783
 133  564.855
 134  789.595
 135  868.4126
 136  1258.555
 137  1344.441
 138  1223.118
 139  1228.405
 140  1250.384
 141  727.4822
 142  725.8739
 143  1464.885
 144  1981.421
 145  2248.401
 146  2231.913
 147  2277.143
 148  1538.96
 149  1000.337
 150  689.8708
 151  974.0567
 152  1129.568
 153  1490.371
 154  1737.32
 155  1437.329
 156  1112.809
 157  958.644
 158  1086.568
 159  889.8583
 160  1059.647
 161  1362.586
 162  1608.867
 163  1510.183
 164  1498.954
 165  1642.817
 166  1019.724
 167  904.4974
 168  1015.259
 169  965.6122
 170  1015.562
 171  934.463
 172  1265.181
 173  978.9245
 174  442.2924
 175  466.3863
 176  1009.791
 177  1680.794
 178  1640.826
 179  1725.693
 180  1341.168
 181  1193.535
 182  1186.807
 183  1082.998
 184  920.5106
 185  1295.581
 186  1284.994
 187  1452.2
 188  1351.815
 189  1263.3
 190  1249.663
 191  760.784
 192  805.1664
 193  1409.288
 194  1683.645
 195  1796.928
 196  1792.77
 197  1863.109
 198  1396.804
 199  1327.475
 200  904.5407
 201  964.9518
 202  1448.321
 203  1398.313
 204  1112.781
 205  1197.171
 206  1054.376
 207  196.3076
 208  450.394
 209  1401.031
 210  1354.418
 211  1551.294
 212  1300.629
 213  1593.83
 214  1413.476
 215  1126.642
 216  588.252
 217  637.9536
 218  1005.254
 219  1235.786
 220  1308.333
 221  1356.14
 222  1413.714
 223  1159.218
 224  606.8224
 225  538.9144
 226  849.864
 227  1293.846
 228  1574.365
 229  1782.819
 230  1807.912
 231  1158.59
 232  890.8031
 233  1111.493
 234  1220.219
 235  1145.317
 236  756.8973
 237  1073.279
 238  1179.428
 239  954.1285
 240  623.6075
 241  595.5436
 242  1150.068
 243  1862.693
 244  1894.109
 245  1592.128
 246  1536.58
 247  1551.486
 248  1278.584
 249  822.7426
 250  933.2197
 251  1202.824
 252  736.5746
 253  500.3867
 254  945.0721
 255  1387
 256  1127.185
 257  504.7594
 258  444.2523
 259  563.0237
 260  1059.863
 261  1716.298
 262  1624.789
 263  1558.559
 264  1450.837
 265  1053.374
 266  1334.015
 267  1511.337
 268  1268.746
 269  1139.57
 270  1285.062
 271  1541.925
 272  1237.364
 273  1146.444
 274  359.3563
 275  999.3901
 276  1854.851
 277  1941.474
 278  1988.634
 279  1801.544
 280  1552.908
 281  1497.097
 282  927.5164
 283  831.4313
 284  949.2991
 285  1340.26
 286  1414.777
 287  1576.496
 288  1530.572
 289  801.8742
 290  396.2585
 291  685.4368
 292  1424.431
 293  1553.312
 294  1943.562
 295  2003.803
 296  1930.192
 297  910.3735
 298  770.9827
 299  562.6399
 300  809.5633
 301  1315.234
 302  1486.437
 303  1107.862
 304  887.8138
 305  1181.759
 306  859.7325
 307  661.6688
 308  1118.707
 309  1561.253
 310  1867.597
 311  1705.314
 312  1863.061
 313  1961.077
 314  1500.35
 315  841.0508
 316  905.4429
 317  914.8342
 318  550.3679
 319  986.5692
 320  1705.528
 321  1693.07
 322  1297.252
 323  767.4935
 324  974.9781
 325  1246.715
 326  1092.136
 327  1321.682
 328  1658.729
 329  1985.257
 330  1834.42
 331  1342.373
 332  954.2578
 333  780.2648
 334  1284.123
 335  1186.716
 336  1123.297
 337  1311.123
 338  1451.187
 339  921.4728
 340  929.8059
 341  1056.713
 342  1729.83
 343  1701.691
 344  1535.826
 345  1431.79
 346  1678.264
 347  1708.641
 348  1686.46
 349  2319.938
 350  2596.399
 351  2517.125
 352  2191.52
 353  2055.599
 354  1604.107
 355  950.5128
 356  616.4352
 357  1078.038
 358  1350.466
 359  1613.327
 360  1585.243
 361  1399.383
 362  1531.295
 363  1656.264
 364  1431.921
 365  1327.335
 366  1361.895
 367  1323.719
 368  1719.476
 369  1659.287
 370  1706.502
 371  1799.54
 372  1239.732
 373  1083.672
 374  1403.324
 375  1698.785
 376  1688.319
 377  1491.835
 378  1543.718
 379  1266.56
 380  1393.132
 381  952.0372
 382  587.7439
 383  623.7653
 384  1071.533
 385  1303.619
 386  1505.863
 387  1305.316
 388  1057.413
 389  407.8383
 390  686.7291
 391  1055.325
 392  1456.064
 393  1522.613
 394  1908.07
 395  1881.223
 396  1583.588
 397  987.4092
 398  315.5038
 399  470.4109
 400  878.0375
 401  1357.413
 402  1008.721
 403  1153.241
 404  1229.187
 405  1103.882
 406  621.754
 407  735.526
 408  1286.014
 409  1762.957
 410  1901.199
 411  2063.116
 412  1810.695
 413  963.7606
 414  799.4764
 415  1109.956
 416  1198.609
 417  1008.581
 418  1013.981
 419  1165.15
 420  1209.395
 421  1216.558
 422  999.0345
 423  775.6141
 424  1111.694
 425  1484.969
 426  1632.181
 427  1647.544
 428  1646.578
 429  1718.173
 430  1241.531
 431  933.3879
 432  542.7174
 433  1032.917
 434  1061.039
 435  1291.305
 436  1614.671
 437  1825.031
 438  1237.835
 439  340.268
 440  602.2033
 441  1242.049
 442  1548.153
 443  1791.451
 444  1922.875
 445  2127.915
 446  1241.317
 447  677.0439
 448  630.0927
 449  1133.985
 450  1389.946
 451  1202.451
 452  1383.801
 453  1280.173
 454  1203.025
 455  742.3881
 456  896.6973
 457  1859.831
 458  1639.271
 459  1383.818
 460  1582.678
 461  1470.442
 462  1256.665
 463  970.925
 464  670.1965
 465  563.1883
 466  1078.987
 467  1139.507
 468  1205.068
 469  1379.21
 470  1417.733
 471  554.6289
 472  -59.40796
 473  650.3806
 474  1443.363
 475  1862.028
 476  1929.95
 477  1913.906
 478  1866.906
 479  1640.888
 480  864.5759
 481  1012.719
 482  968.2759
 483  1565.611
 484  1593.935
 485  1797.591
 486  1858.171
 487  1142.258
 488  775.7163
 489  1060.462
 490  1384.933
 491  1801.567
 492  1980.242
 493  2110.735
 494  1593.14
 495  1850.365
 496  1467.739
 497  935.4279
 498  927.0722
 499  1300.134
 500  1198.808
 501  1299.345
 502  1555.23
 503  1460.286
 504  1061.377
 505  573.0746
 506  1359.913
 507  1369.362
 508  1585.612
 509  2037.499
 510  1941.593
 511  1928.253
