# Input file       =  1200757855.109703-PSRB0329-2ms-sampling-dd.dat
# Candidate        =  PSR_0332+5434
# Telescope        =  AR
# Epoch_topo       =  58141.660579973417
# Epoch_bary       =  N/A
# T_sample         =  0.002
# Data Folded      =  7340032
# Data Avg         =  -2.26146148333722e-09
# Data StdDev      =  138.441846210258 
# Profile Bins     =  512
# Profile Avg      =  -0.00580539541078973
# Profile StdDev   =  16576.0626083594 
# Reduced chi-sqr  =  1.221
# Prob(Noise)      <  0.000436   (~3.3 sigma)
# P_topo (ms)      =  714.571919966461  +/- 0.00046
# P'_topo (s/s)    =  -0                +/- 2.43e-10
# P''_topo (s/s^2) =  0                 +/- 1.07e-13
# P_bary (ms)      =  N/A
# P'_bary (s/s)    =  N/A
# P''_bary (s/s^2) =  N/A
# P_orb (s)        =  N/A
# asin(i)/c (s)    =  N/A
# eccentricity     =  N/A
# w (rad)          =  N/A
# T_peri           =  N/A
######################################################
   0  -7444.043
   1  -6595.504
   2  -5967.423
   3  -6216.858
   4  -6745.375
   5  -7350.968
   6  -7543.591
   7  -7001.653
   8  -6362.848
   9  -5879.866
  10  -5345.546
  11  -5381.015
  12  -6206.769
  13  -6796.579
  14  -3673.485
  15  11351.5
  16  20627.98
  17  22268.16
  18  23701.15
  19  14681.95
  20  -1277.115
  21  7822.301
  22  19917.65
  23  31641.28
  24  25899.05
  25  19206.43
  26  12337.46
  27  355.7033
  28  611.1392
  29  -988.7522
  30  -4453.652
  31  -5592.077
  32  -6755.291
  33  -7053.562
  34  -5958.473
  35  -5419.244
  36  -5468.527
  37  -4159.394
  38  -4842.948
  39  -5952.497
  40  -7280.701
  41  -8328.354
  42  -8019.314
  43  -8148.986
  44  -7657.25
  45  -7458.284
  46  -7244.48
  47  -7336.437
  48  -7918.987
  49  -7950.232
  50  -7900.258
  51  -6530.043
  52  -6048.741
  53  -6297.604
  54  -7009.764
  55  -7918.172
  56  -8168.581
  57  -8484.546
  58  -6429.703
  59  -5541.591
  60  -5959.829
  61  -5913.02
  62  -7052.834
  63  -7263.34
  64  -6712.438
  65  -4885.592
  66  -4491.301
  67  -3847.428
  68  -5958.578
  69  -7690.252
  70  -6750.673
  71  -4201.564
  72  -1735.918
  73  3238.26
  74  4297.017
  75  4603.325
  76  2425.532
  77  2223.491
  78  2728.415
  79  3311.877
  80  6198.793
  81  6141.512
  82  5800.97
  83  2019.568
  84  -624.8999
  85  -3217.277
  86  -5068.591
  87  -6926.116
  88  -7578.143
  89  -8181.308
  90  -8493.108
  91  -8793.036
  92  -8153.007
  93  -8202.719
  94  -7851.471
  95  -7970.133
  96  -8465.361
  97  -8862.641
  98  -8677.417
  99  -8204.816
 100  -8092.774
 101  -8508.491
 102  -8169.374
 103  -8331.62
 104  -8992.225
 105  -8976.148
 106  -8426.623
 107  -7816.292
 108  -7739.521
 109  -7400.992
 110  -7787.84
 111  -8242.146
 112  -7917.581
 113  -8107.815
 114  -7757.884
 115  -7766.141
 116  -7191.304
 117  -7211.803
 118  -7617.857
 119  -8139.422
 120  -8307.732
 121  -7739.375
 122  -7101.181
 123  -6876.614
 124  -7254.946
 125  -7382.13
 126  -8000.705
 127  -8319.728
 128  -7668.246
 129  -7824.29
 130  -7350.438
 131  -7264.452
 132  -6973.094
 133  -6977.961
 134  -6898.467
 135  -6370.975
 136  -6157.181
 137  -5268.695
 138  -6147.279
 139  -6342.286
 140  -6199.281
 141  -5840.082
 142  -5866.071
 143  -5642.131
 144  -5908.243
 145  -5968.075
 146  -5629.211
 147  -6106.224
 148  -6982.854
 149  -7285.143
 150  -5348.393
 151  -4179.327
 152  -3221.252
 153  -4435.051
 154  -5956.776
 155  -7306.876
 156  -7562.199
 157  -6325.562
 158  -5018.708
 159  -4426.839
 160  -5303.224
 161  -6572.271
 162  -7771.587
 163  -7813.085
 164  -7142.849
 165  -6534.107
 166  -6086.646
 167  -7144.08
 168  -7907.758
 169  -8490.948
 170  -8030.18
 171  -7450.487
 172  -6978.209
 173  -6997.15
 174  -6444.543
 175  -6934.115
 176  -7565.056
 177  -8196.017
 178  -7539.06
 179  -7200.2
 180  -7014.155
 181  -7245.336
 182  -7827.869
 183  -8175.79
 184  -8033.936
 185  -7563.566
 186  -7577.767
 187  -7518.475
 188  -7334.67
 189  -7438.67
 190  -7928.523
 191  -8295.339
 192  -7891.236
 193  -7727.421
 194  -8374.257
 195  -7512.052
 196  -7316.702
 197  -5411.989
 198  2368.846
 199  6773.459
 200  7258.697
 201  8612.643
 202  -1577.765
 203  -4657.065
 204  -3211.46
 205  11111.73
 206  9331.603
 207  10689.27
 208  6285.184
 209  -2757.01
 210  16100.73
 211  22813.42
 212  27627.82
 213  27966.27
 214  17229.23
 215  6775.296
 216  -7186.353
 217  26603.17
 218  35814.97
 219  38605.37
 220  26861.42
 221  14230.41
 222  1384.334
 223  -6497.065
 224  -5799.601
 225  -4828.419
 226  -5364.616
 227  -5612.943
 228  -5879.148
 229  -7091.177
 230  -8882.033
 231  -2614.772
 232  2241.153
 233  7302.032
 234  5179.636
 235  5693.293
 236  3443.473
 237  -10510.57
 238  -1092.269
 239  3565.162
 240  6254.286
 241  4912.406
 242  2002.935
 243  -1279.333
 244  -8587.78
 245  -7169.581
 246  -6952.146
 247  -7493.38
 248  -6545.768
 249  -6047.782
 250  -6452.771
 251  -6181.144
 252  -6360.37
 253  -5719.219
 254  -5921.639
 255  -7181.288
 256  -2128.185
 257  1800.409
 258  5436.499
 259  1196.079
 260  369.6693
 261  -1651.727
 262  -5499.273
 263  -1425.718
 264  1237.585
 265  2545.73
 266  3490.706
 267  2515.443
 268  -686.5022
 269  -4714.151
 270  -5027.013
 271  -5297.163
 272  -6026.004
 273  -6983.52
 274  -7004.497
 275  603.3923
 276  4724.871
 277  7629.625
 278  8111.789
 279  4927.558
 280  523.6908
 281  -7816.085
 282  6488.737
 283  7892.599
 284  8614.928
 285  6414.436
 286  390.6041
 287  -3856.474
 288  -7300.432
 289  -7097.818
 290  -7542.513
 291  -8622.226
 292  -7393.789
 293  -7523.331
 294  -7372.261
 295  -6808.021
 296  -6292.569
 297  -8219.958
 298  -7816.555
 299  -6868.921
 300  -7788.684
 301  2604.248
 302  9609.688
 303  14757.94
 304  16249.14
 305  10484.76
 306  -301.6079
 307  -3998.146
 308  6082.617
 309  19696.41
 310  21986.93
 311  18898.13
 312  13925.75
 313  -258.1754
 314  -2779.233
 315  -6497.763
 316  -1374.76
 317  3158.008
 318  6226.153
 319  23324.09
 320  24432.71
 321  23033.55
 322  21474.83
 323  1464.412
 324  -1854.964
 325  4552.762
 326  24166.41
 327  23413.97
 328  20619.64
 329  11997.82
 330  834.9406
 331  -6356.737
 332  -6599.801
 333  -6994.379
 334  -6957.874
 335  -6748.248
 336  -6400.736
 337  -7138.226
 338  -6869.06
 339  -5991.896
 340  -7493.397
 341  -7612.915
 342  -5602.723
 343  -7738.017
 344  -7068.516
 345  4592.151
 346  13685.16
 347  35960.93
 348  45970.99
 349  48036.8
 350  38656.01
 351  10184.32
 352  26312.83
 353  20811.37
 354  55785.47
 355  53627.98
 356  55403.98
 357  50456.58
 358  69210.53
 359  62921.62
 360  59000.82
 361  47830.5
 362  8844.014
 363  116.3239
 364  33200.29
 365  63715.19
 366  67231.24
 367  60669.59
 368  37945.04
 369  26117.46
 370  16068.62
 371  19076.49
 372  12117.29
 373  -1418.69
 374  -539.5525
 375  6292.74
 376  20582.58
 377  28966.07
 378  26715.63
 379  22896.28
 380  7070.735
 381  -1503.158
 382  -4515.624
 383  -2721.513
 384  4909.41
 385  6389.466
 386  3976.651
 387  -1218.319
 388  -4469.107
 389  -7725.802
 390  -7702.705
 391  -7949.286
 392  -8523.099
 393  -7833.386
 394  -6953.018
 395  -6349.15
 396  -5812.794
 397  -6131.283
 398  -7800.765
 399  -7654.174
 400  -6536.833
 401  -4402.809
 402  -4123.082
 403  -4782.709
 404  -5780.879
 405  -7237.81
 406  -7154.956
 407  -6428.604
 408  -6336.088
 409  -6401.9
 410  -6499.807
 411  -6496.567
 412  -7878.418
 413  -7753.394
 414  -7812.419
 415  -7798.924
 416  -7762.988
 417  -8035.323
 418  -7952.318
 419  -8193.479
 420  -7870.496
 421  -6796.078
 422  -6855.714
 423  -7381.805
 424  -7239.228
 425  -7945.341
 426  -8976.99
 427  -2028.27
 428  3616.224
 429  8100.749
 430  8624.642
 431  3805.171
 432  -190.7892
 433  -6492.896
 434  4501.542
 435  8406.519
 436  10609.04
 437  7208.548
 438  2629.596
 439  -1924.424
 440  -5945.533
 441  -6011.502
 442  -6031.257
 443  -7440.151
 444  -7710.798
 445  -8186.749
 446  -7973.16
 447  -7665.278
 448  -7487.348
 449  -7533.179
 450  -7566.455
 451  -8146.466
 452  -8259.719
 453  -8036.868
 454  -8047.282
 455  -8553.348
 456  -8505.664
 457  -8419.496
 458  -8646.833
 459  -8678.793
 460  -8500.61
 461  -8665.706
 462  -8621.241
 463  -8442.361
 464  -8662.624
 465  -8755.155
 466  -8761.792
 467  -8092.811
 468  -7671.652
 469  -7815.129
 470  -8244.409
 471  -7925.074
 472  -8340.062
 473  -8953.733
 474  -8999.535
 475  -8608.644
 476  -8051.411
 477  -7274.058
 478  -6917.837
 479  -7263.078
 480  -7126.39
 481  -7758.573
 482  -8650.676
 483  -7826.833
 484  -6314.759
 485  -2715.352
 486  3590.759
 487  4619.726
 488  13036.55
 489  15939.84
 490  6764.932
 491  6248.745
 492  7170.753
 493  10773.57
 494  6158.989
 495  9006.487
 496  8841.239
 497  7423.28
 498  6217.327
 499  5032.965
 500  -4906.255
 501  -6532.397
 502  -7351.71
 503  -7715.742
 504  -7883.68
 505  -7168.445
 506  -6355.315
 507  -5966.551
 508  -6541.057
 509  -7167.417
 510  -6831.754
 511  -7308.663
