# Input file       =  1200413215.099894_cleaned.dat
# Candidate        =  PSR_0332+5434
# Telescope        =  AR
# Epoch_topo       =  58137.671690970994
# Epoch_bary       =  N/A
# T_sample         =  0.002
# Data Folded      =  7340032
# Data Avg         =  0.0851443845354617
# Data StdDev      =  3.11565562894382 
# Profile Bins     =  1024
# Profile Avg      =  610.431064899289 
# Profile StdDev   =  263.783998883324 
# Reduced chi-sqr  =  0.725
# Prob(Noise)      <  1   (~0.0 sigma)
# P_topo (ms)      =  714.56960833234   +/- 0.000624
# P'_topo (s/s)    =  -0                +/- 3.29e-10
# P''_topo (s/s^2) =  0                 +/- 1.45e-13
# P_bary (ms)      =  N/A
# P'_bary (s/s)    =  N/A
# P''_bary (s/s^2) =  N/A
# P_orb (s)        =  N/A
# asin(i)/c (s)    =  N/A
# eccentricity     =  N/A
# w (rad)          =  N/A
# T_peri           =  N/A
######################################################
   0  585.2475
   1  533.7577
   2  589.7947
   3  503.2909
   4  504.6782
   5  478.932
   6  512.3796
   7  556.107
   8  570.5612
   9  636.0973
  10  589.8869
  11  535.298
  12  490.6554
  13  556.4006
  14  639.2661
  15  668.3682
  16  600.0777
  17  518.2189
  18  451.585
  19  434.0469
  20  452.3795
  21  450.6441
  22  562.7459
  23  567.0633
  24  576.8788
  25  502.204
  26  526.8388
  27  477.9056
  28  523.8589
  29  476.6615
  30  485.8058
  31  462.6302
  32  559.3417
  33  571.4479
  34  584.5819
  35  466.8253
  36  488.2936
  37  555.7954
  38  615.163
  39  689.8442
  40  621.4988
  41  620.8615
  42  637.1152
  43  587.1005
  44  610.5606
  45  485.3218
  46  460.3603
  47  408.6025
  48  451.9852
  49  424.1833
  50  446.9073
  51  450.8415
  52  518.7195
  53  481.1082
  54  505.6235
  55  516.1917
  56  517.6556
  57  486.4088
  58  466.699
  59  439.0899
  60  448.6561
  61  524.2722
  62  549.5999
  63  564.5238
  64  366.2891
  65  354.1752
  66  392.1628
  67  644.9219
  68  688.796
  69  757.6946
  70  746.3217
  71  711.0543
  72  612.9463
  73  552.8519
  74  589.0866
  75  598.8903
  76  670.065
  77  708.8616
  78  725.78
  79  669.9245
  80  727.6716
  81  731.7496
  82  696.5209
  83  643.9683
  84  647.75
  85  647.0126
  86  668.7946
  87  766.8362
  88  826.1468
  89  772.3314
  90  667.4537
  91  634.9691
  92  616.9518
  93  699.0391
  94  720.4335
  95  791.1848
  96  762.3157
  97  743.5648
  98  667.3856
  99  554.705
 100  578.3341
 101  578.035
 102  583.9002
 103  587.9495
 104  626.8911
 105  699.5783
 106  659.5167
 107  647.7844
 108  703.1905
 109  748.5185
 110  706.4499
 111  692.5808
 112  785.5936
 113  803.691
 114  778.358
 115  762.5344
 116  750.543
 117  781.563
 118  739.5769
 119  809.7605
 120  790.9916
 121  784.4953
 122  706.7751
 123  660.9529
 124  599.4997
 125  673.8262
 126  723.8992
 127  765.3576
 128  759.4093
 129  707.7221
 130  725.9376
 131  741.2856
 132  774.0696
 133  775.8326
 134  698.3295
 135  596.2725
 136  674.5021
 137  718.7803
 138  775.1926
 139  657.0645
 140  625.7183
 141  634.6542
 142  544.5626
 143  507.0627
 144  440.1993
 145  562.9235
 146  509.0096
 147  541.8685
 148  556.9991
 149  690.0801
 150  758.4094
 151  804.8336
 152  688.4827
 153  697.9235
 154  651.5179
 155  637.3957
 156  604.3116
 157  632.0297
 158  607.7277
 159  665.1664
 160  727.5755
 161  773.7037
 162  603.3857
 163  628.2527
 164  602.4107
 165  640.9133
 166  580.0178
 167  720.7611
 168  710.2248
 169  676.3948
 170  587.1833
 171  619.6137
 172  587.2415
 173  492.7706
 174  485.7567
 175  577.3601
 176  648.077
 177  655.2994
 178  717.5822
 179  667.5552
 180  558.2122
 181  540.7153
 182  581.5303
 183  645.7902
 184  593.0886
 185  585.0425
 186  612.9531
 187  722.353
 188  763.4623
 189  726.6153
 190  689.5018
 191  636.0458
 192  619.0844
 193  604.9763
 194  594.4428
 195  605.0869
 196  675.8175
 197  740.7412
 198  703.2982
 199  731.0607
 200  793.0144
 201  780.865
 202  738.319
 203  699.6008
 204  698.6015
 205  634.3392
 206  560.357
 207  581.4113
 208  573.6466
 209  603.3027
 210  606.4097
 211  668.1005
 212  663.3036
 213  726.5099
 214  823.8798
 215  916.2812
 216  874.3564
 217  755.0121
 218  748.202
 219  701.47
 220  753.8654
 221  786.1635
 222  868.1972
 223  792.3333
 224  693.9334
 225  535.3534
 226  554.6942
 227  582.495
 228  615.2607
 229  636.6104
 230  668.8077
 231  661.1514
 232  731.7337
 233  739.6101
 234  743.4906
 235  545.7011
 236  450.7799
 237  419.7343
 238  555.2012
 239  640.9315
 240  724.5379
 241  681.6328
 242  698.8467
 243  645.9116
 244  743.8975
 245  763.562
 246  836.6836
 247  736.0563
 248  718.4484
 249  644.826
 250  608.7485
 251  614.8112
 252  670.8846
 253  642.6415
 254  535.3618
 255  456.4316
 256  463.8116
 257  500.8803
 258  554.0475
 259  567.8845
 260  562.1863
 261  512.1569
 262  503.3362
 263  557.3078
 264  543.7297
 265  541.7081
 266  530.025
 267  545.5547
 268  585.1202
 269  567.3772
 270  623.4479
 271  597.2999
 272  638.7037
 273  718.9511
 274  725.5321
 275  653.9973
 276  640.9948
 277  664.3328
 278  734.8272
 279  743.9816
 280  760.8429
 281  715.3511
 282  660.8201
 283  623.754
 284  708.3718
 285  713.7439
 286  695.9521
 287  593.751
 288  576.2282
 289  587.0836
 290  585.8984
 291  566.848
 292  575.2399
 293  629.5961
 294  677.8962
 295  765.3198
 296  772.2599
 297  798.4414
 298  676.2475
 299  615.7172
 300  561.1225
 301  587.3168
 302  587.2559
 303  504.8881
 304  487.9057
 305  598.415
 306  680.4874
 307  651.6318
 308  623.1093
 309  642.8201
 310  732.8857
 311  725.4858
 312  727.6046
 313  707.2639
 314  683.4278
 315  574.3093
 316  570.2292
 317  565.9658
 318  712.8239
 319  735.1818
 320  644.8801
 321  532.1813
 322  385.4488
 323  465.3644
 324  553.0982
 325  718.1119
 326  758.6627
 327  737.8806
 328  759.2874
 329  684.0676
 330  694.927
 331  601.6058
 332  652.8722
 333  664.828
 334  615.1329
 335  501.9566
 336  449.8076
 337  402.3415
 338  443.613
 339  468.0963
 340  475.4926
 341  447.9525
 342  563.1002
 343  664.1962
 344  655.0427
 345  580.459
 346  519.0982
 347  586.9074
 348  665.5043
 349  751.3986
 350  662.1852
 351  599.2433
 352  609.9494
 353  658.0743
 354  658.3818
 355  556.9048
 356  584.1832
 357  545.9912
 358  550.4119
 359  500.917
 360  550.7368
 361  695.6074
 362  766.7562
 363  744.3815
 364  685.9592
 365  476.9708
 366  450.3786
 367  451.4041
 368  594.4863
 369  591.7791
 370  590.3698
 371  582.4702
 372  595.0058
 373  550.3152
 374  494.8065
 375  462.8734
 376  438.2459
 377  523.1943
 378  580.4513
 379  657.9921
 380  666.8439
 381  656.2617
 382  593.8065
 383  533.6132
 384  478.8624
 385  489.5353
 386  506.468
 387  497.7003
 388  527.5229
 389  598.9359
 390  600.9814
 391  595.762
 392  606.7657
 393  560.1476
 394  603.4062
 395  581.8008
 396  641.2088
 397  676.0155
 398  618.4236
 399  602.9552
 400  620.634
 401  696.4778
 402  597.818
 403  541.1853
 404  511.7285
 405  477.8459
 406  445.7505
 407  449.7296
 408  602.4748
 409  685.5168
 410  689.4534
 411  623.2255
 412  554.6378
 413  544.0079
 414  606.9083
 415  715.77
 416  640.7151
 417  513.5908
 418  474.3395
 419  561.3336
 420  558.843
 421  556.8371
 422  527.5544
 423  586.2779
 424  656.2734
 425  780.9373
 426  817.1392
 427  734.684
 428  658.0405
 429  663.5816
 430  652.0105
 431  595.2374
 432  522.0207
 433  476.1516
 434  536.6255
 435  503.9411
 436  615.8146
 437  584.7213
 438  603.316
 439  550.9322
 440  597.8156
 441  523.2612
 442  527.7056
 443  585.315
 444  691.7897
 445  635.3447
 446  570.6087
 447  508.4133
 448  535.1067
 449  602.048
 450  699.1938
 451  673.1025
 452  665.764
 453  662.9802
 454  570.1633
 455  513.3581
 456  575.0789
 457  677.2571
 458  712.0179
 459  602.5104
 460  560.2432
 461  506.454
 462  537.4935
 463  566.9766
 464  657.8584
 465  761.6966
 466  750.9921
 467  644.5859
 468  599.5933
 469  633.1064
 470  695.3833
 471  620.9089
 472  650.8638
 473  581.0132
 474  602.5897
 475  633.4618
 476  701.3766
 477  739.2391
 478  706.4235
 479  849.335
 480  810.0754
 481  645.6553
 482  548.5405
 483  567.3305
 484  620.3958
 485  528.8394
 486  483.0261
 487  550.3254
 488  543.4384
 489  556.3054
 490  476.7819
 491  498.2749
 492  627.5504
 493  781.5549
 494  724.5374
 495  622.1766
 496  592.9111
 497  575.2714
 498  570.0703
 499  532.2625
 500  619.003
 501  616.4651
 502  461.2596
 503  405.0309
 504  408.3015
 505  491.1595
 506  502.3214
 507  551.9247
 508  557.5987
 509  528.4492
 510  542.6263
 511  593.5352
 512  583.374
 513  569.6022
 514  616.4196
 515  680.6494
 516  721.21
 517  635.2983
 518  691.1257
 519  673.1164
 520  775.9094
 521  697.2936
 522  704.4368
 523  607.7249
 524  604.8109
 525  585.0729
 526  665.7741
 527  711.4363
 528  756.8915
 529  838.2504
 530  907.8224
 531  806.0482
 532  567.1386
 533  434.1821
 534  524.8798
 535  489.5316
 536  455.9233
 537  505.2604
 538  568.6382
 539  577.7124
 540  519.0103
 541  636.1894
 542  646.0449
 543  660.9611
 544  672.903
 545  685.2672
 546  637.4822
 547  655.8637
 548  613.1439
 549  668.3632
 550  633.1519
 551  616.3593
 552  568.7029
 553  539.6092
 554  606.9515
 555  649.4001
 556  660.4214
 557  603.1998
 558  651.2873
 559  646.2327
 560  663.928
 561  603.1331
 562  557.2558
 563  589.2614
 564  639.8943
 565  638.1478
 566  617.6606
 567  588.6356
 568  643.7191
 569  631.8444
 570  624.8409
 571  621.7697
 572  663.6259
 573  699.9427
 574  663.4244
 575  567.8688
 576  569.767
 577  610.3322
 578  664.6758
 579  629.4693
 580  668.1586
 581  666.4288
 582  635.5023
 583  650.1683
 584  635.416
 585  644.7393
 586  650.5186
 587  693.281
 588  728.7551
 589  643.921
 590  552.8464
 591  466.0579
 592  558.2245
 593  709.7498
 594  917.5693
 595  865.4459
 596  702.4213
 597  581.7424
 598  595.5014
 599  696.4785
 600  613.1796
 601  648.2651
 602  628.3147
 603  733.7194
 604  774.8281
 605  773.2512
 606  731.8566
 607  679.7381
 608  741.1119
 609  755.5264
 610  847.4453
 611  1023
 612  1227.287
 613  1273.752
 614  1329.281
 615  1360.366
 616  1319.246
 617  1315.244
 618  1230.555
 619  1258.747
 620  1119.672
 621  964.3528
 622  835.3593
 623  809.7375
 624  793.5388
 625  742.5369
 626  671.4854
 627  700.0407
 628  659.2787
 629  677.7226
 630  616.7297
 631  723.7009
 632  648.0293
 633  601.1416
 634  541.9282
 635  629.1837
 636  672.5012
 637  602.5787
 638  568.1333
 639  557.6412
 640  564.7115
 641  612.6869
 642  695.4845
 643  809.4525
 644  830.1597
 645  809.0117
 646  790.1697
 647  746.5452
 648  767.8888
 649  785.7065
 650  822.8846
 651  795.1964
 652  642.8877
 653  555.5934
 654  549.6512
 655  567.6983
 656  719.7502
 657  823.8418
 658  940.8285
 659  930.3237
 660  822.8578
 661  684.0693
 662  570.5915
 663  576.0073
 664  588.1912
 665  635.8771
 666  627.5167
 667  586.4385
 668  524.2222
 669  442.3935
 670  423.132
 671  471.6171
 672  560.2961
 673  565.8985
 674  655.0988
 675  658.0686
 676  677.66
 677  697.2031
 678  771.8652
 679  763.6088
 680  600.3466
 681  587.15
 682  674.2664
 683  674.1666
 684  607.3665
 685  610.7818
 686  701.8533
 687  734.045
 688  692.415
 689  697.7599
 690  703.5242
 691  774.4742
 692  756.8285
 693  722.8921
 694  691.27
 695  648.8436
 696  695.5884
 697  635.0844
 698  708.8007
 699  743.3388
 700  770.5486
 701  690.4639
 702  709.5767
 703  748.67
 704  786.2205
 705  725.2814
 706  650.1488
 707  692.6152
 708  702.497
 709  780.6308
 710  672.0749
 711  608.6516
 712  522.4183
 713  534.1882
 714  597.4938
 715  630.1257
 716  715.4033
 717  671.7759
 718  758.0343
 719  681.202
 720  642.0043
 721  610.8432
 722  703.8088
 723  821.4778
 724  847.9589
 725  789.5367
 726  703.8783
 727  601.0573
 728  644.3925
 729  689.2879
 730  681.8588
 731  562.5479
 732  561.2603
 733  728.2386
 734  785.3046
 735  674.976
 736  557.0308
 737  597.903
 738  650.9882
 739  671.3702
 740  634.848
 741  772.3129
 742  786.7036
 743  806.6319
 744  697.7286
 745  691.1996
 746  671.215
 747  641.8792
 748  680.9858
 749  643.3696
 750  646.617
 751  640.2788
 752  677.2009
 753  730.3799
 754  678.9817
 755  679.0768
 756  551.9857
 757  538.7214
 758  471.1006
 759  549.6711
 760  538.7567
 761  572.9536
 762  534.9616
 763  530.3428
 764  615.4171
 765  583.4899
 766  536.9323
 767  466.0838
 768  438.9376
 769  449.4609
 770  477.1555
 771  414.7004
 772  423.4427
 773  400.4639
 774  496.8078
 775  519.9936
 776  527.9558
 777  553.7556
 778  602.1739
 779  650.0418
 780  638.5327
 781  669.166
 782  609.6333
 783  519.0393
 784  537.2453
 785  497.804
 786  560.1054
 787  610.5045
 788  724.8183
 789  774.6713
 790  676.4285
 791  649.816
 792  578.0856
 793  545.1453
 794  550.1373
 795  585.6936
 796  579.8727
 797  522.2061
 798  510.8491
 799  578.1434
 800  532.9243
 801  556.8103
 802  529.0793
 803  634.4251
 804  590.7162
 805  559.173
 806  560.0508
 807  574.3117
 808  642.3994
 809  639.6367
 810  588.8094
 811  518.7504
 812  499.2177
 813  485.4002
 814  463.7005
 815  510.0579
 816  588.1263
 817  647.4799
 818  687.9846
 819  719.0536
 820  734.8872
 821  629.0396
 822  607.8071
 823  568.0935
 824  486.5825
 825  404.0812
 826  415.7257
 827  495.4419
 828  527.2754
 829  508.5787
 830  523.9648
 831  532.1276
 832  608.2344
 833  714.8753
 834  656.4359
 835  522.7244
 836  394.3497
 837  412.3206
 838  420.668
 839  465.3122
 840  573.252
 841  616.1518
 842  617.4093
 843  570.6208
 844  576.6849
 845  615.7065
 846  552.8926
 847  537.8098
 848  508.5179
 849  506.5484
 850  588.5774
 851  700.9431
 852  681.7874
 853  529.1581
 854  440.8302
 855  497.417
 856  525.0714
 857  520.1378
 858  525.7546
 859  554.1025
 860  578.9263
 861  542.3292
 862  427.1955
 863  333.4562
 864  454.8633
 865  630.7534
 866  693.6352
 867  522.733
 868  428.9118
 869  368.6729
 870  468.1405
 871  511.0921
 872  581.7158
 873  572.3056
 874  550.6397
 875  533.6299
 876  570.9127
 877  588.0284
 878  615.0671
 879  658.5926
 880  654.1662
 881  520.6941
 882  365.4014
 883  379.5873
 884  435.9175
 885  549.7014
 886  632.9619
 887  583.4531
 888  486.3785
 889  449.9777
 890  459.1997
 891  495.3357
 892  492.3364
 893  620.5787
 894  657.1829
 895  651.7933
 896  601.5187
 897  505.9391
 898  460.9408
 899  401.3055
 900  464.6402
 901  528.7421
 902  482.5916
 903  586.0428
 904  564.665
 905  647.1572
 906  560.6299
 907  662.5829
 908  640.0201
 909  603.6844
 910  468.1698
 911  338.5284
 912  370.4165
 913  422.9401
 914  469.3167
 915  502.9163
 916  558.0421
 917  571.0602
 918  506.1831
 919  463.8096
 920  452.9983
 921  393.1913
 922  443.4189
 923  513.2419
 924  504.083
 925  509.7339
 926  486.8854
 927  543.6924
 928  586.7682
 929  621.0161
 930  688.5019
 931  748.1655
 932  709.2212
 933  681.1864
 934  697.9838
 935  725.3855
 936  694.0851
 937  588.1771
 938  534.49
 939  532.1636
 940  495.5964
 941  514.9639
 942  475.4247
 943  546.0223
 944  584.8671
 945  568.3652
 946  516.8101
 947  483.4159
 948  478.6328
 949  497.3031
 950  504.9556
 951  470.8396
 952  466.9191
 953  460.3924
 954  434.1897
 955  371.5848
 956  430.8582
 957  497.6212
 958  522.046
 959  506.1752
 960  487.0067
 961  493.2323
 962  482.9088
 963  451.1896
 964  410.3528
 965  358.7416
 966  326.4479
 967  373.0203
 968  433.6764
 969  537.7645
 970  485.1696
 971  367.2682
 972  296.8929
 973  346.2523
 974  463.201
 975  450.4325
 976  472.6354
 977  445.5494
 978  424.7575
 979  480.5562
 980  457.911
 981  458.2824
 982  413.656
 983  499.5962
 984  534.6794
 985  388.7584
 986  362.7572
 987  402.9265
 988  480.3181
 989  449.474
 990  425.1324
 991  459.3897
 992  551.737
 993  582.0213
 994  538.606
 995  470.2517
 996  553.4894
 997  598.8871
 998  549.0109
 999  540.4512
1000  571.5014
1001  556.0009
1002  397.1137
1003  411.6218
1004  424.5911
1005  457.8384
1006  541.5767
1007  536.1825
1008  511.2874
1009  431.5694
1010  463.6101
1011  425.7892
1012  408.0235
1013  379.9842
1014  444.7331
1015  437.098
1016  435.7628
1017  455.0181
1018  510.3007
1019  584.0824
1020  615.9703
1021  619.5953
1022  600.4283
1023  564.7599
