# Input file       =  1200757855.109703_cleaned.dat
# Candidate        =  PSR_0332+5434
# Telescope        =  AR
# Epoch_topo       =  58141.660579973417
# Epoch_bary       =  N/A
# T_sample         =  0.002
# Data Folded      =  7340032
# Data Avg         =  0.0661709039604557
# Data StdDev      =  1.0002259141203  
# Profile Bins     =  512
# Profile Avg      =  948.631019294126 
# Profile StdDev   =  119.760085760351 
# Reduced chi-sqr  =  0.886
# Prob(Noise)      <  0.969   (~0.0 sigma)
# P_topo (ms)      =  714.571918756199  +/- 0.000235
# P'_topo (s/s)    =  -0                +/- 1.24e-10
# P''_topo (s/s^2) =  0                 +/- 5.46e-14
# P_bary (ms)      =  N/A
# P'_bary (s/s)    =  N/A
# P''_bary (s/s^2) =  N/A
# P_orb (s)        =  N/A
# asin(i)/c (s)    =  N/A
# eccentricity     =  N/A
# w (rad)          =  N/A
# T_peri           =  N/A
######################################################
   0  1389.184
   1  1374.209
   2  1116.644
   3  979.0502
   4  1017.513
   5  937.9398
   6  940.957
   7  945.7943
   8  936.0879
   9  1011.014
  10  1053.922
  11  1019.225
  12  986.2095
  13  1046.627
  14  964.0496
  15  868.9669
  16  945.6658
  17  947.3467
  18  886.2207
  19  833.3587
  20  865.295
  21  877.8546
  22  842.3633
  23  858.898
  24  980.998
  25  967.2115
  26  981.0213
  27  922.6093
  28  980.7664
  29  996.7581
  30  996.7195
  31  934.5016
  32  975.2356
  33  940.329
  34  870.0654
  35  773.3951
  36  849.4792
  37  895.4932
  38  847.9884
  39  836.4081
  40  902.5763
  41  921.774
  42  918.6616
  43  945.2967
  44  836.1022
  45  883.6249
  46  969.677
  47  940.5115
  48  1003.757
  49  1020.679
  50  1067.213
  51  1035.71
  52  1022.777
  53  959.5931
  54  824.4794
  55  942.8842
  56  1061.558
  57  1072.223
  58  1038.006
  59  1058.439
  60  924.7713
  61  850.9509
  62  887.6251
  63  811.8144
  64  789.892
  65  861.1053
  66  898.2378
  67  937.5361
  68  978.1925
  69  946.5969
  70  963.6307
  71  1055.502
  72  994.0963
  73  922.5236
  74  1051.5
  75  1081.914
  76  986.0502
  77  1068.418
  78  908.6367
  79  887.3538
  80  923.9926
  81  976.2308
  82  914.1745
  83  908.8028
  84  944.0189
  85  949.1186
  86  939.4435
  87  932.9079
  88  910.2042
  89  896.5059
  90  905.0912
  91  908.1088
  92  975.8804
  93  1032.463
  94  981.4639
  95  909.738
  96  967.6422
  97  976.9545
  98  957.4767
  99  971.6694
 100  1001.474
 101  937.3066
 102  888.116
 103  793.5254
 104  933.9534
 105  880.4167
 106  959.4398
 107  869.1525
 108  936.999
 109  1031.759
 110  1014.29
 111  938.4182
 112  998.9492
 113  1011.265
 114  959.6768
 115  978.0822
 116  912.3652
 117  909.1933
 118  946.494
 119  1016.839
 120  942.6553
 121  923.7109
 122  1063.004
 123  1081.399
 124  1049.713
 125  989.4257
 126  1019.499
 127  975.7128
 128  944.4065
 129  1036.163
 130  934.8548
 131  913.9543
 132  929.838
 133  956.3599
 134  1006.503
 135  947.1115
 136  882.8395
 137  893.1544
 138  946.8723
 139  929.9744
 140  945.9307
 141  972.0851
 142  924.3476
 143  983.858
 144  993.9795
 145  900.5731
 146  805.2481
 147  918.076
 148  1003.409
 149  989.1407
 150  927.0768
 151  1015.022
 152  1008.772
 153  1035.616
 154  904.1832
 155  941.2435
 156  926.8236
 157  983.788
 158  897.0257
 159  873.8632
 160  895.4421
 161  959.4725
 162  963.6348
 163  892.6389
 164  868.2523
 165  973.5647
 166  963.5475
 167  983.5473
 168  984.0298
 169  977.4568
 170  1003.88
 171  1001.003
 172  993.9802
 173  991.2692
 174  1013.92
 175  947.5262
 176  862.4203
 177  853.8493
 178  900.3995
 179  976.326
 180  980.0848
 181  1163.076
 182  1139.828
 183  1156.412
 184  1083.158
 185  1011.361
 186  988.9681
 187  963.2712
 188  923.6385
 189  949.3599
 190  1013.874
 191  1024.532
 192  991.0762
 193  1013.782
 194  998.2723
 195  948.541
 196  978.5034
 197  999.2924
 198  1093.959
 199  1030.334
 200  983.4989
 201  1035.195
 202  1008.682
 203  1025.108
 204  1046.526
 205  1024.823
 206  947.9362
 207  922.8964
 208  979.7765
 209  884.6766
 210  822.3234
 211  948.3884
 212  1013.66
 213  1035.77
 214  1026.939
 215  979.5574
 216  1067.757
 217  1072.845
 218  919.2321
 219  874.1945
 220  839.2236
 221  799.0418
 222  784.9602
 223  834.7503
 224  808.655
 225  825.4335
 226  972.1121
 227  940.2186
 228  871.0359
 229  865.0914
 230  929.577
 231  923.1629
 232  951.053
 233  989.0173
 234  956.4461
 235  884.5886
 236  973.287
 237  951.1599
 238  947.3018
 239  967.1474
 240  917.5826
 241  896.5544
 242  930.2454
 243  984.1703
 244  930.8904
 245  938.1094
 246  1009.766
 247  933.2545
 248  894.2065
 249  949.7363
 250  1064.618
 251  1026.702
 252  1034.229
 253  996.987
 254  1073.901
 255  1031.772
 256  1061.906
 257  1050.4
 258  1049.368
 259  1067.646
 260  1010.632
 261  919.074
 262  1014.928
 263  1017.195
 264  924.6248
 265  919.1887
 266  954.9343
 267  876.9092
 268  953.0762
 269  1074.492
 270  991.6924
 271  867.2125
 272  955.4453
 273  1007.108
 274  987.8038
 275  1061.867
 276  1079.362
 277  1012.664
 278  1008.776
 279  983.64
 280  1002.817
 281  1005.104
 282  1052.916
 283  1105.246
 284  994.6158
 285  883.6765
 286  882.8113
 287  1012.152
 288  1142.716
 289  990.9312
 290  964.4814
 291  989.3824
 292  895.6293
 293  976.6069
 294  1026.52
 295  1006.1
 296  1054.625
 297  1019.377
 298  945.8975
 299  854.7415
 300  929.2286
 301  937.5427
 302  1044.85
 303  1025.824
 304  966.4055
 305  1044.501
 306  981.1136
 307  1040.433
 308  1089.508
 309  1002.715
 310  974.6034
 311  1019.228
 312  1074.281
 313  1037.707
 314  1003.625
 315  1010.974
 316  1055.064
 317  977.7486
 318  974.6989
 319  937.7674
 320  881.3299
 321  859.4402
 322  956.9642
 323  1013.928
 324  1009.62
 325  1003.538
 326  1029.852
 327  1038.137
 328  989.5154
 329  938.9957
 330  935.2676
 331  886.8461
 332  914.4918
 333  964.688
 334  836.4556
 335  863.6196
 336  912.5245
 337  1006.854
 338  924.468
 339  943.2862
 340  998.0931
 341  979.9849
 342  909.742
 343  886.8577
 344  856.4851
 345  955.8694
 346  1010.099
 347  1022.786
 348  921.1479
 349  824.4503
 350  949.0527
 351  943.4918
 352  937.265
 353  901.575
 354  1039.416
 355  1066.005
 356  1009.957
 357  1015.966
 358  972.8979
 359  944.4742
 360  876.2374
 361  995.1324
 362  972.4202
 363  922.1932
 364  898.8088
 365  895.2322
 366  962.7247
 367  908.6602
 368  851.5225
 369  848.9388
 370  856.2316
 371  907.3421
 372  946.6954
 373  902.1122
 374  837.325
 375  873.7685
 376  936.5735
 377  917.8856
 378  922.2126
 379  929.9023
 380  928.7263
 381  884.9441
 382  975.6431
 383  1009.455
 384  1074.133
 385  945.8132
 386  927.9482
 387  953.5406
 388  979.9641
 389  963.0143
 390  1016.401
 391  974.6198
 392  897.2939
 393  901.5953
 394  816.0026
 395  775.5763
 396  848.6212
 397  928.7107
 398  883.2716
 399  897.9491
 400  911.1083
 401  965.4031
 402  917.9621
 403  996.2733
 404  911.6481
 405  888.8979
 406  892.3057
 407  817.869
 408  753.7303
 409  815.5814
 410  911.3127
 411  977.4319
 412  931.0018
 413  924.1212
 414  942.8873
 415  960.6272
 416  846.0496
 417  949.483
 418  941.261
 419  944.6559
 420  873.1154
 421  845.5395
 422  816.743
 423  869.4848
 424  837.4748
 425  779.2031
 426  898.6115
 427  943.871
 428  832.5611
 429  916.0057
 430  913.6298
 431  882.2916
 432  851.5391
 433  804.7762
 434  835.0634
 435  915.9934
 436  879.2967
 437  814.2184
 438  814.5588
 439  876.3725
 440  851.3772
 441  936.0184
 442  792.2624
 443  833.661
 444  996.7748
 445  907.3879
 446  817.3951
 447  855.7686
 448  911.0332
 449  905.435
 450  818.0141
 451  854.1097
 452  927.7642
 453  988.0936
 454  994.5565
 455  865.3016
 456  1002.809
 457  1020.381
 458  923.5013
 459  834.8851
 460  914.0469
 461  842.3584
 462  1014.674
 463  968.4371
 464  899.7044
 465  909.3189
 466  972.7132
 467  936.7339
 468  901.3871
 469  928.1399
 470  925.1843
 471  944.7812
 472  883.6697
 473  855.6045
 474  898.4666
 475  842.7496
 476  869.1426
 477  918.325
 478  922.932
 479  965.8975
 480  972.2858
 481  954.1765
 482  746.4883
 483  814.9313
 484  927.4485
 485  1041.777
 486  883.9402
 487  857.4518
 488  893.8443
 489  784.8235
 490  884.3639
 491  818.1497
 492  890.8453
 493  889.9446
 494  879.6199
 495  862.535
 496  821.1603
 497  821.2128
 498  827.2053
 499  844.1406
 500  858.4572
 501  858.1202
 502  872.8432
 503  906.3463
 504  957.9662
 505  1067.162
 506  993.5264
 507  1004.997
 508  1081.8
 509  1219.46
 510  1318.829
 511  1362.448
