# Input file       =  1200514251.114862_cleaned.dat
# Candidate        =  PSR_0332+5434
# Telescope        =  AR
# Epoch_topo       =  58138.841089292386
# Epoch_bary       =  N/A
# T_sample         =  0.002
# Data Folded      =  7340032
# Data Avg         =  0.922323214759151
# Data StdDev      =  9.61775404574686 
# Profile Bins     =  1024
# Profile Avg      =  6611.21060843156 
# Profile StdDev   =  814.277932033009 
# Reduced chi-sqr  =  0.521
# Prob(Noise)      <  1   (~0.0 sigma)
# P_topo (ms)      =  714.570647750658  +/- 4.56e-05
# P'_topo (s/s)    =  -0                +/- 2.41e-11
# P''_topo (s/s^2) =  0                 +/- 1.06e-14
# P_bary (ms)      =  N/A
# P'_bary (s/s)    =  N/A
# P''_bary (s/s^2) =  N/A
# P_orb (s)        =  N/A
# asin(i)/c (s)    =  N/A
# eccentricity     =  N/A
# w (rad)          =  N/A
# T_peri           =  N/A
######################################################
   0  6392.652
   1  6425.83
   2  6529.083
   3  6487.816
   4  6610.485
   5  6845.333
   6  7192.583
   7  6830.154
   8  6672.641
   9  6565.072
  10  6559.77
  11  6182.484
  12  6211.49
  13  6249.505
  14  6498.959
  15  6693.848
  16  6653.547
  17  6675.879
  18  6759.303
  19  7148.307
  20  6940.072
  21  6707.405
  22  6368.911
  23  6553.028
  24  6655.717
  25  6773.194
  26  6816.197
  27  6761.321
  28  6504.436
  29  6517.254
  30  6734.559
  31  6695.44
  32  6316.912
  33  6200.426
  34  6321.522
  35  6492.97
  36  6738.142
  37  6717.76
  38  6609.739
  39  6595.431
  40  6629.391
  41  6659.391
  42  6457.702
  43  6405.024
  44  6394.721
  45  6772.41
  46  6547.738
  47  6337.796
  48  6183.316
  49  6319.352
  50  6367.121
  51  6584.252
  52  6678.019
  53  6842.937
  54  6439.759
  55  6528.297
  56  6665.938
  57  6582.852
  58  6724.75
  59  6358.301
  60  6388.848
  61  6325.753
  62  6477.909
  63  6848.348
  64  6821.897
  65  6880.976
  66  7014.482
  67  7152.077
  68  7077.973
  69  6785.909
  70  6725.188
  71  6864.901
  72  6645.043
  73  6749.768
  74  7031.96
  75  6957.327
  76  6855.838
  77  6811.682
  78  7036.869
  79  6773.194
  80  6804.037
  81  6686.146
  82  6940.595
  83  6863.035
  84  6983.721
  85  6919.698
  86  6676.425
  87  6712.97
  88  6621.595
  89  6615.87
  90  6412.261
  91  6585.763
  92  6781.887
  93  7200.501
  94  7151.271
  95  7135.879
  96  6760.266
  97  6694.848
  98  6851.229
  99  6796.879
 100  6922.551
 101  6962.53
 102  6916.946
 103  6823.176
 104  6797.543
 105  6906.07
 106  6832.803
 107  6590.446
 108  6437.259
 109  6557.134
 110  6626.02
 111  6756.995
 112  6748.522
 113  6857.12
 114  6485.862
 115  6203.431
 116  6439.668
 117  6467.125
 118  6534.617
 119  6466.62
 120  6648.895
 121  6701.558
 122  6714.042
 123  6713.347
 124  6373.315
 125  6261.525
 126  6436.188
 127  6441.516
 128  6280.18
 129  6291.068
 130  6474.364
 131  6795.627
 132  6501.212
 133  6516.301
 134  6554.102
 135  6584.039
 136  6639.227
 137  6769.84
 138  6881.04
 139  6965.482
 140  6875.408
 141  6833.933
 142  6655.957
 143  6288.519
 144  6342.727
 145  5945.494
 146  5909.103
 147  6343.755
 148  6803.681
 149  7281.331
 150  7345.947
 151  7573.842
 152  7893.453
 153  7218.104
 154  6867.231
 155  6624.346
 156  6741.107
 157  6810.449
 158  6628.748
 159  6786.644
 160  6733.514
 161  6633.668
 162  6913.856
 163  6969.333
 164  6751.207
 165  6687.394
 166  6736.224
 167  6648.111
 168  6520.286
 169  6591.798
 170  6845.105
 171  6689.141
 172  6518.045
 173  6743.174
 174  7038.595
 175  6921.213
 176  6899.137
 177  7282.709
 178  7571.571
 179  7372.066
 180  7376.448
 181  7533.185
 182  7424.29
 183  7001.43
 184  6985.778
 185  6846.716
 186  6912.797
 187  6834.942
 188  6848.218
 189  6848.886
 190  7020.864
 191  7192.531
 192  7109.25
 193  6960.666
 194  6867.009
 195  6771.244
 196  6749.374
 197  6734.165
 198  6699.911
 199  6892.124
 200  7052.506
 201  6880.807
 202  6471.956
 203  6201.517
 204  6568.936
 205  6537.791
 206  6697.477
 207  6627.147
 208  6632.69
 209  6594.503
 210  6176.145
 211  5932.388
 212  5861.73
 213  6065.267
 214  6204.733
 215  6227.977
 216  6362.361
 217  6541.052
 218  6439.317
 219  6381.101
 220  6543.729
 221  6161.711
 222  5922.635
 223  5716.292
 224  5992.998
 225  5777.928
 226  5701.41
 227  6059.553
 228  6296.139
 229  6097.817
 230  6018.047
 231  6145.201
 232  6092.727
 233  6115.947
 234  6285.762
 235  6553.516
 236  6385.619
 237  6584.907
 238  7065.885
 239  6904.836
 240  6765.662
 241  6893.962
 242  6781.021
 243  6463.878
 244  6419.207
 245  6936.266
 246  7306.825
 247  7150.28
 248  6957.847
 249  6648.577
 250  6600.924
 251  6986.347
 252  6877.491
 253  6849.276
 254  6831.076
 255  7099.356
 256  7049.201
 257  6733.058
 258  6334.653
 259  6409.487
 260  6246.361
 261  6279.659
 262  6157.172
 263  6426.628
 264  6492.365
 265  6594.61
 266  6766.367
 267  6819.387
 268  6713.281
 269  6477.298
 270  6513.621
 271  6489.549
 272  6619.553
 273  6821.212
 274  6801.421
 275  6741.011
 276  6536.191
 277  6597.18
 278  6442.794
 279  6446.34
 280  6353.951
 281  6777.743
 282  6891.112
 283  6949.785
 284  7083.4
 285  7353.397
 286  7323.835
 287  6970.364
 288  6917.438
 289  7001.032
 290  6754.975
 291  6575.471
 292  6383.247
 293  6647.123
 294  7020.037
 295  7274.634
 296  6970.531
 297  6690.511
 298  6801.251
 299  6836.755
 300  6599.199
 301  6456.925
 302  6525.918
 303  7020.569
 304  6974.806
 305  7180.243
 306  6919.825
 307  6550.584
 308  6267.273
 309  6024.075
 310  6150.121
 311  6269.542
 312  6251.323
 313  6501.03
 314  6659.975
 315  6854.469
 316  6717.434
 317  6444.639
 318  6328.457
 319  6726.306
 320  6832.802
 321  6741.51
 322  6638.734
 323  6730.573
 324  7074.484
 325  7132.228
 326  7233.997
 327  7020.156
 328  6640.224
 329  6584.701
 330  6555.58
 331  6512.321
 332  6698.373
 333  6625.899
 334  6840.682
 335  6539.735
 336  6280.736
 337  6404.847
 338  6876.736
 339  7367.169
 340  7332.364
 341  7146.789
 342  7151.057
 343  6841.086
 344  6610.465
 345  6544.934
 346  6539.197
 347  6437.009
 348  6216.723
 349  6212.943
 350  6280.073
 351  6295.375
 352  6442.655
 353  6521.178
 354  6441.61
 355  6569.835
 356  6725.554
 357  6715.567
 358  6795.849
 359  6820.848
 360  6768.316
 361  6607.215
 362  6647.572
 363  6931.952
 364  6898.916
 365  6849.34
 366  6725.338
 367  6740.656
 368  6867.76
 369  6689.683
 370  6573.226
 371  6606.318
 372  6602.042
 373  6649.039
 374  6517.831
 375  6488.067
 376  6312.271
 377  6175.766
 378  6084.623
 379  6164.856
 380  6492.493
 381  6660.93
 382  6496.944
 383  5925.026
 384  5791.99
 385  5669.436
 386  5761.16
 387  5798.757
 388  6010.846
 389  6326.224
 390  6378.082
 391  6634.548
 392  6586.907
 393  6509.517
 394  6414.997
 395  6226.14
 396  6267.039
 397  6523.46
 398  6592.547
 399  6678.311
 400  6552.473
 401  6524.422
 402  6600.396
 403  6328.003
 404  6156.571
 405  6290.974
 406  6439.023
 407  6476.082
 408  6289.629
 409  6637.272
 410  7096.573
 411  6966.313
 412  6671.436
 413  6449.313
 414  6320.345
 415  6588.358
 416  6585.771
 417  6968.85
 418  6855.576
 419  6537.67
 420  6363.898
 421  6173.767
 422  6116.041
 423  6258.347
 424  6328.165
 425  6166.21
 426  6203.142
 427  6163.616
 428  6109.801
 429  5855.928
 430  6177.523
 431  6490.032
 432  6332.537
 433  6117.098
 434  6110.735
 435  6284.901
 436  6506.535
 437  6725.398
 438  6768.569
 439  6645.976
 440  6298.03
 441  6064.761
 442  6070.754
 443  6161.085
 444  6392.657
 445  6556.171
 446  6498.365
 447  6387.566
 448  6321.743
 449  6448.411
 450  6499.525
 451  6584.906
 452  6659.562
 453  6673.104
 454  6598.199
 455  6511.174
 456  6616.484
 457  6735.806
 458  6589.186
 459  6301.942
 460  6195.383
 461  6156.473
 462  6368.818
 463  6102.406
 464  6053.436
 465  6307.129
 466  6740.01
 467  6966.062
 468  6418.766
 469  6339.65
 470  6461.404
 471  6534.761
 472  6371.402
 473  6097.407
 474  6421.259
 475  6865.09
 476  7000.191
 477  7019.954
 478  6824.014
 479  6796.932
 480  6435.912
 481  6359.74
 482  6388.318
 483  6761.532
 484  6590.065
 485  6667.376
 486  6977.458
 487  7004.613
 488  6937.88
 489  6465.645
 490  6578.716
 491  6535.379
 492  6646.368
 493  6657.286
 494  6818.845
 495  7039.433
 496  7171.528
 497  6672.997
 498  6287.492
 499  6236.443
 500  6475.01
 501  6575.873
 502  6474.91
 503  6595.17
 504  6683.448
 505  6623.063
 506  6762.658
 507  6436.513
 508  6119.625
 509  6034.928
 510  6150.663
 511  6221.632
 512  6353.775
 513  6598.48
 514  6847.508
 515  6680.799
 516  6698.052
 517  6850.513
 518  6944.123
 519  6769.185
 520  6597.25
 521  6581.584
 522  6497.631
 523  6169.652
 524  5954.181
 525  5969.348
 526  5905.375
 527  5896.737
 528  5904.005
 529  6178.43
 530  6328.254
 531  6877.791
 532  6992.381
 533  7013.302
 534  6981.091
 535  6980.219
 536  6708.083
 537  6232.814
 538  6179.616
 539  6697.817
 540  6690.877
 541  6474.976
 542  6554.322
 543  6736.196
 544  6648.173
 545  6454.764
 546  6285.919
 547  6498.745
 548  6568.571
 549  6490.739
 550  6402.153
 551  6397.341
 552  6765.867
 553  7039.356
 554  6851.458
 555  6559.125
 556  6653.449
 557  6548.748
 558  6609.174
 559  6809.679
 560  7051.58
 561  7077.093
 562  6600.721
 563  6650.476
 564  6409.974
 565  6143.915
 566  5845.363
 567  6131.645
 568  6580.083
 569  6882.177
 570  6773.922
 571  6782.947
 572  6748.288
 573  6714.725
 574  6895.167
 575  6878.151
 576  6716.998
 577  6708.671
 578  6680.563
 579  6711.531
 580  6639.053
 581  6752.37
 582  7082.136
 583  7067.029
 584  6967.577
 585  6921.111
 586  6843.512
 587  6503.961
 588  6156.758
 589  6338.099
 590  6721.173
 591  6833.894
 592  6775.208
 593  6506.287
 594  6462.683
 595  6576.134
 596  6651.613
 597  6612.258
 598  6762.698
 599  6900.015
 600  6878.054
 601  6603.567
 602  6539.437
 603  6694.132
 604  6703.105
 605  6576.714
 606  6722.706
 607  6809.896
 608  6857.024
 609  6585.415
 610  6647.519
 611  6674.072
 612  6659.205
 613  6781.22
 614  6881.393
 615  7122.405
 616  7223.895
 617  7229.045
 618  7063.754
 619  7027.756
 620  7277.633
 621  7695.883
 622  7360.009
 623  6746.991
 624  6103.46
 625  6294.948
 626  6194.234
 627  6222.209
 628  6403.783
 629  6749.312
 630  6519.119
 631  6360.333
 632  6295.935
 633  6418.634
 634  6464.596
 635  6450.731
 636  6557.797
 637  6628.126
 638  6595.052
 639  7029.213
 640  6917.057
 641  6810.045
 642  6592.412
 643  6621.612
 644  6621.815
 645  6466.232
 646  6759.788
 647  6954.55
 648  6689.975
 649  6500.901
 650  6434.562
 651  6306.26
 652  6278.066
 653  6360.866
 654  6668.053
 655  6865.534
 656  6687.923
 657  6631.342
 658  6767.065
 659  6877.596
 660  7045.326
 661  6387.39
 662  6192.311
 663  6028.783
 664  6048.76
 665  5928.667
 666  5835.33
 667  6277.512
 668  6528.805
 669  6321.01
 670  6370.306
 671  6619.312
 672  6886.04
 673  7073.217
 674  7057.003
 675  6842.474
 676  6898.783
 677  7064.074
 678  7144.889
 679  7023.442
 680  6959.816
 681  7073.44
 682  6792.43
 683  6390.976
 684  6322
 685  6558.08
 686  6877.515
 687  6589.046
 688  6374.654
 689  6596.481
 690  6637.477
 691  6693.993
 692  6777.42
 693  7230.571
 694  7226.437
 695  6712.694
 696  6570.918
 697  6630.792
 698  6686.363
 699  6607.341
 700  6374.982
 701  6120.371
 702  5942.531
 703  6074.067
 704  6133.502
 705  6210.649
 706  6546.695
 707  7147.726
 708  7113.031
 709  7036.126
 710  6857.428
 711  6936.167
 712  6626.416
 713  6147.021
 714  6327.506
 715  6700.686
 716  6910.473
 717  6830.649
 718  6709.526
 719  6719.424
 720  6566.335
 721  6238.472
 722  6299.201
 723  6080.792
 724  6400.843
 725  6532.713
 726  6443.347
 727  6324.038
 728  6587.148
 729  6785.77
 730  6913.753
 731  6695.058
 732  7043.436
 733  7222.266
 734  6920.197
 735  6896.408
 736  6944.164
 737  6903.575
 738  6283.795
 739  6048.1
 740  6207.012
 741  6550.427
 742  6648.379
 743  7187.048
 744  7380.148
 745  7219.424
 746  7152.747
 747  6621.76
 748  6392.825
 749  6287.435
 750  6165.003
 751  6077.005
 752  6099.659
 753  6477.146
 754  6499.782
 755  6190.411
 756  6169.917
 757  6336.593
 758  6365.543
 759  6491.218
 760  6594.601
 761  6634.102
 762  6522.963
 763  6519.586
 764  6694.375
 765  6804.827
 766  6504.559
 767  6570.175
 768  6542.561
 769  6651.217
 770  6636.174
 771  6798.698
 772  6856.308
 773  6715.934
 774  6595.6
 775  6378.239
 776  6159.049
 777  6159.706
 778  6360.116
 779  6439.658
 780  6520.316
 781  6661.344
 782  6599.93
 783  6641.251
 784  6556.182
 785  6680.836
 786  6545.818
 787  6228.804
 788  6120.562
 789  6087.559
 790  6205.287
 791  6276.924
 792  6643.36
 793  6751.903
 794  6278.058
 795  6133.555
 796  6456.305
 797  6562.28
 798  6562.887
 799  6367.186
 800  6462.22
 801  6409.441
 802  6485.208
 803  6619.869
 804  6320.605
 805  6242.773
 806  6213.652
 807  6307.554
 808  6234.021
 809  6032.79
 810  6141.693
 811  6385.511
 812  6324.987
 813  6370.667
 814  6758.396
 815  7014.611
 816  6771.869
 817  6408.894
 818  6409.725
 819  6395.035
 820  6433.12
 821  6660.436
 822  6733.028
 823  6411.873
 824  6230.413
 825  6134.421
 826  6114.083
 827  6310.603
 828  6512.441
 829  6933.224
 830  6798.047
 831  7023.542
 832  7293.902
 833  7134.322
 834  6979.154
 835  7075.929
 836  6947.93
 837  6492.514
 838  6331.538
 839  6449.867
 840  6580.917
 841  6470.131
 842  6416.719
 843  6159.974
 844  5954.193
 845  6256.319
 846  6335.423
 847  6473.136
 848  6524.345
 849  6801.853
 850  6967.037
 851  6682.273
 852  6419.593
 853  6361.446
 854  6807.763
 855  6793.277
 856  7177.029
 857  7160.826
 858  7328.835
 859  7098.631
 860  7064.396
 861  7200.804
 862  7132.037
 863  6517.535
 864  6094.507
 865  5841.188
 866  6089.83
 867  6273.951
 868  6626.423
 869  6743.474
 870  6639.579
 871  6438.371
 872  6372.362
 873  6120.726
 874  6130.894
 875  6412.89
 876  6441.669
 877  6417.021
 878  6401.348
 879  6714.12
 880  6493.682
 881  6455.191
 882  6567.642
 883  6661.266
 884  6536.265
 885  6331.663
 886  6562.179
 887  6852.193
 888  6997.981
 889  7073.71
 890  6896.26
 891  6874.624
 892  6877.685
 893  6974.17
 894  6945.669
 895  6869.2
 896  6879.358
 897  6958.574
 898  6586.547
 899  6612.518
 900  6839.023
 901  6706.353
 902  6411.342
 903  6360.242
 904  6609.22
 905  6740.844
 906  6398.718
 907  6628.638
 908  6776.559
 909  6863.867
 910  6983.548
 911  6865.122
 912  6788.615
 913  6688.054
 914  6826.543
 915  7167.739
 916  7365.215
 917  7512.687
 918  7688.71
 919  7362.598
 920  6995.35
 921  6984.322
 922  6792.656
 923  6663.225
 924  6477.503
 925  7014.609
 926  7030.853
 927  6706.603
 928  6682.075
 929  6670.533
 930  6778.609
 931  6683.216
 932  6787.313
 933  6773.666
 934  6882.58
 935  6881.963
 936  7150.281
 937  7062.637
 938  6667.428
 939  6513.216
 940  6238.3
 941  6246.481
 942  6495.12
 943  6885.851
 944  7017.042
 945  6689.562
 946  6789.563
 947  6935.257
 948  6669.15
 949  6427.298
 950  6496.527
 951  6413.612
 952  6156.685
 953  6016.383
 954  6003.827
 955  6242.46
 956  6319.019
 957  6726.482
 958  6689.263
 959  6559.811
 960  6492.898
 961  6808.27
 962  6952.969
 963  6976.427
 964  7044.474
 965  7068.616
 966  6632.791
 967  6182.359
 968  6285.805
 969  6305.321
 970  6032.542
 971  5918.461
 972  6164.966
 973  6496.895
 974  6697.013
 975  6852.423
 976  6417.235
 977  6085.49
 978  5930.911
 979  6022.933
 980  6032.637
 981  5760.555
 982  6007.255
 983  6122.917
 984  6323.011
 985  5975.895
 986  6215.285
 987  6241.575
 988  6470
 989  6551.072
 990  6752.659
 991  6688.312
 992  6586.359
 993  6818.822
 994  6943.803
 995  6809.224
 996  6860.345
 997  6564.96
 998  6374.044
 999  6363.665
1000  6564.598
1001  6831.521
1002  6619.2
1003  6721.617
1004  7051.465
1005  7000.556
1006  6612.68
1007  6544.396
1008  6821.727
1009  6805.432
1010  6494.407
1011  6611.222
1012  7053.544
1013  7085.235
1014  6689.762
1015  6496.177
1016  6251.331
1017  6488.702
1018  6616.279
1019  6733.491
1020  6804.643
1021  6697.952
1022  6701.985
1023  6601.363
