# Input file       =  1200829442.095395_cleaned.dat
# Candidate        =  PSR_0332+5434
# Telescope        =  AR
# Epoch_topo       =  58142.489133048555
# Epoch_bary       =  N/A
# T_sample         =  0.002
# Data Folded      =  7405568
# Data Avg         =  0.0882814903073913
# Data StdDev      =  3.30543363324874 
# Profile Bins     =  512
# Profile Avg      =  1276.92701817114 
# Profile StdDev   =  397.532507741362 
# Reduced chi-sqr  =  1.401
# Prob(Noise)      <  5.02e-09   (~5.7 sigma)
# P_topo (ms)      =  714.572351533252  +/- 4.84e-05
# P'_topo (s/s)    =  -0                +/- 2.53e-11
# P''_topo (s/s^2) =  0                 +/- 1.11e-14
# P_bary (ms)      =  N/A
# P'_bary (s/s)    =  N/A
# P''_bary (s/s^2) =  N/A
# P_orb (s)        =  N/A
# asin(i)/c (s)    =  N/A
# eccentricity     =  N/A
# w (rad)          =  N/A
# T_peri           =  N/A
######################################################
   0  1147.683
   1  781.6058
   2  936.4784
   3  1460.792
   4  1318.827
   5  1180.599
   6  1400.383
   7  806.692
   8  1119.747
   9  1430.022
  10  1258.192
  11  1710.794
  12  1836.476
  13  1936.85
  14  1806.648
  15  1267.048
  16  1095.746
  17  800.5004
  18  1249.435
  19  1304.943
  20  1089.906
  21  946.2488
  22  999.7787
  23  1065.182
  24  1084.696
  25  1243.821
  26  1033.244
  27  1084.949
  28  1394.499
  29  1437.286
  30  1693.147
  31  1595.48
  32  1113.88
  33  1153.681
  34  1179.039
  35  1168.254
  36  940.5102
  37  933.3343
  38  1232.154
  39  1113.153
  40  679.2617
  41  526.164
  42  859.3149
  43  1335.683
  44  1723.628
  45  1910.141
  46  1658.084
  47  1670.782
  48  1497.917
  49  1411.714
  50  1359.879
  51  1165.033
  52  1339.36
  53  1091.96
  54  1299.125
  55  1094.799
  56  908.5502
  57  693.2589
  58  809.9988
  59  1226.458
  60  1307.651
  61  1305.322
  62  1563.51
  63  1484.735
  64  1254.142
  65  1087.175
  66  1230.622
  67  1245.959
  68  1272.112
  69  1167.18
  70  858.7748
  71  1166.596
  72  890.6005
  73  755.1961
  74  723.5404
  75  953.8477
  76  1290.534
  77  1450.314
  78  1228.522
  79  1310.119
  80  1455.247
  81  978.0026
  82  1047.03
  83  937.5346
  84  1111.691
  85  995.9756
  86  895.5177
  87  1361.858
  88  1134.745
  89  1042.326
  90  847.2723
  91  895.7508
  92  1407.903
  93  1634.876
  94  1739.007
  95  2069.207
  96  1802.705
  97  1392.81
  98  1106.447
  99  1128.924
 100  1213.982
 101  1054.227
 102  943.3374
 103  1244.586
 104  1273.362
 105  1034.447
 106  1022.688
 107  1203.562
 108  1286.799
 109  1571.719
 110  1579.15
 111  1873.66
 112  1954.814
 113  1538.462
 114  1181.493
 115  1225.236
 116  1137.521
 117  1158.487
 118  1296.728
 119  970.6632
 120  970.3738
 121  1025.778
 122  998.2652
 123  757.0425
 124  867.733
 125  1383.65
 126  1774.215
 127  1837.371
 128  1316.975
 129  1204.708
 130  1549.84
 131  1180.389
 132  1066.291
 133  1371.502
 134  1494.933
 135  1028.534
 136  1089.295
 137  1195.719
 138  1129.234
 139  978.6484
 140  792.7814
 141  1196.646
 142  1587.697
 143  1780.287
 144  1491.927
 145  1845.806
 146  1500.15
 147  1359.434
 148  1085.734
 149  804.7547
 150  958.3647
 151  1050.029
 152  1036.981
 153  1025.223
 154  1072.331
 155  977.2877
 156  1060.081
 157  1150.287
 158  1414.622
 159  1445.216
 160  1640.57
 161  2017.081
 162  1731.229
 163  1578.347
 164  1367.147
 165  1327.517
 166  1219.353
 167  1292.424
 168  1133.23
 169  1006.427
 170  1080.217
 171  1059.889
 172  798.8179
 173  942.4528
 174  1517.591
 175  1642.543
 176  1405.757
 177  1418.149
 178  1665.817
 179  1771.92
 180  1296.013
 181  1089.746
 182  1101.314
 183  1052.096
 184  1368.844
 185  1240.855
 186  1200.987
 187  1010.502
 188  477.6139
 189  720.8904
 190  1008.113
 191  1196.682
 192  1724.585
 193  1563.85
 194  1865.725
 195  1939.304
 196  1519.717
 197  1203.836
 198  748.8317
 199  1191.587
 200  1690.89
 201  1617.89
 202  1693.098
 203  1340.391
 204  1130.565
 205  959.7509
 206  793.6694
 207  660.4987
 208  1036.872
 209  1661.553
 210  1412.83
 211  1337.674
 212  1417.281
 213  1427.651
 214  950.7106
 215  1150.87
 216  1334.061
 217  1354.691
 218  867.1122
 219  1089.005
 220  887.173
 221  1148.215
 222  1032.389
 223  745.0774
 224  1101.032
 225  1263.525
 226  1537.166
 227  1783.393
 228  1544.796
 229  1593.915
 230  1543.969
 231  1145.114
 232  967.1633
 233  1165.565
 234  1364.259
 235  1150.824
 236  1082.869
 237  1086.494
 238  919.0295
 239  638.1096
 240  623.615
 241  1124.284
 242  1200.661
 243  1515.35
 244  1812.869
 245  1511.575
 246  1302.403
 247  1403.557
 248  1179.189
 249  999.5501
 250  822.3365
 251  1253.948
 252  1287.47
 253  1043.697
 254  1104.272
 255  1013.437
 256  1038.932
 257  1149.901
 258  1499.719
 259  1484.244
 260  1654.742
 261  1730.09
 262  1636.857
 263  1321.105
 264  1015.674
 265  1207.855
 266  1666.016
 267  1609.824
 268  1400.169
 269  1053.034
 270  881.9388
 271  576.4224
 272  788.717
 273  973.0546
 274  1103.717
 275  1467.311
 276  1747.855
 277  2061.24
 278  1544.977
 279  1250.569
 280  1127.487
 281  1360.482
 282  1496.718
 283  1172.846
 284  1001.98
 285  1049.939
 286  1477.391
 287  1235.981
 288  922.6969
 289  1158.848
 290  1558.346
 291  1428.817
 292  1525.488
 293  1848.874
 294  1694.945
 295  1534.976
 296  1364.451
 297  1385.526
 298  1616.107
 299  1636.365
 300  1558.486
 301  1341.696
 302  1461.323
 303  1241.995
 304  1234.774
 305  1707.849
 306  2464.956
 307  3023.759
 308  3017.039
 309  2925.042
 310  2762.321
 311  2428.004
 312  1694.624
 313  1421.714
 314  1292.157
 315  1242.816
 316  1464.521
 317  1230.87
 318  1471.09
 319  1690.364
 320  1324.328
 321  1008.046
 322  1073.131
 323  1374.592
 324  1486.094
 325  1939.826
 326  2034.98
 327  1957.241
 328  1464.308
 329  1690.56
 330  1376.334
 331  1218.906
 332  1464.933
 333  1274.709
 334  1101.021
 335  1175.222
 336  1327.783
 337  1407.129
 338  1161.618
 339  1298.163
 340  1382.749
 341  1337.573
 342  1507.202
 343  1713.96
 344  1621.557
 345  1287.78
 346  1273.152
 347  1249.648
 348  1401.901
 349  1367.097
 350  1097.051
 351  1360.524
 352  1107.485
 353  1146.313
 354  1169.099
 355  1364.848
 356  1581.487
 357  1527.126
 358  1376.479
 359  1606.145
 360  1762.215
 361  1458.283
 362  1321.075
 363  1319.014
 364  1520.66
 365  1437.085
 366  1171.639
 367  1148.824
 368  1091.378
 369  1087.714
 370  830.6575
 371  818.321
 372  1312.967
 373  1557.379
 374  1416.458
 375  1519.993
 376  1734.557
 377  1745.141
 378  1491.901
 379  1324.314
 380  1279.747
 381  965.0096
 382  892.5352
 383  766.5692
 384  947.0431
 385  928.4885
 386  792.8169
 387  943.9247
 388  782.1967
 389  979.4077
 390  1561.869
 391  1662.657
 392  1703.987
 393  1681.909
 394  1645.089
 395  1257.509
 396  1275.777
 397  1240.784
 398  1003.469
 399  1118.847
 400  1529.216
 401  1334.459
 402  883.6647
 403  714.983
 404  762.3474
 405  810.5563
 406  1228.329
 407  1468.816
 408  1735.924
 409  1658.455
 410  1583.478
 411  1336.788
 412  1200.525
 413  1133.151
 414  891.7552
 415  1029.151
 416  1103.112
 417  1156.094
 418  1205.682
 419  923.3271
 420  854.8354
 421  612.4539
 422  961.1489
 423  1397.657
 424  1403.02
 425  1687.641
 426  1735.666
 427  1646.998
 428  1423.764
 429  961.211
 430  1004.128
 431  1034.525
 432  884.8702
 433  1202.537
 434  1341.378
 435  951.517
 436  1161.982
 437  963.6392
 438  1142.981
 439  1413.634
 440  1634.812
 441  1693.243
 442  1611.322
 443  1599.617
 444  1535.324
 445  1260.704
 446  987.6005
 447  1111.352
 448  1161.951
 449  1223.55
 450  1223.063
 451  945.5383
 452  861.4195
 453  966.5878
 454  930.1689
 455  842.4337
 456  1140.009
 457  1478.651
 458  1927.214
 459  1613.539
 460  1619.559
 461  1318.325
 462  1179.312
 463  869.9811
 464  835.5979
 465  961.344
 466  844.4532
 467  991.4642
 468  1127.556
 469  939.8788
 470  772.1754
 471  948.576
 472  1034.43
 473  1200.634
 474  1421.068
 475  1600.781
 476  1581.207
 477  1446.671
 478  1334.725
 479  1237.769
 480  1297.625
 481  1164.924
 482  893.0529
 483  1030.245
 484  1254.171
 485  802.9086
 486  973.4826
 487  1056.509
 488  1167.494
 489  1459.876
 490  1630.422
 491  1806.704
 492  1401.931
 493  1627.285
 494  1690.886
 495  1021.894
 496  1110.679
 497  1299.723
 498  928.9619
 499  1357.629
 500  1326.536
 501  1022.912
 502  774.6304
 503  571.4156
 504  691.7068
 505  1202.535
 506  1357.436
 507  1205.237
 508  1317.572
 509  1059.34
 510  1266.38
 511  1522.501
