# Input file       =  1200083424.112911_cleaned.dat
# Candidate        =  PSR_0332+5434
# Telescope        =  AR
# Epoch_topo       =  58133.854665658691
# Epoch_bary       =  N/A
# T_sample         =  0.002
# Data Folded      =  7340032
# Data Avg         =  0.0432346057255522
# Data StdDev      =  1.00020667165905 
# Profile Bins     =  512
# Profile Avg      =  619.832765590246 
# Profile StdDev   =  119.757781802038 
# Reduced chi-sqr  =  0.935
# Prob(Noise)      <  0.851   (~0.0 sigma)
# P_topo (ms)      =  714.567490835317  +/- 0.000327
# P'_topo (s/s)    =  -0                +/- 1.72e-10
# P''_topo (s/s^2) =  0                 +/- 7.61e-14
# P_bary (ms)      =  N/A
# P'_bary (s/s)    =  N/A
# P''_bary (s/s^2) =  N/A
# P_orb (s)        =  N/A
# asin(i)/c (s)    =  N/A
# eccentricity     =  N/A
# w (rad)          =  N/A
# T_peri           =  N/A
######################################################
   0  716.4722
   1  667.3849
   2  692.7441
   3  662.9064
   4  617.0556
   5  596.7563
   6  649.1274
   7  646.5496
   8  658.607
   9  648.8537
  10  540.9385
  11  575.9228
  12  508.077
  13  425.1127
  14  486.3247
  15  568.0046
  16  526.3334
  17  538.4189
  18  615.5655
  19  691.9563
  20  669.6906
  21  597.5807
  22  609.3564
  23  553.5521
  24  626.0554
  25  669.1709
  26  593.4023
  27  578.7031
  28  504.2308
  29  490.5792
  30  511.5663
  31  588.6824
  32  563.265
  33  612.0063
  34  661.4327
  35  702.7597
  36  697.0628
  37  619.0499
  38  545.8857
  39  563.7082
  40  629.6123
  41  615.7728
  42  610.9059
  43  705.3691
  44  629.9467
  45  650.2172
  46  585.8785
  47  576.9442
  48  613.3862
  49  634.0027
  50  518.2265
  51  483.1156
  52  591.6176
  53  559.2114
  54  487.0248
  55  440.5847
  56  562.514
  57  545.4207
  58  612.5463
  59  499.7842
  60  476.9008
  61  498.5376
  62  467.2862
  63  602.8432
  64  594.9147
  65  657.0475
  66  649.3297
  67  644.2873
  68  704.2166
  69  653.724
  70  647.5476
  71  733.9644
  72  616.8714
  73  573.8062
  74  686.0177
  75  763.7065
  76  617.5748
  77  544.5882
  78  561.0842
  79  599.5277
  80  627.4572
  81  751.1087
  82  700.3533
  83  575.9193
  84  539.9702
  85  557.8182
  86  522.3184
  87  573.0159
  88  555.6551
  89  581.1732
  90  599.2972
  91  663.0964
  92  700.5489
  93  653.8386
  94  582.8563
  95  599.059
  96  615.5844
  97  591.1779
  98  604.1486
  99  581.2604
 100  608.3336
 101  569.378
 102  528.8194
 103  617.5543
 104  578.1795
 105  605.3454
 106  667.9039
 107  598.4503
 108  550.7933
 109  534.3075
 110  605.292
 111  494.2997
 112  482.4456
 113  541.6389
 114  550.1288
 115  600.1934
 116  687.4397
 117  644.531
 118  581.5347
 119  502.224
 120  555.394
 121  590.3506
 122  655.8862
 123  613.488
 124  624.2782
 125  578.1827
 126  550.2978
 127  664.2288
 128  574.2208
 129  689.9695
 130  656.1689
 131  585.2555
 132  585.2413
 133  661.9005
 134  747.3643
 135  656.2619
 136  571.4988
 137  514.0325
 138  602.907
 139  695.2313
 140  764.7521
 141  592.8453
 142  577.8672
 143  597.4687
 144  679.0076
 145  553.4194
 146  562.5115
 147  637.9901
 148  599.6578
 149  527.3135
 150  556.5378
 151  576.0291
 152  541.2362
 153  654.8903
 154  659.8486
 155  660.6148
 156  660.7366
 157  507.9136
 158  504.8739
 159  651.9784
 160  650.532
 161  605.6272
 162  599.9952
 163  582.6642
 164  553.6329
 165  615.9688
 166  631.9694
 167  703.0803
 168  750.8927
 169  645.5271
 170  576.6777
 171  559.421
 172  634.9058
 173  724.1074
 174  712.7762
 175  622.6901
 176  644.0558
 177  636.0997
 178  715.5538
 179  583.0275
 180  641.7869
 181  591.0094
 182  648.3015
 183  741.808
 184  674.428
 185  655.478
 186  610.126
 187  705.194
 188  628.8434
 189  628.7748
 190  654.3182
 191  637.2554
 192  593.5433
 193  603.944
 194  646.2904
 195  570.6204
 196  484.9028
 197  558.5129
 198  534.0278
 199  554.2438
 200  500.5316
 201  584.9747
 202  572.4747
 203  565.2549
 204  576.0381
 205  597.6955
 206  456.8029
 207  504.2464
 208  579.244
 209  545.9885
 210  485.8087
 211  648.2958
 212  671.3936
 213  655.6724
 214  637.7698
 215  553.3187
 216  627.4691
 217  702.1544
 218  635.0647
 219  669.5215
 220  652.6635
 221  592.3504
 222  687.0692
 223  644.6122
 224  618.8066
 225  593.2978
 226  542.4607
 227  642.1891
 228  621.5685
 229  601.8677
 230  640.3001
 231  667.2714
 232  696.6992
 233  698.8218
 234  685.024
 235  654.2834
 236  635.9615
 237  737.6083
 238  664.1788
 239  673.9333
 240  724.0164
 241  676.4235
 242  675.3848
 243  710.1811
 244  634.9421
 245  586.9473
 246  534.819
 247  599.5756
 248  550.1251
 249  633.8931
 250  661.3726
 251  548.1713
 252  578.4847
 253  568.3138
 254  648.9249
 255  611.257
 256  559.6077
 257  559.5862
 258  577.1969
 259  652.65
 260  556.4875
 261  622.4355
 262  729.3331
 263  810.4065
 264  701.5021
 265  532.7327
 266  529.1034
 267  551.9241
 268  588.0103
 269  601.3447
 270  653.5806
 271  720.063
 272  691.8103
 273  568.8013
 274  591.199
 275  605.5331
 276  509.2142
 277  560.8819
 278  595.0468
 279  574.9745
 280  502.1068
 281  575.9928
 282  619.7543
 283  613.1143
 284  549.1687
 285  470.02
 286  430.4784
 287  540.0815
 288  581.3105
 289  553.2047
 290  631.5205
 291  599.8365
 292  631.8172
 293  577.6697
 294  639.3975
 295  568.348
 296  533.9843
 297  619.9601
 298  593.5289
 299  670.1291
 300  739.7352
 301  578.9727
 302  614.9247
 303  652.3646
 304  610.4977
 305  598.2115
 306  568.5881
 307  625.5518
 308  706.0504
 309  658.5567
 310  733.7859
 311  687.4657
 312  539.1193
 313  629.7538
 314  623.1174
 315  597.3399
 316  630.6068
 317  637.8685
 318  611.5544
 319  655.4697
 320  651.0706
 321  589.2559
 322  591.4106
 323  531.5899
 324  655.2947
 325  648.15
 326  588.3071
 327  528.9288
 328  559.5896
 329  594.2894
 330  588.6928
 331  634.61
 332  573.9832
 333  628.5712
 334  589.0698
 335  574.0693
 336  646.2424
 337  647.8195
 338  617.027
 339  560.2935
 340  706.3394
 341  763.6795
 342  645.0009
 343  686.4218
 344  700.9885
 345  638.1506
 346  636.1334
 347  663.3152
 348  753.6693
 349  813.1166
 350  691.5751
 351  734.8555
 352  698.8873
 353  687.2018
 354  636.6616
 355  630.5507
 356  671.1317
 357  704.5027
 358  778.0118
 359  728.5244
 360  638.9899
 361  531.1544
 362  598.2971
 363  692.4677
 364  753.4492
 365  752.1779
 366  755.5915
 367  643.5629
 368  622.1339
 369  556.4917
 370  555.0502
 371  624.9614
 372  622.4036
 373  623.6848
 374  538.366
 375  574.8524
 376  660.0036
 377  528.6926
 378  560.3179
 379  529.7002
 380  523.4193
 381  616.1916
 382  612.8727
 383  593.9229
 384  582.2294
 385  478.8595
 386  485.114
 387  484.7247
 388  504.9574
 389  533.5078
 390  686.6255
 391  587.3494
 392  556.6757
 393  526.3101
 394  546.7362
 395  567.5873
 396  509.2029
 397  609.8088
 398  576.2858
 399  602.3613
 400  605.415
 401  588.2141
 402  642.1356
 403  648.4419
 404  645.2166
 405  667.2053
 406  572.513
 407  542.9828
 408  573.1367
 409  504.6974
 410  611.5817
 411  573.534
 412  483.4961
 413  467.5504
 414  542.4648
 415  582.6671
 416  550.9647
 417  571.8563
 418  651.3303
 419  728.5433
 420  674.1953
 421  758.1437
 422  722.1189
 423  602.6677
 424  645.9446
 425  611.9513
 426  624.3888
 427  616.8218
 428  632.7828
 429  674.2836
 430  630.6158
 431  679.3817
 432  779.6722
 433  731.0524
 434  660.8631
 435  727.7454
 436  700.8364
 437  719.4709
 438  650.9832
 439  780.5984
 440  778.6207
 441  604.5855
 442  510.6147
 443  631.3022
 444  600.79
 445  601.8085
 446  688.4303
 447  602.5987
 448  496.2094
 449  604.4878
 450  608.9262
 451  479.432
 452  594.9448
 453  685.7461
 454  720.6752
 455  752.7897
 456  621.6667
 457  683.1553
 458  622.7579
 459  613.6954
 460  592.5795
 461  634.5189
 462  710.2802
 463  699.6725
 464  737.5857
 465  684.945
 466  744.3806
 467  560.6454
 468  525.9667
 469  488.6669
 470  591.4485
 471  639.6984
 472  597.235
 473  528.5118
 474  535.8597
 475  514.2102
 476  520.9276
 477  462.6262
 478  491.998
 479  582.3829
 480  628.3308
 481  686.255
 482  649.6811
 483  612.691
 484  687.7203
 485  620.5641
 486  598.7125
 487  647.2115
 488  525.7609
 489  593.6251
 490  747.1263
 491  626.0269
 492  669.8925
 493  617.9067
 494  582.169
 495  725.2588
 496  695.2405
 497  696.5065
 498  785.5734
 499  923.7388
 500  1085.032
 501  1158.091
 502  1147.348
 503  1059.392
 504  871.9917
 505  746.4739
 506  663.5655
 507  608.2566
 508  669.0176
 509  761.4927
 510  682.1797
 511  720.2989
