# Input file       =  1200656871.114483_cleaned.dat
# Candidate        =  PSR_0332+5434
# Telescope        =  AR
# Epoch_topo       =  58140.491783732446
# Epoch_bary       =  N/A
# T_sample         =  0.002
# Data Folded      =  7274496
# Data Avg         =  0.0927242997295421
# Data StdDev      =  3.37534484809386 
# Profile Bins     =  1024
# Profile Avg      =  658.828556275557 
# Profile StdDev   =  284.491716927938 
# Reduced chi-sqr  =  1.192
# Prob(Noise)      <  2.04e-05   (~4.1 sigma)
# P_topo (ms)      =  714.571257727333  +/- 2.76e-05
# P'_topo (s/s)    =  -0                +/- 1.47e-11
# P''_topo (s/s^2) =  0                 +/- 6.56e-15
# P_bary (ms)      =  N/A
# P'_bary (s/s)    =  N/A
# P''_bary (s/s^2) =  N/A
# P_orb (s)        =  N/A
# asin(i)/c (s)    =  N/A
# eccentricity     =  N/A
# w (rad)          =  N/A
# T_peri           =  N/A
######################################################
   0  590.6106
   1  794.4938
   2  774.0118
   3  815.0322
   4  756.1595
   5  755.3837
   6  591.2136
   7  458.9264
   8  334.1091
   9  377.4737
  10  428.0789
  11  521.5591
  12  478.99
  13  503.886
  14  384.5752
  15  421.2864
  16  609.4373
  17  670.5808
  18  589.6101
  19  575.0551
  20  719.3473
  21  804.3531
  22  714.0266
  23  568.0411
  24  474.2066
  25  472.9722
  26  525.3065
  27  547.8423
  28  570.7577
  29  433.5278
  30  465.9099
  31  642.8724
  32  720.2427
  33  701.6487
  34  691.6193
  35  792.6341
  36  901.7371
  37  887.371
  38  841.8575
  39  639.3558
  40  528.5149
  41  562.1274
  42  541.4301
  43  541.1177
  44  491.2935
  45  680.0172
  46  756.2003
  47  691.9703
  48  572.029
  49  570.9127
  50  611.2795
  51  590.8643
  52  649.1674
  53  800.7332
  54  879.738
  55  827.772
  56  724.1216
  57  591.6408
  58  620.0632
  59  684.4752
  60  872.4446
  61  840.6425
  62  797.5404
  63  638.5181
  64  610.85
  65  638.9341
  66  770.8026
  67  826.5593
  68  958.9415
  69  1061.354
  70  1046.055
  71  1003.611
  72  882.5563
  73  850.7242
  74  624.7646
  75  679.4412
  76  648.3916
  77  689.6666
  78  731.3693
  79  876.9979
  80  906.2144
  81  792.2971
  82  609.7447
  83  636.4919
  84  778.1378
  85  770.852
  86  777.8302
  87  737.8918
  88  744.8116
  89  634.2376
  90  454.7657
  91  493.0937
  92  413.9156
  93  509.0132
  94  407.3219
  95  481.722
  96  585.4265
  97  637.6524
  98  742.2091
  99  860.3277
 100  981.8911
 101  955.9285
 102  874.6172
 103  788.3929
 104  824.1638
 105  890.0093
 106  871.9871
 107  647.2601
 108  494.435
 109  493.6029
 110  493.9345
 111  437.8087
 112  416.4705
 113  398.9629
 114  555.9063
 115  578.3909
 116  730.7936
 117  748.5357
 118  765.2645
 119  705.9858
 120  801.1174
 121  918.8735
 122  799.8007
 123  465.0277
 124  429.4095
 125  444.0275
 126  563.3149
 127  414.9141
 128  408.086
 129  393.7411
 130  439.1803
 131  532.6423
 132  517.0974
 133  670.7077
 134  680.83
 135  662.4034
 136  633.4755
 137  648.301
 138  708.6541
 139  617.0432
 140  584.2372
 141  564.2952
 142  497.7183
 143  507.5878
 144  522.5107
 145  601.326
 146  526.4814
 147  408.66
 148  495.075
 149  722.7133
 150  868.6494
 151  888.0931
 152  761.7003
 153  747.0911
 154  730.3931
 155  698.4274
 156  659.4439
 157  514.115
 158  474.5499
 159  413.7577
 160  570.5654
 161  657.0039
 162  662.5934
 163  577.5001
 164  699.5406
 165  683.6639
 166  781.1664
 167  776.2066
 168  845.3102
 169  896.8442
 170  916.6929
 171  961.0687
 172  778.9114
 173  663.4896
 174  652.1999
 175  733.8472
 176  651.9661
 177  521.4111
 178  499.0081
 179  488.0984
 180  488.5845
 181  412.9619
 182  579.6813
 183  630.1986
 184  819.827
 185  833.4594
 186  921.8423
 187  825.7615
 188  761.3527
 189  570.34
 190  535.0923
 191  481.2125
 192  511.7771
 193  542.4688
 194  437.0592
 195  534.6635
 196  522.7968
 197  595.6342
 198  583.3421
 199  624.7958
 200  707.7374
 201  708.5483
 202  728.4423
 203  727.6788
 204  661.4431
 205  629.3828
 206  557.0246
 207  586.6613
 208  632.9608
 209  720.5366
 210  725.3011
 211  658.4543
 212  545.5442
 213  385.8647
 214  389.8417
 215  417.4201
 216  562.3472
 217  642.5899
 218  705.6143
 219  731.1353
 220  747.9936
 221  660.7075
 222  505.1685
 223  485.8062
 224  465.5924
 225  410.5507
 226  397.151
 227  322.7624
 228  369.3253
 229  390.8173
 230  476.928
 231  654.1671
 232  733.7681
 233  854.6732
 234  805.44
 235  734.7296
 236  795.6506
 237  695.4904
 238  625.6519
 239  426.6078
 240  409.2717
 241  382.3235
 242  412.4962
 243  432.4035
 244  434.9217
 245  496.3686
 246  545.4126
 247  603.8444
 248  605.84
 249  626.3518
 250  636.8246
 251  728.2856
 252  815.8159
 253  793.7081
 254  778.7226
 255  615.5198
 256  441.123
 257  360.9568
 258  331.5542
 259  378.727
 260  368.2448
 261  501.1487
 262  542.1742
 263  520.9996
 264  662.2202
 265  605.1071
 266  738.8491
 267  800.1209
 268  940.1862
 269  872.8696
 270  668.6242
 271  689.0521
 272  580.2415
 273  661.7893
 274  582.6198
 275  556.7969
 276  543.2031
 277  330.2837
 278  280.207
 279  185.3108
 280  300.769
 281  342.6357
 282  475.6895
 283  635.2568
 284  852.4451
 285  904.6777
 286  776.9378
 287  550.0671
 288  438.1868
 289  417.6476
 290  424.8464
 291  425.0652
 292  423.9597
 293  542.4863
 294  531.3215
 295  470.3255
 296  485.189
 297  606.5599
 298  676.1873
 299  714.021
 300  739.2091
 301  732.0446
 302  576.9137
 303  445.9258
 304  526.8233
 305  637.6276
 306  652.983
 307  603.5267
 308  511.7511
 309  437.7392
 310  453.5487
 311  508.5972
 312  631.6522
 313  684.4705
 314  799.8089
 315  894.9365
 316  962.7325
 317  1055.36
 318  929.1223
 319  917.9602
 320  744.7999
 321  638.4466
 322  522.5658
 323  481.3276
 324  526.7951
 325  619.0566
 326  680.5613
 327  616.9703
 328  601.0864
 329  728.3271
 330  811.6077
 331  794.5186
 332  764.11
 333  788.8162
 334  855.5286
 335  906.2446
 336  890.1366
 337  763.2221
 338  629.068
 339  546.2639
 340  585.5203
 341  688.1096
 342  697.7211
 343  598.2766
 344  575.5774
 345  598.3262
 346  592.1785
 347  569.0281
 348  594.2685
 349  813.383
 350  890.6981
 351  781.6564
 352  685.9456
 353  672.3427
 354  688.2894
 355  749.4385
 356  758.9894
 357  708.4005
 358  529.4664
 359  466.995
 360  477.1376
 361  565.6598
 362  575.9726
 363  637.8359
 364  685.9401
 365  709.9332
 366  777.7375
 367  757.5577
 368  703.3113
 369  600.989
 370  551.3258
 371  546.9769
 372  596.0154
 373  620.5555
 374  538.2651
 375  511.2562
 376  626.9619
 377  626.2495
 378  521.843
 379  433.1169
 380  688.1923
 381  885.186
 382  943.1785
 383  764.8369
 384  851.1891
 385  911.7108
 386  871.6422
 387  655.2144
 388  539.4206
 389  473.0936
 390  388.265
 391  441.1071
 392  435.3835
 393  596.1558
 394  690.4441
 395  830.9918
 396  770.0858
 397  741.7446
 398  782.1783
 399  863.6788
 400  913.2608
 401  988.9209
 402  982.0678
 403  869.4327
 404  629.1514
 405  430.4427
 406  431.002
 407  431.6034
 408  518.7047
 409  536.5782
 410  406.9856
 411  284.7532
 412  199.6145
 413  327.4756
 414  462.4205
 415  696.2379
 416  767.4236
 417  863.2861
 418  835.7466
 419  858.9332
 420  724.0225
 421  599.4347
 422  499.9352
 423  575.2662
 424  606.4223
 425  490.4859
 426  420.956
 427  468.3563
 428  514.7025
 429  684.2856
 430  803.118
 431  863.0841
 432  669.3194
 433  585.7146
 434  625.3715
 435  586.6995
 436  615.8913
 437  578.1024
 438  603.6813
 439  468.3846
 440  496.8395
 441  513.0125
 442  515.3503
 443  506.5818
 444  701.5951
 445  818.5539
 446  901.7372
 447  914.9131
 448  909.0098
 449  820.6774
 450  758.9651
 451  760.785
 452  685.9695
 453  585.5698
 454  494.6658
 455  484.5937
 456  535.2495
 457  534.8947
 458  535.2488
 459  520.7819
 460  518.795
 461  607.9662
 462  637.7932
 463  688.1269
 464  684.6923
 465  887.8042
 466  925.4881
 467  893.6767
 468  717.2433
 469  582.8381
 470  552.3131
 471  538.342
 472  469.0693
 473  413.7776
 474  432.3132
 475  442.8362
 476  399.9134
 477  331.0266
 478  481.9635
 479  705.6172
 480  847.7253
 481  816.8958
 482  814.2087
 483  782.6123
 484  696.5153
 485  550.7054
 486  618.1438
 487  571.8229
 488  715.7921
 489  753.0245
 490  757.5009
 491  580.3444
 492  484.6728
 493  475.2741
 494  680.48
 495  787.5394
 496  871.2186
 497  743.4971
 498  813.6476
 499  895.2148
 500  915.0454
 501  913.6836
 502  762.1987
 503  744.8953
 504  735.1308
 505  779.3931
 506  781.4446
 507  627.4886
 508  629.6243
 509  619.0402
 510  710.0763
 511  762.1157
 512  803.0632
 513  809.3536
 514  836.0921
 515  786.2906
 516  700.4932
 517  684.5921
 518  669.5855
 519  717.1957
 520  705.7065
 521  683.1077
 522  572.8093
 523  541.4484
 524  506.4539
 525  389.526
 526  424.0494
 527  564.3398
 528  603.6138
 529  692.8699
 530  830.3002
 531  959.3185
 532  1026.459
 533  911.399
 534  804.7103
 535  596.249
 536  620.1292
 537  546.4398
 538  517.713
 539  468.2852
 540  405.1284
 541  401.8332
 542  432.4687
 543  527.156
 544  602.2286
 545  598.6749
 546  691.5931
 547  758.0583
 548  765.4028
 549  683.6694
 550  720.4442
 551  742.5403
 552  667.6647
 553  554.7499
 554  502.5924
 555  409.2477
 556  486.8802
 557  547.2938
 558  576.2873
 559  673.089
 560  689.0112
 561  776.5674
 562  772.679
 563  748.475
 564  798.1389
 565  808.918
 566  940.0359
 567  842.1412
 568  765.477
 569  720.4707
 570  613.5314
 571  515.8882
 572  486.3908
 573  600.599
 574  591.1625
 575  596.9398
 576  764.616
 577  778.4025
 578  723.9614
 579  583.199
 580  653.6537
 581  811.1425
 582  880.0495
 583  882.7052
 584  788.1322
 585  567.6213
 586  414.5968
 587  321.0666
 588  431.9097
 589  505.7696
 590  569.5882
 591  804.3087
 592  739.1363
 593  624.4722
 594  641.8198
 595  748.3114
 596  829.4925
 597  822.7784
 598  780.3878
 599  694.3063
 600  479.5938
 601  477.5331
 602  429.8538
 603  429.2214
 604  377.6923
 605  369.27
 606  473.765
 607  500.4973
 608  702.3932
 609  855.4424
 610  954.1401
 611  964.6373
 612  1175.68
 613  1402.168
 614  1497.339
 615  1514.567
 616  1573.431
 617  1490.633
 618  1369.91
 619  1285.585
 620  1106.558
 621  1052.896
 622  942.2001
 623  857.0439
 624  616.5938
 625  494.9626
 626  519.7222
 627  678.3698
 628  765.7079
 629  852.3046
 630  831.8762
 631  944.2262
 632  825.5123
 633  754.9406
 634  692.8347
 635  673.1314
 636  621.5912
 637  718.0143
 638  726.0876
 639  753.6533
 640  658.8544
 641  699.4369
 642  715.4155
 643  801.9658
 644  912.8627
 645  1040.77
 646  955.8828
 647  872.0922
 648  764.4019
 649  733.1948
 650  615.3618
 651  490.2368
 652  393.9429
 653  373.2351
 654  535.5085
 655  567.6061
 656  583.0678
 657  445.142
 658  511.5526
 659  620.4658
 660  634.097
 661  568.7892
 662  565.4
 663  603.7922
 664  679.2983
 665  663.7828
 666  613.2425
 667  482.1139
 668  314.3465
 669  308.5191
 670  291.5953
 671  353.5002
 672  449.5435
 673  530.1703
 674  630.0129
 675  641.9582
 676  626.5931
 677  592.4389
 678  609.155
 679  735.3828
 680  834.919
 681  835.4777
 682  763.8949
 683  575.7684
 684  458.4578
 685  451.226
 686  590.7743
 687  714.0416
 688  696.3992
 689  597.9854
 690  396.2502
 691  325.7854
 692  356.2054
 693  546.7708
 694  750.0535
 695  822.6696
 696  896.5269
 697  881.9314
 698  859.3289
 699  816.7098
 700  767.4918
 701  743.1097
 702  606.6118
 703  487.2077
 704  467.1448
 705  388.2262
 706  389.4199
 707  475.2562
 708  610.2903
 709  675.8643
 710  597.5387
 711  594.9296
 712  614.7248
 713  719.1073
 714  799.7145
 715  864.0471
 716  826.7815
 717  736.7088
 718  725.2625
 719  616.7295
 720  498.8285
 721  563.6721
 722  636.2131
 723  560.7665
 724  530.124
 725  626.2517
 726  807.4886
 727  833.6892
 728  878.0089
 729  896.2165
 730  806.3711
 731  736.5842
 732  766.4202
 733  732.7082
 734  676.9199
 735  622.4462
 736  692.1516
 737  618.0502
 738  556.8785
 739  583.356
 740  660.6353
 741  630.3353
 742  606.5181
 743  556.0693
 744  587.2711
 745  577.8937
 746  662.8787
 747  695.0766
 748  721.3804
 749  568.582
 750  518.9925
 751  429.7154
 752  477.4457
 753  457.756
 754  669.4496
 755  687.0197
 756  682.1752
 757  596.8463
 758  691.7919
 759  803.0922
 760  873.6054
 761  867.6504
 762  818.7731
 763  855.2858
 764  855.0061
 765  707.5137
 766  528.6831
 767  502.2935
 768  464.1713
 769  554.6193
 770  588.9035
 771  678.0466
 772  709.129
 773  666.8484
 774  714.3703
 775  680.3519
 776  796.991
 777  711.5827
 778  803.4006
 779  867.823
 780  984.5789
 781  1020.844
 782  891.4517
 783  705.2154
 784  574.4193
 785  592.0779
 786  658.4117
 787  659.0638
 788  607.7759
 789  763.1143
 790  761.928
 791  788.076
 792  900.3826
 793  906.0972
 794  892.3876
 795  724.2527
 796  839.233
 797  842.1381
 798  721.7992
 799  626.4598
 800  469.7227
 801  521.8049
 802  525.3749
 803  624.9662
 804  727.8223
 805  789.624
 806  824.2321
 807  761.8431
 808  735.8759
 809  740.139
 810  840.7177
 811  782.654
 812  734.788
 813  691.4894
 814  767.2811
 815  627.8541
 816  539.857
 817  526.2027
 818  383.2397
 819  396.2303
 820  339.6169
 821  421.608
 822  457.2787
 823  523.2727
 824  672.0364
 825  643.3541
 826  676.924
 827  695.6761
 828  738.5773
 829  828.3593
 830  967.1711
 831  893.6033
 832  746.041
 833  470.8369
 834  502.8795
 835  401.6026
 836  393.0526
 837  316.6465
 838  301.2171
 839  389.7993
 840  530.6778
 841  633.4214
 842  780.132
 843  854.8693
 844  914.9117
 845  791.8522
 846  764.8944
 847  858.6032
 848  793.7002
 849  677.6731
 850  590.0761
 851  572.0546
 852  466.3268
 853  311.0536
 854  372.293
 855  479.5065
 856  610.4154
 857  699.3907
 858  767.2738
 859  821.2354
 860  782.9498
 861  806.4841
 862  798.1437
 863  870.3876
 864  867.9026
 865  834.9241
 866  704.7642
 867  593.3552
 868  433.4059
 869  430.9794
 870  315.9817
 871  361.1451
 872  462.5929
 873  586.5779
 874  486.7922
 875  454.93
 876  508.6229
 877  735.8447
 878  841.8679
 879  819.1249
 880  791.4592
 881  747.1329
 882  777.7158
 883  515.6027
 884  490.7184
 885  388.837
 886  522.9792
 887  534.0314
 888  592.9185
 889  638.1269
 890  600.2578
 891  603.5245
 892  719.9256
 893  786.1786
 894  773.1135
 895  776.9619
 896  784.0009
 897  750.1558
 898  669.2328
 899  578.24
 900  554.3981
 901  457.6994
 902  554.7001
 903  554.4715
 904  612.354
 905  574.0998
 906  655.5087
 907  678.0978
 908  637.511
 909  675.4537
 910  667.0834
 911  691.6196
 912  732.0613
 913  731.1085
 914  795.5518
 915  741.4711
 916  648.0285
 917  519.5656
 918  478.6829
 919  626.2772
 920  578.0959
 921  680.0258
 922  760.4609
 923  757.5773
 924  658.1501
 925  767.1245
 926  803.5492
 927  906.0979
 928  829.3088
 929  976.8489
 930  993.5643
 931  972.8217
 932  821.3274
 933  607.6812
 934  475.8085
 935  461.0451
 936  518.8842
 937  750.4592
 938  838.4785
 939  902.4563
 940  839.2806
 941  769.3868
 942  740.7262
 943  752.0249
 944  832.0242
 945  796.8517
 946  740.5004
 947  601.012
 948  544.882
 949  609.8919
 950  598.0018
 951  575.9362
 952  620.3691
 953  651.3923
 954  511.4871
 955  561.5414
 956  674.6815
 957  883.3153
 958  699.9185
 959  747.987
 960  774.499
 961  804.9876
 962  785.2352
 963  733.6598
 964  647.9913
 965  523.5569
 966  418.7569
 967  484.4746
 968  451.8689
 969  521.1165
 970  561.4111
 971  532.069
 972  614.2241
 973  721.373
 974  939.2549
 975  947.0764
 976  833.9067
 977  843.2605
 978  838.8483
 979  824.9821
 980  805.4576
 981  755.0508
 982  729.6118
 983  639.0862
 984  624.8777
 985  589.1537
 986  679.1681
 987  787.3098
 988  868.9974
 989  785.805
 990  788.7029
 991  723.4201
 992  786.4042
 993  798.6999
 994  904.1833
 995  1042.29
 996  984.1821
 997  917.1473
 998  669.5407
 999  621.1509
1000  595.4032
1001  573.0087
1002  680.3237
1003  613.6712
1004  649.944
1005  517.7879
1006  515.7717
1007  574.8683
1008  782.1953
1009  834.1924
1010  848.5356
1011  825.3216
1012  833.8716
1013  788.6077
1014  721.4158
1015  663.866
1016  549.3956
1017  494.6415
1018  529.5755
1019  638.9909
1020  709.4764
1021  574.2319
1022  444.3632
1023  443.292
