# Input file       =  1200154712.110376_cleaned.dat
# Candidate        =  PSR_0332+5434
# Telescope        =  AR
# Epoch_topo       =  58134.679758221944
# Epoch_bary       =  N/A
# T_sample         =  0.002
# Data Folded      =  7340032
# Data Avg         =  0.0916096594550515
# Data StdDev      =  3.19775444496352 
# Profile Bins     =  512
# Profile Avg      =  1313.81568282745 
# Profile StdDev   =  382.876849282783 
# Reduced chi-sqr  =  1.118
# Prob(Noise)      <  0.0334   (~1.8 sigma)
# P_topo (ms)      =  714.56770546189   +/- 0.000445
# P'_topo (s/s)    =  -0                +/- 2.35e-10
# P''_topo (s/s^2) =  0                 +/- 1.04e-13
# P_bary (ms)      =  N/A
# P'_bary (s/s)    =  N/A
# P''_bary (s/s^2) =  N/A
# P_orb (s)        =  N/A
# asin(i)/c (s)    =  N/A
# eccentricity     =  N/A
# w (rad)          =  N/A
# T_peri           =  N/A
######################################################
   0  1687.731
   1  1750.238
   2  1667.94
   3  1331.715
   4  1226.358
   5  1138.003
   6  1175.374
   7  1357.891
   8  1314.056
   9  1355.841
  10  1453.094
  11  1221.738
  12  1076.94
  13  1253.333
  14  1338.954
  15  1640.072
  16  1373.453
  17  1248.451
  18  1093.323
  19  1316.552
  20  1098.121
  21  1030.797
  22  1008.892
  23  1054.722
  24  1205.034
  25  1169.492
  26  938.4893
  27  1051.705
  28  1037.491
  29  1491.081
  30  1403.842
  31  1311.821
  32  1294.456
  33  1227.061
  34  996.2969
  35  996.5059
  36  1100.913
  37  1358.155
  38  1371.995
  39  1203.347
  40  1313.503
  41  1341.787
  42  1233.255
  43  1390.31
  44  1487.709
  45  1231.512
  46  1337.532
  47  1349.874
  48  1104.127
  49  1030.815
  50  1157.703
  51  1208.235
  52  1115.993
  53  1133.71
  54  1030.525
  55  1205.556
  56  1488.858
  57  1540.382
  58  1424.574
  59  1324.579
  60  1085.958
  61  1088.444
  62  1114.109
  63  1135.823
  64  1321.14
  65  1523.448
  66  1216.958
  67  1378.068
  68  1118.996
  69  926.55
  70  1027.118
  71  955.9679
  72  871.002
  73  1056.062
  74  1333.755
  75  1293.394
  76  1337.757
  77  1050.781
  78  955.0126
  79  991.9757
  80  1074.201
  81  1126.302
  82  1406.045
  83  1455.401
  84  1299.344
  85  1383.273
  86  1690.765
  87  2208.438
  88  2551.673
  89  2691.419
  90  2892.451
  91  3081.093
  92  2924.668
  93  2458.82
  94  1909.923
  95  1704.95
  96  1740.968
  97  1699.288
  98  1763.262
  99  1736.598
 100  1482.929
 101  1528.19
 102  1727.417
 103  1683.498
 104  1272.548
 105  1476.168
 106  1507.74
 107  1275.013
 108  1260.444
 109  1201.327
 110  1417.497
 111  1497.634
 112  1184.213
 113  1248.42
 114  1173.84
 115  991.1278
 116  1054.481
 117  1090.85
 118  1149.389
 119  1222.291
 120  1311.125
 121  1420.571
 122  1175.298
 123  956.7269
 124  1043.545
 125  1174.252
 126  1192.912
 127  1182.482
 128  1210.944
 129  1239.652
 130  1106.596
 131  1364.516
 132  1351.774
 133  1089.237
 134  1321.891
 135  1398.539
 136  1204.785
 137  1031.088
 138  1046.243
 139  1279.398
 140  1193.211
 141  1112.318
 142  1189.444
 143  1008.349
 144  1043.852
 145  707.5573
 146  805.5059
 147  1008.113
 148  1107.282
 149  1247.759
 150  1431.604
 151  1301.673
 152  999.5963
 153  1202.549
 154  1402.786
 155  1264.584
 156  1066.501
 157  1099.12
 158  1212.852
 159  1319.814
 160  1497.093
 161  1235.377
 162  1231.341
 163  1284.971
 164  1152.123
 165  1127.319
 166  1195.176
 167  1468.631
 168  1320.916
 169  1211.993
 170  1281.225
 171  1270.215
 172  1453.048
 173  1340.381
 174  1335.045
 175  1106.289
 176  1163.388
 177  1075.248
 178  982.6707
 179  955.0816
 180  1424.649
 181  1577.944
 182  1626.46
 183  1770.006
 184  1570.788
 185  1327.815
 186  1303.574
 187  1184.531
 188  1148.978
 189  1414.488
 190  1667.275
 191  1164.041
 192  752.436
 193  1272.522
 194  1453.034
 195  1371.047
 196  1477.233
 197  1357.373
 198  1433.196
 199  1410.599
 200  1393.932
 201  1153.174
 202  1308.372
 203  1408.429
 204  1189.543
 205  866.9034
 206  918.6683
 207  1233.897
 208  1246.839
 209  1056.313
 210  1304.484
 211  847.4105
 212  548.6382
 213  536.1794
 214  636.5103
 215  1047.319
 216  1065.171
 217  1184.527
 218  1236.183
 219  1099.177
 220  1052.029
 221  1227.56
 222  1170.656
 223  1153.222
 224  1191.326
 225  1290.85
 226  1333.289
 227  1130.215
 228  1165.49
 229  1483.709
 230  1306.705
 231  1049.796
 232  1235.03
 233  1581.871
 234  1555.249
 235  1688.931
 236  1629.787
 237  1597.245
 238  1266.511
 239  1289.221
 240  1527.329
 241  1574.523
 242  1559.338
 243  1647.261
 244  1598.333
 245  1419.69
 246  1176.437
 247  1114.339
 248  1186.551
 249  1286.017
 250  1266.956
 251  1375.465
 252  1409.095
 253  1305.503
 254  1023.657
 255  1092.502
 256  1071.562
 257  1185.497
 258  1276.311
 259  1227.451
 260  983.9735
 261  1037.705
 262  898.92
 263  1020.363
 264  1470.455
 265  1436.179
 266  1173.036
 267  1167.647
 268  1598.316
 269  1444.457
 270  1447.105
 271  1243.245
 272  1086.57
 273  1151.872
 274  1162.782
 275  1446.688
 276  1396.662
 277  1169.59
 278  1044.279
 279  968.3215
 280  1284.166
 281  1274.059
 282  1236.751
 283  1023.509
 284  910.4718
 285  1180.537
 286  1115.356
 287  1278.575
 288  1249.073
 289  1242.298
 290  1015.428
 291  1034.78
 292  951.1265
 293  1263.841
 294  1415.804
 295  1398.178
 296  1436.174
 297  1565.559
 298  1494.831
 299  1407.367
 300  1221.807
 301  1109.971
 302  1048.131
 303  1195.892
 304  1221.031
 305  1272.419
 306  1233.983
 307  1177.886
 308  1055.245
 309  995.6655
 310  1089.656
 311  1218.704
 312  1471.662
 313  1503.672
 314  1484.136
 315  1448.696
 316  1597.483
 317  1490.719
 318  1433.211
 319  1193.166
 320  1059.302
 321  1048.481
 322  1321.598
 323  1399.746
 324  1352.202
 325  1490.969
 326  1165.422
 327  1054.149
 328  1074.493
 329  992.1927
 330  830.3693
 331  774.6611
 332  1151.442
 333  1223.309
 334  1164.37
 335  1288.567
 336  1184.621
 337  1225.372
 338  1213.887
 339  1110.385
 340  1339.762
 341  1315.003
 342  1250.46
 343  1343.139
 344  1188.238
 345  1453.734
 346  1746.006
 347  1500.007
 348  1045.602
 349  1115.693
 350  1657.186
 351  1554.313
 352  1254.474
 353  1199.099
 354  1340.638
 355  1295.335
 356  1195.585
 357  965.2801
 358  902.2208
 359  1196.584
 360  1207.273
 361  1038.571
 362  843.6749
 363  1115.659
 364  1278.079
 365  892.8363
 366  934.7405
 367  1226.549
 368  1332.251
 369  1204.229
 370  978.726
 371  1032.812
 372  1398.454
 373  1406.81
 374  1043.393
 375  1341.45
 376  1390.787
 377  912.2748
 378  721.9582
 379  868.6804
 380  1317.455
 381  1084.158
 382  1130.786
 383  1169.57
 384  1094.701
 385  1177.347
 386  1051.602
 387  1086.448
 388  1281.975
 389  1401.105
 390  1495.163
 391  1317.049
 392  1367.48
 393  1258.187
 394  1410.607
 395  1324.699
 396  1499.912
 397  1886.949
 398  1442.816
 399  1232.213
 400  1155.685
 401  1323.464
 402  1242.8
 403  1370.353
 404  1247.975
 405  1182.665
 406  1270.243
 407  1264.603
 408  964.3529
 409  976.9116
 410  1025.678
 411  1215.382
 412  1137.34
 413  975.4284
 414  1055.363
 415  1106.161
 416  1237.762
 417  1591.585
 418  1643.07
 419  1513.83
 420  1164.332
 421  1176.245
 422  1401.135
 423  1203.016
 424  1259.446
 425  1390.074
 426  1401.541
 427  1474.655
 428  1587.818
 429  1779.558
 430  1407.521
 431  1314.528
 432  1344.491
 433  1083.52
 434  1239.034
 435  1434.871
 436  1399.253
 437  1192.992
 438  1280.199
 439  1332.903
 440  1205.941
 441  1299.63
 442  1460.114
 443  1533.165
 444  1935.864
 445  1772.237
 446  1785.645
 447  1870.242
 448  1901.595
 449  2090.227
 450  1916.152
 451  1977.955
 452  1962.76
 453  1745.849
 454  1608.962
 455  1455.783
 456  1581.667
 457  1881.174
 458  1918.907
 459  1904.956
 460  1808.869
 461  1900.216
 462  1979.758
 463  2107.161
 464  1881.347
 465  1838.344
 466  1734.033
 467  1444.227
 468  1629.887
 469  1661.393
 470  1719.089
 471  1656.578
 472  1568.932
 473  1673.124
 474  1510.821
 475  1385.125
 476  1439.523
 477  1675.369
 478  1756.649
 479  1437.519
 480  1428.743
 481  1737.839
 482  1721.458
 483  1536.891
 484  1381.842
 485  1463.564
 486  1532.961
 487  1268.059
 488  1279.658
 489  1156.642
 490  1221.675
 491  1306.396
 492  1810.743
 493  1659.354
 494  1468.059
 495  1380.891
 496  1407.571
 497  1239.28
 498  1312.525
 499  1398.228
 500  1456.247
 501  1403.073
 502  1348.517
 503  1353.879
 504  1151.102
 505  1122.181
 506  1088.507
 507  1247.683
 508  1157.795
 509  1156.752
 510  1255.788
 511  1388.867
