# Input file       =  1200585540.105412_cleaned.dat
# Candidate        =  PSR_0332+5434
# Telescope        =  AR
# Epoch_topo       =  58139.666193349673
# Epoch_bary       =  N/A
# T_sample         =  0.002
# Data Folded      =  7340032
# Data Avg         =  0.305720335412063
# Data StdDev      =  4.47354245054405 
# Profile Bins     =  512
# Profile Avg      =  4382.40356080134 
# Profile StdDev   =  535.630820963999 
# Reduced chi-sqr  =  0.844
# Prob(Noise)      <  0.995   (~0.0 sigma)
# P_topo (ms)      =  714.570797162508  +/- 0.000251
# P'_topo (s/s)    =  -0                +/- 1.33e-10
# P''_topo (s/s^2) =  0                 +/- 5.85e-14
# P_bary (ms)      =  N/A
# P'_bary (s/s)    =  N/A
# P''_bary (s/s^2) =  N/A
# P_orb (s)        =  N/A
# asin(i)/c (s)    =  N/A
# eccentricity     =  N/A
# w (rad)          =  N/A
# T_peri           =  N/A
######################################################
   0  4248.521
   1  3598.523
   2  3947.837
   3  4233.146
   4  4578.629
   5  4387.513
   6  4110.698
   7  4067.345
   8  3655.962
   9  3537.943
  10  3497.603
  11  3709.876
  12  4006.938
  13  3900.432
  14  4045.474
  15  3872.255
  16  3608.358
  17  3657.031
  18  3445.675
  19  3654.383
  20  3742.207
  21  4287.547
  22  4396.69
  23  4463.949
  24  4471.752
  25  3957.494
  26  3664.725
  27  3856.523
  28  3956.135
  29  3766.763
  30  4259.729
  31  4052.728
  32  4065.315
  33  4164.158
  34  4361.447
  35  4721.586
  36  4473.92
  37  4196.441
  38  4086.948
  39  4401.97
  40  3994.049
  41  4141.216
  42  4491.686
  43  4650.419
  44  4122.335
  45  4269.927
  46  4279.487
  47  4002.844
  48  4308.308
  49  4646.917
  50  4719.418
  51  4892.415
  52  4477.62
  53  4422.431
  54  4614.388
  55  4670.952
  56  4755.79
  57  4745.23
  58  4536.509
  59  4647.627
  60  4747.475
  61  4605.455
  62  4619.345
  63  4419.325
  64  4359.645
  65  4270.056
  66  4629.383
  67  4520.66
  68  4189.243
  69  4342.248
  70  4266.538
  71  4455.487
  72  4283.119
  73  4301.504
  74  4190.123
  75  4619.534
  76  4535.252
  77  4306.458
  78  4204.327
  79  3925.36
  80  4025.78
  81  4095.371
  82  4490.534
  83  4474.4
  84  4883.182
  85  4883.244
  86  4485.32
  87  4335.831
  88  4832.062
  89  4464.528
  90  4311.289
  91  4817.646
  92  4627.181
  93  4264.469
  94  3996.278
  95  4493.654
  96  4795.326
  97  4639.737
  98  4346.436
  99  3922.025
 100  4048.601
 101  4257.793
 102  4053.295
 103  4173.291
 104  4142.602
 105  4269.22
 106  4200.759
 107  4336.844
 108  4129.945
 109  4375.223
 110  4523.439
 111  4461.645
 112  4295.593
 113  3978.34
 114  4244.775
 115  4234.769
 116  4542.155
 117  4388.522
 118  4453.292
 119  4169.385
 120  3824.831
 121  4189.126
 122  4342.472
 123  4386.058
 124  4396.045
 125  3912.414
 126  3533.146
 127  3675.146
 128  4175.827
 129  4240.774
 130  4119.955
 131  4230.782
 132  3999.801
 133  3830.165
 134  3946.613
 135  3890.648
 136  3695.251
 137  3571.623
 138  3316.373
 139  3327.275
 140  3484.048
 141  3665.337
 142  3630.651
 143  3847.656
 144  3743.893
 145  3934.071
 146  4475.412
 147  4215.804
 148  4117.565
 149  3752.784
 150  4283.479
 151  4356.786
 152  4192.206
 153  4625.323
 154  4466.42
 155  4493.726
 156  4141.786
 157  4253.484
 158  3891.317
 159  4174.477
 160  4383.116
 161  4180.466
 162  3969.589
 163  4095.989
 164  4208.041
 165  3911.078
 166  3718.287
 167  3882.503
 168  4098.226
 169  4013.087
 170  4337.786
 171  4293.062
 172  4530.66
 173  4495.835
 174  4170.682
 175  4122.312
 176  4347.487
 177  4509.105
 178  4337.874
 179  4368.218
 180  4591.818
 181  4173.48
 182  4428.617
 183  4418.344
 184  4626.281
 185  4257.776
 186  4304.174
 187  4523.722
 188  4371.682
 189  4668.521
 190  4714.483
 191  4590.395
 192  4422.218
 193  4421.488
 194  4704.821
 195  4953.056
 196  4820.467
 197  4578.118
 198  4338.768
 199  4258.93
 200  4379.835
 201  4169.899
 202  4316.391
 203  4122.988
 204  4386.774
 205  3983.156
 206  3935.442
 207  4028.248
 208  4511.102
 209  4538.927
 210  4092.048
 211  4508.394
 212  4295.033
 213  4331.111
 214  4648.817
 215  4335.88
 216  4393.805
 217  4383.878
 218  4571.562
 219  4657.273
 220  4826.233
 221  4720.275
 222  4496.2
 223  4545.843
 224  4364.262
 225  4319.672
 226  3903.495
 227  4147.643
 228  4223.895
 229  4405.796
 230  4258.282
 231  4138.88
 232  4646.579
 233  4340.142
 234  4014.116
 235  4033.954
 236  4132.3
 237  4100.066
 238  4516.774
 239  4748.749
 240  4736.937
 241  4446.01
 242  4143.711
 243  4261.543
 244  3897.038
 245  4255.042
 246  4449.887
 247  4610.959
 248  4425.506
 249  4535.691
 250  5055.928
 251  4977.893
 252  5225.039
 253  4935.222
 254  4737.388
 255  4552.581
 256  4293.545
 257  4214.146
 258  4514.728
 259  4656.696
 260  4582.068
 261  4821.501
 262  4753.26
 263  4691.104
 264  4244.486
 265  4285.068
 266  4633.331
 267  4671.577
 268  4762.175
 269  4509.959
 270  4779.898
 271  4855.1
 272  4374.472
 273  4428.901
 274  4197.307
 275  4573.047
 276  4810.744
 277  4866.027
 278  4584.667
 279  4223.541
 280  4136.789
 281  4498.46
 282  4505.5
 283  4142.826
 284  4023.229
 285  4129.191
 286  4358.965
 287  4572.502
 288  4710.961
 289  4378.65
 290  4478.199
 291  4745.216
 292  4077.304
 293  3941.267
 294  3988.396
 295  4206.274
 296  4448.64
 297  4655.056
 298  4282.936
 299  4025.329
 300  4559.501
 301  4739.12
 302  4515.627
 303  3965.959
 304  4138.919
 305  4593.494
 306  4780.999
 307  5527.487
 308  6033.724
 309  6180.403
 310  5783.308
 311  5384.787
 312  4631.221
 313  4282.346
 314  4084.253
 315  3929.379
 316  3979.999
 317  3820.591
 318  4226.283
 319  4277.667
 320  4420.52
 321  4063.369
 322  3883.391
 323  4345.639
 324  4348.534
 325  4722.519
 326  4417.486
 327  4269.934
 328  4361.534
 329  4412.492
 330  4353.365
 331  4461.071
 332  4348.656
 333  4037.817
 334  4119.34
 335  4363.075
 336  4290.034
 337  4417.802
 338  4304.91
 339  4640.688
 340  4809.981
 341  4621.78
 342  4335.224
 343  4331.496
 344  4302.988
 345  4016.225
 346  3997.145
 347  4260.906
 348  4086.27
 349  4535.469
 350  4662.254
 351  4573.809
 352  4303.789
 353  4342.491
 354  4625.492
 355  4570
 356  4804.27
 357  4763.126
 358  4745.731
 359  4579.989
 360  4166.358
 361  4427.003
 362  4431.832
 363  4721.416
 364  4558.522
 365  4479.5
 366  4459.986
 367  4457.241
 368  4418.851
 369  4287.518
 370  4601.201
 371  4812.485
 372  4940.018
 373  4336.152
 374  4358.479
 375  4515.832
 376  4694.05
 377  4707.074
 378  4225.157
 379  4168.058
 380  4173.001
 381  4014.722
 382  3750.298
 383  4165.84
 384  4593.324
 385  4595.777
 386  4778.694
 387  4484.855
 388  4478.45
 389  4561.464
 390  4736.872
 391  4575.603
 392  4802.284
 393  5100.083
 394  4954.145
 395  5259.471
 396  5178.676
 397  5125.465
 398  5032.807
 399  5133.327
 400  5293.986
 401  4785.065
 402  4735.049
 403  4545.986
 404  4935.167
 405  4773.314
 406  4652.444
 407  4504.142
 408  4648.37
 409  4292.989
 410  4480.452
 411  4403.951
 412  4441.959
 413  4667.415
 414  4711.954
 415  4849.247
 416  4937.458
 417  4863.944
 418  4683.413
 419  4852.216
 420  4732.629
 421  4813.594
 422  5008.873
 423  4887.871
 424  4931.03
 425  4796.088
 426  4695.724
 427  4306.19
 428  4358.815
 429  4487.924
 430  4767.997
 431  4602.368
 432  3906.694
 433  4183.889
 434  4485.207
 435  4832.542
 436  4791.121
 437  4772.012
 438  4827.993
 439  4412.061
 440  4583.799
 441  4506.289
 442  4610.152
 443  4648.285
 444  4949.871
 445  4790.819
 446  4417.376
 447  4772.056
 448  4880.227
 449  4693.643
 450  4195.472
 451  4395.574
 452  4510.338
 453  4164.298
 454  4372.603
 455  4337.468
 456  4745.549
 457  4689.922
 458  4823.052
 459  4445.038
 460  4247.794
 461  4238.508
 462  4431.814
 463  4415.14
 464  4295.779
 465  4577.613
 466  4552.176
 467  4641.827
 468  4893.419
 469  4644.951
 470  3949.203
 471  4167.583
 472  4550.905
 473  4467.002
 474  4274.134
 475  4533.728
 476  4501.721
 477  4171.428
 478  4078.153
 479  4048.302
 480  4135.803
 481  4596.902
 482  4089.082
 483  4108.315
 484  4248.123
 485  4160.222
 486  3889.416
 487  3834.916
 488  3993.642
 489  4127.452
 490  4641.194
 491  4415.706
 492  4491.351
 493  3933.54
 494  3848.191
 495  4144.65
 496  4264.382
 497  4442.745
 498  4178.457
 499  4128.057
 500  4044.468
 501  4395.105
 502  4073.604
 503  4272.768
 504  4217.87
 505  4180.594
 506  4335.99
 507  4306.2
 508  4681.996
 509  4432.247
 510  4641.69
 511  4515.922
