# Input file       =  1200140058.09837_cleaned.dat
# Candidate        =  PSR_0332+5434
# Telescope        =  AR
# Epoch_topo       =  58134.510151601506
# Epoch_bary       =  N/A
# T_sample         =  0.002
# Data Folded      =  7208960
# Data Avg         =  0.0948389412306082
# Data StdDev      =  4.17895104725584 
# Profile Bins     =  1024
# Profile Avg      =  667.631041535543 
# Profile StdDev   =  350.633666754548 
# Reduced chi-sqr  =  2.034
# Prob(Noise)      <  2.02e-74   (~18.2 sigma)
# P_topo (ms)      =  714.567579094899  +/- 1.72e-05
# P'_topo (s/s)    =  -0                +/- 9.23e-12
# P''_topo (s/s^2) =  0                 +/- 4.15e-15
# P_bary (ms)      =  N/A
# P'_bary (s/s)    =  N/A
# P''_bary (s/s^2) =  N/A
# P_orb (s)        =  N/A
# asin(i)/c (s)    =  N/A
# eccentricity     =  N/A
# w (rad)          =  N/A
# T_peri           =  N/A
######################################################
   0  608.6136
   1  474.9458
   2  326.2194
   3  313.6632
   4  519.3843
   5  773.8165
   6  980.3862
   7  1015.313
   8  1105.834
   9  965.1552
  10  849.1597
  11  584.5949
  12  369.2582
  13  309.4025
  14  388.5738
  15  558.0521
  16  466.7477
  17  461.4731
  18  588.3282
  19  891.9177
  20  985.568
  21  1094.272
  22  1215.916
  23  1372.803
  24  1317.647
  25  1132.264
  26  923.2923
  27  715.8701
  28  563.3501
  29  594.291
  30  682.6903
  31  752.273
  32  712.7337
  33  750.228
  34  743.3214
  35  606.7231
  36  555.7133
  37  661.7247
  38  879.5599
  39  968.7294
  40  921.1566
  41  854.7946
  42  709.407
  43  632.6245
  44  468.6605
  45  442.0597
  46  528.739
  47  630.9821
  48  556.1564
  49  579.582
  50  569.3729
  51  676.5417
  52  691.0264
  53  857.9494
  54  1055.019
  55  1156.378
  56  1230.15
  57  1220.906
  58  1183.383
  59  969.5221
  60  847.2903
  61  783.5796
  62  687.7372
  63  627.9022
  64  580.6248
  65  557.6165
  66  481.9956
  67  427.7967
  68  474.6692
  69  576.1953
  70  612.1089
  71  855.0624
  72  975.9193
  73  1081.775
  74  897.7543
  75  814.4664
  76  692.1141
  77  464.9128
  78  334.3461
  79  347.6268
  80  256.6205
  81  175.9109
  82  228.9183
  83  426.7721
  84  510.7622
  85  551.9365
  86  707.3719
  87  869.7902
  88  1073.081
  89  1181.642
  90  976.2352
  91  874.547
  92  672.0911
  93  724.8885
  94  518.1545
  95  411.5708
  96  352.1905
  97  352.8683
  98  359.4196
  99  437.791
 100  419.1083
 101  471.8467
 102  464.0473
 103  695.7823
 104  838.5069
 105  874.5659
 106  1041.974
 107  925.3458
 108  975.4883
 109  748.7766
 110  635.9152
 111  473.1048
 112  341.2796
 113  291.9713
 114  204.7343
 115  248.2428
 116  233.5005
 117  408.2888
 118  384.0091
 119  613.9148
 120  672.1832
 121  1013.637
 122  1127.514
 123  1191.746
 124  996.7464
 125  766.7734
 126  662.5702
 127  458.581
 128  378.1702
 129  325.8873
 130  512.9767
 131  598.4754
 132  461.5813
 133  385.4563
 134  364.8545
 135  559.9006
 136  729.1461
 137  991.8751
 138  1167.805
 139  1230.582
 140  1118.697
 141  1047.83
 142  826.9521
 143  706.9702
 144  638.6711
 145  641.8354
 146  530.0657
 147  513.7785
 148  399.3477
 149  403.7758
 150  486.6826
 151  764.8997
 152  1051.566
 153  1058.321
 154  1176.971
 155  1177.665
 156  1252.707
 157  1145.757
 158  1008.685
 159  696.2974
 160  536.3391
 161  402.3843
 162  487.7098
 163  478.3389
 164  585.1563
 165  529.7179
 166  501.3531
 167  294.4438
 168  343.4255
 169  440.6703
 170  640.1701
 171  836.7545
 172  920.8706
 173  969.5168
 174  732.2375
 175  645.8501
 176  600.607
 177  577.2344
 178  495.4604
 179  457.0785
 180  524.6675
 181  421.3285
 182  332.4505
 183  334.0029
 184  437.1133
 185  680.6833
 186  902.633
 187  1171.374
 188  1160.645
 189  1169.328
 190  1082.837
 191  1103.876
 192  891.841
 193  852.6953
 194  822.5153
 195  852.4232
 196  709.2017
 197  659.143
 198  573.9617
 199  607.8989
 200  588.7787
 201  604.6352
 202  665.5744
 203  892.5225
 204  1036.331
 205  1055.656
 206  1058.795
 207  910.6141
 208  887.9156
 209  716.463
 210  593.4558
 211  404.2682
 212  364.2482
 213  430.5341
 214  431.2427
 215  421.3707
 216  535.7047
 217  609.6071
 218  714.4428
 219  848.1076
 220  1109.413
 221  1278.214
 222  1293.458
 223  1173.828
 224  938.9383
 225  738.7241
 226  678.7911
 227  562.8239
 228  526.3909
 229  432.3429
 230  471.8861
 231  457.5976
 232  478.2088
 233  533.6373
 234  600.0455
 235  798.5244
 236  923.4668
 237  859.0099
 238  899.0782
 239  974.9764
 240  880.161
 241  712.8768
 242  480.0405
 243  436.6989
 244  348.4093
 245  258.3901
 246  110.3537
 247  11.40524
 248  36.62428
 249  295.2621
 250  480.5042
 251  721.0598
 252  914.2299
 253  1225.272
 254  1475.926
 255  1380.954
 256  1247.715
 257  863.4939
 258  679.2743
 259  467.2854
 260  367.4872
 261  366.7684
 262  447.9769
 263  613.3472
 264  705.6808
 265  580.1329
 266  461.3303
 267  423.7448
 268  631.6749
 269  830.5336
 270  927.3237
 271  1073.245
 272  934.6443
 273  919.5679
 274  718.3574
 275  496.6436
 276  303.4875
 277  219.3224
 278  308.7748
 279  339.1421
 280  408.8966
 281  502.7668
 282  611.9081
 283  614.7237
 284  627.1041
 285  688.0721
 286  909.1821
 287  1073.011
 288  1074.551
 289  1013.834
 290  862.1154
 291  897.0801
 292  696.0823
 293  626.6656
 294  421.028
 295  408.8907
 296  455.8863
 297  588.5482
 298  641.8383
 299  536.468
 300  390.0369
 301  427.2751
 302  722.1992
 303  949.0319
 304  1158.563
 305  990.8105
 306  921.5865
 307  669.4323
 308  730.6214
 309  515.9141
 310  425.1253
 311  235.9727
 312  306.1894
 313  302.654
 314  270.8235
 315  307.9018
 316  457.1093
 317  659.3312
 318  797.5167
 319  874.5737
 320  1068.275
 321  1105.036
 322  1061.258
 323  928.3339
 324  878.0061
 325  692.8381
 326  701.8081
 327  676.3972
 328  698.1622
 329  647.5729
 330  605.9382
 331  540.4099
 332  429.1971
 333  472.2197
 334  598.4235
 335  702.607
 336  813.9006
 337  816.1127
 338  811.685
 339  767.8921
 340  786.4442
 341  773.79
 342  493.4146
 343  450.9312
 344  351.1178
 345  470.9548
 346  324.2856
 347  350.8027
 348  175.4992
 349  279.9149
 350  419.5972
 351  777.738
 352  894.9424
 353  959.152
 354  1006.38
 355  1055.226
 356  989.6478
 357  672.2532
 358  554.4608
 359  468.0573
 360  496.0682
 361  477.9123
 362  526.3174
 363  597.488
 364  536.6936
 365  514.728
 366  535.1658
 367  627.2381
 368  721.4241
 369  782.1144
 370  769.2554
 371  682.1982
 372  589.3578
 373  570.8256
 374  588.3771
 375  535.3162
 376  503.683
 377  396.7097
 378  346.799
 379  247.5251
 380  216.4959
 381  190.182
 382  304.9856
 383  475.5965
 384  718.3983
 385  903.535
 386  1077.37
 387  1071.273
 388  921.8755
 389  813.0451
 390  690.5267
 391  801.3635
 392  578.8522
 393  626.2068
 394  490.6416
 395  472.5107
 396  416.6042
 397  466.7355
 398  541.0044
 399  533.741
 400  552.3254
 401  819.8682
 402  898.5337
 403  874.9164
 404  823.8383
 405  647.3061
 406  646.4511
 407  371.3072
 408  287.4243
 409  241.8316
 410  296.3303
 411  352.4652
 412  378.0686
 413  354.6836
 414  363.023
 415  514.2373
 416  697.3735
 417  847.7252
 418  817.0637
 419  931.6457
 420  885.6024
 421  871.2051
 422  542.968
 423  396.7639
 424  406.7331
 425  474.8658
 426  507.8607
 427  455.1346
 428  435.519
 429  365.9473
 430  318.3107
 431  447.6289
 432  504.899
 433  677.2308
 434  885.3335
 435  1050.9
 436  1013.223
 437  922.6785
 438  759.1577
 439  737.7749
 440  476.8187
 441  422.2153
 442  320.4275
 443  308.542
 444  168.2759
 445  171.1955
 446  233.2041
 447  483.7323
 448  629.0348
 449  908.3025
 450  954.2405
 451  1061.064
 452  1081.551
 453  1195.906
 454  1058.913
 455  802.1738
 456  683.5424
 457  561.8712
 458  545.4844
 459  434.7526
 460  574.0103
 461  568.6681
 462  502.1261
 463  423.9719
 464  359.9251
 465  240.3296
 466  387.3562
 467  585.242
 468  805.8802
 469  826.4107
 470  917.8252
 471  998.2445
 472  801.019
 473  585.4108
 474  528.4918
 475  526.1013
 476  489.4258
 477  341.1081
 478  265.1921
 479  217.9676
 480  186.6808
 481  262.5621
 482  409.884
 483  501.7982
 484  742.2841
 485  910.9304
 486  967.0479
 487  775.2725
 488  681.6747
 489  643.4886
 490  600.3375
 491  659.2188
 492  569.3313
 493  568.8303
 494  418.1313
 495  470.5625
 496  417.5161
 497  397.1085
 498  446.5553
 499  605.7706
 500  731.6027
 501  785.5801
 502  871.3593
 503  857.6749
 504  744.8031
 505  484.3282
 506  410.9217
 507  260.3576
 508  333.073
 509  274.2928
 510  374.8684
 511  312.655
 512  255.7582
 513  280.6364
 514  332.3081
 515  464.9529
 516  619.2905
 517  707.0482
 518  764.5134
 519  855.0406
 520  871.8195
 521  740.7583
 522  600.9952
 523  465.6019
 524  498.063
 525  323.0665
 526  466.7873
 527  479.6218
 528  593.6697
 529  473.3295
 530  376.2763
 531  420.695
 532  429.7615
 533  537.9841
 534  774.012
 535  929.8954
 536  893.3343
 537  779.8594
 538  632.0273
 539  608.3461
 540  504.6386
 541  571.1971
 542  333.2989
 543  239.9084
 544  148.1254
 545  166.6424
 546  141.7006
 547  285.1273
 548  491.3159
 549  793.765
 550  969.4892
 551  1088.337
 552  1197.169
 553  1142.268
 554  1145.787
 555  941.0062
 556  768.2911
 557  588.9649
 558  548.0206
 559  611.7838
 560  582.757
 561  529.287
 562  339.4952
 563  386.4941
 564  564.3516
 565  729.5374
 566  863.0012
 567  1002.502
 568  1150.425
 569  1079.074
 570  800.39
 571  601.3988
 572  619.5337
 573  650.4819
 574  506.7354
 575  366.3188
 576  511.5408
 577  665.8792
 578  680.0524
 579  589.8639
 580  643.4315
 581  734.6614
 582  915.1801
 583  971.9421
 584  1173.185
 585  1116.604
 586  1033.495
 587  931.4576
 588  844.1335
 589  861.0897
 590  792.2527
 591  792.6199
 592  637.6053
 593  518.4458
 594  450.6796
 595  331.2387
 596  422.5333
 597  453.822
 598  581.7314
 599  672.7119
 600  749.5632
 601  930.2145
 602  1015.313
 603  1026.08
 604  997.0247
 605  782.3661
 606  715.3801
 607  464.9727
 608  437.1583
 609  414.3411
 610  476.765
 611  569.6918
 612  813.4872
 613  873.5109
 614  1164.242
 615  1358.949
 616  1671.182
 617  1902.124
 618  1948.237
 619  2072.784
 620  1870.769
 621  1663.992
 622  1307.83
 623  1039.998
 624  928.676
 625  755.2557
 626  719.6545
 627  550.3647
 628  556.5233
 629  552.0726
 630  503.3256
 631  532.4407
 632  678.5982
 633  796.8848
 634  945.2598
 635  899.3266
 636  975.3997
 637  974.8571
 638  860.5168
 639  742.9766
 640  618.0815
 641  735.094
 642  603.2544
 643  552.9937
 644  507.4345
 645  565.0314
 646  597
 647  737.5182
 648  890.5887
 649  1111.926
 650  1182.076
 651  1087.815
 652  994.4208
 653  838.188
 654  803.2164
 655  581.0865
 656  540.3559
 657  464.8553
 658  479.2123
 659  635.9142
 660  639.2036
 661  602.4803
 662  425.6562
 663  339.2338
 664  382.1729
 665  636.3054
 666  861.156
 667  976.8184
 668  882.696
 669  861.153
 670  796.2044
 671  720.5533
 672  575.3567
 673  504.1969
 674  487.2712
 675  281.2526
 676  237.4235
 677  244.2087
 678  395.3885
 679  422.3984
 680  547.2503
 681  695.1045
 682  1006.049
 683  1242.538
 684  1280.602
 685  1071.216
 686  806.2465
 687  735.9054
 688  600.0464
 689  581.4497
 690  510.4128
 691  712.8572
 692  700.6805
 693  696.7982
 694  565.3326
 695  673.8195
 696  656.3553
 697  767.4383
 698  844.3969
 699  983.4125
 700  939.6595
 701  831.2861
 702  827.7979
 703  688.0488
 704  703.3912
 705  528.2242
 706  534.3693
 707  409.9975
 708  307.9237
 709  326.8921
 710  446.7829
 711  610.2587
 712  668.764
 713  744.8784
 714  952.8994
 715  1060.754
 716  1130.708
 717  1138.187
 718  1050.714
 719  994.7113
 720  832.0187
 721  597.946
 722  452.3178
 723  373.1471
 724  496.6589
 725  537.361
 726  543.9528
 727  458.0307
 728  287.5767
 729  351.1773
 730  529.9016
 731  667.248
 732  913.4781
 733  891.646
 734  957.4879
 735  725.6658
 736  591.5089
 737  506.0125
 738  542.5459
 739  523.7066
 740  424.8368
 741  383.1295
 742  366.5915
 743  523.1169
 744  408.1227
 745  400.5641
 746  362.9711
 747  781.2104
 748  991.601
 749  1120.499
 750  1009.664
 751  1031.134
 752  929.0395
 753  716.6949
 754  546.0153
 755  439.6052
 756  572.084
 757  537.6052
 758  597.1736
 759  563.1332
 760  438.2464
 761  350.8068
 762  315.3126
 763  367.1763
 764  509.179
 765  644.847
 766  759.6223
 767  865.8989
 768  780.6931
 769  751.7677
 770  493.0365
 771  469.1978
 772  487.0056
 773  451.7559
 774  487.6939
 775  429.4894
 776  446.4072
 777  387.4416
 778  391.4347
 779  449.2427
 780  527.5072
 781  724.3847
 782  1007.703
 783  946.1328
 784  884.8919
 785  853.3037
 786  876.3873
 787  712.2795
 788  413.2737
 789  445.7764
 790  451.1541
 791  492.7144
 792  472.841
 793  420.2331
 794  361.3624
 795  335.6306
 796  427.843
 797  722.2715
 798  687.7335
 799  813.4713
 800  810.6454
 801  784.4786
 802  773.4976
 803  666.3593
 804  594.1312
 805  340.0398
 806  251.1274
 807  288.6423
 808  312.6896
 809  185.3514
 810  251.7649
 811  233.5167
 812  410.9487
 813  575.39
 814  862.457
 815  1027.847
 816  994.7276
 817  1150.702
 818  1009.55
 819  919.499
 820  733.8953
 821  708.3885
 822  657.3195
 823  447.0806
 824  466.1603
 825  296.1056
 826  372.3034
 827  343.6704
 828  470.9332
 829  586.3692
 830  670.7543
 831  755.5847
 832  939.1517
 833  999.7856
 834  1070.317
 835  975.3532
 836  738.8371
 837  614.7615
 838  532.8782
 839  623.2439
 840  440.0251
 841  378.8097
 842  318.0331
 843  365.4848
 844  253.6261
 845  323.9724
 846  402.4773
 847  744.09
 848  914.9297
 849  1084.719
 850  1098.763
 851  966.207
 852  828.476
 853  740.1636
 854  713.1126
 855  669.2012
 856  618.5581
 857  569.6133
 858  383.8447
 859  193.7419
 860  210.2327
 861  316.7586
 862  474.4867
 863  503.8622
 864  718.6491
 865  773.8619
 866  775.5699
 867  709.0793
 868  567.1991
 869  493.4859
 870  483.5749
 871  567.0938
 872  570.2581
 873  470.3272
 874  352.0785
 875  319.8469
 876  432.3932
 877  559.4988
 878  701.3454
 879  804.1508
 880  1068.042
 881  1151.41
 882  1157.738
 883  897.3356
 884  715.1242
 885  571.3121
 886  548.262
 887  594.8116
 888  584.6511
 889  657.283
 890  569.8156
 891  668.0723
 892  655.03
 893  664.3809
 894  700.2733
 895  755.4011
 896  658.4212
 897  767.3273
 898  722.8882
 899  811.4344
 900  602.8321
 901  493.9206
 902  517.0573
 903  397.2003
 904  397.0337
 905  337.9485
 906  370.4689
 907  396.9226
 908  426.8288
 909  589.5175
 910  559.8414
 911  644.3854
 912  737.6338
 913  885.1154
 914  998.9249
 915  1317.132
 916  1366.535
 917  1429.809
 918  1195.847
 919  968.0428
 920  816.4625
 921  604.404
 922  652.1812
 923  616.9631
 924  737.3507
 925  768.2989
 926  635.5936
 927  535.9774
 928  477.9178
 929  635.367
 930  743.4556
 931  915.5241
 932  1054.525
 933  975.8676
 934  850.9882
 935  686.6591
 936  543.0773
 937  540.956
 938  483.4386
 939  470.7095
 940  320.169
 941  309.4966
 942  346.6995
 943  509.4827
 944  710.6111
 945  883.6693
 946  892.5453
 947  1227.669
 948  1274.705
 949  1275.961
 950  1025.366
 951  834.9074
 952  575.9666
 953  362.5794
 954  523.8651
 955  604.9584
 956  502.3371
 957  354.0821
 958  422.1936
 959  476.6707
 960  485.8613
 961  460.4323
 962  644.3871
 963  763.3216
 964  1009.604
 965  1168.099
 966  976.2531
 967  778.7449
 968  528.4691
 969  459.2722
 970  251.0002
 971  256.4721
 972  320.4474
 973  357.7479
 974  252.2203
 975  377.5274
 976  446.8827
 977  547.5936
 978  631.2266
 979  846.1386
 980  1200.365
 981  1244.913
 982  1394.56
 983  1184.369
 984  996.9143
 985  770.4037
 986  661.6502
 987  616.9283
 988  646.5291
 989  761.1769
 990  806.1163
 991  584.983
 992  452.7289
 993  435.8359
 994  417.1731
 995  406.166
 996  527.9039
 997  906.4164
 998  918.325
 999  831.1567
1000  633.048
1001  596.3512
1002  540.2195
1003  475.8497
1004  497.9265
1005  524.7004
1006  582.346
1007  509.4951
1008  500.684
1009  448.6416
1010  635.9836
1011  788.2299
1012  938.9072
1013  1085.974
1014  1174.19
1015  1256.194
1016  1038.325
1017  865.2111
1018  699.8147
1019  598.057
1020  570.1761
1021  512.8504
1022  573.585
1023  504.5187
