# Input file       =  1200915502.113506-PSRB0329-2ms-sampling-dd.dat
# Candidate        =  PSR_0332+5434
# Telescope        =  AR
# Epoch_topo       =  58143.485198072987
# Epoch_bary       =  N/A
# T_sample         =  0.002
# Data Folded      =  7274496
# Data Avg         =  1.08485615837859e-09
# Data StdDev      =  21.3213198694333 
# Profile Bins     =  512
# Profile Avg      =  -0.021626163237778
# Profile StdDev   =  2541.44408934928 
# Reduced chi-sqr  =  1.177
# Prob(Noise)      <  0.0035   (~2.7 sigma)
# P_topo (ms)      =  714.572874656519  +/- 0.000297
# P'_topo (s/s)    =  -0                +/- 1.58e-10
# P''_topo (s/s^2) =  0                 +/- 7.04e-14
# P_bary (ms)      =  N/A
# P'_bary (s/s)    =  N/A
# P''_bary (s/s^2) =  N/A
# P_orb (s)        =  N/A
# asin(i)/c (s)    =  N/A
# eccentricity     =  N/A
# w (rad)          =  N/A
# T_peri           =  N/A
######################################################
   0  162.0175
   1  -91.81007
   2  -605.3804
   3  -749.5511
   4  -1614.987
   5  -100.8418
   6  2480.241
   7  4894.078
   8  7000.568
   9  6717.1
  10  4813.166
  11  2177.076
  12  361.6533
  13  1592.718
  14  5090.719
  15  6696.714
  16  6031.632
  17  4555.997
  18  1627.403
  19  906.8232
  20  247.3187
  21  615.9222
  22  156.5906
  23  -242.3047
  24  -1020.016
  25  -938.0599
  26  229.8612
  27  343.6413
  28  314.4405
  29  -1.014453
  30  -448.2496
  31  -643.3394
  32  -2066.4
  33  -751.0204
  34  8.845072
  35  1549.648
  36  2685.021
  37  4375.361
  38  5514.973
  39  6013.843
  40  5887.506
  41  1653.848
  42  1385.974
  43  1552.455
  44  5018.289
  45  5616.361
  46  5986.027
  47  4949.479
  48  1891.856
  49  753.6666
  50  702.0464
  51  851.7549
  52  656.5744
  53  566.4781
  54  -409.5858
  55  -473.548
  56  -635.3742
  57  914.5629
  58  1075.677
  59  1031.626
  60  596.7339
  61  -1193.828
  62  -1403.772
  63  -1328.331
  64  -1521.981
  65  -852.6619
  66  -596.3557
  67  -287.5844
  68  -220.617
  69  -1263.521
  70  -1071.823
  71  508.3914
  72  1394.736
  73  2125.692
  74  2354.332
  75  1309.735
  76  -99.02107
  77  -1438.129
  78  61.53752
  79  978.1028
  80  1834.861
  81  2103.961
  82  1060.63
  83  1762.021
  84  1708.123
  85  1556.69
  86  1207.637
  87  -397.6717
  88  -486.8908
  89  959.6619
  90  2405.066
  91  2691.422
  92  3539.088
  93  1911.751
  94  -7.535434
  95  -373.0343
  96  1231.084
  97  2303.549
  98  2429.659
  99  1483.375
 100  542.5472
 101  -941.0737
 102  -1511.865
 103  -1585.812
 104  -1146.182
 105  -426.3368
 106  -254.4703
 107  -192.4998
 108  -617.3434
 109  -698.2471
 110  -1451.581
 111  -1577.542
 112  -1089.991
 113  -201.0569
 114  -113.4301
 115  -28.39295
 116  -186.6498
 117  -1003.72
 118  -1183.467
 119  -1448.046
 120  -1345.893
 121  -1238.156
 122  -1196.969
 123  -1336.957
 124  -1822.184
 125  -1337.734
 126  -1306.075
 127  -1389.647
 128  -1141.637
 129  -1464.057
 130  -1370.769
 131  -1734.125
 132  -1696.178
 133  -1406.774
 134  -1070.621
 135  -1004.911
 136  -1183.146
 137  -887.2307
 138  -765.2754
 139  -1198.026
 140  -1496.932
 141  -1438.898
 142  -881.7763
 143  -1138.436
 144  -1474.831
 145  -1737.308
 146  -1119.936
 147  -1021.476
 148  -1440.297
 149  -914.7808
 150  -596.8191
 151  -854.302
 152  -919.4641
 153  -560.5087
 154  107.129
 155  -208.3863
 156  -45.81194
 157  1019.298
 158  1076.852
 159  3714.701
 160  4526.172
 161  4937.824
 162  4062.32
 163  2833.201
 164  2403.096
 165  2765.197
 166  4250.993
 167  5330.111
 168  4563.271
 169  2940.506
 170  1998.486
 171  492.5509
 172  161.3395
 173  -398.6192
 174  -516.3945
 175  -1087.571
 176  -1285.619
 177  -1394.85
 178  -1462.745
 179  -936.8352
 180  -706.2341
 181  -760.1136
 182  -671.2487
 183  1616.556
 184  1975.769
 185  1949.131
 186  2407.837
 187  600.0076
 188  -422.3728
 189  477.9139
 190  2667.776
 191  3744.285
 192  3816.261
 193  2031.729
 194  1009.768
 195  -792.9299
 196  -934.1895
 197  -1375.749
 198  -1216.148
 199  -581.563
 200  -474.5456
 201  -409.8371
 202  -343.73
 203  -342.1303
 204  -871.4283
 205  -1064.737
 206  -1297.826
 207  -1038.164
 208  -938.4465
 209  -980.2769
 210  -1350.839
 211  -1091.34
 212  -1116.001
 213  -1222.542
 214  -1150.712
 215  -999.061
 216  -713.0002
 217  -737.1149
 218  -733.918
 219  -1033.672
 220  -1362.741
 221  -694.3875
 222  -896.4384
 223  -922.4244
 224  -1391.019
 225  -1467.203
 226  -1699.003
 227  -1760.617
 228  -1006.665
 229  -1353.047
 230  -1363.53
 231  -1584.958
 232  -1248.992
 233  -1131.391
 234  -1484.256
 235  -1004.45
 236  -709.4785
 237  -471.6281
 238  -818.7917
 239  -829.1945
 240  -1153.006
 241  -1409.203
 242  -1771.946
 243  -1697.43
 244  -1153.598
 245  -1232.396
 246  -1357.046
 247  -1314.56
 248  -871.0779
 249  -949.6856
 250  -790.0186
 251  278.2357
 252  1111.65
 253  2040.604
 254  1947.426
 255  656.2831
 256  -90.80907
 257  -848.855
 258  762.2378
 259  1274.512
 260  1994.78
 261  2241.305
 262  865.3461
 263  -191.7041
 264  -1128.663
 265  -981.2931
 266  -824.6967
 267  -717.4584
 268  -553.6475
 269  -455.3672
 270  -923.0375
 271  -992.118
 272  -956.9092
 273  -1318.061
 274  -980.3154
 275  -1209.512
 276  -1303.556
 277  -1133.884
 278  -989.6161
 279  -947.4229
 280  -1230.743
 281  -1170.011
 282  -1117.634
 283  -1304.219
 284  -1441.401
 285  -1247.357
 286  -600.7998
 287  -477.6444
 288  -784.1921
 289  -1525.803
 290  -1465.07
 291  -1593.373
 292  -1640.994
 293  -1741.528
 294  -1112.311
 295  -457.8532
 296  -927.3474
 297  -945.2359
 298  -299.9445
 299  -492.6493
 300  -1005.992
 301  -518.0998
 302  630.1905
 303  840.7435
 304  1014.869
 305  484.5603
 306  -902.6041
 307  -469.8075
 308  136.6142
 309  915.1099
 310  1214.776
 311  1484.193
 312  193.9329
 313  -709.501
 314  -804.0974
 315  -776.0607
 316  -1419.911
 317  -1315.946
 318  -1016.878
 319  -433.2808
 320  -291.4652
 321  -666.2936
 322  -1024.512
 323  -1198.087
 324  -1426.954
 325  -1377.48
 326  -1228.591
 327  -609.079
 328  -790.2664
 329  -1134.207
 330  -863.1782
 331  -510.8728
 332  -602.7952
 333  -839.4247
 334  -1005.786
 335  -973.7141
 336  -303.4047
 337  -317.4366
 338  -680.7751
 339  -649.4821
 340  -884.0773
 341  -1163.807
 342  -1412.829
 343  -1257.413
 344  -797.6841
 345  -713.1857
 346  -441.5501
 347  -528.6202
 348  -592.2036
 349  -1097.744
 350  -1593.573
 351  -1850.135
 352  -1216.726
 353  -596.6722
 354  -647.7541
 355  -1292.631
 356  -962.3645
 357  -1274.345
 358  -2120.006
 359  -2108.813
 360  -1723.27
 361  -1249.692
 362  -1063.333
 363  -610.1616
 364  -535.4972
 365  -592.5737
 366  -1025.216
 367  -1331.425
 368  -1004.179
 369  -682.6328
 370  -798.3868
 371  -1070.069
 372  -1059.614
 373  -1009.521
 374  -1733.273
 375  -1797.103
 376  -1931.648
 377  -1766.659
 378  -1219.663
 379  -1350.175
 380  -1379.33
 381  -1145.568
 382  -987.736
 383  -1172.508
 384  -1363.113
 385  -935.0505
 386  -869.7833
 387  -843.2411
 388  -852.6472
 389  -1228.058
 390  -937.3192
 391  -1252.483
 392  -1426.931
 393  -1018.954
 394  -874.1495
 395  -701.2808
 396  -857.7661
 397  -476.6196
 398  -508.0381
 399  -655.7412
 400  -413.3501
 401  -153.0766
 402  375.683
 403  787.6052
 404  -177.651
 405  -585.9301
 406  -702.1144
 407  532.6587
 408  694.8019
 409  609.0123
 410  771.6491
 411  -95.87995
 412  -776.5054
 413  -822.6252
 414  27.47051
 415  226.78
 416  -158.8095
 417  -553.8442
 418  -533.9678
 419  -1200.315
 420  -1391.252
 421  -1435.835
 422  -937.8927
 423  -1246.576
 424  -1619.673
 425  -1642.597
 426  -1275.326
 427  -985.0685
 428  -864.8095
 429  -876.4505
 430  -870.8766
 431  -797.9248
 432  -1345.413
 433  -1494.534
 434  -1373.677
 435  -1279.764
 436  -731.5652
 437  -794.6686
 438  -1169.809
 439  -1397.624
 440  -2111.611
 441  -2210.713
 442  -1857.517
 443  -1059.795
 444  -964.0961
 445  -997.7549
 446  -1008.376
 447  -1088.795
 448  -1621.171
 449  -1303.241
 450  -1392.142
 451  -1261.726
 452  -847.2785
 453  -1348.889
 454  -1335.589
 455  -1220.399
 456  -965.8928
 457  -738.1111
 458  1103.509
 459  6084.831
 460  9266.164
 461  10898.47
 462  9805.343
 463  6873.804
 464  4938.958
 465  3036.897
 466  6854.617
 467  8979.261
 468  10004.92
 469  7865.004
 470  4798.607
 471  2258.811
 472  -389.4492
 473  -436.9836
 474  -944.5572
 475  -958.7505
 476  -969.8407
 477  -1335.703
 478  -812.0647
 479  -476.3658
 480  -100.5907
 481  -212.2327
 482  -856.2082
 483  -223.6332
 484  300.4919
 485  843.6912
 486  690.0903
 487  -25.81647
 488  -146.7965
 489  681.8378
 490  518.0584
 491  725.9637
 492  283.0562
 493  1139.023
 494  814.6436
 495  514.4952
 496  467.6481
 497  186.8987
 498  219.5842
 499  324.0445
 500  475.1279
 501  279.4263
 502  -357.4273
 503  -1022.915
 504  -1462.239
 505  -1461.325
 506  -1804.993
 507  -1998.489
 508  -1889.695
 509  -1611.168
 510  -283.187
 511  -63.94537
