# Input file       =  1200915502.113506_cleaned.dat
# Candidate        =  PSR_0332+5434
# Telescope        =  AR
# Epoch_topo       =  58143.485198072987
# Epoch_bary       =  N/A
# T_sample         =  0.002
# Data Folded      =  7274496
# Data Avg         =  0.106439369935165
# Data StdDev      =  3.8748624222157  
# Profile Bins     =  512
# Profile Avg      =  1512.24954001328 
# Profile StdDev   =  461.873198295744 
# Reduced chi-sqr  =  0.909
# Prob(Noise)      <  0.932   (~0.0 sigma)
# P_topo (ms)      =  714.572874656519  +/- 5.71e-05
# P'_topo (s/s)    =  -0                +/- 3.04e-11
# P''_topo (s/s^2) =  0                 +/- 1.35e-14
# P_bary (ms)      =  N/A
# P'_bary (s/s)    =  N/A
# P''_bary (s/s^2) =  N/A
# P_orb (s)        =  N/A
# asin(i)/c (s)    =  N/A
# eccentricity     =  N/A
# w (rad)          =  N/A
# T_peri           =  N/A
######################################################
   0  1676.018
   1  1253.289
   2  1180.564
   3  1295.097
   4  1404.887
   5  1279.173
   6  1492.987
   7  1643.693
   8  1482.54
   9  1502.996
  10  1175.369
  11  1196.595
  12  1000.446
  13  1228.055
  14  1557.007
  15  1564.477
  16  1356.922
  17  1143.81
  18  1507.872
  19  1791.67
  20  1661.985
  21  1762.804
  22  1847.051
  23  1665.954
  24  1233.166
  25  1033.671
  26  1572.428
  27  1022.008
  28  1072.483
  29  1262.242
  30  1189.884
  31  1490.318
  32  1404.566
  33  1627.741
  34  1606.361
  35  1777.173
  36  1796.374
  37  1437.682
  38  1683.795
  39  1903.739
  40  1568.242
  41  1494.1
  42  1259.262
  43  1180.713
  44  1098.388
  45  1090.949
  46  1465.086
  47  1643.789
  48  2133.991
  49  1971.679
  50  1705.288
  51  1777.43
  52  1209.653
  53  1169.482
  54  1716.313
  55  1990.787
  56  1557.693
  57  1587.116
  58  1727.247
  59  1296.41
  60  917.2346
  61  920.3898
  62  1217.891
  63  1766.037
  64  1389.349
  65  1739.254
  66  1441.967
  67  1521.458
  68  1536.44
  69  1074.932
  70  1431.233
  71  1767.262
  72  1821.343
  73  1736.243
  74  1466.276
  75  1390.146
  76  1106.231
  77  552.4957
  78  649.7362
  79  1112.601
  80  1642.874
  81  1801.335
  82  1618.116
  83  1495.624
  84  1711.034
  85  1356.439
  86  1408.393
  87  1014.754
  88  1485.813
  89  1618.181
  90  1305.746
  91  1206.537
  92  1553.316
  93  1289.923
  94  1017.008
  95  1133.895
  96  1154.333
  97  1317.023
  98  1246.53
  99  1350.358
 100  1573.309
 101  1542.683
 102  1196.377
 103  1229.737
 104  1579.905
 105  1917.865
 106  1707.598
 107  1579.026
 108  1258.029
 109  1204.585
 110  1296.88
 111  1085.071
 112  1209.643
 113  1258.274
 114  1540.257
 115  1773.65
 116  1781.27
 117  1608.33
 118  1573.963
 119  1435.776
 120  1781.899
 121  1831.193
 122  1837.585
 123  1573.846
 124  1138.993
 125  1437.638
 126  1361.958
 127  1178.288
 128  1487.574
 129  1252.575
 130  1565.971
 131  1294.094
 132  1393.297
 133  1418.755
 134  1590.355
 135  1507.058
 136  1421.275
 137  1930.873
 138  2005.149
 139  1658.267
 140  1279.402
 141  1321.684
 142  1256.22
 143  1147.106
 144  1076.28
 145  928.1121
 146  1591.873
 147  2003.082
 148  1439.041
 149  1585.635
 150  1776.103
 151  1394.45
 152  1208.986
 153  1428.722
 154  1968.02
 155  1965.475
 156  1478.858
 157  1564.104
 158  1217.523
 159  944.0856
 160  949.8781
 161  1180.573
 162  1467.311
 163  1581.412
 164  1528.399
 165  1438.671
 166  1083.595
 167  1073.305
 168  1623.014
 169  1760.387
 170  1883.224
 171  1985.712
 172  1694.833
 173  1511.072
 174  1304.46
 175  1187.377
 176  1137.114
 177  1295.595
 178  1233.392
 179  1586.089
 180  1889.939
 181  1831.725
 182  1313.984
 183  1484.007
 184  1616.278
 185  1454.123
 186  1543.083
 187  1387.654
 188  1646.937
 189  1579.732
 190  1707.568
 191  1711.475
 192  1212.859
 193  464.721
 194  742.6996
 195  1022.382
 196  1237.243
 197  1339.696
 198  1634.872
 199  1537.95
 200  1575.405
 201  1424.444
 202  1489.148
 203  1842.413
 204  1626.527
 205  1485.044
 206  1363.558
 207  1520.014
 208  1460.299
 209  1318.582
 210  1145.368
 211  1609.034
 212  1574.016
 213  1572.417
 214  1596.772
 215  1781.603
 216  1532.308
 217  1555.325
 218  1691.42
 219  1520.196
 220  1371.194
 221  1971.363
 222  1907.151
 223  1703.456
 224  1028.206
 225  1038.537
 226  956.2413
 227  939.3563
 228  1557.026
 229  1451.054
 230  1452.443
 231  1303.872
 232  1493.557
 233  1567.063
 234  1336.485
 235  1579.263
 236  1625.623
 237  1844.025
 238  1473.333
 239  1471.661
 240  1459.236
 241  1357.796
 242  932.7925
 243  1055.496
 244  1462.81
 245  1372.995
 246  1375.576
 247  1492.562
 248  1784.072
 249  1473.112
 250  1318.999
 251  1433.116
 252  1393.792
 253  1898.674
 254  1968.031
 255  1714.239
 256  1624.752
 257  1135.877
 258  1494.159
 259  1360.3
 260  1402.871
 261  1695.985
 262  1524.587
 263  1543.111
 264  1399.335
 265  1358.278
 266  1397.15
 267  1556.452
 268  1707.537
 269  1769.697
 270  1550.427
 271  1466.985
 272  1499.057
 273  1138.776
 274  1355.893
 275  991.7842
 276  1225.976
 277  1306.908
 278  1547.674
 279  1653.458
 280  1577.72
 281  1610.482
 282  1461.965
 283  1300.076
 284  1239.139
 285  1356.637
 286  1893.355
 287  1988.338
 288  1835.907
 289  1381.625
 290  1412.458
 291  1383.445
 292  1147.071
 293  1003.312
 294  1596.493
 295  1906.191
 296  1409.927
 297  1551.825
 298  2147.903
 299  1861.044
 300  1212.975
 301  1347.141
 302  1516.665
 303  1669.251
 304  1905.911
 305  1345.684
 306  1325.968
 307  1344.231
 308  956.1307
 309  911.7018
 310  1503.902
 311  1840.534
 312  1496.055
 313  1240.396
 314  1487.038
 315  1459.971
 316  1012.548
 317  1342.279
 318  1579.639
 319  1967.215
 320  2166.339
 321  1731.365
 322  1424.704
 323  1420.769
 324  1312.36
 325  1298.64
 326  1458.77
 327  1702.502
 328  1546.552
 329  1346.311
 330  1674.091
 331  1829.673
 332  1708.49
 333  1613.162
 334  1531.184
 335  1605.728
 336  2193.151
 337  2058.561
 338  1653.228
 339  1583.787
 340  1366.955
 341  866.1993
 342  879.7037
 343  1213.603
 344  1808.962
 345  1736.037
 346  1800.485
 347  1627.621
 348  1469.071
 349  1356.542
 350  1320.864
 351  1272.742
 352  1741.223
 353  2251.449
 354  2071.607
 355  1347.854
 356  1658.28
 357  1520.958
 358  998.5229
 359  1120.565
 360  1302.189
 361  1651.568
 362  1632.516
 363  1944.363
 364  1937.965
 365  1810.681
 366  1604.37
 367  1522.544
 368  1845.49
 369  1982.165
 370  1836.84
 371  1552.273
 372  1707.525
 373  1621.847
 374  1111.645
 375  1256.249
 376  959.2023
 377  1035.787
 378  1605.72
 379  1627.812
 380  1472.621
 381  1456.315
 382  1625.636
 383  1583.94
 384  1482.553
 385  1654.805
 386  1783.077
 387  1703.951
 388  1668.196
 389  1297.403
 390  1609.276
 391  1348.15
 392  1067.743
 393  1361.061
 394  1664.862
 395  1875.981
 396  1656.107
 397  2015.574
 398  1927.286
 399  1796.048
 400  1684.61
 401  1641.46
 402  1963.982
 403  2090.615
 404  1730.965
 405  1738.575
 406  1554.921
 407  1649.843
 408  1698.514
 409  1532.654
 410  1622.547
 411  1590.425
 412  1233.283
 413  1253.841
 414  1543.945
 415  1698.702
 416  1592.439
 417  1554.199
 418  1758.937
 419  1522.373
 420  1361.911
 421  1241.132
 422  1535.383
 423  1268.303
 424  986.6884
 425  1187.315
 426  1616.438
 427  1720.846
 428  1940.75
 429  1774.63
 430  1528.124
 431  1580.556
 432  1087.461
 433  1239.752
 434  1411.275
 435  1563.241
 436  1984.592
 437  1972.091
 438  1578.722
 439  1523.647
 440  953.1757
 441  766.7553
 442  1075.902
 443  1711.356
 444  1669.05
 445  1488.24
 446  1637.295
 447  1473.828
 448  1041.609
 449  1404.587
 450  1541.772
 451  1504.938
 452  1947.395
 453  1424.479
 454  1262.866
 455  1533.499
 456  1406.852
 457  993.5548
 458  1375.08
 459  1340.587
 460  1416.33
 461  1906.385
 462  1431.347
 463  1842.736
 464  1708.785
 465  1791.472
 466  1361.796
 467  1625.002
 468  1443.078
 469  1889.007
 470  2092.17
 471  1905.316
 472  1679.115
 473  1561.078
 474  1053.739
 475  1221.104
 476  1552.782
 477  1652.816
 478  1906.425
 479  1968.684
 480  2216.816
 481  1927.966
 482  1424.997
 483  1445.52
 484  1958.076
 485  2139.413
 486  1719.267
 487  1549.507
 488  1644.72
 489  1722.38
 490  1616.903
 491  1750.762
 492  1686.059
 493  1799.439
 494  1760.608
 495  1995.795
 496  1896.724
 497  2207.624
 498  2636.358
 499  2989.965
 500  3260.971
 501  3095.603
 502  2506.864
 503  1723.097
 504  1231.943
 505  1263.868
 506  1025.385
 507  913.8209
 508  1215.633
 509  1566.594
 510  1861.57
 511  1650.376
