# Input file       =  1200915502.113506_cleaned.dat
# Candidate        =  PSR_0332+5434
# Telescope        =  AR
# Epoch_topo       =  58143.485198072987
# Epoch_bary       =  N/A
# T_sample         =  0.002
# Data Folded      =  7274496
# Data Avg         =  0.106439369935165
# Data StdDev      =  3.8748624222157  
# Profile Bins     =  512
# Profile Avg      =  1512.24954006119 
# Profile StdDev   =  461.873198295744 
# Reduced chi-sqr  =  0.905
# Prob(Noise)      <  0.938   (~0.0 sigma)
# P_topo (ms)      =  714.572874771346  +/- 5.76e-05
# P'_topo (s/s)    =  -0                +/- 3.07e-11
# P''_topo (s/s^2) =  0                 +/- 1.37e-14
# P_bary (ms)      =  N/A
# P'_bary (s/s)    =  N/A
# P''_bary (s/s^2) =  N/A
# P_orb (s)        =  N/A
# asin(i)/c (s)    =  N/A
# eccentricity     =  N/A
# w (rad)          =  N/A
# T_peri           =  N/A
######################################################
   0  1623.295
   1  863.6948
   2  422.9816
   3  928.8275
   4  1072.349
   5  1374.6
   6  1435.673
   7  1628.421
   8  1477.141
   9  1551.188
  10  1454.5
  11  1642.967
  12  1780.544
  13  1538.528
  14  1400.405
  15  1488.053
  16  1454.412
  17  1487.609
  18  1125.378
  19  1331.924
  20  1729.245
  21  1516.306
  22  1590.388
  23  1596.968
  24  1741.09
  25  1494.787
  26  1707.809
  27  1593.21
  28  1368.441
  29  1616.347
  30  2073.568
  31  1865.515
  32  1366.891
  33  933.0471
  34  1001.294
  35  946.3561
  36  1185.295
  37  1595.919
  38  1394.451
  39  1421.177
  40  1374.874
  41  1598.195
  42  1408.221
  43  1393.043
  44  1603.653
  45  1867.961
  46  1628.25
  47  1456.408
  48  1345.378
  49  1516.651
  50  1202.59
  51  920.6838
  52  1223.413
  53  1362.842
  54  1453.276
  55  1361.997
  56  1771.62
  57  1554.044
  58  1347.149
  59  1402.535
  60  1468.135
  61  1573.751
  62  1931.043
  63  1852.633
  64  1713.686
  65  1482.759
  66  1241.222
  67  1476.707
  68  1263.034
  69  1585.734
  70  1692.272
  71  1481.039
  72  1447.928
  73  1325.689
  74  1400.255
  75  1525.03
  76  1607.821
  77  1710.702
  78  1693.787
  79  1493.834
  80  1609.047
  81  1238.217
  82  1235.368
  83  1202
  84  1034.882
  85  1358.754
  86  1307.305
  87  1657.303
  88  1536.705
  89  1692.384
  90  1531.196
  91  1469.777
  92  1143.112
  93  1270.058
  94  1674.349
  95  1953
  96  1978.195
  97  1516.202
  98  1407.2
  99  1372.072
 100  1415.247
 101  948.6113
 102  1165.117
 103  1908.13
 104  1675.209
 105  1477.475
 106  1709.178
 107  2203.08
 108  1436.032
 109  1294.112
 110  1495.945
 111  1512.972
 112  1782.625
 113  1684.293
 114  1258.143
 115  1441.921
 116  1203.282
 117  806.499
 118  1100.122
 119  1796.558
 120  1757.962
 121  1299.318
 122  1258.725
 123  1568.12
 124  1275.408
 125  1140.056
 126  1408.315
 127  1660
 128  2133.056
 129  2105.24
 130  1556.269
 131  1416.139
 132  1291.233
 133  1324.089
 134  1370.156
 135  1600.211
 136  1634.802
 137  1367
 138  1460.607
 139  1896.004
 140  1785.562
 141  1652.15
 142  1487.116
 143  1559.402
 144  1876.734
 145  2317.846
 146  1749.728
 147  1618.697
 148  1484.221
 149  1226.641
 150  764.1014
 151  974.3978
 152  1483.877
 153  1835.887
 154  1826.501
 155  1710.944
 156  1550.576
 157  1336.974
 158  1378.108
 159  1345.351
 160  1360.555
 161  2033.217
 162  2224.796
 163  1792.233
 164  1360.883
 165  1750.382
 166  1221.966
 167  937.8051
 168  1304.992
 169  1434.582
 170  1707.139
 171  1627.801
 172  2019.8
 173  1868.292
 174  1848.419
 175  1500.271
 176  1563.252
 177  1874.269
 178  2028.609
 179  1715.197
 180  1601.221
 181  1693.228
 182  1372.741
 183  1146.37
 184  1209.042
 185  917.9202
 186  1157.626
 187  1794.625
 188  1443.099
 189  1619.502
 190  1433.797
 191  1709.644
 192  1419.8
 193  1611.562
 194  1773.986
 195  1732.995
 196  1677.12
 197  1451.001
 198  1387.817
 199  1657.146
 200  1121.481
 201  1148.59
 202  1393.285
 203  1928.637
 204  1739.642
 205  1862.931
 206  1953.475
 207  1845.302
 208  1799.71
 209  1642.885
 210  1756.023
 211  1962.612
 212  2021.455
 213  1662.826
 214  1761.509
 215  1515.385
 216  1696.513
 217  1604.085
 218  1590.645
 219  1687.894
 220  1410.018
 221  1163.847
 222  1379.09
 223  1626.074
 224  1726.707
 225  1452.305
 226  1662.371
 227  1642.277
 228  1552.258
 229  1257.587
 230  1355.8
 231  1470.514
 232  1072.629
 233  1061.494
 234  1399.211
 235  1684.38
 236  1733.511
 237  1977.721
 238  1625.302
 239  1652.491
 240  1366.567
 241  995.001
 242  1358.914
 243  1506.328
 244  1696.311
 245  2076.335
 246  1757.324
 247  1595.722
 248  1321.691
 249  806.9705
 250  833.9579
 251  1259.272
 252  1863.44
 253  1519.364
 254  1625.044
 255  1594.237
 256  1272.986
 257  1059.423
 258  1611.747
 259  1478.195
 260  1696.199
 261  1809.86
 262  1194.866
 263  1425.861
 264  1575.664
 265  1158.121
 266  1117.085
 267  1431.082
 268  1296.784
 269  1714.261
 270  1702.434
 271  1515.265
 272  1827.452
 273  1801.259
 274  1577.908
 275  1500.761
 276  1428.75
 277  1666.132
 278  1997.807
 279  2085.862
 280  1763.141
 281  1615.94
 282  1363.791
 283  1025.152
 284  1475.448
 285  1532.233
 286  1750.284
 287  1915.538
 288  2082.983
 289  2224.179
 290  1626.348
 291  1401.199
 292  1596.422
 293  2239.462
 294  1915.629
 295  1607.603
 296  1557.229
 297  1689.551
 298  1719.245
 299  1618.009
 300  1764.112
 301  1661.999
 302  1836.381
 303  1873.084
 304  1937.439
 305  2001.289
 306  2328.321
 307  2834.199
 308  3150.698
 309  3247.295
 310  2834.755
 311  2202.349
 312  1429.765
 313  1237.594
 314  1195.088
 315  905.8683
 316  1036.352
 317  1356.306
 318  1788.555
 319  1779.985
 320  1674.966
 321  1468.594
 322  1210.133
 323  1203.935
 324  1392.871
 325  1287.807
 326  1297.738
 327  1659.644
 328  1575.832
 329  1531.845
 330  1362.643
 331  1125.959
 332  1137.576
 333  1040.655
 334  1384.982
 335  1564.247
 336  1491.551
 337  1173.692
 338  1328.643
 339  1700.212
 340  1781.515
 341  1592.423
 342  1861.005
 343  1830.554
 344  1489.637
 345  1052.22
 346  1277.271
 347  1443.802
 348  883.4277
 349  1249.511
 350  1172.155
 351  1330.504
 352  1473.549
 353  1473.454
 354  1707.277
 355  1581.14
 356  1889.278
 357  1607.119
 358  1495.898
 359  1864.657
 360  1675.746
 361  1574.004
 362  1350.486
 363  1236.274
 364  1158.946
 365  1047.012
 366  1237.583
 367  1573.527
 368  1842.662
 369  2190.856
 370  1755.85
 371  1765.019
 372  1557.406
 373  1133.328
 374  1346.563
 375  1953.41
 376  1804.441
 377  1479.199
 378  1719.856
 379  1542.288
 380  1144.681
 381  880.9096
 382  1017.585
 383  1512.281
 384  1612.672
 385  1458.444
 386  1671.531
 387  1426.988
 388  1582.659
 389  1390.223
 390  1043.798
 391  1641.223
 392  1840.283
 393  1777.243
 394  1716.058
 395  1354.687
 396  1367.4
 397  766.9203
 398  546.3464
 399  843.3967
 400  1339.897
 401  1744.705
 402  1741.856
 403  1540.339
 404  1669.539
 405  1525.052
 406  1350.812
 407  1264.854
 408  1148.714
 409  1662.284
 410  1466.754
 411  1124.116
 412  1401.671
 413  1498.037
 414  1153.111
 415  1004.983
 416  1153.813
 417  1215.914
 418  1411.057
 419  1214.111
 420  1435.646
 421  1576.968
 422  1415.589
 423  1208.738
 424  1324.819
 425  1757.982
 426  1857.661
 427  1690.133
 428  1407.82
 429  1228.015
 430  1230.71
 431  1191.701
 432  1093.361
 433  1307.48
 434  1295.759
 435  1668.305
 436  1793.259
 437  1687.023
 438  1677.235
 439  1410.662
 440  1570.986
 441  1851.149
 442  1861.598
 443  1818.021
 444  1271.786
 445  1241.311
 446  1455.816
 447  1251.587
 448  1346.515
 449  1365.826
 450  1386.839
 451  1436.858
 452  1346.504
 453  1356.847
 454  1579.177
 455  1509.507
 456  1451.632
 457  1613.952
 458  2048.5
 459  1924.722
 460  1373.098
 461  1333.821
 462  1236.391
 463  1337.76
 464  1071.965
 465  967.6003
 466  1084.359
 467  1922.721
 468  1838.406
 469  1337.214
 470  1755.973
 471  1622.522
 472  1284.963
 473  1320.827
 474  1576.539
 475  2100.967
 476  1657.891
 477  1581.825
 478  1463.019
 479  1109.387
 480  868.567
 481  1015.088
 482  1359.589
 483  1530.027
 484  1572.809
 485  1430.943
 486  1310.813
 487  964.9721
 488  1415.754
 489  1647.554
 490  1778.063
 491  1948.812
 492  1972.425
 493  1550.363
 494  1494.291
 495  1085.421
 496  1229.858
 497  1165.507
 498  1371.83
 499  1272.838
 500  1681.083
 501  2036.854
 502  1527.109
 503  1452.366
 504  1483.938
 505  1544.316
 506  1500.41
 507  1496.947
 508  1515.036
 509  1565.353
 510  1588.208
 511  1730.176
