# Input file       =  1200686592.122527_cleaned.dat
# Candidate        =  PSR_0332+5434
# Telescope        =  AR
# Epoch_topo       =  58140.835776881097
# Epoch_bary       =  N/A
# T_sample         =  0.002
# Data Folded      =  7340032
# Data Avg         =  0.615588499536638
# Data StdDev      =  7.6053230321252  
# Profile Bins     =  512
# Profile Avg      =  8824.38682820223 
# Profile StdDev   =  910.608419262504 
# Reduced chi-sqr  =  0.473
# Prob(Noise)      <  1   (~0.0 sigma)
# P_topo (ms)      =  714.571798522958  +/- 0.00116
# P'_topo (s/s)    =  -0                +/- 6.15e-10
# P''_topo (s/s^2) =  0                 +/- 2.71e-13
# P_bary (ms)      =  N/A
# P'_bary (s/s)    =  N/A
# P''_bary (s/s^2) =  N/A
# P_orb (s)        =  N/A
# asin(i)/c (s)    =  N/A
# eccentricity     =  N/A
# w (rad)          =  N/A
# T_peri           =  N/A
######################################################
   0  8516.007
   1  8494.526
   2  8703.194
   3  8766.322
   4  8961.418
   5  8437.096
   6  8164.787
   7  8344.128
   8  8863.075
   9  8649.089
  10  8128.59
  11  8441.377
  12  8608.162
  13  8444.691
  14  8319.788
  15  8316.439
  16  8952.301
  17  8837.639
  18  8985.854
  19  8918.432
  20  8725.811
  21  8520.292
  22  8442.139
  23  9154.338
  24  9009.597
  25  9448.66
  26  9371.014
  27  9091.091
  28  9268.526
  29  8936.533
  30  8597.904
  31  8644.486
  32  8481.587
  33  8558.339
  34  8484.668
  35  9265.734
  36  9738.558
  37  9527.964
  38  8907.668
  39  8787.001
  40  8929.775
  41  8564.16
  42  9117.555
  43  9503.134
  44  8744.365
  45  8520.84
  46  8374.626
  47  8706.817
  48  8865.921
  49  8540.179
  50  8572.897
  51  8667.268
  52  8364.25
  53  8921.853
  54  8827.35
  55  8345.866
  56  8408.501
  57  8772.863
  58  8907.353
  59  8822.7
  60  9038.794
  61  8588.293
  62  8587.353
  63  8860.206
  64  9168.707
  65  9217.753
  66  8597.217
  67  8372.912
  68  8496.659
  69  7972.466
  70  7900.738
  71  8599.255
  72  8387.408
  73  8568.362
  74  8280.561
  75  8215.919
  76  8266.044
  77  8233.732
  78  8895.943
  79  8709.338
  80  8831.216
  81  8322.646
  82  8048.444
  83  7849.325
  84  8648.912
  85  8667.171
  86  8535.559
  87  8741.655
  88  9084.483
  89  8886.865
  90  9449.827
  91  8976.033
  92  8412.891
  93  8331.878
  94  8453.164
  95  8498.204
  96  8587.949
  97  8608.515
  98  8529.24
  99  8746.867
 100  9245.743
 101  8804.77
 102  8943.435
 103  8730.774
 104  8455.14
 105  9215.922
 106  9407.652
 107  8977.39
 108  9019.748
 109  9643.569
 110  9073.718
 111  8832.026
 112  8456.309
 113  8784.526
 114  8624.112
 115  8296.009
 116  8550.87
 117  8256.576
 118  8439.143
 119  8394.862
 120  8226.228
 121  8437.252
 122  8524.029
 123  7975.155
 124  7590.211
 125  7337.971
 126  7833.065
 127  8515.66
 128  8620.953
 129  8337.878
 130  8585.053
 131  9054.419
 132  9098.369
 133  9015.6
 134  8608.7
 135  8756.121
 136  8583.438
 137  8864.337
 138  8659.938
 139  8806.516
 140  8496.495
 141  8206.35
 142  8208.987
 143  7993.399
 144  7489.175
 145  7570.239
 146  7860.026
 147  8507.863
 148  9086.656
 149  8835.941
 150  8734.258
 151  8332.638
 152  8085.616
 153  7881.86
 154  8025.402
 155  8357.613
 156  8892.037
 157  8700.095
 158  8581.431
 159  8827.936
 160  9017.434
 161  8640.866
 162  8591.16
 163  8570.598
 164  9093.433
 165  9079.006
 166  9270.972
 167  9081.054
 168  8622.753
 169  9009.508
 170  10327.27
 171  10196.55
 172  9740.824
 173  9437.341
 174  9176.667
 175  9116.795
 176  9176.535
 177  9524.396
 178  9832.611
 179  8958.506
 180  8808.034
 181  8784.446
 182  9245.521
 183  9355.518
 184  9465.639
 185  9330.8
 186  9090.101
 187  8292.223
 188  8544.402
 189  9070.447
 190  8564.267
 191  8771.468
 192  8946.841
 193  8768.916
 194  8306.356
 195  7947.889
 196  8160.578
 197  8453.578
 198  8920.698
 199  8786.089
 200  8187.473
 201  8760.695
 202  8883.312
 203  8918.081
 204  9088.505
 205  9060.203
 206  9016.639
 207  9481.275
 208  9272.46
 209  9531.058
 210  10126.42
 211  10116.96
 212  9312.375
 213  8700.313
 214  9096.112
 215  8931.14
 216  8922.361
 217  9353.225
 218  9595.976
 219  9259.143
 220  9048.505
 221  8362.302
 222  8433.521
 223  9227.618
 224  9733.336
 225  10166.78
 226  10159.86
 227  9389.137
 228  8612.767
 229  8451.15
 230  8819.176
 231  9105.307
 232  9559.631
 233  9486.166
 234  8822.467
 235  8342.884
 236  8436.822
 237  9011.377
 238  9378.596
 239  9182.397
 240  9220.012
 241  8749.738
 242  7979.893
 243  8524.854
 244  9257.216
 245  9689.096
 246  9749.999
 247  9680.535
 248  9549.983
 249  9223.907
 250  9196.609
 251  9228.528
 252  9843.502
 253  8869.525
 254  8731.911
 255  9036.388
 256  9444.933
 257  9867.62
 258  9479.342
 259  8993.122
 260  8775.87
 261  8812.827
 262  9160.581
 263  8862.083
 264  8620.646
 265  8568.032
 266  9254.594
 267  9284.843
 268  8713.546
 269  8907.107
 270  8865.037
 271  8995.919
 272  9365.229
 273  8980.978
 274  9405.57
 275  9762.335
 276  9624.331
 277  9402.534
 278  9149.136
 279  9008.817
 280  8503.24
 281  8214.871
 282  8823.508
 283  9373.739
 284  9449.513
 285  9173.57
 286  8881.654
 287  8783.258
 288  8829.101
 289  8628.133
 290  9379.802
 291  9898.962
 292  9503.564
 293  9177.433
 294  9286.758
 295  9149.484
 296  8686.032
 297  9077.219
 298  10090.58
 299  9756.003
 300  9151.489
 301  8674.249
 302  9048.638
 303  8807.209
 304  8773.646
 305  8671.122
 306  8619.693
 307  8214.701
 308  8270.571
 309  8779.214
 310  9297.661
 311  8949.223
 312  9205.066
 313  9054.99
 314  9030.042
 315  9339.47
 316  9038.086
 317  8762.841
 318  8595.242
 319  8409.146
 320  8599.368
 321  8663.14
 322  8250.328
 323  8220.241
 324  9008.703
 325  9052.146
 326  9308.792
 327  9095.591
 328  8989.736
 329  9108.123
 330  8535.545
 331  8480.87
 332  8775.777
 333  8786.794
 334  9452.198
 335  8879.608
 336  8799.473
 337  8666.32
 338  9158.955
 339  8879.001
 340  9048.736
 341  9065.584
 342  8654.188
 343  8752.199
 344  8964.654
 345  9266.467
 346  9042.801
 347  9231.191
 348  9294.612
 349  9017.547
 350  8934.905
 351  8849.689
 352  8821.646
 353  8437.65
 354  8184.094
 355  8343.264
 356  8371.017
 357  8395.279
 358  8911.975
 359  8607.684
 360  8380.873
 361  8593.8
 362  8698.225
 363  8811.356
 364  8279.584
 365  8751.556
 366  8098.469
 367  8583.738
 368  7920.337
 369  8242.6
 370  8718.576
 371  9078.958
 372  9115.68
 373  8726.737
 374  8705.176
 375  9221.228
 376  9025.459
 377  8970.569
 378  8906.833
 379  9581.761
 380  9639.34
 381  9652.092
 382  9334.171
 383  9583.507
 384  9291.485
 385  9094.834
 386  8350.937
 387  8429.308
 388  8847.378
 389  8636.598
 390  8544.177
 391  8607.096
 392  8830.984
 393  8667.427
 394  8932.217
 395  9293.106
 396  8969.252
 397  8895.971
 398  9267.794
 399  9360.664
 400  9110.872
 401  8946.705
 402  8537.654
 403  8091.614
 404  8331.858
 405  8806.003
 406  8947.977
 407  9126.88
 408  9244.879
 409  9133.418
 410  9080.48
 411  8760.104
 412  8768.013
 413  8998.631
 414  8606.319
 415  8509.084
 416  8089.468
 417  8018.158
 418  7510.767
 419  8179.083
 420  8548.849
 421  8408.834
 422  7685.064
 423  8357.829
 424  8882.52
 425  8420.609
 426  8389.755
 427  7983.239
 428  7992.311
 429  8554.877
 430  8828.397
 431  8844.715
 432  8603.98
 433  8850.051
 434  9284.757
 435  8991.799
 436  8591.769
 437  8260.548
 438  8715.153
 439  8600.832
 440  8353.948
 441  9037.123
 442  8953.435
 443  9125.407
 444  9273.536
 445  8923.937
 446  8306.952
 447  8271.889
 448  8615.819
 449  8470.789
 450  8561.011
 451  8684.576
 452  8846.812
 453  8997.169
 454  9043.585
 455  9002.259
 456  8902.194
 457  9115.343
 458  9520.04
 459  8768.201
 460  8080.417
 461  8675.347
 462  8212.532
 463  8746.153
 464  8546.632
 465  8593.517
 466  8927.865
 467  9021.983
 468  9087.953
 469  8781.191
 470  8422.438
 471  8504.743
 472  8797.211
 473  8755.718
 474  8815.928
 475  8834.521
 476  8784.777
 477  9048.026
 478  9186.866
 479  9309.641
 480  8750.083
 481  8462.142
 482  8566.159
 483  8603.036
 484  8258.275
 485  8299.013
 486  8390.161
 487  8470.171
 488  8581.1
 489  8655.863
 490  8825.695
 491  8309.843
 492  9262.309
 493  9044.709
 494  9385.036
 495  9223.106
 496  9387.87
 497  9784.363
 498  9471.3
 499  9026.285
 500  9416.167
 501  9103.935
 502  9040.457
 503  9235.396
 504  8661.304
 505  8984.747
 506  8611.609
 507  8481.673
 508  8834.401
 509  8842.87
 510  9027.062
 511  8706.963
