# Input file       =  1200341954.115353_cleaned.dat
# Candidate        =  PSR_0332+5434
# Telescope        =  AR
# Epoch_topo       =  58136.846911057328
# Epoch_bary       =  N/A
# T_sample         =  0.002
# Data Folded      =  7340032
# Data Avg         =  0.0788358034023903
# Data StdDev      =  1.00036120805444 
# Profile Bins     =  512
# Profile Avg      =  1130.12337282167 
# Profile StdDev   =  119.776284913888 
# Reduced chi-sqr  =  0.868
# Prob(Noise)      <  0.985   (~0.0 sigma)
# P_topo (ms)      =  714.569432077308  +/- 3.63e-05
# P'_topo (s/s)    =  -0                +/- 1.92e-11
# P''_topo (s/s^2) =  0                 +/- 8.46e-15
# P_bary (ms)      =  N/A
# P'_bary (s/s)    =  N/A
# P''_bary (s/s^2) =  N/A
# P_orb (s)        =  N/A
# asin(i)/c (s)    =  N/A
# eccentricity     =  N/A
# w (rad)          =  N/A
# T_peri           =  N/A
######################################################
   0  1673.954
   1  1562.69
   2  1312.791
   3  1225.032
   4  1216.017
   5  1165.133
   6  1046.158
   7  992.0314
   8  1119.664
   9  1241.12
  10  1309.871
  11  1134.671
  12  1088.576
  13  1226.554
  14  1254.054
  15  1135.61
  16  1088.849
  17  1062.859
  18  1086.053
  19  1152.358
  20  1197.139
  21  1133.169
  22  1080.972
  23  1219.76
  24  1237.075
  25  1081.991
  26  1092.459
  27  1117.094
  28  1225.918
  29  1277.786
  30  1204.267
  31  1160.249
  32  1290.602
  33  1264.541
  34  1098.085
  35  1010.016
  36  1163.289
  37  1267.948
  38  1181.903
  39  1122.291
  40  1141.518
  41  1118.572
  42  1077.868
  43  1092.374
  44  1102.349
  45  1038.568
  46  1084.364
  47  1138.358
  48  1201.298
  49  1095.729
  50  1029.943
  51  1207.875
  52  1251.47
  53  1108.77
  54  1062.194
  55  1059.446
  56  1129.016
  57  1231.43
  58  1204.778
  59  1119.252
  60  1068.491
  61  1280.462
  62  1173.244
  63  1040.37
  64  1032.303
  65  1101.208
  66  1142.416
  67  1119.229
  68  1101.865
  69  1132.905
  70  1217.56
  71  1094.119
  72  1073.066
  73  1077.085
  74  1096.065
  75  1118.045
  76  1111.459
  77  1243.73
  78  1115.553
  79  1081.68
  80  1145.238
  81  1207.907
  82  1105.364
  83  1114.383
  84  1147.287
  85  1081.88
  86  1105.542
  87  1082.24
  88  1150.067
  89  1106.963
  90  1228.977
  91  1207.892
  92  1136.41
  93  1110.162
  94  1161.448
  95  1200.452
  96  1217.697
  97  1075.046
  98  1093.93
  99  1183.93
 100  1209.685
 101  1126.395
 102  1050.846
 103  1101.194
 104  1106.076
 105  1083.018
 106  1080.412
 107  1069.659
 108  1087.482
 109  1048.601
 110  1098.855
 111  1104.824
 112  1078.548
 113  1127.798
 114  1180.208
 115  1118.095
 116  1061.263
 117  971.0773
 118  1015.47
 119  1125.378
 120  1037.966
 121  1120.951
 122  1063.961
 123  1055.566
 124  1135.826
 125  1129.929
 126  1032.301
 127  1034.598
 128  1172.588
 129  1214.189
 130  1096.389
 131  1104.278
 132  1049.349
 133  1045.804
 134  995.2133
 135  1101.147
 136  1057.042
 137  1130.239
 138  1183.528
 139  1098.713
 140  993.0526
 141  1138.808
 142  1227.516
 143  1220.777
 144  1018.344
 145  1027.44
 146  1055.028
 147  1108.256
 148  1071.295
 149  1042.457
 150  1054.298
 151  1085.635
 152  1143.536
 153  1142.812
 154  1020.584
 155  946.1404
 156  1074.728
 157  1186.295
 158  1239.8
 159  1217.492
 160  1084.983
 161  1039.009
 162  1003.235
 163  1112.793
 164  1096.703
 165  1063.988
 166  1166.318
 167  1190.762
 168  1080.743
 169  1038.606
 170  1145.211
 171  1176.609
 172  1131.258
 173  1069.933
 174  1129.94
 175  1067.846
 176  1205.761
 177  1233.19
 178  1215.812
 179  1098.183
 180  1134.752
 181  1155.3
 182  1162.633
 183  1117.493
 184  1111.435
 185  1088.625
 186  1112.63
 187  1145.038
 188  1236.584
 189  1119.054
 190  1071.317
 191  1019.95
 192  1131.923
 193  1085.806
 194  1167.814
 195  1163.094
 196  1182.074
 197  1172.005
 198  1116.075
 199  1136.103
 200  1095.985
 201  1119.081
 202  1248.457
 203  1145.166
 204  1118.69
 205  1121.139
 206  1191.53
 207  1182.263
 208  1083.425
 209  1047.825
 210  1182.776
 211  1064.535
 212  1047.038
 213  1037.402
 214  1121.512
 215  1198.504
 216  1105.846
 217  1013.96
 218  1037.706
 219  1071.025
 220  1028.095
 221  1101.481
 222  1038.785
 223  1111.91
 224  1146.323
 225  1174.453
 226  1074.243
 227  1041.342
 228  1048.655
 229  1154.954
 230  1244.621
 231  1192.101
 232  1209.73
 233  1182.16
 234  1089.554
 235  1001.069
 236  892.614
 237  1089.089
 238  1071.663
 239  1128.054
 240  1120.176
 241  1093.133
 242  980.119
 243  1116.069
 244  1103.614
 245  1130.01
 246  1123.901
 247  1196.827
 248  1219.29
 249  1105.311
 250  1029.624
 251  1016.718
 252  996.2241
 253  1041.366
 254  1102.591
 255  1121.729
 256  1034.66
 257  1093.974
 258  1171.16
 259  1100.677
 260  1124.227
 261  1062.538
 262  1119.082
 263  1056.961
 264  1036.639
 265  997.1707
 266  1171.401
 267  1204.449
 268  1106.353
 269  1061.116
 270  1058.105
 271  984.3227
 272  1096.591
 273  1093.182
 274  1104.969
 275  1039.28
 276  1144.144
 277  1114.938
 278  1035.625
 279  888.9667
 280  968.0315
 281  1139.609
 282  1180.821
 283  1194.857
 284  1162.469
 285  1107.8
 286  1168.574
 287  1227.405
 288  1127.095
 289  1131.099
 290  1142.975
 291  1147.04
 292  1180.032
 293  1133.885
 294  1039.79
 295  1071.536
 296  1196.312
 297  1121.008
 298  959.8524
 299  1019.701
 300  1079.459
 301  1086.821
 302  1161.133
 303  1100.798
 304  1092.607
 305  1148.559
 306  1212.185
 307  1183.35
 308  1119.941
 309  1171.402
 310  1111.985
 311  1163.228
 312  1194.699
 313  1016.421
 314  1074.246
 315  1265.846
 316  1168.835
 317  1080.351
 318  1080.067
 319  1170.747
 320  1198.417
 321  1106.94
 322  1129.826
 323  1226.754
 324  1177.891
 325  1104.74
 326  1131.339
 327  1168.158
 328  1188.002
 329  1194.606
 330  1118.869
 331  1080.966
 332  922.8715
 333  1039.041
 334  1015.884
 335  1067.565
 336  1089.15
 337  1089.163
 338  1075.006
 339  1054.622
 340  1128.766
 341  1177.837
 342  1135.234
 343  1115.728
 344  1178.547
 345  1136.387
 346  1085.186
 347  1100.053
 348  1185.674
 349  1116.973
 350  1171.913
 351  1167.367
 352  1157.972
 353  1108.672
 354  1207.626
 355  1239.132
 356  1189.632
 357  1212.879
 358  1282.403
 359  1167.245
 360  1138.465
 361  1120.883
 362  1112.917
 363  1043.783
 364  1171.356
 365  1136.513
 366  1104.705
 367  1085.679
 368  1119.284
 369  1024.646
 370  1126.967
 371  1121.665
 372  1233.047
 373  1172.723
 374  1078.998
 375  1114.524
 376  1132.347
 377  1071.755
 378  1176.326
 379  1094.054
 380  995.7628
 381  1059.383
 382  1223.45
 383  1236.166
 384  1028.036
 385  1109.124
 386  1185.377
 387  1305.557
 388  1244.387
 389  1091.95
 390  994.5944
 391  1169.575
 392  1219.405
 393  1187.625
 394  1093.913
 395  1108.21
 396  1054.557
 397  1123.175
 398  1009.965
 399  1081.937
 400  1128.701
 401  1229.897
 402  1139.318
 403  1100.951
 404  1040.75
 405  1165.672
 406  1212.342
 407  1253.176
 408  1168.669
 409  1079.382
 410  1180.199
 411  1228.728
 412  1153.146
 413  1109.765
 414  1056.663
 415  1089.799
 416  1093.895
 417  1109.659
 418  1111.803
 419  1086.351
 420  1205.119
 421  1200.744
 422  1087.375
 423  1048.624
 424  1123.672
 425  1214.478
 426  1202.512
 427  1268.678
 428  1148.329
 429  1148.116
 430  1166.286
 431  1100.068
 432  1115.191
 433  1163.501
 434  1151.922
 435  1126.514
 436  1202.987
 437  1194.699
 438  1123.115
 439  991.928
 440  1153.077
 441  1169.572
 442  1059.229
 443  1087.945
 444  1223.974
 445  1200.739
 446  1161.429
 447  1105.38
 448  1135.976
 449  1143.788
 450  1179.555
 451  1177.873
 452  1070.424
 453  1018.209
 454  1150.77
 455  1163.333
 456  1114.255
 457  1079.585
 458  1116.328
 459  1118.811
 460  1083.086
 461  1079.559
 462  1121.337
 463  1112.364
 464  1011.141
 465  1046.492
 466  1126.54
 467  1110.735
 468  1077.623
 469  1076.779
 470  1043.472
 471  1056.753
 472  1159.775
 473  1260.202
 474  1201.175
 475  1153.356
 476  1119.049
 477  1119.534
 478  1083.943
 479  1222.053
 480  1249.186
 481  1125.837
 482  1177.004
 483  1299.019
 484  1203.271
 485  1151.737
 486  1221.867
 487  1213.408
 488  1189.192
 489  1069.165
 490  1026.718
 491  1256.329
 492  1334.527
 493  1271.572
 494  1238.558
 495  1177.095
 496  1127.312
 497  1202.585
 498  1165.402
 499  1181.534
 500  1072.296
 501  1244.842
 502  1206.357
 503  1134.794
 504  1106.224
 505  1154.367
 506  1261.197
 507  1225.644
 508  1265.36
 509  1291.84
 510  1467.576
 511  1592.251
