# Input file       =  1200341954.115353_cleaned.dat
# Candidate        =  PSR_0332+5434
# Telescope        =  AR
# Epoch_topo       =  58136.846911057328
# Epoch_bary       =  N/A
# T_sample         =  0.002
# Data Folded      =  7340032
# Data Avg         =  0.0788358034023903
# Data StdDev      =  1.00036120805444 
# Profile Bins     =  512
# Profile Avg      =  1130.1233767662  
# Profile StdDev   =  119.776284913888 
# Reduced chi-sqr  =  0.866
# Prob(Noise)      <  0.987   (~0.0 sigma)
# P_topo (ms)      =  714.569433239074  +/- 3.7e-05
# P'_topo (s/s)    =  -0                +/- 1.95e-11
# P''_topo (s/s^2) =  0                 +/- 8.61e-15
# P_bary (ms)      =  N/A
# P'_bary (s/s)    =  N/A
# P''_bary (s/s^2) =  N/A
# P_orb (s)        =  N/A
# asin(i)/c (s)    =  N/A
# eccentricity     =  N/A
# w (rad)          =  N/A
# T_peri           =  N/A
######################################################
   0  1085.594
   1  1144.468
   2  1227.143
   3  1132.032
   4  1066.86
   5  1075.151
   6  1187.346
   7  1183.219
   8  1241.375
   9  1240.084
  10  1112.606
  11  1175.18
  12  1114.992
  13  1110.424
  14  1142.953
  15  1179.06
  16  1104.997
  17  1180.178
  18  1193.579
  19  1191.012
  20  1032.17
  21  1058.545
  22  1197.651
  23  1109.403
  24  1043.857
  25  1156.154
  26  1228.254
  27  1193.625
  28  1121.775
  29  1109.9
  30  1139.962
  31  1169.453
  32  1193.662
  33  1143.546
  34  997.1098
  35  1080.811
  36  1180.148
  37  1133.621
  38  1102.403
  39  1082.948
  40  1148.832
  41  1069.033
  42  1087.878
  43  1078.868
  44  1157.114
  45  1047.485
  46  1012.267
  47  1087.532
  48  1143.388
  49  1084.945
  50  1080.915
  51  1052.148
  52  1058.052
  53  1090.677
  54  1221.068
  55  1240.983
  56  1178.81
  57  1128.547
  58  1124.289
  59  1083.062
  60  1145.84
  61  1270.798
  62  1194.45
  63  1106.937
  64  1261.449
  65  1256.867
  66  1168.147
  67  1182.058
  68  1227.74
  69  1199.349
  70  1143.342
  71  1014.945
  72  1127.675
  73  1323.397
  74  1322.164
  75  1235.897
  76  1225.32
  77  1120.571
  78  1179.722
  79  1187.456
  80  1182.423
  81  1117.078
  82  1146.393
  83  1255.484
  84  1162.54
  85  1104.709
  86  1108.938
  87  1229.598
  88  1239.475
  89  1234.566
  90  1265.752
  91  1388.754
  92  1529.162
  93  1661.568
  94  1623.549
  95  1454.26
  96  1239.283
  97  1221.928
  98  1196.602
  99  1118.485
 100  988.7786
 101  1051.38
 102  1176.781
 103  1306.298
 104  1233.144
 105  1085.471
 106  1135.744
 107  1282.15
 108  1185.754
 109  1105.766
 110  1083.617
 111  1048.029
 112  1133.362
 113  1182.565
 114  1181.838
 115  1081.373
 116  1136.021
 117  1277.674
 118  1149.07
 119  1061.182
 120  1097.567
 121  1153.706
 122  1290.272
 123  1231.51
 124  1190.445
 125  1191.749
 126  1338.578
 127  1168.649
 128  1039.156
 129  1055.239
 130  1255.001
 131  1229.613
 132  1141.079
 133  1121.92
 134  1158.558
 135  1071.519
 136  1090.658
 137  1090.589
 138  1082.549
 139  1044.364
 140  1109.913
 141  1167.784
 142  1183.53
 143  1023.207
 144  1114.161
 145  1248.325
 146  1209.095
 147  1056.302
 148  1069.786
 149  1059.879
 150  1200.556
 151  1229.858
 152  1181.174
 153  1055.148
 154  1175.143
 155  1265.665
 156  1090.934
 157  1023.711
 158  1066.744
 159  1120.295
 160  1147.727
 161  1098.308
 162  1106.271
 163  1183.932
 164  1175.847
 165  1069.5
 166  1072.314
 167  1069.847
 168  1132.993
 169  1099.589
 170  1193.512
 171  1184.053
 172  1088.872
 173  1103.058
 174  1191.791
 175  1152.911
 176  1099.577
 177  1142.352
 178  1115.255
 179  1088.801
 180  1091.486
 181  1116.281
 182  1128.204
 183  1153.614
 184  1255.346
 185  1167.884
 186  1109.55
 187  1126.249
 188  1172.454
 189  1230.67
 190  1153.88
 191  1044.647
 192  1163.284
 193  1193.635
 194  1192.638
 195  1081.811
 196  1052.719
 197  1129.196
 198  1065.251
 199  1102.274
 200  1064.681
 201  1081.195
 202  1063.293
 203  1068.911
 204  1113.082
 205  1087.54
 206  1096.024
 207  1161.922
 208  1175.428
 209  1060.918
 210  1033.787
 211  950.0502
 212  1125.42
 213  1061.587
 214  1065.448
 215  1102.707
 216  1045.136
 217  1084.569
 218  1168.949
 219  1076.543
 220  1027.171
 221  1075.535
 222  1238.407
 223  1126.194
 224  1126.437
 225  1054.769
 226  1059.665
 227  1006.321
 228  1044.709
 229  1095.707
 230  1065.148
 231  1182.335
 232  1153.16
 233  1027.795
 234  1048.524
 235  1207.936
 236  1243.464
 237  1120.151
 238  996.3207
 239  1041.356
 240  1081.079
 241  1101.235
 242  1055.767
 243  1046.188
 244  1059.907
 245  1115.764
 246  1152.838
 247  1099.357
 248  956.7065
 249  994.0179
 250  1148.964
 251  1210.723
 252  1240.226
 253  1155.729
 254  1053.748
 255  1031.79
 256  1027.673
 257  1145.032
 258  1061.141
 259  1112.652
 260  1188.626
 261  1141.575
 262  1034.818
 263  1094.13
 264  1168.64
 265  1163.464
 266  1071.849
 267  1120.983
 268  1088.386
 269  1123.985
 270  1227.873
 271  1246.395
 272  1151.455
 273  1107.58
 274  1146.871
 275  1154.457
 276  1154.22
 277  1106.132
 278  1094.805
 279  1109.061
 280  1101.663
 281  1226.568
 282  1178.979
 283  1107.348
 284  1012.367
 285  1087.285
 286  1100.084
 287  1121.186
 288  1177.807
 289  1168.204
 290  1193.102
 291  1133.377
 292  1121.555
 293  1132.888
 294  1086.349
 295  1177.879
 296  1226.195
 297  1100.099
 298  1146.926
 299  1131.487
 300  1219.346
 301  1130.592
 302  1053.804
 303  1112.251
 304  1130.089
 305  1037.376
 306  1057.354
 307  1047.31
 308  1194.042
 309  1146.638
 310  1078.85
 311  999.3292
 312  1069.073
 313  1023.279
 314  1070.96
 315  1087.934
 316  1061.319
 317  1127.148
 318  1179.829
 319  1123.169
 320  1063.03
 321  1019.409
 322  1095.926
 323  1215.215
 324  1227.717
 325  1184.808
 326  1219.113
 327  1118.094
 328  1085.794
 329  905.9768
 330  999.9616
 331  1073.598
 332  1097.641
 333  1124.554
 334  1115.869
 335  1034.086
 336  1029.737
 337  1150.189
 338  1089.616
 339  1133.27
 340  1131.528
 341  1245.753
 342  1161.691
 343  1049.617
 344  1036.368
 345  993.6846
 346  1022.052
 347  1057.185
 348  1124.485
 349  1096.268
 350  1029.738
 351  1166.441
 352  1108.921
 353  1151.279
 354  1068.112
 355  1103.178
 356  1085.282
 357  1040.471
 358  1015.167
 359  1046.792
 360  1237.156
 361  1152.57
 362  1082.669
 363  1071.476
 364  1006.724
 365  1038.169
 366  1093.861
 367  1105.463
 368  1055.592
 369  1085.256
 370  1161.122
 371  1082.581
 372  973.6646
 373  867.233
 374  1068.767
 375  1171.969
 376  1196.259
 377  1181.303
 378  1131.758
 379  1108.924
 380  1236.536
 381  1171.991
 382  1104.528
 383  1156.689
 384  1145.722
 385  1159.982
 386  1157.595
 387  1100.012
 388  1021.871
 389  1136.53
 390  1193.047
 391  1013.43
 392  992.9185
 393  1050.142
 394  1082.351
 395  1111.34
 396  1164.902
 397  1071.812
 398  1124.2
 399  1171.893
 400  1226.335
 401  1139.683
 402  1149.67
 403  1129.338
 404  1124.427
 405  1208.833
 406  1114.222
 407  1004.86
 408  1186.888
 409  1250.276
 410  1100.38
 411  1067.451
 412  1120.857
 413  1201.004
 414  1160.95
 415  1097.983
 416  1185.882
 417  1229.637
 418  1108.041
 419  1126.321
 420  1135.978
 421  1186.904
 422  1196.184
 423  1150.998
 424  1109.28
 425  994.1258
 426  967.2303
 427  1050.016
 428  1020.63
 429  1083.436
 430  1091.76
 431  1099.62
 432  1045.622
 433  1092.959
 434  1153.467
 435  1179.829
 436  1100.392
 437  1160.303
 438  1150.54
 439  1121.625
 440  1063.419
 441  1155.819
 442  1157.808
 443  1133.897
 444  1178.092
 445  1165.264
 446  1127.725
 447  1147.735
 448  1246.275
 449  1213.303
 450  1176.278
 451  1269.354
 452  1218.169
 453  1145.907
 454  1127.794
 455  1129.219
 456  1065.752
 457  1099.991
 458  1191.343
 459  1107.74
 460  1080.142
 461  1118.614
 462  1072.823
 463  1062.516
 464  1124.764
 465  1171.029
 466  1246.057
 467  1098.874
 468  1086.431
 469  1133.402
 470  1099.004
 471  1112.524
 472  1155.225
 473  1026.445
 474  1025.487
 475  1128.972
 476  1280.408
 477  1109.174
 478  1052.705
 479  1131.259
 480  1264.254
 481  1292.504
 482  1192.162
 483  995.8527
 484  1078.462
 485  1210.071
 486  1222.787
 487  1137.072
 488  1086.893
 489  1096.53
 490  1064.858
 491  1098.946
 492  1005.622
 493  1125.301
 494  1159.892
 495  1219.573
 496  1102.364
 497  1072.968
 498  1085.809
 499  1197.295
 500  1244.356
 501  1221.884
 502  1109.705
 503  1109.957
 504  1229.796
 505  1198.716
 506  1131.398
 507  1065.28
 508  1066.036
 509  1108.121
 510  1088.492
 511  1125.414
