# Input file       =  1200083424.112911_cleaned.dat
# Candidate        =  PSR_0332+5434
# Telescope        =  AR
# Epoch_topo       =  58133.854665658691
# Epoch_bary       =  N/A
# T_sample         =  0.002
# Data Folded      =  7340032
# Data Avg         =  0.202355365450785
# Data StdDev      =  3.8785486993334  
# Profile Bins     =  1024
# Profile Avg      =  1450.50115962055 
# Profile StdDev   =  328.373609801255 
# Reduced chi-sqr  =  0.625
# Prob(Noise)      <  1   (~0.0 sigma)
# P_topo (ms)      =  714.567490835317  +/- 0.0007
# P'_topo (s/s)    =  -0                +/- 3.69e-10
# P''_topo (s/s^2) =  0                 +/- 1.63e-13
# P_bary (ms)      =  N/A
# P'_bary (s/s)    =  N/A
# P''_bary (s/s^2) =  N/A
# P_orb (s)        =  N/A
# asin(i)/c (s)    =  N/A
# eccentricity     =  N/A
# w (rad)          =  N/A
# T_peri           =  N/A
######################################################
   0  1456.11
   1  1369.137
   2  1471.542
   3  1500.349
   4  1551.085
   5  1426.783
   6  1248.534
   7  1167.156
   8  1259.205
   9  1358.676
  10  1380.522
  11  1211.72
  12  1274.034
  13  1369.032
  14  1352.359
  15  1186.963
  16  1270.873
  17  1408.675
  18  1432.656
  19  1388.136
  20  1402.107
  21  1418.124
  22  1266.331
  23  1306.915
  24  1352.589
  25  1346.2
  26  1336.497
  27  1160.233
  28  1140.895
  29  1245.021
  30  1446.224
  31  1497.546
  32  1381.958
  33  1285.31
  34  1211.299
  35  1225.909
  36  1306.86
  37  1448.369
  38  1486.853
  39  1456.923
  40  1417.016
  41  1464.596
  42  1488.211
  43  1441.749
  44  1363.81
  45  1383.536
  46  1369.757
  47  1481.5
  48  1544.005
  49  1550.76
  50  1574.417
  51  1509.797
  52  1556.242
  53  1479.878
  54  1489.499
  55  1415.506
  56  1368.018
  57  1398.111
  58  1468.991
  59  1592.067
  60  1546.849
  61  1461.778
  62  1386.949
  63  1452.004
  64  1575.87
  65  1503.242
  66  1409.303
  67  1390.202
  68  1328.216
  69  1496.606
  70  1503.141
  71  1522.115
  72  1377.204
  73  1435.23
  74  1502.842
  75  1528.763
  76  1593.845
  77  1563.093
  78  1643.098
  79  1712.169
  80  1796.149
  81  1802.911
  82  1617.29
  83  1707.368
  84  1585.197
  85  1620.237
  86  1538.919
  87  1514.64
  88  1632.538
  89  1594.102
  90  1558.555
  91  1471.862
  92  1403.654
  93  1569.485
  94  1619.125
  95  1706.202
  96  1616.228
  97  1510.059
  98  1516.96
  99  1528.309
 100  1676.071
 101  1684.611
 102  1724.71
 103  1606.237
 104  1519.129
 105  1412.087
 106  1329.84
 107  1345.651
 108  1370.304
 109  1459.421
 110  1352.323
 111  1292.022
 112  1339.288
 113  1483.991
 114  1510.938
 115  1514.642
 116  1382.883
 117  1429.651
 118  1344.184
 119  1473.816
 120  1479.962
 121  1449.016
 122  1449.919
 123  1517.743
 124  1574.953
 125  1405.901
 126  1301.955
 127  1304.21
 128  1337.027
 129  1364.692
 130  1287.37
 131  1405.364
 132  1402.476
 133  1548.846
 134  1385.829
 135  1352.269
 136  1456.549
 137  1550.466
 138  1588.125
 139  1648.751
 140  1723.567
 141  1737.565
 142  1666.937
 143  1640.85
 144  1450.601
 145  1456.471
 146  1425.521
 147  1447.759
 148  1371.757
 149  1332.214
 150  1412.942
 151  1425.621
 152  1430.124
 153  1495.667
 154  1438.75
 155  1548.241
 156  1513.219
 157  1603.931
 158  1554.444
 159  1531.306
 160  1407.036
 161  1361.29
 162  1365.565
 163  1429.466
 164  1472.657
 165  1429.988
 166  1345.991
 167  1309.702
 168  1295.369
 169  1404.529
 170  1429.9
 171  1424.383
 172  1446.25
 173  1383.702
 174  1374.931
 175  1159.706
 176  1248.976
 177  1351.312
 178  1435.748
 179  1500.357
 180  1552.878
 181  1545.94
 182  1413.633
 183  1327.793
 184  1375.111
 185  1319.243
 186  1200.134
 187  1219.092
 188  1296.305
 189  1333.673
 190  1361.467
 191  1460.963
 192  1409.726
 193  1378.486
 194  1416.543
 195  1478.136
 196  1497.927
 197  1452.605
 198  1579.548
 199  1489.094
 200  1453.114
 201  1492.462
 202  1492.836
 203  1567.251
 204  1427.517
 205  1364.662
 206  1278.278
 207  1323.655
 208  1441.516
 209  1457.664
 210  1470.853
 211  1424.217
 212  1436.504
 213  1559.746
 214  1669.646
 215  1642.461
 216  1498.057
 217  1365.672
 218  1298.125
 219  1383.942
 220  1483.321
 221  1479.142
 222  1493.702
 223  1356.204
 224  1333.544
 225  1254.074
 226  1269.443
 227  1279.172
 228  1315.915
 229  1438.191
 230  1539.626
 231  1599.32
 232  1503.678
 233  1427.733
 234  1482.999
 235  1558.721
 236  1627.603
 237  1422.461
 238  1330.858
 239  1289.443
 240  1373.448
 241  1468.516
 242  1468.936
 243  1452.887
 244  1401.671
 245  1386.852
 246  1440.338
 247  1434.895
 248  1418.445
 249  1356.607
 250  1372.204
 251  1341.619
 252  1448.337
 253  1617.714
 254  1622.599
 255  1575.203
 256  1441.126
 257  1387.621
 258  1400.126
 259  1368.054
 260  1427.983
 261  1229.754
 262  1293.839
 263  1444.618
 264  1419.058
 265  1429.746
 266  1303.112
 267  1393.448
 268  1340.767
 269  1295.896
 270  1305.862
 271  1351.049
 272  1416.475
 273  1340.292
 274  1384.042
 275  1394.774
 276  1426.451
 277  1403.443
 278  1298.284
 279  1278.891
 280  1326.513
 281  1391.606
 282  1388.11
 283  1314.456
 284  1328.335
 285  1285.741
 286  1399.43
 287  1451.383
 288  1546.382
 289  1504.875
 290  1501.385
 291  1444.626
 292  1467.182
 293  1360.45
 294  1431.483
 295  1584.969
 296  1698.552
 297  1612.7
 298  1437.523
 299  1365.956
 300  1418.444
 301  1489.624
 302  1489.902
 303  1540.396
 304  1570.44
 305  1491.012
 306  1383.172
 307  1404.223
 308  1523.496
 309  1531.13
 310  1548.182
 311  1679.638
 312  1917.127
 313  1824.376
 314  1695.864
 315  1614.036
 316  1711.228
 317  1801.839
 318  1687.822
 319  1718.435
 320  1771.631
 321  1668.041
 322  1645.38
 323  1451.58
 324  1487.51
 325  1466.166
 326  1500.958
 327  1698.493
 328  1574.148
 329  1722.603
 330  1635.158
 331  1766.927
 332  1598.342
 333  1592.443
 334  1690.818
 335  1595.735
 336  1453.248
 337  1290.396
 338  1335.965
 339  1436.061
 340  1448.494
 341  1588.121
 342  1502.369
 343  1623.115
 344  1616.204
 345  1651.289
 346  1716.849
 347  1697.935
 348  1618.84
 349  1505.049
 350  1452.801
 351  1438.277
 352  1349.255
 353  1371.429
 354  1397.433
 355  1358.441
 356  1491.874
 357  1467.36
 358  1602.522
 359  1432.042
 360  1425.78
 361  1417.177
 362  1460.917
 363  1374.885
 364  1180.209
 365  1372.177
 366  1512.117
 367  1595.758
 368  1415.478
 369  1206.546
 370  1322.566
 371  1293.506
 372  1393.802
 373  1320.174
 374  1328.544
 375  1305.163
 376  1299.189
 377  1417.904
 378  1429.683
 379  1478.357
 380  1373.173
 381  1384.759
 382  1430.379
 383  1294.825
 384  1233.733
 385  1150.567
 386  1258.575
 387  1205.567
 388  1155.863
 389  1208.368
 390  1299.058
 391  1287.875
 392  1254.586
 393  1332.67
 394  1424.604
 395  1528.708
 396  1500.19
 397  1400.27
 398  1387.741
 399  1340.527
 400  1341.749
 401  1299.775
 402  1254.378
 403  1428.616
 404  1354.952
 405  1502.202
 406  1401.84
 407  1317.288
 408  1349.637
 409  1413.125
 410  1544.603
 411  1326.458
 412  1306.006
 413  1350.425
 414  1351.268
 415  1327.201
 416  1346.907
 417  1408.388
 418  1376.146
 419  1379.938
 420  1376.98
 421  1406.807
 422  1445.268
 423  1387.556
 424  1493.688
 425  1453.511
 426  1515.385
 427  1415.056
 428  1270.923
 429  1290.734
 430  1343.443
 431  1420.472
 432  1340.811
 433  1264.266
 434  1407.555
 435  1441.563
 436  1444.29
 437  1278.492
 438  1260.887
 439  1190.411
 440  1097.836
 441  1050.824
 442  1161.001
 443  1206.637
 444  1273.944
 445  1337.388
 446  1450.32
 447  1405.583
 448  1374.729
 449  1418.663
 450  1437.335
 451  1472.349
 452  1528.648
 453  1573.495
 454  1471.587
 455  1420.052
 456  1552.44
 457  1558.064
 458  1546.793
 459  1475.114
 460  1478.922
 461  1357.672
 462  1317.81
 463  1467.199
 464  1469.14
 465  1431.896
 466  1342.915
 467  1465.545
 468  1529.648
 469  1405.658
 470  1365.591
 471  1342.425
 472  1422.4
 473  1414.24
 474  1438.243
 475  1452.238
 476  1444.813
 477  1640.83
 478  1773.872
 479  1734.13
 480  1639.205
 481  1585.078
 482  1570.214
 483  1486.851
 484  1526.208
 485  1669.682
 486  1624.64
 487  1637.931
 488  1592.194
 489  1690.106
 490  1529.375
 491  1503.074
 492  1555.554
 493  1615.887
 494  1676.162
 495  1564.261
 496  1581.812
 497  1404.817
 498  1309.776
 499  1320.781
 500  1363.105
 501  1452.648
 502  1460.45
 503  1415.622
 504  1358.744
 505  1400.14
 506  1536.04
 507  1524.396
 508  1466.698
 509  1336.163
 510  1339.818
 511  1200.093
 512  1208.871
 513  1428.673
 514  1560.542
 515  1500.945
 516  1247.052
 517  1257.323
 518  1361.852
 519  1349.906
 520  1485.515
 521  1520.357
 522  1530.187
 523  1525.511
 524  1522.037
 525  1568.735
 526  1384.703
 527  1364.482
 528  1398.745
 529  1506.304
 530  1428.736
 531  1286.256
 532  1343.848
 533  1316.884
 534  1302.978
 535  1315.779
 536  1295.819
 537  1417.042
 538  1426.85
 539  1494.464
 540  1503.715
 541  1424.203
 542  1585.197
 543  1578.798
 544  1561.754
 545  1501.91
 546  1577.264
 547  1603.568
 548  1467.724
 549  1424.507
 550  1330.61
 551  1365.582
 552  1145.6
 553  1236.306
 554  1241.132
 555  1286.808
 556  1403.01
 557  1401.743
 558  1526.284
 559  1388.109
 560  1369.254
 561  1282.262
 562  1247.518
 563  1281.618
 564  1244.044
 565  1184.994
 566  1201.77
 567  1259.502
 568  1236.86
 569  1161.03
 570  1146.516
 571  1305.708
 572  1387.581
 573  1494.082
 574  1411.928
 575  1552.71
 576  1493.619
 577  1548.707
 578  1576.198
 579  1459.658
 580  1481.185
 581  1361.894
 582  1570.385
 583  1553.811
 584  1529.142
 585  1500.777
 586  1495.518
 587  1519.869
 588  1559.33
 589  1547.784
 590  1431.48
 591  1334.485
 592  1388.35
 593  1396.612
 594  1539.512
 595  1597.599
 596  1615.358
 597  1469.558
 598  1356.159
 599  1573.953
 600  1540.851
 601  1532.055
 602  1297.245
 603  1396.692
 604  1488.906
 605  1530.766
 606  1510.061
 607  1433.076
 608  1473.554
 609  1514.204
 610  1540.535
 611  1629.354
 612  1667.767
 613  1799.728
 614  1936.321
 615  2102.039
 616  2207.792
 617  2270.289
 618  2368.367
 619  2231.242
 620  2119.939
 621  2092.733
 622  1906.125
 623  1812.068
 624  1619.253
 625  1668.332
 626  1517.666
 627  1573.293
 628  1655.585
 629  1542.416
 630  1490.029
 631  1605.74
 632  1749.778
 633  1721.711
 634  1574.682
 635  1536.679
 636  1509.958
 637  1589.146
 638  1632.326
 639  1616.795
 640  1492.029
 641  1479.201
 642  1571.284
 643  1577.672
 644  1623.95
 645  1562.122
 646  1491.013
 647  1398.154
 648  1362.75
 649  1412.063
 650  1474.26
 651  1516.875
 652  1425.411
 653  1399.266
 654  1450.193
 655  1461.614
 656  1502.517
 657  1429.512
 658  1326.579
 659  1311.606
 660  1334.081
 661  1437.244
 662  1329.433
 663  1301.451
 664  1173.952
 665  1073.364
 666  1089.209
 667  1194.346
 668  1329.429
 669  1381.455
 670  1380.174
 671  1343.503
 672  1275.149
 673  1334.997
 674  1382.91
 675  1424.766
 676  1470.201
 677  1574.304
 678  1627.494
 679  1513.911
 680  1467.274
 681  1420.822
 682  1454.324
 683  1395.503
 684  1300.77
 685  1336.239
 686  1365.235
 687  1490.198
 688  1453.185
 689  1545.812
 690  1532.274
 691  1444.02
 692  1416.555
 693  1437.698
 694  1398.929
 695  1240.568
 696  1221.771
 697  1218.069
 698  1179.524
 699  1231.859
 700  1224.649
 701  1400.623
 702  1284.313
 703  1269.045
 704  1355.453
 705  1427.708
 706  1517.635
 707  1567.005
 708  1565.629
 709  1588.126
 710  1517.877
 711  1567.677
 712  1417.802
 713  1427.206
 714  1329.408
 715  1368.546
 716  1398.386
 717  1370.752
 718  1396.559
 719  1457.538
 720  1588.786
 721  1476.424
 722  1312.696
 723  1381.341
 724  1539.455
 725  1678.483
 726  1653.692
 727  1533.384
 728  1488.699
 729  1491.561
 730  1471.652
 731  1387.127
 732  1323.863
 733  1400.146
 734  1346.721
 735  1431.034
 736  1445.282
 737  1418.109
 738  1325.701
 739  1296.646
 740  1198.098
 741  1219.002
 742  1390.86
 743  1419.937
 744  1378.027
 745  1315.465
 746  1309.154
 747  1261.279
 748  1027.514
 749  1110.191
 750  1249.249
 751  1360.376
 752  1287.641
 753  1293.906
 754  1444.68
 755  1444.748
 756  1416.101
 757  1265.919
 758  1255.615
 759  1171.576
 760  1199.791
 761  1257.908
 762  1134.724
 763  1132.084
 764  1295.651
 765  1465.569
 766  1560.331
 767  1444.849
 768  1498.908
 769  1520.234
 770  1511.588
 771  1544.581
 772  1475.328
 773  1507.026
 774  1435.446
 775  1600.386
 776  1523.482
 777  1479.116
 778  1437.998
 779  1463.224
 780  1606.553
 781  1568.159
 782  1575.543
 783  1438.168
 784  1327.332
 785  1308.364
 786  1308.608
 787  1570.356
 788  1694.544
 789  1712.791
 790  1691.042
 791  1548.628
 792  1495.702
 793  1419.224
 794  1446.47
 795  1466.155
 796  1359.881
 797  1453.943
 798  1380.238
 799  1470.118
 800  1580.15
 801  1723.701
 802  1703.886
 803  1559.947
 804  1484.232
 805  1412.044
 806  1298.54
 807  1369.876
 808  1447.568
 809  1515.516
 810  1378.149
 811  1316.486
 812  1278.777
 813  1338.217
 814  1357.512
 815  1380.402
 816  1450.059
 817  1480.063
 818  1476.626
 819  1530.143
 820  1451.534
 821  1648.406
 822  1632.189
 823  1690.911
 824  1577.806
 825  1577.463
 826  1429.932
 827  1305.911
 828  1340.756
 829  1481.633
 830  1538.71
 831  1422.199
 832  1415.709
 833  1468.434
 834  1457.781
 835  1465.75
 836  1427.576
 837  1428.363
 838  1389.217
 839  1444.31
 840  1473.138
 841  1428.305
 842  1362.478
 843  1333.167
 844  1316.733
 845  1424.216
 846  1405.104
 847  1437.313
 848  1372.56
 849  1469.769
 850  1574.671
 851  1539.093
 852  1508.743
 853  1300.28
 854  1366.006
 855  1275.461
 856  1295.772
 857  1268.602
 858  1338.887
 859  1494.511
 860  1394.395
 861  1327.295
 862  1282.426
 863  1345.07
 864  1424.52
 865  1397.216
 866  1456.896
 867  1359.594
 868  1401.996
 869  1521.757
 870  1529.747
 871  1532.897
 872  1484.781
 873  1486.38
 874  1369.356
 875  1339.036
 876  1336.816
 877  1230.49
 878  1350.987
 879  1395.796
 880  1413.6
 881  1405.824
 882  1496.807
 883  1555.726
 884  1448.845
 885  1352.681
 886  1480.248
 887  1473.228
 888  1518.528
 889  1435.674
 890  1312.963
 891  1275.166
 892  1446.047
 893  1571.04
 894  1446.541
 895  1440.907
 896  1480.631
 897  1682.429
 898  1613.963
 899  1548.139
 900  1541.219
 901  1449.367
 902  1555.685
 903  1485.689
 904  1552.696
 905  1577.929
 906  1587.837
 907  1678.862
 908  1553.107
 909  1585.702
 910  1428.084
 911  1458.83
 912  1351.685
 913  1295.969
 914  1473.047
 915  1537.111
 916  1603.337
 917  1644.108
 918  1735.283
 919  1765.024
 920  1480.562
 921  1490.777
 922  1469.782
 923  1512.387
 924  1423.771
 925  1395.685
 926  1537.021
 927  1536.655
 928  1479.689
 929  1334.473
 930  1249.719
 931  1330.161
 932  1422.86
 933  1505.242
 934  1377.84
 935  1329.946
 936  1247.123
 937  1190.945
 938  1287.962
 939  1348.362
 940  1486.912
 941  1395.926
 942  1300.396
 943  1399.718
 944  1352.992
 945  1554.793
 946  1490.727
 947  1601.915
 948  1534.828
 949  1512.776
 950  1539.957
 951  1519.97
 952  1419.927
 953  1274.027
 954  1201.824
 955  1291.725
 956  1350.053
 957  1524.314
 958  1526.163
 959  1556.042
 960  1525.588
 961  1466.965
 962  1533.556
 963  1440.438
 964  1549.809
 965  1418.12
 966  1380.516
 967  1403.002
 968  1445.607
 969  1477.4
 970  1479.547
 971  1528.066
 972  1592.788
 973  1661.596
 974  1796.951
 975  1687.243
 976  1538.22
 977  1431.974
 978  1463.428
 979  1427.743
 980  1359.353
 981  1378.828
 982  1387.371
 983  1514.912
 984  1572.364
 985  1669.56
 986  1627.631
 987  1596.272
 988  1514.672
 989  1431.518
 990  1444.151
 991  1399.703
 992  1359.165
 993  1412.517
 994  1526.351
 995  1553.131
 996  1490.722
 997  1344.457
 998  1360.606
 999  1495.781
1000  1596.633
1001  1431.291
1002  1456.185
1003  1594.489
1004  1737.642
1005  1699.138
1006  1584.545
1007  1638.621
1008  1590.187
1009  1586.637
1010  1558.624
1011  1479.583
1012  1567.706
1013  1575.178
1014  1616.548
1015  1472.414
1016  1425.733
1017  1512.288
1018  1580.763
1019  1592.573
1020  1493.881
1021  1474.447
1022  1392.705
1023  1414.168
