# Input file       =  1200585540.105412_cleaned.dat
# Candidate        =  PSR_0332+5434
# Telescope        =  AR
# Epoch_topo       =  58139.666193349673
# Epoch_bary       =  N/A
# T_sample         =  0.002
# Data Folded      =  7340032
# Data Avg         =  0.0617995608627213
# Data StdDev      =  1.00012896078148 
# Profile Bins     =  512
# Profile Avg      =  885.809778381746 
# Profile StdDev   =  119.748477242706 
# Reduced chi-sqr  =  1.022
# Prob(Noise)      <  0.355   (~0.4 sigma)
# P_topo (ms)      =  714.570797158616  +/- 0.00028
# P'_topo (s/s)    =  -0                +/- 1.48e-10
# P''_topo (s/s^2) =  0                 +/- 6.51e-14
# P_bary (ms)      =  N/A
# P'_bary (s/s)    =  N/A
# P''_bary (s/s^2) =  N/A
# P_orb (s)        =  N/A
# asin(i)/c (s)    =  N/A
# eccentricity     =  N/A
# w (rad)          =  N/A
# T_peri           =  N/A
######################################################
   0  832.6765
   1  905.1714
   2  848.1583
   3  788.7514
   4  755.6719
   5  688.282
   6  697.1381
   7  712.7996
   8  746.4058
   9  771.22
  10  731.3098
  11  752.4694
  12  746.7941
  13  715.0645
  14  693.8808
  15  648.3321
  16  682.194
  17  761.1509
  18  866.3373
  19  894.9384
  20  947.5639
  21  902.3771
  22  757.3522
  23  755.5281
  24  779.6179
  25  829.0623
  26  790.4868
  27  907.1669
  28  851.7453
  29  808.9598
  30  876.8616
  31  930.9667
  32  979.491
  33  923.0978
  34  861.3184
  35  869.1463
  36  904.864
  37  785.1019
  38  799.5576
  39  937.6423
  40  925.338
  41  835.652
  42  909.9196
  43  888.2032
  44  784.5851
  45  865.8264
  46  961.5304
  47  997.2316
  48  1016.125
  49  929.2484
  50  928.0251
  51  982.7938
  52  993.4733
  53  1020.191
  54  1040.364
  55  929.3759
  56  943.238
  57  960.4534
  58  880.499
  59  906.5795
  60  893.8896
  61  865.5394
  62  889.5547
  63  985.5126
  64  971.2244
  65  834.744
  66  863.8911
  67  850.9996
  68  884.173
  69  845.922
  70  824.5873
  71  856.5409
  72  906.7892
  73  925.6566
  74  834.4912
  75  814.101
  76  804.6447
  77  854.2606
  78  823.3819
  79  882.445
  80  896.5791
  81  985.5629
  82  977.6988
  83  875.4913
  84  891.2461
  85  1039.306
  86  877.9182
  87  856.2104
  88  1003.769
  89  941.3129
  90  873.1471
  91  817.0335
  92  954.4504
  93  991.2979
  94  963.8914
  95  917.921
  96  807.6722
  97  839.4642
  98  866.7061
  99  778.2674
 100  860.6716
 101  845.0668
 102  853.9929
 103  859.5674
 104  860.7458
 105  883.7051
 106  929.265
 107  953.2951
 108  874.4694
 109  847.925
 110  840.0894
 111  916.2227
 112  921.2762
 113  960.1879
 114  898.5887
 115  888.0075
 116  858.6779
 117  792.5886
 118  860.3109
 119  861.1306
 120  854.6624
 121  874.2669
 122  795.1412
 123  688.2501
 124  729.6628
 125  879.7168
 126  831.5085
 127  830.6537
 128  841.2122
 129  788.1722
 130  735.8187
 131  797.7435
 132  773.3515
 133  720.7222
 134  704.598
 135  659.226
 136  665.6347
 137  685.053
 138  753.7294
 139  728.155
 140  753.6492
 141  695.5062
 142  790.6364
 143  907.9067
 144  874.0206
 145  839.8364
 146  754.5147
 147  843.931
 148  889.7972
 149  831.9006
 150  970.9733
 151  904.4409
 152  886.3815
 153  876.8988
 154  914.1612
 155  794.3379
 156  835.5129
 157  855.4559
 158  805.163
 159  830.8651
 160  866.034
 161  907.5977
 162  778.3881
 163  717.2087
 164  824.3461
 165  898.431
 166  876.392
 167  893.6458
 168  861.5557
 169  914.09
 170  936.7367
 171  836.2724
 172  827.701
 173  870.0366
 174  890.4875
 175  891.7451
 176  918.3018
 177  949.3939
 178  846.5911
 179  932.1561
 180  937.7872
 181  960.2181
 182  826.3108
 183  918.1373
 184  941.9667
 185  848.136
 186  957.2758
 187  1017.033
 188  979.6542
 189  901.8889
 190  896.9333
 191  963.909
 192  1009.505
 193  994.8159
 194  1006.975
 195  927.8604
 196  911.0867
 197  860.8946
 198  797.3748
 199  832.1861
 200  854.5183
 201  963.9348
 202  864.5068
 203  747.5683
 204  797.4368
 205  939.8203
 206  913.5969
 207  834.8193
 208  914.9106
 209  877.3219
 210  925.3187
 211  989.9528
 212  870.9224
 213  911.7321
 214  911.0941
 215  954.1868
 216  969.7909
 217  980.2286
 218  1032.781
 219  932.2841
 220  912.6605
 221  876.4939
 222  880.575
 223  830.879
 224  845.5288
 225  864.7519
 226  910.6288
 227  849.2333
 228  791.7147
 229  950.7167
 230  866.4223
 231  781.5008
 232  820.5637
 233  820.8883
 234  818.0456
 235  940.1292
 236  1046.938
 237  944.7515
 238  859.8602
 239  854.1306
 240  850.4047
 241  767.2129
 242  877.7599
 243  923.6632
 244  936.0704
 245  924.0745
 246  936.9501
 247  1063.336
 248  1036.996
 249  996.6416
 250  981.8292
 251  963.7452
 252  926.6329
 253  843.4916
 254  820.5833
 255  942.2238
 256  914.2982
 257  860.6544
 258  939.706
 259  981.993
 260  959.7262
 261  820.0598
 262  832.4283
 263  867.7644
 264  918.0069
 265  988.1564
 266  916.1025
 267  971.8562
 268  961.5581
 269  861.5076
 270  836.8164
 271  790.6367
 272  931.6467
 273  998.1497
 274  1000.743
 275  936.7089
 276  866.729
 277  836.6749
 278  901.9606
 279  903.2198
 280  856.3704
 281  774.5576
 282  796.7839
 283  893.9845
 284  951.0575
 285  959.7064
 286  874.9261
 287  911.355
 288  1049.311
 289  828.9564
 290  809.1633
 291  859.3958
 292  859.4868
 293  919.7919
 294  985.4127
 295  903.7732
 296  829.6047
 297  919.7458
 298  990.0629
 299  903.4543
 300  796.5577
 301  867.6439
 302  978.098
 303  1062.232
 304  1292.281
 305  1416.1
 306  1363.899
 307  1270.943
 308  1121.407
 309  905.7452
 310  799.2114
 311  843.3832
 312  802.174
 313  766.0839
 314  751.96
 315  837.0367
 316  888.3549
 317  931.374
 318  843.3013
 319  822.5356
 320  947.5026
 321  912.0636
 322  1004.703
 323  896.1344
 324  856.775
 325  931.9285
 326  886.4579
 327  839.3187
 328  851.6658
 329  868.178
 330  809.0089
 331  857.8443
 332  883.4193
 333  842.666
 334  865.9404
 335  805.718
 336  934.4205
 337  948.1093
 338  938.2283
 339  836.3423
 340  901.9263
 341  944.789
 342  854.9594
 343  870.228
 344  904.9857
 345  880.2512
 346  928.7819
 347  993.0653
 348  972.5812
 349  888.9066
 350  866.372
 351  917.9888
 352  909.4548
 353  1000.147
 354  1026.599
 355  979.7515
 356  934.193
 357  863.6885
 358  867.7464
 359  860.5944
 360  946.8524
 361  912.7819
 362  864.3909
 363  901.6719
 364  941.1953
 365  942.8295
 366  859.7525
 367  922.6601
 368  980.5624
 369  970.6036
 370  884.088
 371  910.1219
 372  944.6211
 373  978.0097
 374  1009.854
 375  883.7973
 376  892.1211
 377  821.1345
 378  752.9106
 379  730.064
 380  782.7222
 381  920.1901
 382  931.6639
 383  1013.907
 384  885.6202
 385  933.4584
 386  951.7349
 387  971.6472
 388  936.0233
 389  976.0939
 390  1027.384
 391  993.0067
 392  1055.069
 393  1035.56
 394  1013.806
 395  946.4238
 396  1024.105
 397  1066.335
 398  972.3333
 399  944.5101
 400  931.8032
 401  1081.499
 402  1062.729
 403  896.4317
 404  850.7686
 405  872.1701
 406  813.1703
 407  873.6367
 408  868.4702
 409  870.8011
 410  880.0987
 411  883.7173
 412  893.0598
 413  954.4067
 414  930.6278
 415  964.0644
 416  965.4047
 417  923.197
 418  948.0066
 419  954.5134
 420  957.3849
 421  977.0277
 422  958.4696
 423  927.7711
 424  889.2221
 425  876.3254
 426  860.2504
 427  908.538
 428  896.9323
 429  741.649
 430  823.7858
 431  931.3636
 432  1022.409
 433  916.517
 434  962.6054
 435  924.9442
 436  871.3136
 437  872.1448
 438  867.4394
 439  883.1481
 440  909.887
 441  953.3087
 442  904.5461
 443  866.0859
 444  980.1205
 445  971.1145
 446  896.3682
 447  821.6954
 448  846.0162
 449  930.3518
 450  804.9102
 451  848.1478
 452  876.4827
 453  924.1941
 454  961.509
 455  1011.42
 456  902.3372
 457  867.166
 458  867.2721
 459  891.448
 460  867.2764
 461  832.6227
 462  938.9989
 463  874.3745
 464  916.6024
 465  934.5376
 466  853.5015
 467  723.2051
 468  814.0083
 469  910.6611
 470  863.2701
 471  836.72
 472  911.3146
 473  888.5175
 474  785.7743
 475  790.7497
 476  839.2451
 477  887.0584
 478  949.7977
 479  751.9703
 480  794.1209
 481  836.4595
 482  820.985
 483  774.9115
 484  740.2136
 485  784.1505
 486  796.8898
 487  926.3447
 488  920.7001
 489  883.5691
 490  766.8121
 491  772.3021
 492  819.8786
 493  841.9652
 494  872.7769
 495  826.3322
 496  825.9708
 497  810.4282
 498  878.4257
 499  799.4985
 500  854.663
 501  864.0823
 502  848.5638
 503  868.1169
 504  808.0396
 505  880.12
 506  811.4895
 507  914.0852
 508  906.8488
 509  802.4693
 510  659.0915
 511  749.1492
