# Input file       =  1200514251.114862_cleaned.dat
# Candidate        =  PSR_0332+5434
# Telescope        =  AR
# Epoch_topo       =  58138.841089292386
# Epoch_bary       =  N/A
# T_sample         =  0.002
# Data Folded      =  7340032
# Data Avg         =  0.922323214759151
# Data StdDev      =  9.61775404574686 
# Profile Bins     =  512
# Profile Avg      =  13222.4212169704 
# Profile StdDev   =  1151.5628950222  
# Reduced chi-sqr  =  0.547
# Prob(Noise)      <  1   (~0.0 sigma)
# P_topo (ms)      =  714.570647609643  +/- 4.89e-05
# P'_topo (s/s)    =  -0                +/- 2.58e-11
# P''_topo (s/s^2) =  0                 +/- 1.14e-14
# P_bary (ms)      =  N/A
# P'_bary (s/s)    =  N/A
# P''_bary (s/s^2) =  N/A
# P_orb (s)        =  N/A
# asin(i)/c (s)    =  N/A
# eccentricity     =  N/A
# w (rad)          =  N/A
# T_peri           =  N/A
######################################################
   0  12996.98
   1  12829.36
   2  13436.28
   3  13916.21
   4  13501.59
   5  12763.52
   6  12570.48
   7  12850.88
   8  13432.32
   9  13608.96
  10  13937.64
  11  12939.01
  12  13314.81
  13  13674.31
  14  12997
  15  13514.19
  16  12566.54
  17  12850.71
  18  13192.9
  19  13413.97
  20  13126.5
  21  13124.34
  22  12798.78
  23  13297.64
  24  12402.27
  25  12800.05
  26  13441.9
  27  13041.42
  28  13398.01
  29  13022.03
  30  12925.02
  31  12845.41
  32  13878
  33  13826.1
  34  14283.39
  35  13352.03
  36  13554.79
  37  13806.41
  38  13760.89
  39  13896.64
  40  13479.38
  41  13734.58
  42  13834.43
  43  13617.54
  44  13155.12
  45  13110.11
  46  13470.9
  47  14619.41
  48  13441.31
  49  13740.49
  50  13661.48
  51  13928.8
  52  13577.83
  53  13624.41
  54  13010.31
  55  13252.7
  56  13662.78
  57  12824.1
  58  12953.01
  59  12829.37
  60  13428.97
  61  13226.16
  62  13062.63
  63  12683.25
  64  12773.83
  65  12863.68
  66  13197.5
  67  13091.67
  68  13242.9
  69  13848.27
  70  13726.14
  71  13364.48
  72  12329.18
  73  12111.35
  74  13442.48
  75  14958.36
  76  15196.35
  77  13901.87
  78  13319.86
  79  13524.34
  80  13347.49
  81  13797.57
  82  13577.48
  83  13391.44
  84  13139.75
  85  13421.85
  86  13313.36
  87  13779.33
  88  14120.47
  89  14779.92
  90  15003.5
  91  14503.64
  92  14053.31
  93  13625.41
  94  13783.85
  95  13979.66
  96  14206.42
  97  13807.26
  98  13447.9
  99  13559.01
 100  13826.92
 101  13154.55
 102  12751.39
 103  13511.43
 104  13016.2
 105  12676.05
 106  11667.8
 107  12505.87
 108  12618.23
 109  12970.96
 110  12886.85
 111  11721.14
 112  11872.75
 113  11398.62
 114  12629.22
 115  11927.19
 116  12447.88
 117  12396.94
 118  13094.94
 119  13694.37
 120  13744.86
 121  13398.08
 122  13156.21
 123  14356.76
 124  13922.58
 125  13342.49
 126  13789.35
 127  13828.84
 128  13913.48
 129  13013.79
 130  12448.11
 131  12651.23
 132  12800.72
 133  13721.14
 134  13181.03
 135  13125.72
 136  13163.76
 137  13745.66
 138  13105.8
 139  12952.38
 140  12937.17
 141  13709.99
 142  14366.42
 143  14395.03
 144  14010.19
 145  13411.48
 146  13094.96
 147  13860.94
 148  14161.35
 149  13438.15
 150  13342.82
 151  13069.88
 152  14179.88
 153  13810.89
 154  12478.91
 155  12339.25
 156  12536.15
 157  13557.18
 158  13174.78
 159  13018.75
 160  13461.31
 161  13490.48
 162  13877.04
 163  14510.9
 164  13296.14
 165  13179.4
 166  13207.28
 167  13481.12
 168  12684.03
 169  13739.62
 170  14706.85
 171  14051.36
 172  13388.56
 173  12950.93
 174  12653.78
 175  12321.2
 176  13068.68
 177  12748.47
 178  13566.12
 179  13480.52
 180  13572.48
 181  13334.81
 182  13785.71
 183  13551.71
 184  13545.86
 185  13311.39
 186  13100.29
 187  13235.07
 188  12462.53
 189  12413.71
 190  12772.13
 191  12990.48
 192  11422.5
 193  11585.31
 194  11952.3
 195  12925.34
 196  13219.71
 197  12694.99
 198  12690.98
 199  13069.45
 200  13331.09
 201  12870.25
 202  12605.35
 203  12670.54
 204  12970.06
 205  13845.43
 206  13483.2
 207  12723.18
 208  13419.25
 209  13606.69
 210  12723.83
 211  12302.67
 212  12513.21
 213  12456.17
 214  11968.55
 215  12536.18
 216  12517.21
 217  12426.25
 218  12794.07
 219  13721.85
 220  12411.11
 221  12308.5
 222  12715.33
 223  13008.37
 224  12708.8
 225  12942.67
 226  13438
 227  13090.79
 228  13375.01
 229  12898.97
 230  12561.76
 231  12415.46
 232  12357.62
 233  13273.31
 234  13229.38
 235  12808.64
 236  12756.96
 237  12734.12
 238  14060.09
 239  13728.34
 240  12913.37
 241  13056.97
 242  13173.03
 243  14006.71
 244  13542.67
 245  13215.13
 246  13025.71
 247  13875.71
 248  13933.22
 249  12807.79
 250  12825.65
 251  13088.97
 252  13223.58
 253  13377.23
 254  12338.86
 255  12201.48
 256  12800.6
 257  13431.1
 258  13588.16
 259  13596.73
 260  13455.37
 261  12766.71
 262  12165.05
 263  11601.88
 264  12088.68
 265  12753.49
 266  14100.63
 267  13936.21
 268  13259.1
 269  12698.07
 270  13246.7
 271  13235.57
 272  13106.26
 273  12877.31
 274  12920.68
 275  13004.18
 276  13343.74
 277  13781.16
 278  13090.63
 279  13325.51
 280  14006.07
 281  13485.64
 282  12885.43
 283  11783.81
 284  13241.21
 285  13495.06
 286  13646.3
 287  13538.16
 288  13686.68
 289  13156.88
 290  13551.34
 291  13875.4
 292  14112.3
 293  13519.95
 294  12516.04
 295  13298.48
 296  13436.39
 297  13035.76
 298  13160.88
 299  13662.14
 300  13540.48
 301  13314.21
 302  13144.11
 303  13575.58
 304  13416.06
 305  13433.74
 306  13204.54
 307  13960.74
 308  14354.51
 309  14226.52
 310  14622.78
 311  14615.4
 312  12649.17
 313  12288.05
 314  13051.43
 315  12924.66
 316  12850.43
 317  12772.79
 318  13266.15
 319  13183.24
 320  14118.01
 321  13092.74
 322  13217.52
 323  13439.38
 324  13431.2
 325  12906.29
 326  12478.53
 327  13438.09
 328  13253.9
 329  13672.39
 330  13559.17
 331  12565.74
 332  11866.35
 333  12010.41
 334  12736.8
 335  12955.46
 336  13682.97
 337  14059.47
 338  13780.91
 339  14232.03
 340  14095.85
 341  13415.88
 342  12834
 343  13380.67
 344  13119.32
 345  13121.55
 346  13852.42
 347  14108.16
 348  13348.6
 349  13204.55
 350  12845.22
 351  11964.65
 352  12304.25
 353  13171.96
 354  14212.39
 355  13953.4
 356  13074.95
 357  12802.71
 358  13513.12
 359  13680.67
 360  12885.13
 361  12644.17
 362  12536.46
 363  13019.83
 364  12991.54
 365  13761.03
 366  13975.85
 367  13946.73
 368  13943.9
 369  12621.84
 370  12600.24
 371  13387.77
 372  14810.11
 373  13913.24
 374  13021.43
 375  12132.74
 376  12510
 377  12725.26
 378  12520.39
 379  12699.59
 380  13188.08
 381  13065.01
 382  13396.65
 383  13239.17
 384  12997.53
 385  13492.1
 386  13493.71
 387  13419.24
 388  12119.05
 389  12865.47
 390  12934.52
 391  13440.61
 392  13017.56
 393  13143.07
 394  12154.12
 395  12441.74
 396  13257.32
 397  12547.53
 398  12912.81
 399  12900.71
 400  13053.04
 401  12846.02
 402  12906.56
 403  12323.7
 404  12598.55
 405  12156.05
 406  12835.84
 407  13339.77
 408  13583.65
 409  12748.12
 410  12886.41
 411  13392.46
 412  12417.18
 413  12467.68
 414  12957.07
 415  13922.18
 416  14286.79
 417  14220.42
 418  13568.47
 419  12908.97
 420  12917.76
 421  12852.11
 422  12084.9
 423  12709.31
 424  13186.34
 425  13715.51
 426  12945.13
 427  13246.71
 428  14300.42
 429  14397.48
 430  14367.98
 431  13865.53
 432  12357.84
 433  11951.83
 434  13356.52
 435  13100.76
 436  12685.25
 437  12355.75
 438  12921
 439  12968.45
 440  12969.01
 441  13259.89
 442  12942.72
 443  13264.84
 444  13798.19
 445  14066.59
 446  13599.11
 447  14076.03
 448  13611.59
 449  13470.32
 450  13479.13
 451  12933.05
 452  13206.57
 453  12994.35
 454  13623.25
 455  13774.35
 456  13684.68
 457  13539.88
 458  14869.44
 459  15008.52
 460  14320.6
 461  13454.96
 462  13437.91
 463  13799.87
 464  13452.94
 465  13407.54
 466  13522.63
 467  13707.89
 468  14123.14
 469  13555.45
 470  12457.39
 471  13174.61
 472  13683.43
 473  13838.41
 474  13131.69
 475  13078.46
 476  12236.5
 477  12238.19
 478  12658.56
 479  13410.6
 480  13121.36
 481  13885.11
 482  14158.17
 483  13132.62
 484  12638.4
 485  11978.38
 486  12566.15
 487  13213.17
 488  13080.36
 489  11746.88
 490  12148.24
 491  11758.29
 492  12512.09
 493  12232.88
 494  12886.74
 495  13389.28
 496  13233.65
 497  13942.06
 498  13443.74
 499  12946.75
 500  12967.43
 501  13576.08
 502  13795.17
 503  13505.83
 504  13401.01
 505  13306.84
 506  13783.68
 507  13554.87
 508  12667.46
 509  13238.8
 510  13597.47
 511  13276.47
