# Input file       =  1200686592.122527_cleaned.dat
# Candidate        =  PSR_0332+5434
# Telescope        =  AR
# Epoch_topo       =  58140.835776881097
# Epoch_bary       =  N/A
# T_sample         =  0.002
# Data Folded      =  7340032
# Data Avg         =  0.615588499536638
# Data StdDev      =  7.6053230321252  
# Profile Bins     =  512
# Profile Avg      =  8824.38682782786 
# Profile StdDev   =  910.608419262504 
# Reduced chi-sqr  =  0.473
# Prob(Noise)      <  1   (~0.0 sigma)
# P_topo (ms)      =  714.571798423036  +/- 0.00117
# P'_topo (s/s)    =  -0                +/- 6.15e-10
# P''_topo (s/s^2) =  0                 +/- 2.71e-13
# P_bary (ms)      =  N/A
# P'_bary (s/s)    =  N/A
# P''_bary (s/s^2) =  N/A
# P_orb (s)        =  N/A
# asin(i)/c (s)    =  N/A
# eccentricity     =  N/A
# w (rad)          =  N/A
# T_peri           =  N/A
######################################################
   0  9193.712
   1  8905.995
   2  8875.994
   3  9144.097
   4  9890.571
   5  9555.383
   6  9510.267
   7  9407.206
   8  9514.614
   9  9212.722
  10  8745.541
  11  8209.286
  12  8804.256
  13  8686.207
  14  8556.333
  15  8576.176
  16  8823.398
  17  8795.943
  18  8622.795
  19  9097.008
  20  9229.272
  21  8857.041
  22  9112.742
  23  9350.378
  24  9275.676
  25  8978.805
  26  8785.048
  27  8319.696
  28  8065.749
  29  8657.863
  30  8852.661
  31  9046.481
  32  9177.343
  33  9190.537
  34  9176.205
  35  8933.703
  36  8670.101
  37  8866.914
  38  8841.502
  39  8668.92
  40  8268.22
  41  8058.398
  42  7746.685
  43  7784.018
  44  8306.878
  45  8578.561
  46  8003.628
  47  7912.948
  48  8753.792
  49  8542.205
  50  8462.874
  51  8257.293
  52  7971.503
  53  8108.568
  54  8862.715
  55  8835.555
  56  8771.283
  57  8498.307
  58  9107.129
  59  9393.197
  60  8756.943
  61  8385.93
  62  8226.544
  63  8955.388
  64  8299.428
  65  8774.3
  66  8981.794
  67  9009.924
  68  9182.347
  69  9216.35
  70  8542.457
  71  8348.842
  72  8321.071
  73  8695.537
  74  8357.331
  75  8721.049
  76  8697.193
  77  9069.315
  78  8913.109
  79  9049.948
  80  8824.292
  81  8958.926
  82  9490.338
  83  9234.288
  84  8258.582
  85  8432.59
  86  8488.951
  87  8330.842
  88  8760.163
  89  8524.585
  90  8867.978
  91  8952.633
  92  8922.262
  93  9096.725
  94  8565.383
  95  8431.972
  96  8627.996
  97  8779.861
  98  8801.597
  99  8859.354
 100  8708.151
 101  8970.891
 102  9174.365
 103  9247.204
 104  9069.188
 105  8448.391
 106  8542.679
 107  8626.834
 108  8475.96
 109  8209.639
 110  8411.194
 111  8354.327
 112  8558.677
 113  8484.897
 114  8974.25
 115  8415.391
 116  8821.258
 117  9189.635
 118  9098.012
 119  9383.561
 120  9236.197
 121  9636.483
 122  9739.233
 123  9043.848
 124  9322.847
 125  9303.902
 126  9049.773
 127  9112.14
 128  9030.228
 129  8752.546
 130  8910.715
 131  8386.668
 132  8745.051
 133  8897.423
 134  8904.901
 135  8815.32
 136  8607.099
 137  8523.721
 138  8646.222
 139  8598.045
 140  8928.252
 141  8817.174
 142  8190.796
 143  8208.807
 144  8553.489
 145  9070.349
 146  8285.979
 147  8186.002
 148  8490.089
 149  8570.216
 150  8400.042
 151  8291.395
 152  8581.734
 153  9056.185
 154  8714.157
 155  9106.888
 156  8779.08
 157  8726.422
 158  8353.128
 159  8761.837
 160  9150.39
 161  9125.9
 162  9525.913
 163  9236.882
 164  9146.032
 165  9208.695
 166  8587.226
 167  8724.575
 168  8535.449
 169  8606.543
 170  8319.597
 171  8923.358
 172  9539.961
 173  9720.485
 174  9154.335
 175  8805.696
 176  8927.638
 177  8739.474
 178  8625.682
 179  9510.837
 180  9246.167
 181  8548.391
 182  8318.538
 183  8582.687
 184  8859.364
 185  8755.714
 186  8388.689
 187  8709.583
 188  8586.652
 189  8505.982
 190  9036.237
 191  8443.327
 192  8399.307
 193  8572.556
 194  8898.302
 195  8834.904
 196  8903.111
 197  8902.491
 198  8449.998
 199  8747.319
 200  9003.009
 201  9334.534
 202  8938.449
 203  8328.022
 204  8502.188
 205  8232.472
 206  7917.066
 207  8185.092
 208  8667.941
 209  8293.864
 210  8533.854
 211  8268.798
 212  8208.341
 213  8216.972
 214  8517.267
 215  8968.403
 216  8605.312
 217  8710.843
 218  8161.01
 219  8029.802
 220  8086.756
 221  8636.824
 222  8644.218
 223  8600.785
 224  9026.156
 225  8818.826
 226  9157.674
 227  9477.97
 228  8628.547
 229  8334.905
 230  8285.351
 231  8572.288
 232  8562.817
 233  8516.132
 234  8639.152
 235  8452.078
 236  9192.543
 237  8981.365
 238  8870.315
 239  8824.698
 240  8571.398
 241  8686.189
 242  9550.498
 243  9213.292
 244  8816.61
 245  9485.709
 246  9308.032
 247  9010.63
 248  8501.803
 249  8698.931
 250  8798.364
 251  8392.38
 252  8336.372
 253  8519.632
 254  8321.207
 255  8455.462
 256  8196.514
 257  8337.839
 258  8611.316
 259  8227.097
 260  7683.854
 261  7484.349
 262  7506.66
 263  8272.345
 264  8472.757
 265  8617.556
 266  8382.959
 267  8806.661
 268  9020.655
 269  9116.381
 270  8861.262
 271  8662.321
 272  8629.253
 273  8692.517
 274  8956.776
 275  8604.037
 276  8724.576
 277  8289.255
 278  8184.78
 279  8291.762
 280  7633.281
 281  7489.848
 282  7707.545
 283  8026.707
 284  8924.688
 285  8940.972
 286  8873.081
 287  8537.428
 288  8339.994
 289  7833.63
 290  7918.43
 291  8093.782
 292  8667.837
 293  8942.147
 294  8499.649
 295  8678.386
 296  8971.294
 297  8890.494
 298  8559.839
 299  8577.752
 300  8843
 301  9176.574
 302  8985.729
 303  9283.898
 304  8851.731
 305  8704.769
 306  9753.494
 307  10344.88
 308  9902.17
 309  9633.222
 310  9242.163
 311  9129.27
 312  9171.205
 313  9328.678
 314  9756.513
 315  9389.297
 316  8766.219
 317  8932.873
 318  8987.202
 319  9273.421
 320  9364.832
 321  9405.201
 322  9317.015
 323  8729.024
 324  8234.337
 325  8938.387
 326  8871.679
 327  8554.455
 328  8842.256
 329  8922.35
 330  8578.359
 331  8205.606
 332  7865.101
 333  8308.282
 334  8570.41
 335  9146.693
 336  8440.251
 337  8359.017
 338  8846.889
 339  8976.66
 340  8903.656
 341  9174.126
 342  8850.944
 343  9318.413
 344  9575.72
 345  9122.793
 346  9856.835
 347  10168.23
 348  9947.595
 349  8890.459
 350  8705.934
 351  9130.915
 352  8856.673
 353  9153.209
 354  9543.524
 355  9386.747
 356  9296.196
 357  8639.699
 358  8258.121
 359  8724.81
 360  9660.289
 361  9916.1
 362  10262.68
 363  9776.84
 364  9030.267
 365  8439.657
 366  8651.678
 367  8888.664
 368  9342.046
 369  9615.886
 370  9231.055
 371  8497.312
 372  8357.914
 373  8612.823
 374  9296.742
 375  9300.201
 376  9175.83
 377  9141.572
 378  8321.228
 379  8142.047
 380  8830.114
 381  9494.124
 382  9738.438
 383  9788.227
 384  9594.376
 385  9334.59
 386  9244.286
 387  9181.503
 388  9553.102
 389  9362.166
 390  8706.652
 391  8995.599
 392  9120.098
 393  9709.068
 394  9677.528
 395  9406.147
 396  8760.664
 397  8769.626
 398  8936.717
 399  9213.113
 400  8731.284
 401  8407.913
 402  8882.009
 403  9467.351
 404  8993.847
 405  8733.312
 406  8922.462
 407  8772.754
 408  9316.411
 409  9085.477
 410  9192.408
 411  9657.491
 412  9717.123
 413  9454.907
 414  9335.356
 415  9063.161
 416  8844.899
 417  8303.931
 418  8386.548
 419  9089.59
 420  9454.268
 421  9384.997
 422  9103.397
 423  8732.553
 424  8847.838
 425  8666.13
 426  8995.076
 427  9665.202
 428  9799.842
 429  9259.278
 430  9208.238
 431  9349.322
 432  8733.483
 433  8842.978
 434  9592.959
 435  10169.99
 436  9405.738
 437  8774.14
 438  8982.567
 439  8800.275
 440  8918.141
 441  8573.298
 442  8899.23
 443  8251.857
 444  8206.325
 445  8353.872
 446  9363.883
 447  9026.245
 448  9080.616
 449  9131.589
 450  8959.365
 451  9239.587
 452  9170.245
 453  8978.458
 454  8688.116
 455  8418.962
 456  8449.221
 457  8618.458
 458  8594.943
 459  8052.952
 460  8675.523
 461  9067.316
 462  9143.716
 463  9269.557
 464  9000.125
 465  9140.957
 466  8811.01
 467  8373.419
 468  8683.638
 469  8801.604
 470  9006.578
 471  9330.309
 472  8710.605
 473  8913.449
 474  8773.397
 475  9061.076
 476  8844.4
 477  9272.354
 478  8830.046
 479  8592.308
 480  8841.112
 481  9157.537
 482  9231.117
 483  8984.48
 484  9337.711
 485  9283.465
 486  8914.295
 487  8822.984
 488  8807.349
 489  8730.224
 490  8317.044
 491  8199.746
 492  8409.324
 493  8282.891
 494  8706.693
 495  8809.217
 496  8467.646
 497  8428.799
 498  8699.406
 499  8784.689
 500  8517.167
 501  8539.446
 502  8437.483
 503  8392.406
 504  8270.451
 505  7947.333
 506  8435.062
 507  8939.413
 508  9160.44
 509  8963.928
 510  8557.25
 511  9027.701
