# Input file       =  1200686592.122527_cleaned.dat
# Candidate        =  PSR_0332+5434
# Telescope        =  AR
# Epoch_topo       =  58140.835776881097
# Epoch_bary       =  N/A
# T_sample         =  0.002
# Data Folded      =  7340032
# Data Avg         =  0.615588499536638
# Data StdDev      =  7.6053230321252  
# Profile Bins     =  1024
# Profile Avg      =  4412.19341410112 
# Profile StdDev   =  643.897388266079 
# Reduced chi-sqr  =  0.444
# Prob(Noise)      <  1   (~0.0 sigma)
# P_topo (ms)      =  714.571798522958  +/- 0.00116
# P'_topo (s/s)    =  -0                +/- 6.15e-10
# P''_topo (s/s^2) =  0                 +/- 2.71e-13
# P_bary (ms)      =  N/A
# P'_bary (s/s)    =  N/A
# P''_bary (s/s^2) =  N/A
# P_orb (s)        =  N/A
# asin(i)/c (s)    =  N/A
# eccentricity     =  N/A
# w (rad)          =  N/A
# T_peri           =  N/A
######################################################
   0  4566.627
   1  4591.348
   2  4390.246
   3  4441.531
   4  4494.212
   5  4389.953
   6  4582.417
   7  4755.196
   8  5013.525
   9  4845.511
  10  4740.953
  11  4827.117
  12  4758.807
  13  4691.939
  14  4647.367
  15  4861.698
  16  4687.232
  17  4687.581
  18  4605.761
  19  4568.498
  20  4384.401
  21  4149.042
  22  4091.031
  23  4235.518
  24  4387.701
  25  4424.44
  26  4356.653
  27  4291.39
  28  4310.456
  29  4257.24
  30  4268.757
  31  4332.681
  32  4368.054
  33  4455.723
  34  4376.111
  35  4384.951
  36  4243
  37  4498.766
  38  4488.253
  39  4701.545
  40  4665.493
  41  4413.166
  42  4469.705
  43  4332.22
  44  4643.325
  45  4653.805
  46  4592.756
  47  4777.479
  48  4598.969
  49  4617.191
  50  4418.437
  51  4484.325
  52  4422.353
  53  4299.725
  54  4127.723
  55  4006.235
  56  4055.349
  57  4129.041
  58  4377.767
  59  4349.947
  60  4427.704
  61  4520.714
  62  4497.741
  63  4589.782
  64  4569.487
  65  4634.322
  66  4627.909
  67  4514.552
  68  4593.792
  69  4571.504
  70  4448.837
  71  4416.081
  72  4266.164
  73  4381.52
  74  4451.565
  75  4547.471
  76  4392.64
  77  4283.697
  78  4362.011
  79  4298.829
  80  4111.058
  81  3972.021
  82  4074.671
  83  4055.501
  84  3851.048
  85  3731.513
  86  3856.266
  87  4126.193
  88  4164.493
  89  4221.418
  90  4345.329
  91  4232.647
  92  3989.851
  93  3810.064
  94  3931.174
  95  4168.861
  96  4412.388
  97  4446.872
  98  4257.933
  99  4227.312
 100  4236.78
 101  4227.283
 102  4096.07
 103  3975.326
 104  4012.99
 105  3959.633
 106  4058.87
 107  4269.661
 108  4440.482
 109  4452.176
 110  4344.256
 111  4459.911
 112  4402.504
 113  4314.575
 114  4211.682
 115  4375.472
 116  4586.085
 117  4646.572
 118  4773.516
 119  4425.661
 120  4403.097
 121  4286.731
 122  4202.486
 123  4155.383
 124  3999.953
 125  4427.796
 126  4483.181
 127  4346.969
 128  4135.73
 129  4055.303
 130  4475.303
 131  4512.256
 132  4472.263
 133  4498.026
 134  4492.853
 135  4568.934
 136  4587.013
 137  4602.863
 138  4680.717
 139  4517.384
 140  4216.682
 141  4116.219
 142  4178.213
 143  4157.542
 144  4151.527
 145  4295.323
 146  4373.787
 147  4256.893
 148  4129.229
 149  4271.05
 150  4366.728
 151  4337.521
 152  4400.191
 153  4353.302
 154  4552.845
 155  4518.721
 156  4432.119
 157  4552.622
 158  4525.923
 159  4447.986
 160  4461.705
 161  4439.9
 162  4479.773
 163  4531.941
 164  4788.333
 165  4787.035
 166  4603.822
 167  4354.747
 168  4168.611
 169  3993.295
 170  4198.411
 171  4420.211
 172  4164.992
 173  4157.18
 174  4127.97
 175  4369.346
 176  4398.239
 177  4279.138
 178  4269.981
 179  4258.694
 180  4432.12
 181  4482.384
 182  4468.937
 183  4553.074
 184  4384.554
 185  4616.923
 186  4537.202
 187  4441.904
 188  4189.934
 189  4212.285
 190  4258.478
 191  4240.607
 192  4315.849
 193  4405.989
 194  4359.145
 195  4434.946
 196  4344.826
 197  4396.578
 198  4465.169
 199  4418.649
 200  4350.794
 201  4351.159
 202  4481.591
 203  4571.127
 204  4559.838
 205  4594.367
 206  4640.239
 207  4674.181
 208  4557.958
 209  4369.691
 210  4139.016
 211  4263.699
 212  4299.054
 213  4260.643
 214  4322.389
 215  4288.446
 216  4296.081
 217  4132.956
 218  4044.152
 219  4176.19
 220  4195.789
 221  4180.409
 222  4188.1
 223  4217.891
 224  4314.005
 225  4306.517
 226  4208.168
 227  4287.524
 228  4565.324
 229  4410.622
 230  4228.227
 231  4034.505
 232  4412.392
 233  4750.679
 234  4524.887
 235  4535.226
 236  4510.632
 237  4695.043
 238  4808.076
 239  4502.267
 240  4625.004
 241  4675.005
 242  4834.955
 243  4906.013
 244  4874.34
 245  4764.03
 246  4541.072
 247  4433.929
 248  4677.597
 249  4744.71
 250  4647.758
 251  4550.314
 252  4522.556
 253  4462.841
 254  4612.302
 255  4602.766
 256  4551.314
 257  4316.841
 258  4325.499
 259  4580.546
 260  4436.663
 261  4286.982
 262  4164.992
 263  4187.972
 264  4452.039
 265  4397.596
 266  4444.794
 267  4428.72
 268  4464.627
 269  4544.96
 270  4380.09
 271  4363.026
 272  4277.465
 273  4304.752
 274  4184.031
 275  4273.521
 276  4315.311
 277  4399.174
 278  4248.04
 279  4393.413
 280  4450.966
 281  4566.383
 282  4367.238
 283  4221.553
 284  4089.256
 285  4065.704
 286  4122
 287  4129.534
 288  4273.011
 289  4430.315
 290  4611.687
 291  4307.404
 292  4152.016
 293  4036.232
 294  4056.341
 295  4282.342
 296  4159.533
 297  4374.238
 298  4291.324
 299  4188.589
 300  4238.379
 301  4111.1
 302  4178.891
 303  4153.064
 304  4215.733
 305  4567.707
 306  4500.692
 307  4429.648
 308  4295.612
 309  4494.772
 310  4611.229
 311  4490.66
 312  4345.446
 313  4305.449
 314  4475.285
 315  4200.539
 316  4252.938
 317  4081.475
 318  4415.448
 319  4642.349
 320  4528.85
 321  4493.699
 322  4550.572
 323  4730.999
 324  4853.79
 325  4608.396
 326  4637.299
 327  4562.586
 328  4524.219
 329  4704.73
 330  4557.711
 331  4471.046
 332  4326.913
 333  4288.488
 334  4359.369
 335  4332.854
 336  4223.289
 337  4305.265
 338  4268.096
 339  4317.311
 340  4103.944
 341  4222.008
 342  4435.936
 343  4649.056
 344  4755.448
 345  4960.859
 346  4840.446
 347  4771.707
 348  4525.298
 349  4505.693
 350  4379.248
 351  4367.361
 352  4453.908
 353  4520.625
 354  4376.084
 355  4274.524
 356  4243.702
 357  4597.947
 358  4753.113
 359  4796.942
 360  4577.413
 361  4395.846
 362  4280.47
 363  4283.541
 364  4114.531
 365  4175.851
 366  4279.77
 367  4436.551
 368  4368.205
 369  4457.429
 370  4375.002
 371  4292.338
 372  4156.6
 373  4261.254
 374  4385.342
 375  4334.895
 376  4321.181
 377  4109.625
 378  4276.259
 379  4458.796
 380  4569.389
 381  4451.417
 382  4120.186
 383  4189.398
 384  4244.632
 385  4155.202
 386  4317.433
 387  4321.172
 388  4502.419
 389  4452.977
 390  4423.09
 391  4396.57
 392  4466.136
 393  4508.191
 394  4492.114
 395  4242.097
 396  4248.982
 397  4284.669
 398  4365.541
 399  4394.701
 400  4540.158
 401  4568.729
 402  4719.568
 403  4550.107
 404  4510.751
 405  4344.787
 406  4103.206
 407  4186.091
 408  4255.934
 409  4244.893
 410  4200.559
 411  3871.839
 412  4010.268
 413  3920.763
 414  4072.515
 415  4353.536
 416  4319.019
 417  4184.41
 418  4166.172
 419  4263.762
 420  4273.633
 421  4136.911
 422  4146.808
 423  4173.44
 424  4029.135
 425  4096.567
 426  4148.898
 427  4113.86
 428  4212.958
 429  4487.077
 430  4485.377
 431  4400.777
 432  4263.5
 433  4403.408
 434  4369.86
 435  4188.345
 436  4065.315
 437  3999.713
 438  4013.968
 439  3909.973
 440  4070.556
 441  4300.85
 442  4353.677
 443  4295.27
 444  4354.822
 445  4266.233
 446  4263.255
 447  4370.915
 448  4535.444
 449  4554.539
 450  4385.082
 451  4428.582
 452  4571.013
 453  4797.157
 454  4716.604
 455  4488.527
 456  4304.201
 457  4230.76
 458  4148.15
 459  4179.023
 460  4093.265
 461  4265.77
 462  4294.086
 463  4203.738
 464  4299.112
 465  4320.568
 466  4245.881
 467  4312.85
 468  4256.691
 469  4326.984
 470  4231.639
 471  4269.521
 472  4685.639
 473  4581.412
 474  4565.278
 475  4398.811
 476  4361.081
 477  4511.553
 478  4420.946
 479  4351.391
 480  4340.972
 481  4104.498
 482  4397.509
 483  4598.447
 484  4812.745
 485  4669.341
 486  4665.003
 487  4446.294
 488  4434.28
 489  4417.259
 490  4764.841
 491  4951.785
 492  4556.916
 493  4584.511
 494  4449.508
 495  4452.628
 496  4282.6
 497  4161.43
 498  4379.976
 499  4388.332
 500  4390.051
 501  4386.446
 502  4131.44
 503  4153.631
 504  4126.909
 505  4335.806
 506  4226.26
 507  4189.483
 508  4084.098
 509  4268.951
 510  4215.772
 511  4156.259
 512  4137.011
 513  4093.705
 514  4167.699
 515  4216.357
 516  4297.005
 517  4329.428
 518  4110.337
 519  3966.052
 520  3836.838
 521  3813.098
 522  3722.038
 523  3690.78
 524  3689.77
 525  3940.502
 526  4141.817
 527  4279.683
 528  4208.063
 529  4341.688
 530  4292.79
 531  4199.04
 532  4105.273
 533  4280.43
 534  4467.34
 535  4485.366
 536  4528.251
 537  4532.198
 538  4584.822
 539  4555.078
 540  4419.133
 541  4220.453
 542  4396.611
 543  4391.636
 544  4331.295
 545  4228.639
 546  4350.067
 547  4445.905
 548  4495.439
 549  4278.837
 550  4333.331
 551  4413.151
 552  4419.438
 553  4205.407
 554  4069.177
 555  4177.802
 556  4097.215
 557  4065.563
 558  4227.025
 559  3948.521
 560  3849.424
 561  3717.299
 562  3740.418
 563  3760.845
 564  3883.584
 565  3917.172
 566  3997.917
 567  4181.236
 568  4502.159
 569  4631.316
 570  4440.479
 571  4416.836
 572  4428.749
 573  4349.689
 574  4307.728
 575  4092.513
 576  4226.024
 577  4095.082
 578  3829.227
 579  3991.466
 580  3939.407
 581  4003.939
 582  4068.114
 583  4132.048
 584  4331.397
 585  4477.388
 586  4465.66
 587  4421.891
 588  4141.928
 589  4306.9
 590  4378.434
 591  4394.184
 592  4485.977
 593  4529.265
 594  4436.018
 595  4328.801
 596  4286.565
 597  4225.625
 598  4390.72
 599  4183.057
 600  4494.157
 601  4471.501
 602  4632.815
 603  4566.751
 604  4472.736
 605  4595.858
 606  4692.179
 607  4534.774
 608  4465.045
 609  4264.117
 610  4306.895
 611  4484.357
 612  4890.597
 613  5183.456
 614  5204.81
 615  5073.957
 616  4990.734
 617  4841.086
 618  4819.843
 619  4699.221
 620  4688.285
 621  4536.411
 622  4608.174
 623  4491.133
 624  4630.077
 625  4584.08
 626  4655.405
 627  4702.163
 628  4896.045
 629  5013.81
 630  4656.791
 631  4515.085
 632  4279.179
 633  4487.41
 634  4472.662
 635  4345.591
 636  4474.35
 637  4601.843
 638  4711.778
 639  4674.924
 640  4655.132
 641  4736.425
 642  4733.787
 643  4575.198
 644  4762.614
 645  4473.513
 646  4454.382
 647  4115.671
 648  4072.279
 649  4273.449
 650  4490.671
 651  4542.216
 652  4475.764
 653  4199.972
 654  4261.314
 655  4461.584
 656  4380.875
 657  4499.842
 658  4445.29
 659  4392.898
 660  4307.787
 661  4131.552
 662  4096.532
 663  4033.973
 664  3833.713
 665  4152.943
 666  4103.071
 667  4241.062
 668  4295.595
 669  4439.697
 670  4608.724
 671  4418.513
 672  4168.572
 673  4112.203
 674  4128.316
 675  4390.899
 676  4453.959
 677  4442.671
 678  4474.717
 679  4479.594
 680  4398.44
 681  4579.135
 682  4613.743
 683  4519.512
 684  4412.719
 685  4484.382
 686  4648.795
 687  4793.299
 688  4747.997
 689  4718.125
 690  4492.849
 691  4710.559
 692  4972.962
 693  5028.395
 694  5139.389
 695  5054.614
 696  5025.523
 697  4649.435
 698  4428.524
 699  4322.501
 700  4333.455
 701  4548.619
 702  4628.691
 703  4433.748
 704  4412.576
 705  4409.352
 706  4630.769
 707  4618.686
 708  4835.811
 709  4779.78
 710  4712.722
 711  4634.037
 712  4664.692
 713  4510.14
 714  4323.37
 715  4172.928
 716  4150.031
 717  4165.332
 718  4343.78
 719  4635.167
 720  4853.104
 721  4827.528
 722  4949.415
 723  5074.893
 724  5188.922
 725  5115.501
 726  4831.788
 727  4758.257
 728  4486.129
 729  4326.433
 730  4200.806
 731  4183.262
 732  4349.052
 733  4470.195
 734  4350.113
 735  4580.368
 736  4641.99
 737  4810.577
 738  4827.767
 739  4734.474
 740  4616.379
 741  4484.814
 742  4164.698
 743  4200.857
 744  4140.824
 745  4213.232
 746  4319.258
 747  4449.403
 748  4696.89
 749  4715.728
 750  4641.673
 751  4612.164
 752  4543.504
 753  4606.996
 754  4655.504
 755  4338.955
 756  4174.565
 757  3929.135
 758  4072.357
 759  4297.873
 760  4349.441
 761  4614.341
 762  4793.221
 763  4863.553
 764  4842.585
 765  4889.549
 766  4869.398
 767  4911.996
 768  4751.685
 769  4768.523
 770  4705.577
 771  4592.417
 772  4611.729
 773  4628.297
 774  4552.556
 775  4596.261
 776  4822.197
 777  4927.821
 778  4701.525
 779  4365.306
 780  4423.619
 781  4297.505
 782  4527.329
 783  4488.677
 784  4576.656
 785  4707.104
 786  4867.775
 787  4970.013
 788  4800.387
 789  4790.626
 790  4659.087
 791  4494.64
 792  4406.588
 793  4356.5
 794  4427.991
 795  4381.929
 796  4436.538
 797  4623.8
 798  4624.357
 799  4402.132
 800  4347.951
 801  4356.633
 802  4148.779
 803  4291.305
 804  4410.669
 805  4653.958
 806  4774.08
 807  4641.393
 808  4517.42
 809  4254.967
 810  4452.005
 811  4437.516
 812  4425.883
 813  4479.147
 814  4375.117
 815  4453.841
 816  4708.736
 817  4650.745
 818  4570.789
 819  4491.194
 820  4555.91
 821  4719.805
 822  4816.129
 823  4892.084
 824  4908.139
 825  4741.905
 826  4721.879
 827  4775.58
 828  4615.758
 829  4639.876
 830  4459.546
 831  4513.578
 832  4505.707
 833  4179.59
 834  4151.252
 835  4142.161
 836  4130.328
 837  4448.774
 838  4526.83
 839  4616.399
 840  4855.86
 841  4665.791
 842  4733.905
 843  4548.682
 844  4544.224
 845  4515.318
 846  4298.668
 847  4350.806
 848  4470.524
 849  4459.68
 850  4303.303
 851  4287.426
 852  4463.018
 853  4748.931
 854  4815.799
 855  4913.047
 856  4963.63
 857  4751.59
 858  4640.894
 859  4573.49
 860  4553.688
 861  4666.465
 862  4714.174
 863  4579.368
 864  4335.351
 865  4317.701
 866  4454.455
 867  4524.29
 868  4724.93
 869  5081.116
 870  5150.887
 871  4871.244
 872  4702.872
 873  4601.867
 874  4337.382
 875  4356.874
 876  4466.788
 877  4557.874
 878  4387.165
 879  4372.384
 880  4503.888
 881  4378.196
 882  4263.65
 883  4363.477
 884  4450.716
 885  4309.889
 886  4095.701
 887  4136.57
 888  4101.589
 889  4118.437
 890  4141.123
 891  4373.646
 892  4749.397
 893  4643.971
 894  4527.635
 895  4407.248
 896  4590.004
 897  4609.477
 898  4506.021
 899  4602.972
 900  4446.815
 901  4503.691
 902  4640.344
 903  4672.682
 904  4588.804
 905  4557.199
 906  4448.97
 907  4377.614
 908  4390.616
 909  4267.662
 910  4238.125
 911  4090.869
 912  4253.089
 913  4409.073
 914  4211.049
 915  4389.848
 916  4256.115
 917  4147.273
 918  4065.596
 919  4006.482
 920  4367.661
 921  4530.47
 922  4523.287
 923  4533.289
 924  4539.389
 925  4656.535
 926  4692.962
 927  4550.747
 928  4466.57
 929  4462.448
 930  4575.242
 931  4592.246
 932  4431.168
 933  4187.552
 934  4278.135
 935  4197.4
 936  4324.72
 937  4416.398
 938  4370.318
 939  4400.486
 940  4501.278
 941  4662.753
 942  4806.914
 943  4354.602
 944  4390.042
 945  4344.069
 946  4504.329
 947  4333.883
 948  4359.022
 949  4601.887
 950  4520.3
 951  4464.309
 952  4396.847
 953  4507.015
 954  4633.627
 955  4548.75
 956  4436.342
 957  4329.1
 958  4285.209
 959  4362.727
 960  4391.906
 961  4558.818
 962  4489.628
 963  4690.229
 964  4613.225
 965  4517.427
 966  4472.205
 967  4614.603
 968  4668.944
 969  4696.63
 970  4621.821
 971  4522.322
 972  4440.365
 973  4489.312
 974  4383.142
 975  4407.013
 976  4390.059
 977  4450.798
 978  4399.023
 979  4201.867
 980  4146.941
 981  4090.373
 982  4089.142
 983  4212.84
 984  4142.575
 985  4246.581
 986  4148.654
 987  4131.407
 988  4375.66
 989  4431.049
 990  4439.002
 991  4325.725
 992  4199.926
 993  4185.898
 994  4232.82
 995  4258.456
 996  4414.753
 997  4268.078
 998  4426.499
 999  4459.948
1000  4229.16
1001  4095.217
1002  4277.352
1003  4417.438
1004  4267.336
1005  3923.979
1006  4230.667
1007  4346.785
1008  4119.588
1009  3959.122
1010  3935.744
1011  4113.256
1012  4248.686
1013  4329.83
1014  4507.363
1015  4496.716
1016  4594.859
1017  4593.808
1018  4478.094
1019  4311.457
1020  4334.65
1021  4288.802
1022  4516.85
1023  4671.717
