# Input file       =  1200656871.114483_cleaned.dat
# Candidate        =  PSR_0332+5434
# Telescope        =  AR
# Epoch_topo       =  58140.491783732446
# Epoch_bary       =  N/A
# T_sample         =  0.002
# Data Folded      =  7274496
# Data Avg         =  0.0927242997295421
# Data StdDev      =  3.37534484809386 
# Profile Bins     =  512
# Profile Avg      =  1317.65711255719 
# Profile StdDev   =  402.332044462297 
# Reduced chi-sqr  =  1.296
# Prob(Noise)      <  6.95e-06   (~4.3 sigma)
# P_topo (ms)      =  714.571257629235  +/- 2.81e-05
# P'_topo (s/s)    =  -0                +/- 1.49e-11
# P''_topo (s/s^2) =  0                 +/- 6.65e-15
# P_bary (ms)      =  N/A
# P'_bary (s/s)    =  N/A
# P''_bary (s/s^2) =  N/A
# P_orb (s)        =  N/A
# asin(i)/c (s)    =  N/A
# eccentricity     =  N/A
# w (rad)          =  N/A
# T_peri           =  N/A
######################################################
   0  1201.674
   1  1596.755
   2  1549.576
   3  1215.013
   4  730.1181
   5  847.4459
   6  1010.832
   7  815.6412
   8  1191.942
   9  1189.404
  10  1418.653
  11  1430.202
  12  982.956
  13  1037.403
  14  1049.718
  15  969.978
  16  1437.62
  17  1439.338
  18  1751.333
  19  1599.532
  20  1120.982
  21  1102.511
  22  1068.515
  23  1487.721
  24  1167.139
  25  1210.761
  26  1329.636
  27  1716.526
  28  1424.247
  29  1239.086
  30  1655.051
  31  1545.243
  32  1221.024
  33  1500.767
  34  1901.055
  35  2092.104
  36  1815.091
  37  1402.814
  38  1338.173
  39  1480.414
  40  1782.697
  41  1291.105
  42  1483.965
  43  1519.826
  44  1450.173
  45  1002.956
  46  939.9105
  47  883.8043
  48  1133.846
  49  1482.974
  50  1918.909
  51  1746.098
  52  1665.359
  53  1655.441
  54  1029.719
  55  971.0857
  56  818.8876
  57  1055.831
  58  1390.281
  59  1499.918
  60  1609.74
  61  1530.896
  62  854.4406
  63  1017.463
  64  773.6578
  65  898.0391
  66  1120.489
  67  1367.179
  68  1284.358
  69  1343.242
  70  1163.842
  71  1036.28
  72  1080.344
  73  1037.519
  74  1031.139
  75  1714.038
  76  1572.713
  77  1461.407
  78  1276.252
  79  908.7036
  80  1107.754
  81  1290.664
  82  1315.765
  83  1499.761
  84  1668.533
  85  1865.866
  86  1605.642
  87  1358.212
  88  1287.951
  89  999.1499
  90  925.2824
  91  1100.123
  92  1559.696
  93  1750.642
  94  1454.364
  95  1027.315
  96  1082.806
  97  958.2585
  98  1077.279
  99  1178.789
 100  1384.454
 101  1460.478
 102  1338.223
 103  1141.199
 104  1279.285
 105  1462.199
 106  1047.499
 107  770.848
 108  1103.372
 109  1393.819
 110  1456.727
 111  1082.978
 112  933.5724
 113  739.0954
 114  691.9136
 115  995.4019
 116  1513.329
 117  1611.473
 118  1494.966
 119  1194.755
 120  788.669
 121  857.5399
 122  875.5309
 123  1097.429
 124  1224.131
 125  1324.779
 126  1582.186
 127  1514.027
 128  883.2205
 129  695.6985
 130  808.2562
 131  1050.672
 132  1231.44
 133  1442.099
 134  1797.925
 135  1429.189
 136  1277.248
 137  1188.618
 138  986.2593
 139  517.9371
 140  557.4695
 141  955.756
 142  1655.648
 143  1511.421
 144  883.7704
 145  855.9927
 146  907.5457
 147  1059.312
 148  991.4883
 149  1341.839
 150  1495.701
 151  1158.983
 152  1067.281
 153  1280.661
 154  1022.035
 155  913.105
 156  1227.435
 157  1604.016
 158  1938.367
 159  1936.828
 160  1515.049
 161  1072.525
 162  1075.025
 163  1295.932
 164  1237.912
 165  1616
 166  1549.998
 167  1716.372
 168  1723.071
 169  1254.36
 170  1201.517
 171  1379.272
 172  1140.512
 173  1185.876
 174  1268.915
 175  1731.296
 176  1397.521
 177  1375.786
 178  1519.959
 179  1095.265
 180  999.4447
 181  1148.162
 182  1383.393
 183  1491.437
 184  1417.019
 185  1106.546
 186  1203.179
 187  1105.881
 188  1202.181
 189  1011.464
 190  1335.696
 191  1813.143
 192  1679.508
 193  1655.473
 194  1063.723
 195  873.0532
 196  954.7598
 197  1399.689
 198  1569.447
 199  1565.532
 200  1839.215
 201  1972.003
 202  1256.906
 203  831.5612
 204  1011.793
 205  858.4902
 206  438.755
 207  987.5643
 208  1575.912
 209  1682.241
 210  1480.629
 211  1060.804
 212  1177.245
 213  860.8581
 214  1083.933
 215  1613.896
 216  1389.235
 217  1206.251
 218  1150.863
 219  1128.396
 220  1004.375
 221  1028.035
 222  1345.022
 223  1798.075
 224  1781.017
 225  1550.97
 226  1389.33
 227  994.9493
 228  1037.89
 229  1068.616
 230  1070.674
 231  1279.205
 232  1478.019
 233  1833.876
 234  1443.055
 235  1115.582
 236  956.34
 237  868.3134
 238  771.4778
 239  978.8287
 240  1643.09
 241  1603.799
 242  1361.763
 243  1159.291
 244  1367.381
 245  1485.016
 246  967.0712
 247  1295.052
 248  1657.417
 249  1632.77
 250  1836.644
 251  1614.583
 252  1474.329
 253  1465.142
 254  1268.077
 255  1395.953
 256  1586.676
 257  1642.875
 258  1414.973
 259  1372.845
 260  1434.115
 261  1187.448
 262  985.9895
 263  852.3821
 264  1232.992
 265  1666.401
 266  1987.056
 267  1547.705
 268  1168.324
 269  1013.693
 270  870.2983
 271  882.9717
 272  1166.813
 273  1369.609
 274  1492.69
 275  1431.07
 276  1349.709
 277  966.64
 278  935.7351
 279  1212.432
 280  1415.181
 281  1543.595
 282  1541.533
 283  1801.285
 284  1541.716
 285  1238.324
 286  1007.332
 287  1198.831
 288  1480.321
 289  1379.981
 290  1335.522
 291  1773.082
 292  1534.661
 293  798.5741
 294  841.3754
 295  1226.646
 296  1486.108
 297  1266.977
 298  1641.06
 299  1576.681
 300  1079.193
 301  869.7078
 302  744.1441
 303  896.7797
 304  1383.52
 305  1873.37
 306  2356.529
 307  2969.274
 308  3105.704
 309  2771.621
 310  2253.632
 311  1902.965
 312  1272.043
 313  1082.222
 314  1543.804
 315  1748.466
 316  1684.557
 317  1379.189
 318  1300.761
 319  1477.952
 320  1393.818
 321  1437.247
 322  1846.758
 323  1928.344
 324  1584.181
 325  1239.947
 326  802.3797
 327  983.606
 328  1106.874
 329  1036.449
 330  1239.123
 331  1132.363
 332  1315.584
 333  1208.612
 334  703.0968
 335  611.0371
 336  888.1895
 337  1235.217
 338  1245.728
 339  1250.548
 340  1646.409
 341  1482.792
 342  918.9686
 343  1191.154
 344  1367.856
 345  859.5715
 346  759.6206
 347  1456.237
 348  1745.574
 349  1721.663
 350  1574.211
 351  1213.68
 352  869.1328
 353  808.1857
 354  1224.196
 355  1221.255
 356  1256.947
 357  1590.728
 358  1636.8
 359  1413.616
 360  1081.611
 361  1211.922
 362  1072.773
 363  1553.298
 364  1774.883
 365  1614.344
 366  1520.392
 367  1337.399
 368  1293.272
 369  1162.036
 370  1282.228
 371  1191.657
 372  1140.672
 373  1316.728
 374  1367.504
 375  1026.018
 376  895.399
 377  1214.344
 378  1347.936
 379  1385.647
 380  1727.284
 381  1680.048
 382  1645.141
 383  1122.27
 384  993.4246
 385  1206.211
 386  1361.423
 387  1410.525
 388  1474.267
 389  1571.246
 390  1957.159
 391  1773.392
 392  1193.131
 393  1302.757
 394  1288.039
 395  1563.202
 396  1741.613
 397  1709.81
 398  1638.258
 399  1467.432
 400  1045.927
 401  1057.227
 402  1419.695
 403  1622.19
 404  1477.6
 405  1626.415
 406  1458.496
 407  1420.924
 408  1122.484
 409  860.108
 410  746.273
 411  904.6293
 412  1288.83
 413  1316.759
 414  1496.501
 415  1888.503
 416  1400.731
 417  915.3523
 418  753.942
 419  666.7446
 420  1031.593
 421  1531.275
 422  1745.449
 423  1576.752
 424  1586.054
 425  1220.441
 426  893.4316
 427  719.2659
 428  1227.098
 429  1547.194
 430  1600.822
 431  1624.634
 432  1721.809
 433  1425.556
 434  952.4584
 435  695.6989
 436  939.6882
 437  1016.997
 438  1068.437
 439  1646.944
 440  1574.815
 441  1424.23
 442  912.6368
 443  981.7919
 444  1193.51
 445  1219.47
 446  1405.082
 447  1555.208
 448  1560.122
 449  1349.419
 450  1080.467
 451  1047.234
 452  1133.079
 453  1314.156
 454  1319.65
 455  1340.604
 456  1451.599
 457  1533.705
 458  1274.786
 459  1049.053
 460  1218.629
 461  1512.837
 462  1404.168
 463  1659.797
 464  1761.353
 465  1986.505
 466  1613.539
 467  973.8368
 468  1106.953
 469  1693.413
 470  1671.385
 471  1482.683
 472  1617.08
 473  1454.114
 474  1143.148
 475  1200.94
 476  1225.844
 477  1084.752
 478  1428.17
 479  1508.201
 480  1555.464
 481  1546.901
 482  1285.57
 483  907.3492
 484  957.4871
 485  1094.25
 486  1213.197
 487  1809.351
 488  1736.577
 489  1656.625
 490  1588.243
 491  1447.701
 492  1212.473
 493  1366.75
 494  1670.166
 495  1532.297
 496  1554.238
 497  1799.805
 498  1988.2
 499  1455.851
 500  1203.203
 501  1252.908
 502  1222.974
 503  1032.433
 504  1488.838
 505  1702.64
 506  1638.933
 507  1454.995
 508  1101.903
 509  1096.544
 510  1340.273
 511  943.3982
