# Input file       =  1200772773.113199_cleaned.dat
# Candidate        =  PSR_0332+5434
# Telescope        =  AR
# Epoch_topo       =  58141.833242050918
# Epoch_bary       =  N/A
# T_sample         =  0.002
# Data Folded      =  7340032
# Data Avg         =  0.0661826556405068
# Data StdDev      =  0.99985667560902 
# Profile Bins     =  512
# Profile Avg      =  948.786347558949 
# Profile StdDev   =  119.715875712247 
# Reduced chi-sqr  =  0.787
# Prob(Noise)      <  1   (~0.0 sigma)
# P_topo (ms)      =  714.572349267451  +/- 8.53e-05
# P'_topo (s/s)    =  -0                +/- 4.5e-11
# P''_topo (s/s^2) =  0                 +/- 1.99e-14
# P_bary (ms)      =  N/A
# P'_bary (s/s)    =  N/A
# P''_bary (s/s^2) =  N/A
# P_orb (s)        =  N/A
# asin(i)/c (s)    =  N/A
# eccentricity     =  N/A
# w (rad)          =  N/A
# T_peri           =  N/A
######################################################
   0  1019.98
   1  932.0593
   2  930.9418
   3  951.6408
   4  1032.914
   5  969.5117
   6  973.9333
   7  932.1171
   8  819.9101
   9  896.0953
  10  911.8713
  11  886.7636
  12  889.351
  13  841.6168
  14  894.7061
  15  875.0271
  16  894.4308
  17  959.7294
  18  856.8683
  19  861.1919
  20  806.9488
  21  884.6887
  22  966.4605
  23  929.6077
  24  986.3968
  25  906.3937
  26  906.3978
  27  931.5354
  28  1012.431
  29  950.2723
  30  917.6447
  31  979.1314
  32  937.8393
  33  936.0961
  34  897.7897
  35  958.5701
  36  934.394
  37  943.1293
  38  867.5005
  39  902.4059
  40  1010.666
  41  940.8029
  42  922.4134
  43  1021.965
  44  957.8785
  45  879.4506
  46  898.962
  47  915.542
  48  927.1859
  49  965.9449
  50  1001.869
  51  863.2095
  52  764.4745
  53  873.126
  54  1021.211
  55  998.2838
  56  910.0727
  57  949.4639
  58  963.5079
  59  868.0851
  60  868.7196
  61  872.5004
  62  908.6968
  63  847.1373
  64  919.0386
  65  883.4739
  66  877.2452
  67  866.1675
  68  960.9879
  69  975.9449
  70  931.4751
  71  965.5347
  72  861.8509
  73  936.8464
  74  1036.876
  75  974.0535
  76  936.2704
  77  967.4344
  78  915.073
  79  837.2975
  80  812.2059
  81  821.1299
  82  957.5986
  83  991.3586
  84  805.0508
  85  911.6235
  86  932.7629
  87  917.0782
  88  873.5308
  89  823.461
  90  845.0021
  91  857.7906
  92  936.4282
  93  922.5054
  94  868.6706
  95  848.5089
  96  819.9247
  97  910.6198
  98  853.3161
  99  867.9611
 100  899.7604
 101  920.097
 102  883.0881
 103  901.618
 104  987.725
 105  970.9423
 106  907.8509
 107  929.8973
 108  863.2294
 109  805.8195
 110  823.863
 111  874.4805
 112  865.4802
 113  777.7531
 114  846.6903
 115  855.9037
 116  846.0632
 117  921.8179
 118  911.6328
 119  914.0084
 120  896.2626
 121  928.0151
 122  915.7896
 123  879.1994
 124  793.2321
 125  846.3212
 126  912.5416
 127  912.8878
 128  962.5828
 129  992.6553
 130  955.1407
 131  1044.175
 132  1048.573
 133  1023.924
 134  989.0959
 135  1023.136
 136  952.1343
 137  937.6391
 138  954.3333
 139  939.6272
 140  884.7638
 141  808.7884
 142  943.844
 143  1106.306
 144  1098.409
 145  1130.259
 146  1087.233
 147  1063.758
 148  1139.486
 149  1242.926
 150  1413.467
 151  1353.075
 152  1307.7
 153  1197.712
 154  1051.305
 155  990.6955
 156  1017.049
 157  1047.74
 158  1113.244
 159  941.2871
 160  1034.795
 161  1032.782
 162  1006.218
 163  984.2805
 164  1031.833
 165  923.955
 166  900.2894
 167  978.1504
 168  924.4038
 169  1000.23
 170  1022.771
 171  947.3646
 172  942.1146
 173  923.0139
 174  925.2861
 175  954.8281
 176  901.9604
 177  894.0024
 178  884.1636
 179  948.5277
 180  1012.4
 181  908.8716
 182  965.1435
 183  1002.875
 184  911.9814
 185  1005.083
 186  987.1766
 187  905.6287
 188  965.9615
 189  995.2449
 190  856.9812
 191  884.7343
 192  915.0189
 193  1006.285
 194  864.0649
 195  883.2543
 196  913.4668
 197  1022.023
 198  1062.585
 199  931.3551
 200  914.6912
 201  946.1807
 202  878.3398
 203  855.335
 204  940.2357
 205  967.8955
 206  926.8611
 207  947.5758
 208  977.3448
 209  949.78
 210  852.0991
 211  916.631
 212  1021.427
 213  1017.402
 214  968.9979
 215  1029.857
 216  1039.769
 217  995.5523
 218  898.4516
 219  915.976
 220  895.1037
 221  962.1085
 222  933.0709
 223  940.9973
 224  909.0581
 225  845.7095
 226  933.5037
 227  920.6039
 228  991.0242
 229  979.8631
 230  1044.467
 231  981.6042
 232  843.3235
 233  877.8311
 234  900.1564
 235  885.6045
 236  1112.583
 237  1009.033
 238  823.8184
 239  850.8366
 240  972.928
 241  854.2663
 242  856.1702
 243  959.5701
 244  1102.654
 245  1014.634
 246  933.5233
 247  946.105
 248  1056.135
 249  1039.525
 250  968.5444
 251  1032.23
 252  1067.167
 253  1034.792
 254  1085.123
 255  948.5858
 256  793.1548
 257  850.2534
 258  870.5739
 259  902.2869
 260  929.9295
 261  1018.627
 262  1038.271
 263  1048.584
 264  980.6843
 265  950.9003
 266  1009.317
 267  978.5802
 268  939.6012
 269  978.0202
 270  923.5848
 271  999.3185
 272  1064.288
 273  923.3442
 274  878.6212
 275  941.2658
 276  913.6421
 277  934.5913
 278  922.8538
 279  957.6185
 280  958.8962
 281  931.9103
 282  974.7962
 283  955.9563
 284  944.0634
 285  896.189
 286  938.4021
 287  921.1669
 288  944.5574
 289  947.584
 290  935.0667
 291  963.3146
 292  897.1627
 293  1012.572
 294  900.1948
 295  755.1469
 296  861.2784
 297  894.8456
 298  854.9754
 299  839.1654
 300  907.2739
 301  894.1977
 302  860.3318
 303  872.3719
 304  912.5547
 305  956.7053
 306  892.5217
 307  911.3555
 308  915.7459
 309  932.9111
 310  975.4396
 311  994.7504
 312  994.7798
 313  906.9312
 314  894.0311
 315  892.0662
 316  895.3941
 317  864.7788
 318  997.2529
 319  1009.548
 320  950.1763
 321  989.5209
 322  911.1204
 323  993.8238
 324  916.6105
 325  915.8127
 326  923.7722
 327  930.6447
 328  980.7592
 329  951.8139
 330  899.4942
 331  883.7197
 332  1028.933
 333  1102.03
 334  1037.839
 335  979.4564
 336  997.2659
 337  874.3848
 338  852.2543
 339  898.441
 340  923.3704
 341  950.6434
 342  922.3199
 343  872.3375
 344  870.932
 345  951.1727
 346  982.9861
 347  1030.589
 348  1017.846
 349  981.8252
 350  965.657
 351  896.7097
 352  845.0124
 353  839.6774
 354  924.183
 355  1060.335
 356  958.702
 357  1030.364
 358  943.9385
 359  899.5025
 360  924.8445
 361  937.5776
 362  971.9057
 363  1000.613
 364  923.0844
 365  890.9135
 366  886.972
 367  870.4412
 368  885.6992
 369  871.7744
 370  899.2675
 371  1063.059
 372  994.9691
 373  1069.081
 374  1055.912
 375  904.9656
 376  912.4722
 377  925.153
 378  885.047
 379  883.881
 380  818.1967
 381  838.1089
 382  817.5632
 383  866.9925
 384  843.0066
 385  964.6248
 386  998.5242
 387  994.1369
 388  943.3991
 389  969.2136
 390  967.6178
 391  897.6429
 392  1015.101
 393  1019.946
 394  1015.754
 395  1021.292
 396  1009.604
 397  1068.236
 398  1104.969
 399  1041.048
 400  931.5219
 401  876.4041
 402  993.9935
 403  1028.832
 404  1104.561
 405  1061.765
 406  1005.842
 407  961.9676
 408  996.0839
 409  982.8782
 410  818.6798
 411  886.4284
 412  978.8638
 413  1023.861
 414  1010.434
 415  993.3268
 416  1055.976
 417  960.6104
 418  1008.18
 419  1045.475
 420  1029.405
 421  923.6521
 422  931.6716
 423  904.0632
 424  878.7622
 425  855.8026
 426  920.1929
 427  862.6181
 428  835.6223
 429  935.1809
 430  1112.415
 431  942.2822
 432  960.6478
 433  989.1624
 434  1044.408
 435  1008.244
 436  1062.885
 437  993.0153
 438  975.3978
 439  973.2731
 440  1019.044
 441  1071.555
 442  966.0137
 443  1010.204
 444  1043.463
 445  1052.878
 446  963.8254
 447  999.843
 448  1020.715
 449  966.8448
 450  924.3491
 451  990.5453
 452  926.1878
 453  1013.394
 454  1124.686
 455  1135.06
 456  1023.028
 457  1032.184
 458  997.5012
 459  983.1882
 460  970.0267
 461  1053.122
 462  1071.747
 463  990.998
 464  860.1106
 465  890.9908
 466  861.428
 467  801.9868
 468  914.5004
 469  1003.54
 470  937.2029
 471  1009.992
 472  936.9054
 473  954.192
 474  972.2325
 475  1004.57
 476  987.8509
 477  952.3436
 478  882.1335
 479  890.025
 480  952.1711
 481  979.4902
 482  970.6801
 483  1005.026
 484  981.7062
 485  990.3143
 486  1017.577
 487  930.5204
 488  976.2936
 489  983.157
 490  1022.822
 491  972.9997
 492  835.3202
 493  905.9821
 494  1018.234
 495  995.8245
 496  1024.21
 497  962.5484
 498  980.7075
 499  916.3333
 500  881.6765
 501  967.2476
 502  964.9041
 503  873.0881
 504  922.2942
 505  958.6178
 506  931.2283
 507  1025.361
 508  904.3287
 509  913.3229
 510  911.7329
 511  966.0584
