# Input file       =  1200341954.115353_cleaned.dat
# Candidate        =  PSR_0332+5434
# Telescope        =  AR
# Epoch_topo       =  58136.846911057328
# Epoch_bary       =  N/A
# T_sample         =  0.002
# Data Folded      =  7340032
# Data Avg         =  0.620612864355537
# Data StdDev      =  6.4784770668993  
# Profile Bins     =  512
# Profile Avg      =  8896.50545957258 
# Profile StdDev   =  775.687730317099 
# Reduced chi-sqr  =  0.821
# Prob(Noise)      <  0.999   (~0.0 sigma)
# P_topo (ms)      =  714.569433195288  +/- 2.19e-05
# P'_topo (s/s)    =  -0                +/- 1.15e-11
# P''_topo (s/s^2) =  0                 +/- 5.1e-15
# P_bary (ms)      =  N/A
# P'_bary (s/s)    =  N/A
# P''_bary (s/s^2) =  N/A
# P_orb (s)        =  N/A
# asin(i)/c (s)    =  N/A
# eccentricity     =  N/A
# w (rad)          =  N/A
# T_peri           =  N/A
######################################################
   0  8457.084
   1  8769.588
   2  8862.756
   3  9222.562
   4  8829.791
   5  8467.707
   6  8223.812
   7  9126.316
   8  8484.522
   9  8395.317
  10  8084.754
  11  8749.299
  12  9388.729
  13  8942.377
  14  8322.924
  15  8352.424
  16  8627.094
  17  8561.616
  18  8883.47
  19  8442.197
  20  8848.246
  21  9294.993
  22  9257.835
  23  8601.378
  24  8184.983
  25  8291.675
  26  8993.551
  27  9247.035
  28  9116.563
  29  9137.009
  30  9142.723
  31  8660.166
  32  8568.434
  33  7665.68
  34  8466.078
  35  8539.421
  36  8933.814
  37  8675.227
  38  8151.231
  39  7873.993
  40  8695.96
  41  8547.095
  42  8480.928
  43  8426.104
  44  9054.565
  45  9161.575
  46  9104.303
  47  7920.568
  48  8102.148
  49  8190.13
  50  8840.894
  51  8483.656
  52  8604.184
  53  8234.291
  54  8903.433
  55  9396.033
  56  9143.682
  57  9112.148
  58  8564.532
  59  8701.99
  60  8589.548
  61  8248.569
  62  8128.266
  63  9008.991
  64  9693.687
  65  9066.487
  66  8378.532
  67  8418.738
  68  8205.688
  69  8779.6
  70  8822.086
  71  8868.617
  72  8322.751
  73  9226.219
  74  8904.937
  75  8364.753
  76  7453.122
  77  7658.681
  78  8964.21
  79  9478.599
  80  8875.645
  81  8706.403
  82  8859.817
  83  9278.084
  84  9446.31
  85  9056.859
  86  8867.786
  87  9126.368
  88  8850.035
  89  9314.043
  90  8752.118
  91  8300.349
  92  8411.132
  93  9418.604
  94  8854.207
  95  8147.126
  96  8255.186
  97  8661.861
  98  8932.328
  99  9128.144
 100  8869.186
 101  8557.516
 102  9209.88
 103  9644.903
 104  9114.681
 105  8602.924
 106  8974.558
 107  9111.841
 108  9129.327
 109  8843.505
 110  8333.277
 111  8754.653
 112  9997.764
 113  9540.991
 114  8822.765
 115  8440.312
 116  9231.676
 117  9547.609
 118  8977.938
 119  8692.227
 120  9331.817
 121  9270.326
 122  8892.493
 123  8900.896
 124  8975.061
 125  9149.755
 126  9767.603
 127  9680.661
 128  9202.205
 129  7996.429
 130  8232.309
 131  8352.22
 132  9021.902
 133  8545.433
 134  8154.64
 135  8407.598
 136  9073.067
 137  8855.012
 138  8883.236
 139  8740.836
 140  9041.428
 141  9415.335
 142  9090.528
 143  8543.39
 144  8663.055
 145  9175.938
 146  8848.028
 147  9181.214
 148  8991.485
 149  8771.522
 150  8797.091
 151  9535.114
 152  9227.446
 153  8655.37
 154  8915.646
 155  9802.01
 156  9375.206
 157  8789.588
 158  8325.889
 159  8624.567
 160  8330.241
 161  8697.289
 162  8436.482
 163  8293.204
 164  8571.544
 165  8546.816
 166  7975.939
 167  8663.021
 168  8852.599
 169  9305.316
 170  9431.894
 171  9017.547
 172  8687.297
 173  8838.149
 174  8735.558
 175  9331.945
 176  8775.405
 177  8061.746
 178  8372.837
 179  9672.599
 180  9673.454
 181  8414.659
 182  8533.581
 183  9158.896
 184  9394.925
 185  8945.702
 186  8343.865
 187  7940.393
 188  8976.102
 189  9639.87
 190  9353.041
 191  8657.968
 192  8814.688
 193  8783.515
 194  8882.33
 195  8358.07
 196  8393.884
 197  8977.536
 198  9663.11
 199  9415.863
 200  8688.158
 201  8161.343
 202  8905.647
 203  9042.779
 204  9230.937
 205  8377.335
 206  8112.875
 207  8353.176
 208  9688.984
 209  9248.641
 210  8688.999
 211  8258.899
 212  8531.113
 213  8493.371
 214  8892.123
 215  8651.143
 216  8281.721
 217  8967.107
 218  9376.948
 219  8532.002
 220  8113.933
 221  8600.809
 222  9524.894
 223  9014.186
 224  9274.028
 225  8794.729
 226  9127.762
 227  9704.987
 228  9018.504
 229  9237.722
 230  8981.516
 231  9131.359
 232  8854.747
 233  8986.708
 234  8766.383
 235  8680.121
 236  8510.984
 237  9489.725
 238  9017.386
 239  8063.885
 240  8304.207
 241  9647.271
 242  9781.458
 243  9162.009
 244  8563.496
 245  8930.925
 246  8813.604
 247  9047.041
 248  8861.564
 249  8470.831
 250  8345.967
 251  9098.479
 252  9352.48
 253  9070.569
 254  8310.268
 255  8622.92
 256  9095.544
 257  8843.309
 258  8556.913
 259  8913.602
 260  8794.793
 261  8521.707
 262  8210.636
 263  8532.638
 264  8584.293
 265  9037.794
 266  8939.496
 267  8275.183
 268  8111.083
 269  8999.856
 270  9758.762
 271  9244.172
 272  8927.853
 273  8880.399
 274  8892.331
 275  8935.806
 276  9541.344
 277  9348.261
 278  8585.438
 279  8878.186
 280  9530.489
 281  9473.44
 282  9093.913
 283  9182.449
 284  9232.591
 285  9319.114
 286  8676.925
 287  8260.266
 288  9068.518
 289  9845.58
 290  9930.134
 291  9282.024
 292  8996.664
 293  8866.261
 294  9566.929
 295  9380.016
 296  9069.946
 297  8476.42
 298  9497.991
 299  9974.747
 300  9218.646
 301  8523.536
 302  8707.833
 303  9434.061
 304  9693.703
 305  9714.933
 306  9548.99
 307  10326.3
 308  11197.15
 309  11357.09
 310  10695.99
 311  9778.558
 312  9409.412
 313  9302.324
 314  8796.287
 315  8230.738
 316  7679.705
 317  8893.218
 318  9694.852
 319  10172.44
 320  8829.007
 321  8168.365
 322  9237.52
 323  9601.032
 324  8879.571
 325  8360.11
 326  8600.858
 327  8975.938
 328  8834.837
 329  9344.081
 330  8879.53
 331  8782.53
 332  9588.322
 333  9622.607
 334  8880.742
 335  9085.014
 336  9405.732
 337  9906.015
 338  9782.812
 339  9578.719
 340  9210.062
 341  9975.454
 342  10216.32
 343  9263.658
 344  8238.522
 345  9135.993
 346  10092.38
 347  9790.661
 348  8627.931
 349  8460.298
 350  8692.508
 351  8797.603
 352  8871.234
 353  8842.667
 354  8069.56
 355  8704.448
 356  9428.284
 357  9458.076
 358  8948.138
 359  8539.592
 360  9351.197
 361  9961.516
 362  9095.812
 363  8370.716
 364  7966.458
 365  8936.23
 366  9924.71
 367  9529.956
 368  8919.302
 369  8282.783
 370  10030.73
 371  9496.836
 372  8409.716
 373  7814.901
 374  8387.904
 375  8583.625
 376  8921.211
 377  8873.135
 378  8784.863
 379  9571.457
 380  9335.63
 381  8726.884
 382  8415.62
 383  8565.87
 384  8957.221
 385  9020.452
 386  9551.726
 387  8715.842
 388  8534.64
 389  8811.972
 390  9407.965
 391  8712.28
 392  8695.842
 393  8578.44
 394  8617.51
 395  8920.856
 396  8735.889
 397  9076.604
 398  8686.142
 399  9335.971
 400  9215.82
 401  8828.565
 402  8460.524
 403  9326.527
 404  9335.905
 405  9533.059
 406  8687.566
 407  8611.443
 408  9278.477
 409  9426.303
 410  8938.958
 411  8370.241
 412  8579.971
 413  9045.227
 414  8639.361
 415  8654.403
 416  8284.561
 417  8815.657
 418  8736.495
 419  9000.084
 420  8626.261
 421  8377.096
 422  8369.272
 423  8941.425
 424  8920.276
 425  8519.877
 426  7829.025
 427  8201.581
 428  9111.734
 429  8924.7
 430  9330.662
 431  8735.757
 432  8644.027
 433  9471.036
 434  8970.411
 435  8494.435
 436  8361.801
 437  9262.924
 438  9607.219
 439  8752.696
 440  8506.172
 441  8306.541
 442  8393.773
 443  8311.875
 444  8527.062
 445  8120.795
 446  8881.343
 447  9386.551
 448  9058.414
 449  8264.907
 450  8733.118
 451  9550.454
 452  9942.427
 453  8743.132
 454  8007.18
 455  7922.358
 456  8782.415
 457  8744.563
 458  8790.852
 459  8488.547
 460  8538.66
 461  8877.408
 462  8994.283
 463  8002.697
 464  7574.112
 465  8591.843
 466  9587.877
 467  9839.432
 468  9171.881
 469  8425.601
 470  8175.68
 471  8486.397
 472  9006.451
 473  8686.026
 474  8757.204
 475  9095.48
 476  9368.67
 477  8528.301
 478  8233.094
 479  8573.679
 480  9132.059
 481  9300.604
 482  8814.99
 483  8979.783
 484  8710.918
 485  9609.986
 486  9618.479
 487  8980.118
 488  8320.142
 489  8871.478
 490  9582.556
 491  9302.099
 492  8871.943
 493  8634.784
 494  8710.276
 495  9320.417
 496  8941.634
 497  9527.002
 498  8971.396
 499  9344.201
 500  9116.597
 501  9655.279
 502  8623.105
 503  8879.703
 504  8955.693
 505  9384.923
 506  8990.91
 507  8542.417
 508  8670.762
 509  8845.298
 510  9027.062
 511  9125.229
