# Input file       =  1200428131.111276_cleaned.dat
# Candidate        =  PSR_0332+5434
# Telescope        =  AR
# Epoch_topo       =  58137.844329991618
# Epoch_bary       =  N/A
# T_sample         =  0.002
# Data Folded      =  7340032
# Data Avg         =  0.130410254164807
# Data StdDev      =  3.9685307999269  
# Profile Bins     =  512
# Profile Avg      =  1869.61492532152 
# Profile StdDev   =  475.164242629964 
# Reduced chi-sqr  =  0.664
# Prob(Noise)      <  1   (~0.0 sigma)
# P_topo (ms)      =  714.57004936422   +/- 0.000826
# P'_topo (s/s)    =  -0                +/- 4.36e-10
# P''_topo (s/s^2) =  0                 +/- 1.92e-13
# P_bary (ms)      =  N/A
# P'_bary (s/s)    =  N/A
# P''_bary (s/s^2) =  N/A
# P_orb (s)        =  N/A
# asin(i)/c (s)    =  N/A
# eccentricity     =  N/A
# w (rad)          =  N/A
# T_peri           =  N/A
######################################################
   0  1900.969
   1  1739.629
   2  1810.473
   3  1911.062
   4  2015.193
   5  2067.869
   6  1906.547
   7  1999.152
   8  1969.426
   9  1764.983
  10  1832.21
  11  1805.327
  12  2050.98
  13  1926.614
  14  2078.402
  15  2287.736
  16  1943.857
  17  1844.303
  18  1872.884
  19  1880.145
  20  1764.035
  21  1700.237
  22  1738.419
  23  1892.641
  24  1712.672
  25  1842.778
  26  1953.515
  27  2076.62
  28  1975.463
  29  1996.298
  30  2310.627
  31  1996.224
  32  1940.351
  33  1840.611
  34  2052.372
  35  1937.47
  36  1825.328
  37  1973.215
  38  1500.879
  39  1541.842
  40  1988.667
  41  1835.084
  42  1884.469
  43  1851.807
  44  2017.068
  45  1894.403
  46  2014.813
  47  1915.254
  48  1766.879
  49  1846.29
  50  1862.403
  51  1777.425
  52  1851.035
  53  1881.693
  54  1604.478
  55  1884.123
  56  2386.337
  57  2247.023
  58  1860.807
  59  2105.736
  60  2004.714
  61  1880.114
  62  1863.112
  63  1699.722
  64  1776.277
  65  1775.537
  66  1747.977
  67  1542.104
  68  1789.355
  69  1715.232
  70  1770.417
  71  1668.386
  72  1526.467
  73  2020.342
  74  2023.244
  75  2139.182
  76  2164.95
  77  2210.843
  78  2149.098
  79  1930.469
  80  2092.226
  81  1844.956
  82  2066.411
  83  2011.953
  84  2053.822
  85  1836.798
  86  1622.223
  87  1789.592
  88  1736.886
  89  1625.48
  90  1516.044
  91  1565.897
  92  1554.264
  93  1677.959
  94  1808.415
  95  1716.673
  96  2056.008
  97  1972.683
  98  1564.291
  99  1535.673
 100  1748.996
 101  1907.709
 102  1758.37
 103  1687.713
 104  1554.333
 105  1746.079
 106  1815.49
 107  1764.276
 108  1529.904
 109  1792.179
 110  1823.582
 111  1561.389
 112  1646.076
 113  1663.418
 114  1976.195
 115  1797.62
 116  1866.49
 117  2102.906
 118  1943.809
 119  1753.541
 120  1920.524
 121  2270.053
 122  1995.212
 123  1859.664
 124  2201.971
 125  2106.912
 126  1982.083
 127  2005.859
 128  2118.621
 129  2032.327
 130  1900.497
 131  2216.25
 132  2265.921
 133  2046.225
 134  2147.409
 135  1918.78
 136  1837.439
 137  2236.637
 138  2349.788
 139  2296.736
 140  2163.365
 141  1816.908
 142  1684.963
 143  1775.167
 144  1732.41
 145  1998.348
 146  2046.269
 147  1916.495
 148  2063.003
 149  2140.72
 150  2068.928
 151  1878.364
 152  2230.002
 153  2108.061
 154  2006.875
 155  2228.104
 156  2257.368
 157  2232.913
 158  2174.11
 159  2323.11
 160  2230.755
 161  2105.691
 162  1965.106
 163  1652.098
 164  1842.761
 165  1985.415
 166  1947.556
 167  2024.327
 168  2010.937
 169  2220.006
 170  2586.013
 171  3018.127
 172  3279.387
 173  3145.914
 174  2543.293
 175  2212.869
 176  2054.186
 177  2022.953
 178  2449.167
 179  2399.344
 180  2242.952
 181  2298.035
 182  1696.804
 183  1571.773
 184  1644.537
 185  2095.874
 186  2358.392
 187  1811.584
 188  1791.837
 189  1960.939
 190  1599.086
 191  1440.63
 192  1514.029
 193  1939.204
 194  1687.168
 195  1727.885
 196  2146.465
 197  2452.34
 198  2032.453
 199  2210.935
 200  2245.494
 201  2254.234
 202  2018.278
 203  1639.435
 204  2043.229
 205  2159.557
 206  2144.133
 207  2098.095
 208  1765.773
 209  1804.549
 210  1783.28
 211  1607.196
 212  1800.566
 213  2132.482
 214  1906.86
 215  1949.609
 216  1693.329
 217  1517.478
 218  1536.339
 219  1716.763
 220  1713.411
 221  1845.642
 222  2063.786
 223  2006.822
 224  1718.824
 225  1807.293
 226  1462.234
 227  1276.533
 228  1456.867
 229  1752.842
 230  1947.851
 231  2053.826
 232  2009.59
 233  2084.73
 234  1887.964
 235  1705.132
 236  1782.917
 237  2158.668
 238  2318.249
 239  2219.07
 240  1957.568
 241  1724.815
 242  1835.913
 243  1904.784
 244  1697.891
 245  1727.365
 246  1553.023
 247  1636.443
 248  1874.031
 249  1905.134
 250  2276.257
 251  1998.485
 252  1760.16
 253  1359.503
 254  1446.329
 255  1610.447
 256  1781.791
 257  2163.885
 258  2095.672
 259  1817.39
 260  1940.447
 261  1759.01
 262  1398.907
 263  1475.958
 264  1723.777
 265  1942.425
 266  1714.126
 267  1499.119
 268  1675.397
 269  1642.631
 270  1557.664
 271  1405.556
 272  1438.696
 273  1348.224
 274  1221.061
 275  1310.185
 276  1255.433
 277  1586.685
 278  1547.766
 279  1605.018
 280  1375.079
 281  1781.146
 282  1845.863
 283  1555.104
 284  1671.88
 285  1532.912
 286  1618.932
 287  1671.829
 288  1527.053
 289  1268.685
 290  1631.649
 291  1525.63
 292  1486.396
 293  1395.851
 294  1500.545
 295  1623.776
 296  1539.695
 297  1361.594
 298  1618.633
 299  1634.349
 300  1285.699
 301  1469.261
 302  1659.648
 303  1694.576
 304  1563.415
 305  1687.778
 306  1599.836
 307  1431.5
 308  1458.592
 309  1549.2
 310  1468.528
 311  1595.904
 312  1752.898
 313  1856.668
 314  1724.274
 315  1466.461
 316  1317.239
 317  1499.922
 318  1820.662
 319  1553.115
 320  1702.496
 321  1704.86
 322  1585.971
 323  1552.427
 324  1590.913
 325  1722.85
 326  1521.337
 327  1522.71
 328  1475.221
 329  1764.922
 330  1867.473
 331  1837.217
 332  1853.467
 333  1540.971
 334  1698.492
 335  1765.253
 336  1738.932
 337  1464.479
 338  1815.017
 339  2150.01
 340  1788.806
 341  1586.199
 342  1919.786
 343  1906.737
 344  1821.038
 345  2062.644
 346  1847.346
 347  1648.948
 348  1689.529
 349  1642.116
 350  1310.854
 351  1434.884
 352  1561.599
 353  1687.709
 354  1560.184
 355  1586.47
 356  1513.935
 357  1498.675
 358  1786.738
 359  1616.007
 360  1770.057
 361  1427.805
 362  1343.177
 363  1856.729
 364  2057.902
 365  1965.439
 366  1763.789
 367  1438.65
 368  1831.915
 369  1559.508
 370  1466.077
 371  1546.84
 372  1906.015
 373  2152.491
 374  2185.252
 375  1871.996
 376  1804.45
 377  1732.455
 378  1936.924
 379  2206.372
 380  2066.104
 381  2036.367
 382  2088.61
 383  1703.39
 384  1789.869
 385  1843.821
 386  1875.326
 387  1895.241
 388  1784.542
 389  1432.925
 390  1485.976
 391  1684.587
 392  1936.157
 393  2013.359
 394  1581.905
 395  1526.865
 396  1573.271
 397  1848.995
 398  1634.139
 399  1540.224
 400  1923.396
 401  2060.935
 402  2019.392
 403  2008.499
 404  2064.877
 405  1819.795
 406  1999.137
 407  2325.948
 408  2046.077
 409  2105.892
 410  2026.061
 411  2426.025
 412  2268.676
 413  1966.144
 414  2167.804
 415  2327.387
 416  1973.151
 417  1987.567
 418  2161.795
 419  2525.896
 420  2562.528
 421  2339.825
 422  2435.406
 423  2455.52
 424  2604.334
 425  2200.461
 426  1924.749
 427  1709.871
 428  2109.531
 429  2294.801
 430  2298.772
 431  2223.196
 432  2469.376
 433  2460.369
 434  1795.948
 435  1697.229
 436  2097.873
 437  1861.19
 438  1824.693
 439  1897.437
 440  1867.093
 441  1643.034
 442  1777.092
 443  2042.288
 444  2045.478
 445  1554.834
 446  1381.605
 447  1480.779
 448  1529.599
 449  1648.954
 450  1858.766
 451  2066.492
 452  2229.673
 453  2038.153
 454  2088.014
 455  1808.157
 456  1770.618
 457  2120.941
 458  1980.306
 459  2028.451
 460  2052.741
 461  2018.136
 462  1843.824
 463  1778.596
 464  1885.881
 465  2133.518
 466  2327.034
 467  2301.01
 468  1895.332
 469  1903.532
 470  1934.295
 471  1981.23
 472  2161.064
 473  1754.837
 474  1613.141
 475  1777.208
 476  1858.046
 477  2048.274
 478  1842.599
 479  2163.191
 480  1805.688
 481  1964.382
 482  1968.526
 483  2153.151
 484  2007.997
 485  1833.898
 486  1882.154
 487  1841.292
 488  1679.15
 489  1757.413
 490  1904.951
 491  1712.548
 492  1994.454
 493  2122.706
 494  1899.379
 495  1526.729
 496  1667.246
 497  1987.455
 498  1564.021
 499  1978.766
 500  1998.304
 501  1972.998
 502  1718.647
 503  1857.751
 504  1799.375
 505  2249.552
 506  2368.139
 507  2421.646
 508  2547.334
 509  2402.552
 510  2178.408
 511  1764.178
