# Input file       =  1200671680.103016_cleaned.dat
# Candidate        =  PSR_0332+5434
# Telescope        =  AR
# Epoch_topo       =  58140.663184062687
# Epoch_bary       =  N/A
# T_sample         =  0.002
# Data Folded      =  7340032
# Data Avg         =  0.151392929280908
# Data StdDev      =  6.15725574861398 
# Profile Bins     =  1024
# Profile Avg      =  1084.69691055898 
# Profile StdDev   =  521.298159022573 
# Reduced chi-sqr  =  0.577
# Prob(Noise)      <  1   (~0.0 sigma)
# P_topo (ms)      =  714.571366424487  +/- 0.000139
# P'_topo (s/s)    =  -0                +/- 7.31e-11
# P''_topo (s/s^2) =  0                 +/- 3.23e-14
# P_bary (ms)      =  N/A
# P'_bary (s/s)    =  N/A
# P''_bary (s/s^2) =  N/A
# P_orb (s)        =  N/A
# asin(i)/c (s)    =  N/A
# eccentricity     =  N/A
# w (rad)          =  N/A
# T_peri           =  N/A
######################################################
   0  1027.369
   1  851.7885
   2  828.0166
   3  1106.103
   4  1157.585
   5  1154.981
   6  960.4014
   7  1022.142
   8  1190.646
   9  1195.137
  10  1297.21
  11  1218.478
  12  1105.236
  13  1105.244
  14  1088.42
  15  999.5745
  16  982.0396
  17  895.4391
  18  936.2343
  19  932.4498
  20  1000.193
  21  1040.032
  22  1054.101
  23  1184.647
  24  1354.314
  25  1299.354
  26  1241.486
  27  1183.595
  28  1067.918
  29  1059.878
  30  986.2654
  31  1026.047
  32  1102.82
  33  965.6097
  34  1117.367
  35  1227.507
  36  1283.134
  37  1188.101
  38  1115.174
  39  1228.953
  40  1366.545
  41  1314.705
  42  1409.08
  43  1159.08
  44  1128.4
  45  934.7031
  46  1063.495
  47  1121.77
  48  1225.676
  49  1207.098
  50  1425.674
  51  1448.686
  52  1517.836
  53  1515.648
  54  1216.522
  55  1002.143
  56  752.0109
  57  728.2742
  58  810.9033
  59  954.5537
  60  1241.839
  61  1309.431
  62  1210.404
  63  1292.186
  64  1381.478
  65  1406.285
  66  1357.451
  67  1116.603
  68  1105.248
  69  936.0311
  70  1026.506
  71  1060.607
  72  1047.676
  73  1120.729
  74  1217.164
  75  1234.634
  76  1190.411
  77  1152.888
  78  1262.568
  79  1262.532
  80  1328.855
  81  1387.979
  82  1318.798
  83  1192.5
  84  1136.368
  85  1133.722
  86  1215.699
  87  1140.266
  88  1078.182
  89  1079.898
  90  1101.337
  91  1138.449
  92  1133.418
  93  903.1964
  94  910.9511
  95  951.7121
  96  1138.863
  97  1102.786
  98  923.0987
  99  1116.851
 100  1012.015
 101  932.1608
 102  840.2016
 103  1061.565
 104  962.4056
 105  844.4111
 106  773.5302
 107  828.9828
 108  853.0828
 109  963.0147
 110  955.1751
 111  899.7101
 112  725.0738
 113  773.215
 114  716.7963
 115  848.8545
 116  787.7888
 117  909.4176
 118  907.1613
 119  847.6249
 120  766.4885
 121  716.6025
 122  797.8509
 123  884.8969
 124  1085.878
 125  1265.936
 126  1170.848
 127  1002.45
 128  1086.903
 129  1211.731
 130  1392.793
 131  1374.677
 132  1218.514
 133  1111.542
 134  987.4271
 135  880.2046
 136  1026.73
 137  1029.775
 138  1210.237
 139  1082.907
 140  985.2917
 141  872.538
 142  851.5421
 143  869.517
 144  908.2684
 145  1024.816
 146  1264.769
 147  1244.906
 148  1052.911
 149  1102.543
 150  1112.667
 151  1117.75
 152  1128.787
 153  1144.41
 154  1219.859
 155  1103.066
 156  1154.025
 157  1159.186
 158  1283.883
 159  1398.076
 160  1473.109
 161  1393.544
 162  1351.927
 163  1157.68
 164  1112.384
 165  1043.67
 166  1199.21
 167  1331.988
 168  1448.543
 169  1503.301
 170  1422.617
 171  1268.568
 172  1220.317
 173  1358.77
 174  1317.701
 175  1300.221
 176  1135.947
 177  1125.328
 178  1146.821
 179  1267.969
 180  1485.214
 181  1498.317
 182  1400.747
 183  1353.838
 184  1253.491
 185  1253.315
 186  1181.247
 187  1209.942
 188  1327.548
 189  1248.037
 190  1232.279
 191  1273.87
 192  1295.165
 193  1308.994
 194  1238.241
 195  1299.175
 196  1155.026
 197  981.1945
 198  991.8865
 199  1110.491
 200  1017.512
 201  1209.464
 202  1278.095
 203  1326.305
 204  1286.28
 205  1185.358
 206  1377.485
 207  1500.4
 208  1492.297
 209  1477.339
 210  1379.061
 211  1311.215
 212  1144.459
 213  1048.665
 214  1122.32
 215  1090.501
 216  1080.078
 217  1101.563
 218  1137.823
 219  1274.145
 220  1429.177
 221  1357.437
 222  1316.081
 223  1225.046
 224  1280.079
 225  1252.288
 226  1145.323
 227  1219.464
 228  1169.181
 229  1112.294
 230  1159.439
 231  1107.486
 232  1120.175
 233  1033.997
 234  1094.909
 235  998.4724
 236  1001.65
 237  1003.511
 238  1119.432
 239  1052.008
 240  1331.767
 241  1294.173
 242  1269.569
 243  1077.431
 244  1081.327
 245  1121.533
 246  1110.517
 247  1144.79
 248  1151.319
 249  1065.575
 250  983.8443
 251  909.062
 252  867.9674
 253  956.1757
 254  1092.666
 255  1047.02
 256  969.8721
 257  949.8195
 258  876.8223
 259  960.715
 260  862.3992
 261  915.9937
 262  880.911
 263  990.1008
 264  1016.215
 265  971.1685
 266  1077.977
 267  1091.766
 268  1200.492
 269  1251.982
 270  1030.741
 271  1051.325
 272  911.4235
 273  828.5158
 274  819.2552
 275  860.5842
 276  894.1687
 277  874.0531
 278  751.6141
 279  857.9016
 280  741.3079
 281  843.9609
 282  814.2966
 283  783.0779
 284  875.3431
 285  965.7038
 286  887.3036
 287  884.2014
 288  691.2363
 289  759.2278
 290  795.2754
 291  776.6735
 292  850.0019
 293  803.9937
 294  664.4999
 295  541.2476
 296  555.9724
 297  779.7748
 298  916.6535
 299  1038.842
 300  1214.152
 301  1105.44
 302  981.7966
 303  849.3787
 304  720.8283
 305  677.1949
 306  769.3605
 307  879.2035
 308  886.4971
 309  851.3918
 310  950.7419
 311  925.7796
 312  997.8769
 313  1027.642
 314  1119.814
 315  1067.913
 316  988.1731
 317  784.1251
 318  764.1988
 319  711.9211
 320  709.3209
 321  978.5153
 322  1104.063
 323  1168.026
 324  1130.799
 325  1140.729
 326  1252.866
 327  1240.321
 328  1222.548
 329  1076.85
 330  880.9762
 331  883.119
 332  828.2532
 333  743.2095
 334  745.0447
 335  600.5203
 336  662.5312
 337  768.771
 338  911.2794
 339  1078.808
 340  977.1286
 341  886.3403
 342  775.4392
 343  856.0538
 344  1030.596
 345  984.43
 346  866.2725
 347  901.457
 348  858.6623
 349  935.1712
 350  1016.123
 351  1060.926
 352  1224.989
 353  1048.43
 354  1146.185
 355  1210.481
 356  1027.402
 357  1145.658
 358  1149.275
 359  1149.962
 360  945.2962
 361  838.371
 362  1002.684
 363  1158.689
 364  1026.11
 365  1186.895
 366  1054.366
 367  1129.762
 368  1200.134
 369  1099.95
 370  1001.46
 371  834.844
 372  738.6805
 373  814.5706
 374  809.9751
 375  914.1398
 376  924.8902
 377  733.2382
 378  602.1451
 379  582.2107
 380  603.8198
 381  883.5337
 382  980.1228
 383  1224.005
 384  1124.164
 385  905.1052
 386  939.5096
 387  777.2114
 388  871.0002
 389  869.3972
 390  1018.752
 391  987.3157
 392  924.6398
 393  918.6223
 394  1157.411
 395  1214.461
 396  1184.521
 397  1087.01
 398  1040.546
 399  1009.262
 400  904.9957
 401  1008.505
 402  1061.451
 403  1085.534
 404  1243.579
 405  1278.006
 406  1298.572
 407  1257.568
 408  1190.353
 409  1271.044
 410  1255.204
 411  1109.568
 412  1022.367
 413  937.025
 414  997.7021
 415  907.3315
 416  1012.09
 417  1136.918
 418  1515.796
 419  1726.381
 420  1848.279
 421  1618.319
 422  1629.335
 423  1663.561
 424  1564.011
 425  1574.884
 426  1341.47
 427  1172.533
 428  885.7999
 429  787.67
 430  882.6324
 431  1197.279
 432  1324.13
 433  1498.588
 434  1436.466
 435  1508.287
 436  1389.667
 437  1399.921
 438  1441.95
 439  1294.67
 440  1106.678
 441  1020.077
 442  900.8597
 443  1023.85
 444  1202.675
 445  1216.55
 446  1146.182
 447  1121.089
 448  1051.813
 449  988.6777
 450  868.1242
 451  920.8334
 452  931.4075
 453  1064.599
 454  1255.214
 455  1268.022
 456  1249.283
 457  1251.232
 458  1186.038
 459  1276.058
 460  1169.279
 461  1129.004
 462  1035.472
 463  831.6816
 464  954.3447
 465  979.8409
 466  971.4977
 467  917.0625
 468  951.3494
 469  1004.41
 470  1037.36
 471  1006.96
 472  1193.636
 473  1201.662
 474  1304.74
 475  1283.851
 476  1270.07
 477  1225.744
 478  1166.284
 479  1027.153
 480  1065.671
 481  1002.402
 482  1051.628
 483  995.4345
 484  887.8527
 485  920.3756
 486  985.7111
 487  1040.539
 488  1078.696
 489  1040.851
 490  1051.874
 491  1022.413
 492  1055.673
 493  1166.149
 494  1159.438
 495  1276.598
 496  1283.696
 497  1067.936
 498  1123.062
 499  1171.48
 500  1296.974
 501  1243.516
 502  1246.785
 503  1172.851
 504  992.0129
 505  781.6858
 506  690.4866
 507  647.3795
 508  793.3929
 509  778.8344
 510  650.9496
 511  726.0559
 512  776.4026
 513  895.3967
 514  852.42
 515  998.3788
 516  1098.846
 517  936.0378
 518  512.1404
 519  563.4486
 520  558.2355
 521  643.3312
 522  697.8413
 523  688.9305
 524  606.254
 525  456.0825
 526  618.6827
 527  803.8644
 528  818.0735
 529  887.0764
 530  813.7599
 531  736.6774
 532  716.6915
 533  848.14
 534  928.4036
 535  929.3992
 536  939.0739
 537  1014.382
 538  972.8792
 539  816.2243
 540  909.2546
 541  878.3701
 542  878.7652
 543  679.8587
 544  760.2535
 545  938.9633
 546  846.2231
 547  698.277
 548  757.6182
 549  767.7701
 550  1064.18
 551  1091.952
 552  974.4915
 553  725.7839
 554  624.943
 555  828.6357
 556  1072.403
 557  901.1715
 558  648.0551
 559  478.7025
 560  703.4797
 561  831.1362
 562  710.7241
 563  805.5281
 564  908.287
 565  977.2875
 566  1058.6
 567  958.7455
 568  898.9581
 569  1032.195
 570  1149.527
 571  1233.98
 572  1131.064
 573  1043.469
 574  1024.34
 575  850.3273
 576  801.2833
 577  671.8879
 578  729.7278
 579  881.6334
 580  1115.095
 581  1219.799
 582  1217.513
 583  1130.746
 584  1079.63
 585  1014.726
 586  1054.865
 587  1134.804
 588  1103.996
 589  1009.029
 590  891.0297
 591  810.5312
 592  881.5652
 593  1009.837
 594  1042.088
 595  729.3101
 596  587.9066
 597  732.5912
 598  985.184
 599  1034.362
 600  1046.052
 601  1179.579
 602  1257.953
 603  1225.797
 604  1125.32
 605  1237.936
 606  1285.081
 607  1459.402
 608  1414.751
 609  1483.348
 610  1436.626
 611  1503.397
 612  1601.431
 613  1825.45
 614  1788.681
 615  1884.511
 616  1883.621
 617  1928.693
 618  1977.638
 619  1829.034
 620  1756.93
 621  1623.924
 622  1478.756
 623  1410.849
 624  1194.311
 625  1013.574
 626  929.5985
 627  979.6832
 628  1132.132
 629  1324.026
 630  1233.346
 631  1206.238
 632  1112.578
 633  1211.798
 634  1272.892
 635  1167.316
 636  1240.275
 637  1178.655
 638  1131.266
 639  990.6536
 640  963.9456
 641  889.442
 642  1031.13
 643  1074.292
 644  1353.12
 645  1298.408
 646  1398.562
 647  1415.615
 648  1254.935
 649  1193.362
 650  1086.602
 651  1076.769
 652  987.2786
 653  811.9115
 654  824.5513
 655  730.368
 656  694.3904
 657  766.4207
 658  1112.668
 659  1236.919
 660  1360.006
 661  1187.903
 662  1108.575
 663  1002.781
 664  990.9672
 665  1007.957
 666  851.7916
 667  875.9502
 668  803.4786
 669  758.5507
 670  809.1674
 671  925.6405
 672  1117.822
 673  1005.461
 674  1010.722
 675  1039.168
 676  1072.314
 677  1115.04
 678  1062.262
 679  1062.3
 680  1128.115
 681  1094.438
 682  1011.725
 683  1079.873
 684  1143.276
 685  1176.716
 686  1285.882
 687  1278.486
 688  1360.925
 689  1211.654
 690  1155.542
 691  1121.599
 692  1055.656
 693  1003.888
 694  900.6569
 695  923.8497
 696  1128.316
 697  1096.905
 698  1011.064
 699  1139.908
 700  1158.608
 701  1301.476
 702  1058.155
 703  1199.188
 704  1506.623
 705  1618.244
 706  1429.56
 707  1220.577
 708  1198.695
 709  1282.674
 710  1273.594
 711  1305.827
 712  1305.392
 713  1203.022
 714  1229.016
 715  1309.546
 716  1310.171
 717  1343.785
 718  1359.752
 719  1316.263
 720  1365.497
 721  1172.386
 722  1258.741
 723  1147.031
 724  1065.527
 725  857.4865
 726  650.6321
 727  874.8522
 728  1050.744
 729  1165.491
 730  1229.621
 731  1185.835
 732  1246.057
 733  1158.174
 734  1026.629
 735  1020.634
 736  1020.094
 737  997.2248
 738  1007.491
 739  980.3232
 740  1048.596
 741  1023.838
 742  1024.99
 743  1122.15
 744  1183.763
 745  1291.191
 746  1221.193
 747  1195.229
 748  1227.889
 749  1151.42
 750  1176.615
 751  1301.854
 752  1307.479
 753  1225.918
 754  1038.529
 755  1041.209
 756  990.4526
 757  914.5047
 758  941.7147
 759  1093.776
 760  1074.739
 761  1082.205
 762  937.7155
 763  860.713
 764  863.1678
 765  901.003
 766  1040.095
 767  1109.964
 768  1179.919
 769  1306.5
 770  1298.66
 771  1280.273
 772  1174.899
 773  1030.123
 774  1078.787
 775  1170.194
 776  1236.925
 777  1216.098
 778  1104.649
 779  1084.964
 780  977.3587
 781  975.2978
 782  1271.507
 783  1505.177
 784  1418.56
 785  1265.784
 786  1165.062
 787  1291.331
 788  1299.226
 789  1199.202
 790  1128.185
 791  1046.577
 792  978.4595
 793  908.4954
 794  799.535
 795  1000.932
 796  1081.867
 797  1173.02
 798  1258.653
 799  1258.688
 800  1292.014
 801  1212.655
 802  1171.867
 803  1108.016
 804  1030.482
 805  1047.698
 806  1095.513
 807  1010.015
 808  1027.8
 809  1221.332
 810  1336.552
 811  1164.335
 812  935.1062
 813  996.5455
 814  1232.546
 815  1272.204
 816  1442.999
 817  1486.876
 818  1461.84
 819  1308.964
 820  1183.758
 821  1151.914
 822  1066.31
 823  983.6904
 824  952.1007
 825  873.1957
 826  999.2372
 827  1063.078
 828  1042.963
 829  1195.805
 830  1218.119
 831  1250.306
 832  1115.594
 833  1059.933
 834  1067.415
 835  986.2762
 836  897.1275
 837  1048.037
 838  1161.386
 839  1191.909
 840  1111.559
 841  1169.904
 842  1367.71
 843  1338.844
 844  1374.265
 845  1367.468
 846  1220.832
 847  1285.585
 848  1171.257
 849  1305.818
 850  1274.516
 851  1251.719
 852  1143.155
 853  1039.771
 854  944.534
 855  1075.824
 856  1228.722
 857  1512.684
 858  1480.123
 859  1414.303
 860  1387.549
 861  1197.822
 862  1039.397
 863  1097.594
 864  1046.047
 865  991.5463
 866  844.4635
 867  893.0257
 868  984.3608
 869  1030.04
 870  1054.412
 871  1210.095
 872  1464.686
 873  1625.084
 874  1531.545
 875  1352.389
 876  1448.534
 877  1380.324
 878  1303.345
 879  1079.774
 880  975.097
 881  1182.55
 882  1187.906
 883  1245.872
 884  1222.944
 885  1051.654
 886  980.0712
 887  1059.921
 888  1230.247
 889  1229.983
 890  990.4606
 891  1050.592
 892  1246.739
 893  1282.572
 894  1151.524
 895  1059.488
 896  1084.346
 897  1093.426
 898  1134.765
 899  1333.731
 900  1360.931
 901  1226.068
 902  1122.57
 903  1200.106
 904  1190.406
 905  1214.872
 906  1292.322
 907  1321.838
 908  1214.28
 909  1019.814
 910  1172.404
 911  1278.854
 912  1603.993
 913  1497.057
 914  1376.605
 915  1283.866
 916  1267.421
 917  1242.208
 918  939.879
 919  751.4384
 920  964.1393
 921  1177.459
 922  1270.158
 923  1138.192
 924  1048.211
 925  1023.5
 926  1122.589
 927  1100.711
 928  1037.344
 929  857.3499
 930  960.6489
 931  1120.234
 932  1179.607
 933  1220.24
 934  1185.094
 935  1076.843
 936  1152.742
 937  1017.34
 938  1075.014
 939  955.2682
 940  1150.346
 941  1144.521
 942  965.1108
 943  856.9605
 944  873.2703
 945  992.1899
 946  964.9283
 947  970.1426
 948  974.1946
 949  885.5887
 950  870.0884
 951  902.608
 952  1082.3
 953  1191.524
 954  1324.81
 955  1223.172
 956  977.912
 957  904.9193
 958  862.7179
 959  980.7184
 960  953.2189
 961  1022.589
 962  917.5137
 963  830.2499
 964  785.863
 965  782.1058
 966  712.2505
 967  765.0335
 968  874.1232
 969  1134.294
 970  1158.036
 971  891.5624
 972  861.1953
 973  978.581
 974  1038.079
 975  1227.284
 976  1226.912
 977  1221.266
 978  1045.194
 979  906.7327
 980  845.8419
 981  655.0631
 982  777.4835
 983  882.5052
 984  874.7726
 985  718.271
 986  812.4257
 987  998.1371
 988  1422.321
 989  1444.186
 990  1394.851
 991  1071.298
 992  916.7017
 993  1031.44
 994  1057.916
 995  833.753
 996  677.2501
 997  687.8664
 998  881.4111
 999  856.0295
1000  834.987
1001  861.834
1002  984.9986
1003  1237.154
1004  1476.741
1005  1470.392
1006  1479.802
1007  1310.912
1008  1224.576
1009  1066.64
1010  913.33
1011  597.3233
1012  528.972
1013  561.6747
1014  690.6647
1015  807.7532
1016  1033.59
1017  1345.815
1018  1392.088
1019  1498.089
1020  1487.507
1021  1378.668
1022  1287.057
1023  976.9966
