# Input file       =  1200743205.114184_cleaned.dat
# Candidate        =  PSR_0332+5434
# Telescope        =  AR
# Epoch_topo       =  58141.491019840090
# Epoch_bary       =  N/A
# T_sample         =  0.002
# Data Folded      =  7208960
# Data Avg         =  0.0694957384860819
# Data StdDev      =  10.6774554277389 
# Profile Bins     =  1024
# Profile Avg      =  489.249997346131 
# Profile StdDev   =  895.888778284402 
# Reduced chi-sqr  =  1.128
# Prob(Noise)      <  0.0026   (~2.8 sigma)
# P_topo (ms)      =  714.571812690201  +/- 7.4e-05
# P'_topo (s/s)    =  -0                +/- 3.97e-11
# P''_topo (s/s^2) =  0                 +/- 1.79e-14
# P_bary (ms)      =  N/A
# P'_bary (s/s)    =  N/A
# P''_bary (s/s^2) =  N/A
# P_orb (s)        =  N/A
# asin(i)/c (s)    =  N/A
# eccentricity     =  N/A
# w (rad)          =  N/A
# T_peri           =  N/A
######################################################
   0  -278.2168
   1  -365.5627
   2  -408.4136
   3  -457.9933
   4  -332.818
   5  -133.4601
   6  -92.4272
   7  -41.64996
   8  149.7594
   9  588.4365
  10  822.1588
  11  624.2673
  12  378.0945
  13  307.0545
  14  160.553
  15  233.6908
  16  -193.2596
  17  -335.1382
  18  -542.1702
  19  -485.9429
  20  -248.7749
  21  -221.4258
  22  159.6182
  23  295.3021
  24  351.3527
  25  174.3901
  26  316.9048
  27  313.9813
  28  338.794
  29  552.5065
  30  647.0607
  31  256.5853
  32  -197.2866
  33  -391.7366
  34  -386.3468
  35  -328.5553
  36  150.3021
  37  691.2221
  38  823.2537
  39  972.8727
  40  1253.103
  41  1585.006
  42  1594.892
  43  2177.183
  44  2218.69
  45  2039.588
  46  1356.204
  47  1125.609
  48  950.4467
  49  867.6568
  50  1014.695
  51  944.4937
  52  1049.316
  53  1298.16
  54  1511.876
  55  1597.334
  56  1233.295
  57  1117.033
  58  1401.927
  59  1434.034
  60  965.1984
  61  589.8807
  62  675.478
  63  685.5309
  64  9.865967
  65  -256.1609
  66  -7.667709
  67  509.957
  68  935.4062
  69  976.8239
  70  905.1518
  71  452.7871
  72  274.2127
  73  120.5698
  74  548.3334
  75  586.1266
  76  616.3575
  77  565.434
  78  441.6711
  79  377.3027
  80  446.2726
  81  511.7753
  82  645.4792
  83  547.1414
  84  492.9937
  85  485.9734
  86  522.5033
  87  594.473
  88  537.4293
  89  167.5682
  90  48.74538
  91  189.3714
  92  258.0314
  93  6.125176
  94  -63.70122
  95  636.2005
  96  811.1189
  97  275.3181
  98  279.7555
  99  563.5123
 100  747.9493
 101  124.2359
 102  -309.4013
 103  -223.3092
 104  -284.5051
 105  -194.398
 106  -124.9595
 107  39.84026
 108  -47.82601
 109  -187.3951
 110  -232.6095
 111  -217.3508
 112  -126.5245
 113  -250.5537
 114  -244.1584
 115  -151.0555
 116  -100.2904
 117  8.607706
 118  30.41193
 119  19.66956
 120  -276.1918
 121  -391.2775
 122  -63.57543
 123  -78.80588
 124  181.7627
 125  238.966
 126  414.9551
 127  372.8733
 128  245.8581
 129  554.234
 130  328.9686
 131  225.7384
 132  227.437
 133  466.9618
 134  361.8964
 135  191.8109
 136  103.6971
 137  -165.4395
 138  71.74067
 139  452.2148
 140  1081.776
 141  1082.105
 142  1104.651
 143  1044.465
 144  769.7653
 145  845.3837
 146  1122.498
 147  1292.355
 148  884.7996
 149  420.0955
 150  387.5249
 151  393.0623
 152  656.4111
 153  700.2266
 154  757.2509
 155  658.9866
 156  842.7471
 157  872.1439
 158  1144.024
 159  1348.029
 160  1543.919
 161  1338.85
 162  1063.104
 163  1006.825
 164  940.7175
 165  871.8735
 166  769.2081
 167  570.7646
 168  773.9653
 169  753.5141
 170  772.5901
 171  745.605
 172  536.1624
 173  402.8146
 174  -7.898651
 175  58.97228
 176  -36.45841
 177  213.8336
 178  465.0343
 179  589.1169
 180  784.5783
 181  648.0414
 182  549.2752
 183  338.056
 184  199.7622
 185  218.6712
 186  398.2262
 187  471.5568
 188  361.8765
 189  90.54733
 190  95.03194
 191  214.5839
 192  450.1971
 193  539.6625
 194  839.1454
 195  1004.85
 196  651.8753
 197  573.2482
 198  583.073
 199  885.7305
 200  784.5158
 201  689.6501
 202  1357.362
 203  1697.506
 204  1717.877
 205  1391.411
 206  1562.076
 207  1420.534
 208  1404.418
 209  1043.191
 210  1402.015
 211  1455.654
 212  1307.295
 213  1452.949
 214  1184.695
 215  1033.742
 216  720.7339
 217  995.9184
 218  1131.817
 219  758.7292
 220  779.5364
 221  722.6525
 222  1348.247
 223  1234.317
 224  1156.16
 225  985.7349
 226  891.9463
 227  952.1797
 228  1043.177
 229  751.5607
 230  364.8414
 231  -93.56393
 232  -78.45255
 233  -34.32104
 234  182.9245
 235  422.7883
 236  491.9126
 237  697.1893
 238  864.2316
 239  835.9602
 240  694.7544
 241  813.1344
 242  736.7421
 243  603.7889
 244  881.058
 245  1205.978
 246  1189.065
 247  1011.974
 248  1051.793
 249  1151.289
 250  759.3583
 251  490.3208
 252  112.8234
 253  126.7213
 254  201.2211
 255  -130.5217
 256  -107.5817
 257  -86.46968
 258  299.7885
 259  420.9595
 260  597.4244
 261  1043.455
 262  1322.2
 263  1476.925
 264  1044.663
 265  665.7899
 266  23.41957
 267  -272.5028
 268  -207.905
 269  180.8775
 270  725.0298
 271  1094.937
 272  1506.856
 273  1604.755
 274  1300.548
 275  1065.221
 276  940.0303
 277  1083.61
 278  636.1199
 279  270.9709
 280  192.9066
 281  604.2291
 282  716.8
 283  800.2664
 284  1037.802
 285  834.3787
 286  618.3945
 287  258.1182
 288  228.2844
 289  287.4377
 290  476.9605
 291  278.6806
 292  18.65912
 293  -220.5858
 294  -204.6324
 295  6.454044
 296  -51.09556
 297  -100.011
 298  24.59269
 299  32.29212
 300  -204.8306
 301  -393.1183
 302  -555.2344
 303  -452.4929
 304  -425.8256
 305  -264.6005
 306  47.61381
 307  295.7033
 308  706.4518
 309  707.188
 310  540.3529
 311  198.7012
 312  247.8295
 313  312.6555
 314  106.7854
 315  -193.688
 316  129.333
 317  77.67892
 318  -164.941
 319  -592.5906
 320  -519.5313
 321  -339.5761
 322  -127.2621
 323  245.44
 324  186.7883
 325  318.333
 326  312.0649
 327  372.5872
 328  259.2132
 329  -218.0477
 330  -212.1622
 331  -376.2946
 332  -497.4951
 333  -465.8668
 334  -185.2395
 335  -102.7741
 336  72.93926
 337  189.5833
 338  278.4127
 339  86.92343
 340  294.1586
 341  1021.676
 342  1071.094
 343  1172.74
 344  634.192
 345  242.2982
 346  -366.2937
 347  -553.3901
 348  -180.104
 349  213.8203
 350  614.056
 351  735.7872
 352  732.9624
 353  238.3718
 354  270.3564
 355  147.4326
 356  27.91603
 357  -78.70991
 358  98.91489
 359  -276.2702
 360  -361.549
 361  -632.7992
 362  -477.939
 363  -70.82339
 364  -114.4301
 365  311.7361
 366  253.0992
 367  542.5507
 368  862.5419
 369  922.0691
 370  764.1411
 371  692.3115
 372  476.2151
 373  346.3215
 374  -42.94671
 375  118.8838
 376  377.5946
 377  436.0648
 378  71.52917
 379  -343.3252
 380  -531.1022
 381  -516.582
 382  -358.9857
 383  -179.2603
 384  11.50594
 385  44.13519
 386  -119.0134
 387  -296.8279
 388  -321.0177
 389  -135.548
 390  295.7892
 391  114.405
 392  -260.824
 393  -916.1464
 394  -936.2392
 395  -750.4465
 396  -319.4103
 397  -324.9388
 398  -452.6356
 399  -335.0005
 400  -249.7841
 401  -123.9328
 402  57.94038
 403  160.5288
 404  384.9431
 405  300.8399
 406  377.7887
 407  238.4145
 408  22.60659
 409  -225.9261
 410  -417.7176
 411  -370.3022
 412  -565.4875
 413  -593.0419
 414  -444.1283
 415  -91.11958
 416  274.4698
 417  459.8928
 418  297.8942
 419  548.3517
 420  407.4774
 421  451.9674
 422  -281.9636
 423  -161.2713
 424  304.7649
 425  685.0173
 426  448.5732
 427  321.5244
 428  383.442
 429  225.1744
 430  43.39535
 431  4.868482
 432  84.78516
 433  226.7216
 434  403.9048
 435  240.6784
 436  126.0722
 437  278.7277
 438  593.325
 439  582.9365
 440  868.3984
 441  1102.204
 442  1121.642
 443  1026.888
 444  684.5471
 445  413.4175
 446  395.4137
 447  343.878
 448  261.2498
 449  -209.2993
 450  -461.9937
 451  -726.1282
 452  -653.5216
 453  -772.8132
 454  -361.0003
 455  263.5717
 456  902.8387
 457  889.9166
 458  819.6691
 459  500.4975
 460  233.9367
 461  -239.0033
 462  -298.147
 463  -483.3793
 464  -863.2769
 465  -634.4871
 466  -386.5891
 467  17.60878
 468  -104.3863
 469  -217.205
 470  -330.7932
 471  32.95024
 472  286.5456
 473  288.4045
 474  -22.0997
 475  -65.24238
 476  64.41782
 477  113.4451
 478  -40.72446
 479  39.4574
 480  113.5028
 481  330.5417
 482  167.6336
 483  483.548
 484  423.1702
 485  945.3207
 486  540.7804
 487  336.5384
 488  156.5853
 489  203.309
 490  10.39314
 491  108.1743
 492  34.6275
 493  137.5819
 494  -9.171585
 495  171.6494
 496  423.0359
 497  348.4061
 498  232.858
 499  385.7251
 500  709.1291
 501  899.0564
 502  463.4218
 503  491.3897
 504  329.9426
 505  404.3267
 506  241.0339
 507  150.4175
 508  290.4074
 509  103.2569
 510  112.2406
 511  308.9771
 512  406.6938
 513  387.6238
 514  45.60419
 515  143.7627
 516  286.5098
 517  119.1826
 518  258.9396
 519  453.1838
 520  487.7827
 521  562.728
 522  553.2671
 523  337.4663
 524  -68.09441
 525  -274.05
 526  -238.4889
 527  -420.0065
 528  -124.2838
 529  8.116275
 530  356.2386
 531  223.6827
 532  108.5799
 533  240.742
 534  474.5706
 535  407.4307
 536  292.5384
 537  322.0587
 538  567.9435
 539  491.1295
 540  392.032
 541  265.2158
 542  -50.39997
 543  -95.42738
 544  258.3612
 545  304.265
 546  95.44907
 547  -267.4192
 548  -266.2483
 549  -346.5382
 550  -397.1521
 551  -523.5804
 552  -155.6171
 553  -77.99186
 554  82.70929
 555  268.7589
 556  356.7032
 557  482.6572
 558  207.1404
 559  87.7065
 560  -309.6538
 561  -395.9377
 562  -243.8211
 563  73.24026
 564  119.1082
 565  -56.47144
 566  289.1682
 567  371.6562
 568  470.3153
 569  403.236
 570  346.3919
 571  561.8256
 572  805.1077
 573  1225.149
 574  946.1741
 575  761.0181
 576  569.7311
 577  671.2935
 578  626.5952
 579  498.5853
 580  521.6606
 581  581.5109
 582  481.8773
 583  233.919
 584  216.7768
 585  480.3117
 586  628.0908
 587  1080.355
 588  1488.664
 589  1473.01
 590  1093.013
 591  1085.55
 592  1168.689
 593  949.6299
 594  674.1958
 595  222.9236
 596  72.97441
 597  -245.115
 598  -174.2271
 599  98.72561
 600  269.1442
 601  855.1514
 602  858.4578
 603  1228.503
 604  1068.531
 605  1048.927
 606  1061.759
 607  725.8555
 608  484.7607
 609  688.3134
 610  952.6392
 611  1230.956
 612  1388.494
 613  1323.772
 614  1243.448
 615  1176.721
 616  1133.677
 617  1189.422
 618  1099.864
 619  920.0571
 620  664.5471
 621  792.8796
 622  927.1337
 623  1155.171
 624  967.3373
 625  895.6005
 626  675.8023
 627  537.1273
 628  510.3592
 629  199.8434
 630  54.2233
 631  -420.5225
 632  -535.8592
 633  -306.1867
 634  166.5553
 635  652.8544
 636  1106.37
 637  1083.848
 638  674.7711
 639  76.23771
 640  27.64669
 641  -236.0457
 642  -473.7709
 643  -566.0519
 644  -396.141
 645  -254.9351
 646  140.0051
 647  324.1515
 648  303.6953
 649  164.0839
 650  168.7597
 651  660.5624
 652  856.7797
 653  1128.842
 654  829.757
 655  325.1779
 656  449.4934
 657  543.5396
 658  423.9113
 659  -13.96315
 660  2.323561
 661  318.7624
 662  615.5474
 663  658.5154
 664  686.5937
 665  538.1107
 666  877.6365
 667  1164.069
 668  1485.308
 669  1615.002
 670  1434.332
 671  1347.276
 672  862.2544
 673  471.4041
 674  191.5774
 675  221.3779
 676  394.7543
 677  518.1262
 678  806.7807
 679  843.8434
 680  527.2772
 681  319.9922
 682  794.2798
 683  1031.069
 684  949.5755
 685  867.973
 686  1023.597
 687  896.4362
 688  388.2291
 689  367.0297
 690  762.2046
 691  668.9501
 692  614.2219
 693  302.3999
 694  290.5047
 695  184.1092
 696  360.0952
 697  513.5312
 698  596.0851
 699  680.9905
 700  797.4072
 701  854.1746
 702  783.4734
 703  1056.69
 704  1044.458
 705  960.3635
 706  803.4053
 707  713.2105
 708  470.4171
 709  19.56079
 710  261.5406
 711  425.454
 712  655.7542
 713  402.8706
 714  700.9514
 715  588.335
 716  490.1912
 717  185.6785
 718  106.8177
 719  330.6259
 720  739.5675
 721  1317.335
 722  1299.613
 723  832.5594
 724  831.1383
 725  855.4482
 726  1094.376
 727  327.3365
 728  163.8709
 729  259.6024
 730  726.9629
 731  1055.385
 732  1300.006
 733  1367.695
 734  1600.285
 735  1664.533
 736  1905.678
 737  1698.553
 738  1388.711
 739  1121.553
 740  864.765
 741  858.7386
 742  756.847
 743  998.4091
 744  1035.057
 745  1179.874
 746  1192.456
 747  1041.084
 748  908.5775
 749  809.1105
 750  932.8738
 751  671.0504
 752  534.1697
 753  428.0286
 754  662.8487
 755  643.3954
 756  281.823
 757  308.2519
 758  620.1638
 759  557.9203
 760  248.0152
 761  249.464
 762  437.3245
 763  528.2827
 764  759.8967
 765  1018.08
 766  1155.733
 767  842.5591
 768  911.2409
 769  970.2029
 770  1015.713
 771  831.4649
 772  1025.436
 773  1192.114
 774  979.7028
 775  783.8564
 776  635.2906
 777  480.4171
 778  260.8114
 779  601.6274
 780  907.4496
 781  1101.684
 782  1169.125
 783  1482.55
 784  1980.02
 785  1650.141
 786  1319.475
 787  1193.385
 788  1055.835
 789  602.2983
 790  17.44395
 791  137.6738
 792  -70.48272
 793  -118.5585
 794  -37.4125
 795  -91.86671
 796  -55.49036
 797  56.50289
 798  464.5728
 799  755.0092
 800  639.3701
 801  852.5709
 802  845.9124
 803  782.4736
 804  630.9996
 805  685.2517
 806  817.2686
 807  408.1739
 808  303.0327
 809  251.5097
 810  315.5733
 811  154.4763
 812  321.8557
 813  652.6993
 814  407.6721
 815  66.73343
 816  134.714
 817  299.3814
 818  97.17638
 819  -119.722
 820  133.7939
 821  434.6274
 822  442.5724
 823  516.9382
 824  623.772
 825  667.9359
 826  547.3425
 827  387.4789
 828  352.8656
 829  170.7065
 830  -21.0668
 831  171.3027
 832  499.3274
 833  908.246
 834  1307.517
 835  1353.831
 836  1592.988
 837  1246.184
 838  1235.931
 839  1003.163
 840  627.3898
 841  862.6536
 842  668.8232
 843  723.1992
 844  503.3424
 845  733.7793
 846  1086.232
 847  1116.426
 848  1160.753
 849  1062.001
 850  1115.216
 851  1581.607
 852  1598.969
 853  1635.324
 854  913.887
 855  536.9021
 856  340.9921
 857  54.31302
 858  271.3131
 859  240.8704
 860  743.2778
 861  910.3656
 862  1056.471
 863  771.5226
 864  748.3323
 865  895.8577
 866  1055.255
 867  672.3291
 868  781.2504
 869  1258.326
 870  1059.165
 871  918.4019
 872  1039.646
 873  1408.419
 874  1123.763
 875  990.2829
 876  801.6895
 877  341.8986
 878  -250.0757
 879  -418.0344
 880  -112.9766
 881  94.75331
 882  407.2877
 883  850.4225
 884  977.4994
 885  1005.415
 886  1137.182
 887  1111.371
 888  1024.929
 889  791.0923
 890  831.4789
 891  387.4936
 892  213.9365
 893  30.10011
 894  132.0054
 895  -184.5154
 896  213.9625
 897  215.8487
 898  527.7951
 899  788.2374
 900  1116.574
 901  1033.546
 902  1064.437
 903  566.0477
 904  363.7068
 905  275.7739
 906  312.9388
 907  231.5206
 908  -94.71196
 909  -25.39537
 910  121.6956
 911  260.2171
 912  708.4789
 913  1124.322
 914  1326.677
 915  1202.256
 916  1067.066
 917  1065.239
 918  1189.851
 919  745.6241
 920  522.2293
 921  393.3783
 922  466.9327
 923  709.1329
 924  955.0956
 925  952.2216
 926  1008.054
 927  1055.013
 928  1485.601
 929  1645.8
 930  1496.32
 931  1524.399
 932  1180.197
 933  848.2287
 934  827.7401
 935  694.362
 936  1034.449
 937  491.4061
 938  631.7315
 939  852.8138
 940  1544.446
 941  1497.673
 942  1152.003
 943  1023.902
 944  997.6168
 945  565.2344
 946  251.2739
 947  -96.14416
 948  190.0973
 949  394.0708
 950  1206.126
 951  1385.206
 952  1236.165
 953  1190.947
 954  1275.136
 955  1324.146
 956  1067.508
 957  657.1359
 958  566.3612
 959  36.06096
 960  -543.434
 961  -469.3143
 962  9.800158
 963  475.946
 964  778.8035
 965  1111.932
 966  1179.249
 967  1222.417
 968  1355.856
 969  1394.758
 970  948.804
 971  744.9479
 972  622.2713
 973  473.5104
 974  359.1603
 975  488.1218
 976  600.585
 977  714.3509
 978  892.44
 979  819.9652
 980  1038.142
 981  872.9497
 982  669.4098
 983  664.679
 984  921.0207
 985  972.3268
 986  1060.513
 987  834.7461
 988  793.3207
 989  568.0334
 990  169.3063
 991  160.6193
 992  -66.4529
 993  -27.00255
 994  174.7257
 995  546.0459
 996  769.6496
 997  791.2253
 998  732.2111
 999  657.1193
1000  517.8316
1001  449.2728
1002  802.5457
1003  936.2855
1004  743.134
1005  487.2938
1006  74.08356
1007  157.6122
1008  -62.77423
1009  181.3722
1010  196.5272
1011  635.1006
1012  703.7244
1013  1123.995
1014  942.2702
1015  950.0878
1016  812.2923
1017  778.687
1018  679.6561
1019  226.3909
1020  -274.6506
1021  -789.2115
1022  -653.4023
1023  -518.0115
