# Input file       =  1200240925.108405_cleaned.dat
# Candidate        =  PSR_0332+5434
# Telescope        =  AR
# Epoch_topo       =  58135.677593847278
# Epoch_bary       =  N/A
# T_sample         =  0.002
# Data Folded      =  7340032
# Data Avg         =  0.139240382019904
# Data StdDev      =  3.80371221238855 
# Profile Bins     =  512
# Profile Avg      =  1996.68611974484 
# Profile StdDev   =  455.430012692668 
# Reduced chi-sqr  =  0.575
# Prob(Noise)      <  1   (~0.0 sigma)
# P_topo (ms)      =  714.568356322126  +/- 0.000125
# P'_topo (s/s)    =  -0                +/- 6.58e-11
# P''_topo (s/s^2) =  0                 +/- 2.91e-14
# P_bary (ms)      =  N/A
# P'_bary (s/s)    =  N/A
# P''_bary (s/s^2) =  N/A
# P_orb (s)        =  N/A
# asin(i)/c (s)    =  N/A
# eccentricity     =  N/A
# w (rad)          =  N/A
# T_peri           =  N/A
######################################################
   0  1877.449
   1  2272.618
   2  2057.474
   3  2259.463
   4  2210.296
   5  1700.633
   6  1944.999
   7  1989.079
   8  2081.285
   9  2232.619
  10  2108.54
  11  2111.817
  12  2112.325
  13  2246.682
  14  2165.684
  15  2622.137
  16  2493.567
  17  1993.124
  18  1904.093
  19  2110.359
  20  2172.864
  21  2270.842
  22  2423.318
  23  2358.638
  24  1966.611
  25  1596.426
  26  1752.609
  27  1818.295
  28  2014.199
  29  2221.515
  30  2110.299
  31  2072.408
  32  1818.912
  33  2260.463
  34  2520.692
  35  2337.129
  36  2471.998
  37  2639.764
  38  2152.975
  39  2161.598
  40  2205.422
  41  2243.374
  42  2115.214
  43  2458.384
  44  2132.375
  45  2035.553
  46  2293.083
  47  2581.094
  48  2460.62
  49  2029.958
  50  1986.838
  51  2182.78
  52  2369.757
  53  2267.751
  54  2276.702
  55  2243.522
  56  2197.74
  57  1907.608
  58  1796.969
  59  1858.808
  60  1777.954
  61  2015.401
  62  1842.584
  63  1627.81
  64  1579.535
  65  1959.537
  66  1765.949
  67  1637.925
  68  1684.534
  69  1583.513
  70  1832.789
  71  1916.25
  72  1941.429
  73  1969.655
  74  2062.228
  75  2258.264
  76  2471.343
  77  2519.608
  78  2250.354
  79  2247.65
  80  1963.993
  81  2002.222
  82  2067.11
  83  2146.646
  84  2317.088
  85  2311.955
  86  2151.315
  87  2060.086
  88  2167.59
  89  2032.074
  90  1785.006
  91  1796.317
  92  1828.149
  93  1487.972
  94  1618.944
  95  1997.254
  96  1789.105
  97  1878.504
  98  1984.77
  99  2249.175
 100  1821.107
 101  1858.281
 102  2111.591
 103  1981.166
 104  1949.356
 105  1930.18
 106  2092.238
 107  2204.343
 108  2174.251
 109  2360.621
 110  2177.297
 111  2042.398
 112  2329.847
 113  1949.99
 114  2002.011
 115  2026.646
 116  1783.481
 117  1853.432
 118  2059.454
 119  2306.969
 120  2307.088
 121  2142.859
 122  1942.931
 123  1967.71
 124  2063.206
 125  2224.62
 126  1947.331
 127  1935.323
 128  1843.977
 129  2249.23
 130  1857.235
 131  1866.28
 132  2092.952
 133  1999.428
 134  1802
 135  1758.659
 136  1774.046
 137  2104.614
 138  2256.121
 139  1819.674
 140  1512.3
 141  1685.476
 142  1607.743
 143  1732.528
 144  2082.949
 145  2126.663
 146  2087.254
 147  2069.399
 148  1869.083
 149  1953.405
 150  1842.929
 151  2044.237
 152  1802.901
 153  1808.909
 154  2071.278
 155  1881.395
 156  1965.93
 157  1786.229
 158  1815.992
 159  1769.839
 160  1633.582
 161  1920.22
 162  2124.269
 163  2326.587
 164  2271.533
 165  2212.687
 166  2354.289
 167  2051.138
 168  2021.6
 169  2104.623
 170  2357.793
 171  2237.737
 172  2223.66
 173  2381.272
 174  2350.143
 175  2204.524
 176  2463.244
 177  2649.603
 178  2302.903
 179  2059.045
 180  2255.013
 181  2126.354
 182  2173.424
 183  1866.851
 184  2028.901
 185  2087.155
 186  2016.657
 187  2222.37
 188  2167.541
 189  2051.651
 190  2113.956
 191  2249.149
 192  2023.835
 193  2156.026
 194  1696.372
 195  1712.426
 196  2026.185
 197  2175.427
 198  2083.844
 199  2115.764
 200  2227.214
 201  1991.153
 202  1540.113
 203  1595.391
 204  2015.456
 205  2178.34
 206  2288.17
 207  2178.983
 208  1975.254
 209  2009.549
 210  1719.238
 211  1866.601
 212  2047.105
 213  2119.911
 214  1985.012
 215  1632.547
 216  1661.655
 217  1756.329
 218  1467.767
 219  1701.366
 220  1858.798
 221  1782.084
 222  1663.069
 223  1497.767
 224  1861.518
 225  1979.688
 226  1983.667
 227  1986.661
 228  2063.719
 229  2295.135
 230  1954.095
 231  1919.057
 232  2072.198
 233  2009.426
 234  2052.14
 235  1775.149
 236  1799.517
 237  1823.209
 238  1931.552
 239  1767.915
 240  2097.574
 241  2313.121
 242  2207.406
 243  1973.204
 244  1957.254
 245  1886.844
 246  1856.207
 247  1882.48
 248  2147.204
 249  1915.125
 250  1783.112
 251  1992.828
 252  1961.369
 253  1767.295
 254  1558.733
 255  1599.821
 256  1749.286
 257  2024.963
 258  2044.569
 259  2142.74
 260  1934.348
 261  2134.536
 262  1925.937
 263  1563.644
 264  1769.552
 265  1879.34
 266  1984.604
 267  2018.417
 268  1738.272
 269  1866.933
 270  1807.021
 271  1997.703
 272  2283.382
 273  1841.157
 274  1539.911
 275  1810.877
 276  2058.888
 277  2099.586
 278  1929.376
 279  1786.882
 280  1895.192
 281  1684.864
 282  1760.146
 283  1955.863
 284  1482.835
 285  1702.18
 286  1906.752
 287  2016.486
 288  1743.719
 289  1920.867
 290  2050.833
 291  2041.387
 292  1980.87
 293  1875.634
 294  2044.583
 295  2209.691
 296  2149.206
 297  1967.388
 298  1957.724
 299  1606.394
 300  1822.768
 301  2060.662
 302  2422.784
 303  2370.577
 304  2214.541
 305  2240.236
 306  2657.333
 307  2706.93
 308  2998.069
 309  3047.485
 310  2702.088
 311  2035.144
 312  1975.904
 313  1829.711
 314  1632.183
 315  1941.287
 316  2373.355
 317  1897.431
 318  1553.936
 319  1550.148
 320  1891.607
 321  2001.953
 322  2216.348
 323  2165.481
 324  1801.35
 325  1618.709
 326  1601.787
 327  1557.317
 328  1893.839
 329  1799.916
 330  1682.863
 331  1470.603
 332  1212.249
 333  1303.987
 334  1702.813
 335  1509.421
 336  1600.641
 337  1554.112
 338  1546.792
 339  1554.535
 340  1822.296
 341  2144.693
 342  1960.054
 343  1792.323
 344  1911.67
 345  1901.182
 346  1887.112
 347  1968.241
 348  2026.688
 349  2197.706
 350  1868.431
 351  1694.931
 352  1776.463
 353  1955.795
 354  2071.347
 355  2037.829
 356  2137.018
 357  1891.996
 358  1478.105
 359  1672.051
 360  1619.347
 361  1695.701
 362  2385.896
 363  2325.807
 364  2067.99
 365  1697.392
 366  1738.041
 367  1867.096
 368  1714.379
 369  2056.532
 370  2031.903
 371  1910.955
 372  1684.345
 373  1722.175
 374  1641.508
 375  1773.768
 376  1793.742
 377  1899.243
 378  1855.185
 379  1695.025
 380  1885.542
 381  1955.483
 382  1846.361
 383  1764.706
 384  2055.869
 385  2089.658
 386  1874.893
 387  2017.999
 388  1644.423
 389  1771.207
 390  2175.445
 391  2420.763
 392  1881.207
 393  1595.21
 394  1553.815
 395  1709.408
 396  2094.124
 397  2117.451
 398  2150.51
 399  2105.139
 400  1862.102
 401  1893.181
 402  1896.458
 403  1867.362
 404  1987.508
 405  1988.16
 406  2079.869
 407  2078.399
 408  2423.755
 409  2468.79
 410  2250.474
 411  2174.306
 412  2380.316
 413  2323.244
 414  2111.808
 415  2315.929
 416  2019.444
 417  1833.378
 418  2028.486
 419  1889.212
 420  1939.414
 421  1864.877
 422  1789.926
 423  1739.399
 424  2010.174
 425  2115.315
 426  1923.137
 427  2086.208
 428  2060.231
 429  2131.882
 430  2061.228
 431  2099.403
 432  2098.525
 433  2022.812
 434  2226.329
 435  2010.86
 436  1968.878
 437  1798.44
 438  1744.488
 439  1895.331
 440  1982.738
 441  1759.582
 442  1719.49
 443  1447.957
 444  2010.068
 445  2281.566
 446  1833.379
 447  1408.926
 448  1819.109
 449  1936.701
 450  2085.807
 451  2102.715
 452  2000.211
 453  2153.039
 454  2110.764
 455  2028.267
 456  1788.524
 457  1999.433
 458  1881.103
 459  1920.949
 460  1936.004
 461  1761.944
 462  1875.741
 463  1658.096
 464  1632.693
 465  1914.113
 466  2106.694
 467  2340.682
 468  2445.702
 469  2378.941
 470  2149.413
 471  2084.166
 472  1909.809
 473  2142.079
 474  2334.18
 475  2317.725
 476  1993.085
 477  1828.269
 478  1896.285
 479  2060.162
 480  2091.409
 481  2234.541
 482  2362.608
 483  2444.405
 484  2222.026
 485  2322.044
 486  2039.62
 487  2227.165
 488  2123.588
 489  2027.448
 490  2371.748
 491  2537.119
 492  2436.226
 493  2205.627
 494  2187.893
 495  2281.299
 496  1980.146
 497  1726.349
 498  1648.4
 499  1785.648
 500  2018.333
 501  2078.93
 502  2124.498
 503  1922.912
 504  1765.542
 505  1778.3
 506  1876.215
 507  2150.625
 508  2115.86
 509  2147.861
 510  2108.183
 511  1903.202
