# Input file       =  1201260330.103407-PSRB0329-2ms-sampling-dd.dat
# Candidate        =  PSR_0332+5434
# Telescope        =  AR
# Epoch_topo       =  58147.476262770913
# Epoch_bary       =  N/A
# T_sample         =  0.002
# Data Folded      =  7208960
# Data Avg         =  -5.68761785116077e-10
# Data StdDev      =  19.9407585857124 
# Profile Bins     =  512
# Profile Avg      =  0.18887310357549 
# Profile StdDev   =  2366.1539784784  
# Reduced chi-sqr  =  1.020
# Prob(Noise)      <  0.366   (~0.3 sigma)
# P_topo (ms)      =  714.574798668647  +/- 0.000113
# P'_topo (s/s)    =  -0                +/- 6.06e-11
# P''_topo (s/s^2) =  0                 +/- 2.72e-14
# P_bary (ms)      =  N/A
# P'_bary (s/s)    =  N/A
# P''_bary (s/s^2) =  N/A
# P_orb (s)        =  N/A
# asin(i)/c (s)    =  N/A
# eccentricity     =  N/A
# w (rad)          =  N/A
# T_peri           =  N/A
######################################################
   0  -1427.048
   1  -982.8813
   2  -607.2031
   3  -405.6154
   4  -568.1829
   5  -1434.319
   6  -1841.971
   7  -2035.079
   8  -1540.011
   9  -914.1909
  10  -470.2203
  11  -89.65427
  12  -331.1311
  13  -1118.262
  14  -1577.666
  15  -1946.953
  16  -1603.259
  17  -1687.138
  18  -1094.863
  19  -415.6831
  20  -554.4282
  21  -1098.266
  22  -1451.969
  23  -1807.69
  24  -2023.987
  25  -1246.339
  26  -70.00709
  27  963.32
  28  1846.401
  29  1819.54
  30  966.8978
  31  -108.4986
  32  199.4972
  33  1079.744
  34  2858.771
  35  5410.312
  36  6762.069
  37  5763.944
  38  3001.415
  39  1620.963
  40  740.2114
  41  4519.227
  42  7220.51
  43  10327.84
  44  8982.218
  45  5769.98
  46  2908.271
  47  760.1892
  48  3510.397
  49  4973.288
  50  6847.294
  51  5913.981
  52  4091.248
  53  1645.595
  54  1175.378
  55  1063.119
  56  1060.981
  57  2248.561
  58  1903.055
  59  1818.094
  60  2028.029
  61  2117.581
  62  1566.979
  63  599.315
  64  2077.674
  65  2099.481
  66  1308.16
  67  127.3428
  68  74.40845
  69  -126.9485
  70  131.4405
  71  30.88047
  72  -510.1717
  73  -520.054
  74  -670.3535
  75  -182.9156
  76  -110.0023
  77  -198.3667
  78  90.46976
  79  178.0122
  80  -465.3399
  81  -1079.547
  82  -739.7874
  83  -1219.286
  84  -1398.837
  85  890.0946
  86  1470.216
  87  1441.813
  88  590.3359
  89  -319.0587
  90  -944.2644
  91  -600.6788
  92  1465.018
  93  3620.336
  94  3647.438
  95  2000.16
  96  -397.9429
  97  -346.0568
  98  207.8193
  99  70.61691
 100  163.2294
 101  125.3481
 102  38.49312
 103  1479.304
 104  2088.368
 105  2531.828
 106  2429.579
 107  1624.756
 108  1524.676
 109  3174.231
 110  6830.403
 111  7915.902
 112  7903.549
 113  4083.68
 114  2503.248
 115  1255.972
 116  2486.606
 117  2737.873
 118  3209.699
 119  2430.168
 120  227.269
 121  -854.2097
 122  -1420.319
 123  -1409.619
 124  -1021.565
 125  -887.5308
 126  -399.8817
 127  93.84047
 128  -605.5821
 129  -1332.551
 130  -1629.448
 131  -1399.303
 132  -1241.908
 133  -1019.346
 134  -228.9068
 135  14.32912
 136  -180.2137
 137  -878.0828
 138  -1531.082
 139  -1757.083
 140  -1356.943
 141  -742.4804
 142  -411.8083
 143  217.4747
 144  101.2891
 145  -479.2846
 146  -736.8948
 147  -756.5832
 148  -286.5578
 149  172.8877
 150  77.20127
 151  193.9876
 152  72.66584
 153  -263.4775
 154  -781.0376
 155  -849.7864
 156  -454.713
 157  -736.2943
 158  -598.0772
 159  -288.4015
 160  -328.8408
 161  -964.0704
 162  -1513.621
 163  -1160.372
 164  -1378.858
 165  -1447.249
 166  -928.7569
 167  -642.5237
 168  -151.6038
 169  -370.4328
 170  -553.8022
 171  -656.2186
 172  -1128.913
 173  -897.9778
 174  -536.5793
 175  -345.7567
 176  110.2007
 177  478.6227
 178  266.0479
 179  -416.7854
 180  -202.9176
 181  -542.863
 182  -383.0574
 183  -814.1909
 184  -626.7234
 185  600.5967
 186  394.5975
 187  762.4128
 188  2150.161
 189  2183.428
 190  1944.055
 191  1358.269
 192  1371.295
 193  1234.804
 194  1779.518
 195  2031.569
 196  1819.374
 197  2177.288
 198  1287.882
 199  1071.962
 200  660.1556
 201  615.559
 202  -41.85875
 203  -1246.305
 204  -1776.478
 205  -1436.082
 206  -833.1231
 207  -287.0552
 208  296.386
 209  199.1984
 210  27.05135
 211  -333.9029
 212  -1015.801
 213  -915.5577
 214  42.5495
 215  1689.869
 216  2739.541
 217  3138.718
 218  1826.683
 219  499.2395
 220  -1255.315
 221  -441.6917
 222  103.6708
 223  455.7946
 224  376.7256
 225  933.4546
 226  1101.403
 227  208.5085
 228  -503.4362
 229  -1018.748
 230  -1042.466
 231  -1017.813
 232  -1206.684
 233  -662.3801
 234  85.35128
 235  7.649423
 236  -485.5605
 237  -1398.42
 238  -1489.025
 239  -1255.836
 240  -1630.243
 241  -569.8924
 242  766.932
 243  2173.326
 244  2431.457
 245  2198.925
 246  1512.074
 247  510.6564
 248  306.1303
 249  -48.38132
 250  800.4079
 251  1094.53
 252  607.9838
 253  -172.1236
 254  -975.6735
 255  -1043.268
 256  -859.0997
 257  -653.7054
 258  45.70214
 259  378.8906
 260  -6.732003
 261  -666.513
 262  -1050.545
 263  -1091.684
 264  -750.3765
 265  -114.1148
 266  182.2516
 267  570.817
 268  135.3838
 269  -1155.374
 270  -719.5283
 271  -21.76404
 272  648.9501
 273  775.0088
 274  1406.543
 275  1423.299
 276  319.6547
 277  -161.1149
 278  -125.0493
 279  -225.514
 280  400.1807
 281  469.1494
 282  -455.0117
 283  -458.978
 284  -596.7141
 285  -940.7279
 286  -1319.195
 287  -1387.634
 288  -827.3923
 289  -893.3983
 290  -462.7668
 291  -515.5123
 292  -727.3267
 293  -637.4435
 294  -1176.328
 295  -1020.691
 296  -761.9181
 297  -521.7623
 298  12.92255
 299  1360.693
 300  2318.382
 301  188.1914
 302  -392.8585
 303  224.6174
 304  3376.317
 305  5402.325
 306  5946.949
 307  6519.565
 308  1537.714
 309  742.3621
 310  -603.9102
 311  -889.5567
 312  -11.05755
 313  242.8562
 314  429.7409
 315  804.4442
 316  -177.3237
 317  13.94418
 318  -623.4984
 319  -293.1555
 320  513.8798
 321  686.5793
 322  619.385
 323  -433.1672
 324  265.6088
 325  898.7136
 326  79.9721
 327  -875.3661
 328  -876.02
 329  -602.3063
 330  -261.6189
 331  -916.3531
 332  -715.5117
 333  -658.5395
 334  -726.3079
 335  -1102.11
 336  -1582.995
 337  -1393.885
 338  -1372.018
 339  -650.5573
 340  135.0309
 341  820.809
 342  1172.291
 343  724.1785
 344  592.0112
 345  284.4505
 346  110.5543
 347  -516.9486
 348  -1030.787
 349  -943.4725
 350  -356.0003
 351  -583.6439
 352  -1141.348
 353  -1723.078
 354  -1561.471
 355  -1111.483
 356  -717.5328
 357  -177.4973
 358  -102.2549
 359  -307.2845
 360  -1246.644
 361  -1561.252
 362  -1270.859
 363  -713.6299
 364  -975.5781
 365  -976.0282
 366  -508.5561
 367  -827.8931
 368  -1499.201
 369  -1165.459
 370  -598.5045
 371  989.1528
 372  1981.451
 373  3147.906
 374  2957.897
 375  2014.203
 376  714.4009
 377  -282.152
 378  178.793
 379  1202.677
 380  1527.149
 381  1204.186
 382  1003.512
 383  270.2556
 384  -372.823
 385  -995.0801
 386  -1204.062
 387  -767.3215
 388  -401.2033
 389  -515.4273
 390  -336.7899
 391  29.99666
 392  -60.37803
 393  -948.5803
 394  -1539.734
 395  -1604.656
 396  -1285.91
 397  -1262.16
 398  -1145.188
 399  -745.1377
 400  -989.4118
 401  -1255.649
 402  -1840.879
 403  -1994.667
 404  -1588.995
 405  -1069.263
 406  -538.5562
 407  -220.9582
 408  218.4807
 409  -355.9033
 410  -701.2766
 411  -1083.605
 412  -1113.815
 413  -1430.336
 414  -1460.346
 415  -1075.656
 416  -842.3725
 417  -1174.321
 418  -1665.001
 419  -2194.289
 420  -1869.985
 421  -1624.512
 422  -984.3475
 423  -347.4906
 424  -189.8335
 425  -508.5023
 426  -1074.686
 427  -1757.664
 428  -1784.341
 429  -1864.232
 430  -1747.79
 431  -1525.657
 432  -935.6981
 433  -720.811
 434  -1607.478
 435  -1841.236
 436  -1720.544
 437  -1433.271
 438  -1619.909
 439  -1114.811
 440  -479.416
 441  -657.5743
 442  -1062.092
 443  -1439.93
 444  -997.5046
 445  -689.1981
 446  -819.2253
 447  -1157.375
 448  -714.3062
 449  -491.4313
 450  -944.0663
 451  -1298.878
 452  -1018.521
 453  -1244.144
 454  -1465.024
 455  -1449.988
 456  -964.6572
 457  -453.4431
 458  -410.166
 459  -857.8267
 460  -1368.421
 461  -1414.609
 462  -1454.507
 463  -1681.389
 464  -1057.083
 465  -506.0013
 466  -643.3532
 467  -1619.778
 468  -1781.492
 469  -2094.528
 470  -1857.032
 471  -1212.471
 472  -679.3903
 473  56.03258
 474  60.02791
 475  -553.7253
 476  -1079.47
 477  -1700.376
 478  -1793.822
 479  -1222.819
 480  -1208.635
 481  -417.258
 482  -357.2448
 483  -963.4518
 484  -1356.95
 485  -1892.479
 486  -1537.268
 487  -1450.731
 488  -1195.521
 489  -633.9658
 490  -321.8767
 491  -578.9687
 492  -1180.298
 493  -1497.883
 494  -1752.924
 495  -1556.519
 496  -1614.693
 497  -1285.719
 498  -879.9833
 499  -1249.106
 500  -1269.051
 501  -1986.839
 502  -2178.991
 503  -1711.474
 504  -1115.967
 505  -768.4554
 506  -344.4638
 507  -232.0019
 508  -878.7672
 509  -1091.722
 510  -1494.982
 511  -1316.847
