# Input file       =  1201518865.108206_cleaned.dat
# Candidate        =  PSR_0332+5434
# Telescope        =  AR
# Epoch_topo       =  58150.468566067197
# Epoch_bary       =  N/A
# T_sample         =  0.002
# Data Folded      =  7208960
# Data Avg         =  0.0805841496404764
# Data StdDev      =  3.60949565419023 
# Profile Bins     =  512
# Profile Avg      =  1134.60349754887 
# Profile StdDev   =  428.299779356543 
# Reduced chi-sqr  =  1.599
# Prob(Noise)      <  1.64e-16   (~8.2 sigma)
# P_topo (ms)      =  714.576075050817  +/- 3.17e-05
# P'_topo (s/s)    =  -0                +/- 1.71e-11
# P''_topo (s/s^2) =  0                 +/- 7.67e-15
# P_bary (ms)      =  N/A
# P'_bary (s/s)    =  N/A
# P''_bary (s/s^2) =  N/A
# P_orb (s)        =  N/A
# asin(i)/c (s)    =  N/A
# eccentricity     =  N/A
# w (rad)          =  N/A
# T_peri           =  N/A
######################################################
   0  1620.042
   1  1284.114
   2  1169.103
   3  1181.319
   4  957.2531
   5  1088.567
   6  1519.075
   7  1553.159
   8  1088.44
   9  1012.926
  10  907.5203
  11  697.0806
  12  495.495
  13  235.1566
  14  727.9091
  15  1259.549
  16  1687.206
  17  1719.335
  18  1724.732
  19  1670.323
  20  1245.632
  21  975.1855
  22  812.0114
  23  1294.949
  24  1050.345
  25  1131.003
  26  883.6467
  27  559.0306
  28  540.5684
  29  399.8503
  30  903.1962
  31  1481.194
  32  1767.751
  33  1749.304
  34  1444.917
  35  1586.985
  36  981.4152
  37  622.9297
  38  914.2051
  39  1635.121
  40  1684.96
  41  1345.664
  42  1115.011
  43  719.5272
  44  647.0072
  45  513.4856
  46  571.478
  47  999.1674
  48  1298.834
  49  1534.005
  50  1685.159
  51  1539.425
  52  1229.852
  53  1064.569
  54  942.8977
  55  938.2946
  56  1188.872
  57  1137.303
  58  1205.966
  59  1357.762
  60  1278.425
  61  844.8297
  62  443.2336
  63  455.2037
  64  995.1848
  65  1607.972
  66  1641.842
  67  1467.173
  68  1246.865
  69  867.5132
  70  630.3364
  71  972.3914
  72  1139.463
  73  1224.405
  74  1025.894
  75  719.8149
  76  1009.276
  77  804.7308
  78  634.9358
  79  683.1796
  80  821.7474
  81  1256.394
  82  1695.859
  83  1905.118
  84  1656.748
  85  1362.042
  86  1168.401
  87  1026.865
  88  1033.988
  89  1379.106
  90  1460.246
  91  1409.93
  92  1327.118
  93  1029.635
  94  664.1235
  95  678.7165
  96  814.5957
  97  1030.174
  98  1433.75
  99  1795.176
 100  1639.969
 101  1482.949
 102  1399.464
 103  733.3259
 104  808.5868
 105  1248.658
 106  1268.403
 107  1006.61
 108  1027.203
 109  991.6722
 110  769.1688
 111  561.4674
 112  991.4845
 113  1350.793
 114  1478.632
 115  1836.242
 116  1745.849
 117  1503.211
 118  1164.442
 119  1155.666
 120  1103.579
 121  939.2788
 122  1143.32
 123  1501.47
 124  1214.845
 125  1014.221
 126  922.8397
 127  1081.018
 128  1029.495
 129  983.3671
 130  1677.255
 131  1759.771
 132  1612.578
 133  1521.546
 134  1122.918
 135  1104.139
 136  821.2811
 137  851.1169
 138  1258.451
 139  1431.792
 140  1399.744
 141  1358.921
 142  1163.575
 143  817.859
 144  597.0311
 145  771.7233
 146  967.133
 147  1337.024
 148  1652.257
 149  1554.067
 150  1661.292
 151  1871.101
 152  1144.08
 153  676.9656
 154  712.244
 155  973.9683
 156  1348.325
 157  1305.637
 158  1218.634
 159  922.774
 160  709.9558
 161  608.6973
 162  537.138
 163  722.4125
 164  1280.565
 165  1704.429
 166  1407.951
 167  1215.419
 168  978.04
 169  812.196
 170  1093.13
 171  1002.91
 172  1021.315
 173  805.3363
 174  420.868
 175  418.0718
 176  703.3187
 177  535.9206
 178  828.871
 179  832.1732
 180  933.3989
 181  1195.095
 182  1362.992
 183  1273.611
 184  1263.276
 185  1189.917
 186  1255.188
 187  1463.569
 188  1713.726
 189  1524.347
 190  1169.318
 191  878.5278
 192  579.0312
 193  513.4954
 194  792.0284
 195  1077.692
 196  1110.811
 197  1266.535
 198  1478.398
 199  1279.929
 200  1482.067
 201  1307.19
 202  1246.204
 203  1288.271
 204  1315.883
 205  1574.791
 206  1382.908
 207  1131.938
 208  785.8581
 209  888.3138
 210  521.7963
 211  394.1472
 212  783.3156
 213  1370.824
 214  1722.284
 215  1854.218
 216  1707.97
 217  1070.995
 218  783.2703
 219  766.5386
 220  1055.572
 221  1506.85
 222  1416.19
 223  1344.429
 224  1000.404
 225  975.3992
 226  736.0873
 227  128.9968
 228  740.2112
 229  1068.35
 230  1537.53
 231  1642.963
 232  1717.912
 233  1606.247
 234  946.266
 235  726.3098
 236  640.0242
 237  900.9464
 238  1161.68
 239  1134.364
 240  1100.035
 241  1097.227
 242  613.1669
 243  385.5771
 244  217.8354
 245  642.2606
 246  1030.109
 247  1154.219
 248  1217.39
 249  1106.134
 250  1103.667
 251  1137.49
 252  1049.712
 253  1333.309
 254  1360.083
 255  1061.143
 256  480.1023
 257  354.5368
 258  638.2545
 259  582.7696
 260  735.0049
 261  930.7054
 262  706.8403
 263  1060.681
 264  1250.844
 265  1228.219
 266  1394.296
 267  1608.634
 268  1515.993
 269  1218.128
 270  1351.343
 271  1548.722
 272  977.6218
 273  865.4316
 274  1099.331
 275  817.4009
 276  765.4662
 277  659.5892
 278  1017.055
 279  1119.521
 280  1354.621
 281  1299.961
 282  1151.992
 283  1391.247
 284  1118.569
 285  812.1009
 286  1201.045
 287  1644.928
 288  1328.515
 289  1094.62
 290  1077.312
 291  1081.302
 292  602.0157
 293  347.4132
 294  721.3605
 295  1142.555
 296  1778.274
 297  1846.069
 298  1998.64
 299  1381.072
 300  1605.005
 301  1251.863
 302  1233.444
 303  1430.24
 304  1573.962
 305  1986.721
 306  2553.939
 307  2875.202
 308  2510.224
 309  1911.68
 310  1624.129
 311  1645.039
 312  1551.135
 313  1410.935
 314  1645.914
 315  1734.51
 316  1327.823
 317  1210.912
 318  1357.352
 319  1194.746
 320  1270.45
 321  1450.695
 322  1477.665
 323  1065.572
 324  847.7708
 325  793.6556
 326  792.4547
 327  710.5606
 328  998.8264
 329  1323.602
 330  1398.962
 331  1505.851
 332  1518.667
 333  1348.779
 334  1012.375
 335  953.4102
 336  1297.912
 337  1388.271
 338  1045.384
 339  1113.025
 340  1065.901
 341  868.2623
 342  657.9133
 343  696.7937
 344  825.9986
 345  1079.731
 346  1097.536
 347  1531.145
 348  1734.785
 349  1570.955
 350  1320.755
 351  891.0959
 352  747.5287
 353  1137.318
 354  1303.015
 355  1240.113
 356  1314.25
 357  962.0931
 358  488.0042
 359  419.1208
 360  656.2974
 361  1092.076
 362  1289.737
 363  1695.786
 364  1793.221
 365  1533.272
 366  1209.821
 367  939.5198
 368  1018.074
 369  1442.824
 370  1546.89
 371  1264.514
 372  1129.124
 373  732.05
 374  871.7826
 375  667.8394
 376  652.8286
 377  1011.193
 378  1548.62
 379  1884.811
 380  1763.137
 381  1414.296
 382  1240.49
 383  980.3928
 384  663.8868
 385  729.311
 386  1266.766
 387  1518.633
 388  1177.993
 389  1129.887
 390  1019.826
 391  634.8137
 392  392.5938
 393  889.7387
 394  1111.061
 395  1395.832
 396  1594.207
 397  1606.931
 398  1674.246
 399  1124.767
 400  991.7491
 401  1050.033
 402  1216.417
 403  1611.492
 404  1391.572
 405  1588.02
 406  1386.529
 407  961.7104
 408  322.9354
 409  195.064
 410  651.4769
 411  1150.479
 412  1379.535
 413  1369.784
 414  1837.542
 415  1575.42
 416  1478.918
 417  984.9614
 418  919.4161
 419  896.285
 420  1107.874
 421  1307.442
 422  1376.05
 423  1438.387
 424  1201.791
 425  686.157
 426  339.8167
 427  534.3336
 428  1133.551
 429  1026.882
 430  1232.728
 431  1574.803
 432  1127.777
 433  740.5298
 434  745.3407
 435  1165.665
 436  1391.021
 437  1222.484
 438  1054.72
 439  889.5186
 440  776.9277
 441  493.3265
 442  392.1238
 443  872.8891
 444  1326.06
 445  1384.342
 446  1353.451
 447  1749.943
 448  1593.922
 449  1093.485
 450  1079.12
 451  1198.575
 452  1694.033
 453  1301.673
 454  879.5518
 455  908.9445
 456  777.049
 457  374.3672
 458  274.7241
 459  699.877
 460  1156.237
 461  1424.205
 462  1289.169
 463  1204.842
 464  871.722
 465  1041.416
 466  858.7272
 467  604.3768
 468  1158.181
 469  1554.505
 470  1147.766
 471  897.4243
 472  796.1611
 473  329.6089
 474  373.7528
 475  163.6143
 476  629.4474
 477  1160.326
 478  1522.296
 479  1605.658
 480  1588.268
 481  1425.689
 482  1024.816
 483  558.4291
 484  833.2365
 485  1221.371
 486  1456.778
 487  1606.742
 488  1607.932
 489  1215.703
 490  715.8953
 491  399.7331
 492  490.9653
 493  517.2785
 494  775.4038
 495  1614.485
 496  2038.085
 497  1860.913
 498  1492.44
 499  1335.902
 500  1037.187
 501  1226.683
 502  1266.078
 503  994.1961
 504  1109.562
 505  999.4529
 506  1068.134
 507  884.6673
 508  802.5464
 509  807.6204
 510  1115.976
 511  1458.522
