# Input file       =  1201548423.108379_cleaned.dat
# Candidate        =  PSR_0332+5434
# Telescope        =  AR
# Epoch_topo       =  58150.810672550680
# Epoch_bary       =  N/A
# T_sample         =  0.002
# Data Folded      =  7340032
# Data Avg         =  0.0578068701641832
# Data StdDev      =  3.07943051393803 
# Profile Bins     =  512
# Profile Avg      =  828.533371697222 
# Profile StdDev   =  368.709565745066 
# Reduced chi-sqr  =  0.832
# Prob(Noise)      <  0.998   (~0.0 sigma)
# P_topo (ms)      =  714.576568488767  +/- 0.000435
# P'_topo (s/s)    =  -0                +/- 2.3e-10
# P''_topo (s/s^2) =  0                 +/- 1.01e-13
# P_bary (ms)      =  N/A
# P'_bary (s/s)    =  N/A
# P''_bary (s/s^2) =  N/A
# P_orb (s)        =  N/A
# asin(i)/c (s)    =  N/A
# eccentricity     =  N/A
# w (rad)          =  N/A
# T_peri           =  N/A
######################################################
   0  772.8327
   1  817.5149
   2  821.1764
   3  783.5135
   4  688.3992
   5  473.8139
   6  883.5576
   7  1066.924
   8  1273.381
   9  826.765
  10  404.7201
  11  696.6359
  12  999.3984
  13  869.8358
  14  741.5686
  15  618.8973
  16  896.5309
  17  831.6779
  18  625.0687
  19  578.1465
  20  479.9421
  21  888.1637
  22  872.379
  23  1186.246
  24  901.3822
  25  789.0988
  26  1035.945
  27  889.9979
  28  811.8351
  29  673.7053
  30  937.6125
  31  778.4785
  32  741.2219
  33  777.1624
  34  800.9946
  35  1052.291
  36  1011.056
  37  661.4738
  38  558.9603
  39  807.5256
  40  867.4338
  41  903.5855
  42  691.6273
  43  903.0215
  44  981.3442
  45  843.7732
  46  958.8996
  47  727.9949
  48  508.8011
  49  622.9763
  50  980.7998
  51  1154.255
  52  993.7441
  53  897.7883
  54  997.6926
  55  834.6176
  56  973.1877
  57  996.9503
  58  759.0742
  59  821.5543
  60  761.0784
  61  581.304
  62  717.8437
  63  1118.686
  64  986.1116
  65  889.6234
  66  1087.926
  67  1088.712
  68  666.1223
  69  725.6454
  70  564.0763
  71  440.9349
  72  416.1294
  73  434.2569
  74  811.4863
  75  665.2458
  76  570.4537
  77  576.041
  78  735.6863
  79  742.0222
  80  771.1486
  81  492.2261
  82  993.8495
  83  1095.345
  84  991.6981
  85  927.77
  86  846.1298
  87  1235.089
  88  1012.044
  89  392.8238
  90  785.3572
  91  1102.231
  92  988.5566
  93  779.5237
  94  674.7994
  95  536.7688
  96  801.7532
  97  583.791
  98  710.658
  99  1250.86
 100  937.8718
 101  444.6542
 102  518.2617
 103  779.3961
 104  849.5287
 105  664.5459
 106  554.3904
 107  488.4249
 108  877.837
 109  821.8723
 110  516.948
 111  995.7979
 112  879.4017
 113  991.3353
 114  1170.577
 115  838.6302
 116  818.578
 117  660.4368
 118  1294.468
 119  1033.306
 120  799.7621
 121  807.2244
 122  757.1616
 123  1042.208
 124  1207.517
 125  793.2838
 126  746.2937
 127  826.3165
 128  591.504
 129  822.9395
 130  1152.342
 131  900.5521
 132  640.4473
 133  889.4866
 134  989.9734
 135  887.857
 136  786.7411
 137  946.7752
 138  937.045
 139  509.7896
 140  456.7831
 141  667.8905
 142  907.1904
 143  500.5184
 144  318.7411
 145  403.9354
 146  576.889
 147  799.2192
 148  783.7291
 149  614.2791
 150  498.81
 151  729.843
 152  796.8042
 153  481.1744
 154  629.84
 155  609.1755
 156  856.2219
 157  951.3574
 158  976.7654
 159  932.6177
 160  813.0853
 161  475.7913
 162  544.2066
 163  621.0406
 164  682.2264
 165  619.5057
 166  1028.741
 167  1146.022
 168  862.6673
 169  590.4896
 170  446.2285
 171  461.724
 172  982.5248
 173  795.435
 174  753.0696
 175  1103.067
 176  1019.968
 177  830.4697
 178  874.9871
 179  652.816
 180  862.317
 181  1039.027
 182  849.333
 183  693.7237
 184  772.4839
 185  1191.311
 186  1042.521
 187  338.1321
 188  723.8235
 189  704.9547
 190  618.8264
 191  305.7439
 192  553.5833
 193  1036.129
 194  1229.368
 195  964.8054
 196  790.7734
 197  904.4638
 198  625.6741
 199  561.3212
 200  485.2055
 201  356.9761
 202  774.79
 203  1231.597
 204  892.0044
 205  695.3926
 206  774.6827
 207  910.702
 208  681.8515
 209  876.0903
 210  817.3925
 211  686.8516
 212  688.424
 213  578.4476
 214  629.5887
 215  806.9805
 216  1109.703
 217  1065.174
 218  1217.038
 219  1305.114
 220  1113.326
 221  773.0571
 222  955.6539
 223  1017.862
 224  702.2202
 225  866.581
 226  1111.985
 227  944.429
 228  989.408
 229  917.1351
 230  706.4932
 231  556.0392
 232  907.3915
 233  558.3714
 234  669.3143
 235  812.2008
 236  736.5392
 237  513.4467
 238  296.4681
 239  508.1763
 240  670.5446
 241  903.1176
 242  984.5424
 243  1258.49
 244  682.6197
 245  693.7572
 246  912.9151
 247  849.7073
 248  861.4346
 249  614.3683
 250  794.8403
 251  1016.412
 252  833.1686
 253  802.5967
 254  692.1036
 255  868.1732
 256  1073.958
 257  1032.999
 258  987.1215
 259  844.5112
 260  550.1895
 261  756.6627
 262  575.1838
 263  616.0444
 264  1135.711
 265  930.4387
 266  729.7734
 267  556.995
 268  704.3758
 269  510.011
 270  435.8569
 271  740.5538
 272  661.1085
 273  564.3389
 274  741.4008
 275  693.2675
 276  677.699
 277  993.4079
 278  989.9016
 279  746.7176
 280  563.0546
 281  406.3268
 282  384.4062
 283  621.0929
 284  1095.189
 285  1067.972
 286  1014.942
 287  885.3666
 288  914.8158
 289  609.7236
 290  636.951
 291  1167.348
 292  1353.839
 293  1165.331
 294  1079.879
 295  921.0875
 296  1115.381
 297  1097.982
 298  1340.18
 299  1534.143
 300  857.4146
 301  664.5004
 302  970.5297
 303  1195.338
 304  1234.289
 305  1660.201
 306  2278.301
 307  2042.992
 308  1899.331
 309  1958.118
 310  1214.057
 311  988.2893
 312  733.8688
 313  876.6225
 314  697.653
 315  478.4711
 316  708.1351
 317  444.3116
 318  541.2191
 319  824.7004
 320  814.6223
 321  821.8875
 322  643.273
 323  858.5291
 324  808.4524
 325  1119.795
 326  1211.89
 327  1088.572
 328  1120.064
 329  1159.262
 330  927.9122
 331  785.4382
 332  1032.047
 333  1070.485
 334  719.913
 335  1273.41
 336  1271.706
 337  857.6805
 338  686.0951
 339  711.3324
 340  468.7653
 341  918.3757
 342  1180.955
 343  876.6008
 344  812.8271
 345  618.6793
 346  1024.723
 347  1071.35
 348  984.2465
 349  1074.353
 350  867.2604
 351  815.5353
 352  916.1083
 353  743.6005
 354  854.5683
 355  732.0508
 356  640.2687
 357  553.5656
 358  709.7343
 359  684.7382
 360  866.1864
 361  787.922
 362  857.8026
 363  899.3544
 364  650.8022
 365  612.1401
 366  800.7269
 367  1019.268
 368  1266.396
 369  1042.847
 370  882.7375
 371  891.3956
 372  340.865
 373  87.40314
 374  462.9829
 375  761.6569
 376  911.9028
 377  951.6088
 378  1033.038
 379  488.6786
 380  400.7225
 381  673.7212
 382  429.6066
 383  497.7789
 384  830.4396
 385  789.1307
 386  781.6815
 387  523.0244
 388  911.0806
 389  993.7501
 390  1099.187
 391  1224.043
 392  1123.361
 393  983.4189
 394  909.8733
 395  598.2951
 396  552.5061
 397  705.4764
 398  929.4642
 399  1039.983
 400  820.209
 401  656.6082
 402  873.2447
 403  456.0644
 404  581.4304
 405  667.1653
 406  772.9948
 407  1063.646
 408  1173.273
 409  916.9901
 410  905.1003
 411  762.8604
 412  773.5021
 413  639.7795
 414  531.817
 415  513.2451
 416  672.6008
 417  574.6145
 418  407.2719
 419  856.9489
 420  790.884
 421  760.0966
 422  1146.519
 423  1053.513
 424  843.9681
 425  992.6982
 426  935.0939
 427  1264.727
 428  1178.727
 429  852.2686
 430  600.4576
 431  772.1774
 432  792.2434
 433  891.9472
 434  911.4125
 435  675.9574
 436  701.7936
 437  761.1603
 438  714.3896
 439  699.7243
 440  854.1919
 441  558.1296
 442  583.5834
 443  833.6483
 444  1056.856
 445  1070.923
 446  896.207
 447  944.9497
 448  903.6882
 449  719.1623
 450  722.0752
 451  978.5279
 452  852.8457
 453  914.9067
 454  836.3241
 455  920.9757
 456  690.0377
 457  712.37
 458  1008.236
 459  813.1069
 460  457.3483
 461  794.3346
 462  852.1243
 463  1010.448
 464  805.5374
 465  900.8765
 466  1082.595
 467  1211.196
 468  882.5684
 469  648.1396
 470  887.0514
 471  1043.017
 472  1107.088
 473  1225.856
 474  1131.519
 475  928.6215
 476  963.4859
 477  1228.34
 478  1109.098
 479  587.5599
 480  812.6349
 481  994.7722
 482  682.6555
 483  1050.163
 484  849.8008
 485  819.4143
 486  807.9465
 487  894.5078
 488  777.9008
 489  475.3137
 490  627.7079
 491  1030.586
 492  803.4313
 493  847.0358
 494  870.4385
 495  583.6784
 496  561.4743
 497  881.9992
 498  600.329
 499  731.0266
 500  675.0239
 501  1045.698
 502  843.8537
 503  820.4569
 504  676.3947
 505  832.6478
 506  910.8181
 507  685.6862
 508  735.5519
 509  504.947
 510  806.9893
 511  895.7114
