# Input file       =  1201376082.115093_cleaned.dat
# Candidate        =  PSR_0332+5434
# Telescope        =  AR
# Epoch_topo       =  58148.815985128393
# Epoch_bary       =  N/A
# T_sample         =  0.002
# Data Folded      =  7340032
# Data Avg         =  0.0879487656441465
# Data StdDev      =  3.39311078156397 
# Profile Bins     =  512
# Profile Avg      =  1260.87353525996 
# Profile StdDev   =  406.267456639396 
# Reduced chi-sqr  =  0.903
# Prob(Noise)      <  0.943   (~0.0 sigma)
# P_topo (ms)      =  714.575743272235  +/- 0.000413
# P'_topo (s/s)    =  -0                +/- 2.18e-10
# P''_topo (s/s^2) =  0                 +/- 9.62e-14
# P_bary (ms)      =  N/A
# P'_bary (s/s)    =  N/A
# P''_bary (s/s^2) =  N/A
# P_orb (s)        =  N/A
# asin(i)/c (s)    =  N/A
# eccentricity     =  N/A
# w (rad)          =  N/A
# T_peri           =  N/A
######################################################
   0  1304.411
   1  1279.76
   2  1338.415
   3  1712.264
   4  1471.305
   5  887.0104
   6  757.2986
   7  1330.394
   8  1448.388
   9  1112.233
  10  1450.101
  11  1448.951
  12  1365.716
  13  1187.279
  14  1061.036
  15  1276.284
  16  1127.227
  17  1295.526
  18  1299.327
  19  1050.004
  20  977.794
  21  947.6983
  22  908.0665
  23  837.7029
  24  727.7789
  25  720.0129
  26  936.0247
  27  1003.172
  28  1255.322
  29  1410.352
  30  1503.119
  31  1222.234
  32  1183.909
  33  1243.099
  34  1260.967
  35  1314.875
  36  1413.921
  37  1515.171
  38  1508.591
  39  1360.867
  40  1370.995
  41  1353.892
  42  1344.928
  43  1226.435
  44  1172.141
  45  1214.701
  46  982.9918
  47  904.515
  48  915.664
  49  637.6804
  50  1150.478
  51  1348.429
  52  1233.231
  53  1104.328
  54  1141.962
  55  1534.764
  56  1515.511
  57  1413.722
  58  1498.681
  59  1559.516
  60  1417.691
  61  1140.043
  62  1228.647
  63  1427.137
  64  1290.388
  65  1202.157
  66  1056.859
  67  902.8732
  68  1207.219
  69  1509.005
  70  1138.46
  71  1036.869
  72  1015.344
  73  661.4236
  74  865.8582
  75  1043.295
  76  1376.316
  77  1019.458
  78  1184.405
  79  1167.075
  80  1505.629
  81  1203.351
  82  968.4711
  83  988.4877
  84  1172.57
  85  893.0727
  86  624.7759
  87  982.7775
  88  1314.909
  89  936.7859
  90  597.8146
  91  846.9379
  92  1219.345
  93  1247.801
  94  1127.146
  95  1273.034
  96  1187.85
  97  1077.709
  98  706.8069
  99  894.7991
 100  1096.683
 101  980.0272
 102  984.2736
 103  1267.578
 104  1328.885
 105  1289.482
 106  1002.006
 107  1385.111
 108  1425.111
 109  1236.561
 110  1321.742
 111  1495.366
 112  1156.684
 113  1282.787
 114  1132.527
 115  1172.009
 116  1045.402
 117  1007.033
 118  1114.989
 119  1184.323
 120  1184.121
 121  1071.772
 122  1211.027
 123  1355.282
 124  1278.288
 125  1126.184
 126  1181.712
 127  1351.967
 128  1403.243
 129  1178.964
 130  1170.04
 131  1299.619
 132  1235.413
 133  1357.854
 134  1459.329
 135  1655.408
 136  1362.597
 137  1295.158
 138  1462.56
 139  1624.854
 140  1381.729
 141  1113.451
 142  1094.473
 143  1246.11
 144  1457.256
 145  1583.896
 146  2000.024
 147  1739.305
 148  1391.672
 149  1241.506
 150  1320.11
 151  1418.976
 152  1471.636
 153  1425.808
 154  1304.426
 155  1278.079
 156  1005.26
 157  1183.084
 158  1214.683
 159  886.004
 160  1138.103
 161  1260.224
 162  1299.183
 163  1497.317
 164  1477.822
 165  1469.937
 166  1416.835
 167  1604.632
 168  1602.313
 169  2059.723
 170  1643.483
 171  1641.506
 172  1705.966
 173  1381.509
 174  1492.441
 175  1409.943
 176  1455.656
 177  1214.256
 178  1301.236
 179  1479.313
 180  1183.473
 181  1053.668
 182  1241.849
 183  1312.822
 184  1119.648
 185  1032.814
 186  846.7134
 187  1151.855
 188  1152.45
 189  1264.229
 190  1287.192
 191  1135.746
 192  860.696
 193  1284.801
 194  1362.446
 195  1390.894
 196  1561.811
 197  1096.067
 198  961.9993
 199  1642.963
 200  1504.582
 201  1009.599
 202  1269.798
 203  1655.815
 204  1542.867
 205  1164.037
 206  1290.038
 207  1388.238
 208  1254.546
 209  1531.824
 210  1744.815
 211  1353.42
 212  1238.927
 213  1228.234
 214  1101.558
 215  1144.748
 216  1476.421
 217  1460.677
 218  1472.566
 219  1381.496
 220  978.053
 221  1346.268
 222  1216.921
 223  922.9771
 224  1027.134
 225  1301.978
 226  1232.087
 227  990.6902
 228  1103.62
 229  726.4932
 230  778.8191
 231  969.984
 232  1044.878
 233  1174.94
 234  1058.089
 235  1282.269
 236  1162.878
 237  1110.458
 238  1296.752
 239  1310.69
 240  1448.335
 241  1451.377
 242  1444.366
 243  1285.751
 244  1005.978
 245  1153.777
 246  1596.432
 247  1348.374
 248  1593.181
 249  1429.663
 250  1358.133
 251  1402.162
 252  1355.366
 253  1173.777
 254  1192.146
 255  1229.786
 256  1244.043
 257  1462.899
 258  1367.152
 259  1467.92
 260  1686.757
 261  1410.073
 262  1077.407
 263  1208.981
 264  1240.421
 265  1324.184
 266  1147.092
 267  1045.799
 268  940.5483
 269  1319.736
 270  1487.075
 271  1488.256
 272  1554.916
 273  1931.731
 274  2312.525
 275  2708.089
 276  3026.17
 277  3271.024
 278  2816.689
 279  2169.196
 280  1150.311
 281  1245.717
 282  1498.797
 283  1614.76
 284  1338.767
 285  1550.525
 286  1467.12
 287  1676.118
 288  1803.683
 289  1657.654
 290  1426.264
 291  1154.849
 292  1403.245
 293  1216.648
 294  1514.886
 295  1084.649
 296  1304.03
 297  1316.95
 298  1219.297
 299  837.9064
 300  993.9112
 301  1143.399
 302  1423.46
 303  1324.372
 304  1343.88
 305  1185.159
 306  1375.016
 307  1550.077
 308  1381.181
 309  1339.239
 310  1143.183
 311  1112.75
 312  1208.881
 313  1227.95
 314  1049.291
 315  980.622
 316  785.3756
 317  873.6815
 318  1078.893
 319  1095.536
 320  1256.877
 321  1238.622
 322  1078.453
 323  1152.476
 324  1088.404
 325  1214.663
 326  966.898
 327  870.8508
 328  1000.989
 329  1147.998
 330  1246.201
 331  1100.421
 332  1165.285
 333  1094.389
 334  1082.951
 335  955.8313
 336  896.5007
 337  1216.48
 338  1217.788
 339  1084.536
 340  906.1807
 341  1005.709
 342  1259.732
 343  1069.984
 344  1470.554
 345  1954.418
 346  1539.047
 347  1421.454
 348  1318.304
 349  1281.127
 350  1116.665
 351  1207.716
 352  1382.295
 353  1355.189
 354  1316.086
 355  1317.051
 356  900.2625
 357  997.2612
 358  1351.777
 359  1399.104
 360  1042.479
 361  926.9069
 362  1186.26
 363  1616.38
 364  1139.751
 365  1060.21
 366  1275.233
 367  1084.39
 368  1061.599
 369  1133.188
 370  1232.375
 371  927.0923
 372  915.0445
 373  1115.813
 374  1378.531
 375  1277.901
 376  1028.675
 377  1304.738
 378  1122
 379  759.1766
 380  770.3649
 381  958.4255
 382  969.8997
 383  1026.94
 384  943.8463
 385  1218.105
 386  1308.022
 387  1014.711
 388  820.7976
 389  958.7645
 390  942.5848
 391  1230.168
 392  1313.253
 393  1130.519
 394  1287.24
 395  1250.301
 396  1186.402
 397  1178.496
 398  1201.53
 399  1175.028
 400  1452.036
 401  1360.856
 402  1558.26
 403  1349.083
 404  1401.689
 405  1227.087
 406  1229.315
 407  1283.307
 408  1582.312
 409  1535.385
 410  1324.043
 411  1512.564
 412  1475.806
 413  1259.755
 414  876.6287
 415  1375.577
 416  1536.423
 417  1261.25
 418  1289.205
 419  1358.308
 420  1220.999
 421  1181.146
 422  1066.474
 423  1014.587
 424  1066.913
 425  1397.415
 426  1394.6
 427  1420.583
 428  1298.006
 429  919.9359
 430  916.5442
 431  931.9898
 432  1069.841
 433  1374.163
 434  1441.747
 435  1165.72
 436  1284.407
 437  1180.914
 438  742.9713
 439  1076.079
 440  1224.408
 441  909.844
 442  940.8555
 443  1288.392
 444  1653.261
 445  1253.351
 446  1603.989
 447  1499.35
 448  1334.984
 449  1287.761
 450  1717.686
 451  1489.721
 452  1380.618
 453  1253.01
 454  994.3018
 455  1440.348
 456  1492.207
 457  1186.602
 458  1221.785
 459  1224.138
 460  1466.808
 461  1052.69
 462  1155.553
 463  1270.312
 464  1178.537
 465  1356.901
 466  1232.888
 467  1271.994
 468  1313.188
 469  1263.596
 470  1085.783
 471  866.2101
 472  1285.352
 473  1513.039
 474  1404.95
 475  1137.392
 476  1165.61
 477  1335.393
 478  1439.483
 479  1501.042
 480  1319.464
 481  1196.05
 482  1849.316
 483  1893.246
 484  1425.64
 485  1619.587
 486  1658.697
 487  1463.729
 488  1301.987
 489  1110.82
 490  1180.588
 491  1518.751
 492  1543.715
 493  1438.608
 494  1499.681
 495  1534.839
 496  929.2448
 497  914.983
 498  1190.596
 499  1263.469
 500  1103.399
 501  1216.584
 502  1478.157
 503  1180.831
 504  845.5461
 505  1066.873
 506  1197.836
 507  1437.539
 508  1347.107
 509  1147.906
 510  838.1167
 511  936.1439
