# Input file       =  1201792005.108639_cleaned.dat
# Candidate        =  PSR_0332+5434
# Telescope        =  AR
# Epoch_topo       =  58153.629908664807
# Epoch_bary       =  N/A
# T_sample         =  0.002
# Data Folded      =  7340032
# Data Avg         =  0.136589932700319
# Data StdDev      =  4.33962229456286 
# Profile Bins     =  512
# Profile Avg      =  1958.77406370838 
# Profile StdDev   =  519.59615405632  
# Reduced chi-sqr  =  0.740
# Prob(Noise)      <  1   (~0.0 sigma)
# P_topo (ms)      =  714.577290699029  +/- 0.000504
# P'_topo (s/s)    =  -0                +/- 2.66e-10
# P''_topo (s/s^2) =  0                 +/- 1.17e-13
# P_bary (ms)      =  N/A
# P'_bary (s/s)    =  N/A
# P''_bary (s/s^2) =  N/A
# P_orb (s)        =  N/A
# asin(i)/c (s)    =  N/A
# eccentricity     =  N/A
# w (rad)          =  N/A
# T_peri           =  N/A
######################################################
   0  2252.921
   1  2470.918
   2  2500.28
   3  2463.545
   4  2391.325
   5  2453.812
   6  2372.127
   7  2450.395
   8  2514.057
   9  2420.452
  10  2177.331
  11  2160.876
  12  1868.75
  13  2315.68
  14  2387.396
  15  2251.652
  16  2054.825
  17  2205.003
  18  1768.585
  19  1691.491
  20  1926.149
  21  1740.575
  22  1461.922
  23  1567.287
  24  1636.372
  25  1941.505
  26  2198.559
  27  2288.434
  28  1681.404
  29  1641.64
  30  1978.337
  31  2157.891
  32  2015.629
  33  2046.253
  34  1780.228
  35  1890.61
  36  2154.833
  37  2042.03
  38  1846.949
  39  1660.864
  40  1753.868
  41  2131.308
  42  1805.801
  43  1649.962
  44  1708.368
  45  1780.277
  46  1703.574
  47  1474.516
  48  1454.874
  49  1878.929
  50  2309.537
  51  2122.643
  52  1837.948
  53  1873.008
  54  1732.79
  55  1937.313
  56  2188.037
  57  2017.81
  58  1739.854
  59  1988.744
  60  2189.733
  61  1690.78
  62  1581.925
  63  1690.515
  64  1554.802
  65  1680.675
  66  1822.907
  67  1747.876
  68  1839.727
  69  1662.141
  70  1451.55
  71  1624.479
  72  1781.249
  73  2124.166
  74  2435.452
  75  1786.867
  76  1490.379
  77  2114.628
  78  1995.848
  79  2097.629
  80  1937.615
  81  1893.296
  82  2005.395
  83  2286.694
  84  2196.903
  85  1913.191
  86  2180.06
  87  2058.495
  88  2295.289
  89  2451.762
  90  2307.837
  91  1717.451
  92  1616.817
  93  1612.815
  94  1749.249
  95  2049.828
  96  2157.271
  97  2482.361
  98  2404.15
  99  2409.248
 100  2016.852
 101  1862.373
 102  2585.806
 103  2775.743
 104  2367.997
 105  2246.195
 106  2417.822
 107  2280.109
 108  2038.738
 109  2189.009
 110  2140.296
 111  2372.045
 112  2713.29
 113  2428.579
 114  2216.36
 115  1863.37
 116  1626.051
 117  1994.492
 118  1690.718
 119  1286.164
 120  1491.953
 121  1751.958
 122  1809.399
 123  1909.67
 124  1439.522
 125  1622.274
 126  1794.609
 127  1415.83
 128  1950.608
 129  2347.887
 130  2506.447
 131  2187.292
 132  1829.627
 133  1919.224
 134  1835.047
 135  2333.552
 136  2559.988
 137  2676.987
 138  2249.17
 139  1763.995
 140  1681.8
 141  1473.045
 142  1431.662
 143  1691.811
 144  1752.568
 145  1644.579
 146  1612.583
 147  1549.501
 148  1363.26
 149  1409.952
 150  1601.192
 151  1954.118
 152  1754.318
 153  1908.194
 154  1882.225
 155  1886.171
 156  1833.819
 157  1519.222
 158  1187.597
 159  1547.475
 160  1588.347
 161  1537.624
 162  2041.207
 163  1700.664
 164  1683.711
 165  1803.803
 166  1787.304
 167  1701.533
 168  1923.462
 169  2071.148
 170  1993.912
 171  1859.133
 172  1632.926
 173  1855.965
 174  2073.287
 175  2255.719
 176  1890.902
 177  2058.633
 178  1849.963
 179  1822.938
 180  2117.376
 181  2149.979
 182  2050.878
 183  2062.823
 184  2272.51
 185  2275.533
 186  1869.942
 187  1929.682
 188  2120.898
 189  2112.513
 190  2072.028
 191  2246.127
 192  2001.417
 193  1872.799
 194  1908.012
 195  1488.79
 196  1516.041
 197  1666.267
 198  1670.391
 199  1993.869
 200  1983.858
 201  1576.092
 202  1743.916
 203  2130.948
 204  1949.74
 205  1812.875
 206  2100.842
 207  2370.792
 208  2085.782
 209  1945.982
 210  1999.31
 211  1991.918
 212  2233.708
 213  1907.163
 214  1996.107
 215  2254.895
 216  2255.537
 217  2246.108
 218  1912.514
 219  1766.078
 220  1982.415
 221  2270.504
 222  2007.536
 223  1791.845
 224  2030.061
 225  2085.63
 226  1672.405
 227  1629.141
 228  1885.226
 229  1694.428
 230  1663.367
 231  1685.792
 232  1708.45
 233  1655.007
 234  1593.741
 235  1489.456
 236  1380.089
 237  1836.172
 238  1672.716
 239  1586.285
 240  1864.945
 241  1821.679
 242  2086.102
 243  2028.969
 244  2040.543
 245  1784.165
 246  1994.986
 247  2303.179
 248  2367.173
 249  2192.203
 250  2089.728
 251  1886.374
 252  2105.299
 253  2435.172
 254  2286.595
 255  2297.773
 256  2372.274
 257  1890.978
 258  1454.648
 259  1572.945
 260  2175.32
 261  1859.088
 262  1897.822
 263  1582.288
 264  1548.536
 265  1811.027
 266  2207.05
 267  2250.016
 268  2004.023
 269  1540.817
 270  1454.094
 271  1606.381
 272  1488.917
 273  1393.716
 274  1722.04
 275  1920.625
 276  2071.077
 277  1972.556
 278  1965.651
 279  1580.453
 280  1861.773
 281  2266.238
 282  1710.906
 283  1878.231
 284  1887.21
 285  2256.199
 286  2185.476
 287  2068.095
 288  1923.683
 289  2542.46
 290  2716.35
 291  2034.047
 292  2023.095
 293  1875.671
 294  1944.884
 295  2038.597
 296  2018.505
 297  1937.306
 298  1901.926
 299  2411.031
 300  2224.804
 301  1864.865
 302  1942.481
 303  2033.339
 304  2473.604
 305  3172.868
 306  3340.444
 307  3506.909
 308  3031.099
 309  2567.626
 310  2298.021
 311  2242.992
 312  2357.707
 313  2050.451
 314  2008.833
 315  1626.338
 316  1487.797
 317  1783.691
 318  1762.841
 319  1879.604
 320  1629.765
 321  1824.21
 322  2089.449
 323  2111.418
 324  1817.827
 325  1843.735
 326  2021.62
 327  2154.07
 328  2034.144
 329  1620.89
 330  1581.613
 331  1965.054
 332  2044.434
 333  1747.883
 334  1693.991
 335  2006.771
 336  2038.262
 337  2094.86
 338  2521.475
 339  2311.342
 340  2030.604
 341  2092.303
 342  2508.754
 343  2719.111
 344  2502.663
 345  2230.202
 346  2274.242
 347  2101.461
 348  2114.815
 349  2092.067
 350  2390.488
 351  2307.274
 352  2249.718
 353  2111.471
 354  2086.171
 355  2553.531
 356  2231.378
 357  1980.12
 358  1471
 359  1525.348
 360  1807.745
 361  2023.04
 362  1916.442
 363  1674.938
 364  1917.413
 365  1624.817
 366  1706.668
 367  1763.95
 368  1322.776
 369  1086.792
 370  1309.473
 371  1216.205
 372  1472.531
 373  1610.605
 374  1908.551
 375  1823.081
 376  1569.513
 377  1776.462
 378  1568.327
 379  1808.764
 380  2076.221
 381  1855.483
 382  2168.056
 383  2000.1
 384  1773.038
 385  1967.678
 386  2012.865
 387  1719.434
 388  1311.942
 389  1645.888
 390  2092.89
 391  1847.911
 392  1495.124
 393  1605.899
 394  1588.758
 395  1416.14
 396  1588.993
 397  2011.361
 398  1856.042
 399  1800.71
 400  1991.659
 401  2163.853
 402  1816.435
 403  1634.791
 404  1845.205
 405  2184.505
 406  2100.992
 407  2156.168
 408  2154.439
 409  1657.192
 410  1765.619
 411  1947.378
 412  1551.278
 413  1415.252
 414  1654.097
 415  1507.575
 416  1525.966
 417  1436.479
 418  1849.906
 419  1863.79
 420  1514.712
 421  1684.075
 422  1826.4
 423  1863.533
 424  2066.989
 425  1922.254
 426  1889.543
 427  1851.165
 428  2152.907
 429  2208.579
 430  1829.06
 431  1800.634
 432  1861.699
 433  1624.98
 434  1859.785
 435  1858.192
 436  2024.695
 437  1900.882
 438  1672.498
 439  1645.944
 440  1604.622
 441  1609.985
 442  1961.875
 443  1881.469
 444  1637.563
 445  1608.236
 446  2010.656
 447  2019.675
 448  2247.008
 449  2124.292
 450  1846.055
 451  1984.09
 452  1494.387
 453  1691.31
 454  1990.214
 455  2266.105
 456  2119.228
 457  2170.394
 458  1973.978
 459  1545.659
 460  1703.209
 461  1775.509
 462  1774.404
 463  2119.972
 464  2185.456
 465  2123.325
 466  1943.248
 467  1860.37
 468  1839.217
 469  1767.949
 470  2115.617
 471  1795.258
 472  1963.702
 473  1874.35
 474  1625.735
 475  1731.386
 476  1826.915
 477  1910.452
 478  2035.669
 479  1738.335
 480  1751.004
 481  1924.687
 482  2000.959
 483  2292.001
 484  2198.803
 485  2128.288
 486  2408.985
 487  2480.71
 488  1798.612
 489  2009.889
 490  2121.499
 491  2050.998
 492  1856.111
 493  2082.593
 494  2323.213
 495  2520.661
 496  2526.057
 497  2650.275
 498  2714.265
 499  2771.662
 500  2285.222
 501  2565.934
 502  2354.84
 503  2340.49
 504  2226.944
 505  2396.331
 506  2233.262
 507  2147.721
 508  2279.435
 509  2674.041
 510  2702.733
 511  2448.997
