# Input file       =  1201777429.120752_cleaned.dat
# Candidate        =  PSR_0332+5434
# Telescope        =  AR
# Epoch_topo       =  58153.461205101295
# Epoch_bary       =  N/A
# T_sample         =  0.002
# Data Folded      =  7143424
# Data Avg         =  0.125032296338024
# Data StdDev      =  4.84448483173342 
# Profile Bins     =  512
# Profile Avg      =  1744.5256430178  
# Profile StdDev   =  572.223690868228 
# Reduced chi-sqr  =  2.295
# Prob(Noise)      <  6.23e-54   (~15.4 sigma)
# P_topo (ms)      =  714.577210878284  +/- 1.69e-05
# P'_topo (s/s)    =  -0                +/- 9.17e-12
# P''_topo (s/s^2) =  0                 +/- 4.16e-15
# P_bary (ms)      =  N/A
# P'_bary (s/s)    =  N/A
# P''_bary (s/s^2) =  N/A
# P_orb (s)        =  N/A
# asin(i)/c (s)    =  N/A
# eccentricity     =  N/A
# w (rad)          =  N/A
# T_peri           =  N/A
######################################################
   0  728.4297
   1  889.5352
   2  1280.195
   3  1272.136
   4  1885.115
   5  2033.317
   6  2063.689
   7  1216.229
   8  959.0488
   9  1214.837
  10  1882.598
  11  2305.238
  12  2544.61
  13  2753.276
  14  2412.938
  15  1672.481
  16  961.1817
  17  1185.786
  18  1233.41
  19  1102.021
  20  1749.873
  21  1979.959
  22  2013.348
  23  1434.452
  24  1052.343
  25  910.7297
  26  1387.364
  27  2091.618
  28  2492.398
  29  3092.822
  30  2767.012
  31  2211.277
  32  1359.868
  33  836.9622
  34  1124.067
  35  1264.435
  36  1735.182
  37  1928.328
  38  1930.811
  39  1540.147
  40  1143.167
  41  819.2902
  42  974.0135
  43  1699.552
  44  2355.198
  45  2631.316
  46  3172.296
  47  2682.3
  48  2125.981
  49  1702.055
  50  1232.817
  51  1133.118
  52  1400.353
  53  1702.176
  54  2178.353
  55  1919.148
  56  1460.945
  57  1362.26
  58  897.6553
  59  1246.32
  60  1810.224
  61  2901.298
  62  2779.297
  63  2839.775
  64  2838.982
  65  1713.995
  66  860.4768
  67  583.3813
  68  1066.186
  69  1767.787
  70  2039.546
  71  2354.102
  72  2013.072
  73  1786.558
  74  1122.444
  75  839.5007
  76  1537.136
  77  2131.375
  78  2476.343
  79  2579.579
  80  2601.017
  81  2101.667
  82  1170.055
  83  704.0407
  84  841.1259
  85  1325.626
  86  1694.238
  87  2012.757
  88  1968.221
  89  1676.088
  90  1404.806
  91  1271.894
  92  1687.353
  93  2029.764
  94  2318.815
  95  2247.539
  96  2349.188
  97  2159.209
  98  1800.068
  99  1188.756
 100  1390.604
 101  1399.968
 102  1399.457
 103  1931.58
 104  1931.782
 105  1693.101
 106  1302.683
 107  1187.248
 108  1364.358
 109  1861.571
 110  2469.163
 111  2436.42
 112  2722.229
 113  2668.572
 114  1911.612
 115  962.8597
 116  634.6138
 117  1444.254
 118  2037.775
 119  2140.976
 120  2307.22
 121  2275.128
 122  2177.828
 123  1262.051
 124  1117.15
 125  1111.931
 126  2011.142
 127  2438.99
 128  2436.937
 129  2569.317
 130  2216.057
 131  1418.098
 132  958.2
 133  888.3924
 134  979.5676
 135  1292.931
 136  1761.106
 137  2315.995
 138  2001.971
 139  1290.969
 140  957.7011
 141  1040.345
 142  1345.985
 143  1820.286
 144  2291.42
 145  2722.305
 146  2609.918
 147  2194.023
 148  1199.714
 149  719.0595
 150  1002.838
 151  1188
 152  1223.625
 153  1948.075
 154  1937.576
 155  1493.503
 156  1315.077
 157  860.7469
 158  980.6312
 159  1538.061
 160  1925.736
 161  2560.668
 162  2962.485
 163  2370.211
 164  1703.768
 165  1299.013
 166  928.7253
 167  919.7464
 168  1298.404
 169  1612.183
 170  2018.106
 171  1799.302
 172  1204.084
 173  1025.419
 174  1433.563
 175  1736.247
 176  2154.419
 177  2655.658
 178  2830.558
 179  2416.436
 180  1805.825
 181  1075.487
 182  1007.13
 183  1546.497
 184  1855.778
 185  1830.259
 186  1990.837
 187  1759.4
 188  1500.35
 189  1060.286
 190  1206.576
 191  1753.16
 192  2283.79
 193  2578.775
 194  2722.477
 195  2829.767
 196  2507.09
 197  1255.305
 198  939.6122
 199  1051.411
 200  1280.351
 201  1811.538
 202  2197.606
 203  2344.193
 204  2075.161
 205  983.3769
 206  841.9746
 207  1065.509
 208  1471.281
 209  2168.059
 210  2316.612
 211  2706.744
 212  2864.533
 213  2349.313
 214  1432.221
 215  990.1192
 216  981.9608
 217  1333.108
 218  1953.436
 219  1959.156
 220  2117.62
 221  1777.366
 222  1262.212
 223  806.5783
 224  676.7011
 225  1454.305
 226  1891.057
 227  2495.478
 228  2665.777
 229  2117.691
 230  1247.905
 231  738.5697
 232  913.0232
 233  892.1188
 234  1439.106
 235  1465.925
 236  2120.528
 237  2234.319
 238  1418.262
 239  944.4493
 240  1066.198
 241  1479.312
 242  1774.734
 243  2161.421
 244  2549.692
 245  2516.504
 246  2244.699
 247  1399.358
 248  1043.997
 249  1348.921
 250  1679.26
 251  1608.618
 252  1791.381
 253  2149.638
 254  1843.818
 255  1447.623
 256  1264.54
 257  1776.511
 258  2374.376
 259  3386.908
 260  3945.592
 261  4086.758
 262  3484.644
 263  2500.932
 264  1731.393
 265  1486.191
 266  1779.573
 267  1962.417
 268  1968.207
 269  2148.828
 270  1607.854
 271  1363.52
 272  571.3652
 273  1122.894
 274  2007.781
 275  2730.2
 276  2804.024
 277  2691.988
 278  2985.236
 279  2028.524
 280  1342.82
 281  1048.999
 282  985.8752
 283  1378.575
 284  1829.658
 285  2294.604
 286  2370.254
 287  1680.942
 288  1261.095
 289  736.5735
 290  1394
 291  1727.41
 292  2649.287
 293  3224.183
 294  2962.712
 295  2316.348
 296  1546.732
 297  693.5303
 298  550.3582
 299  937.9225
 300  1607.189
 301  2388.519
 302  2587.611
 303  2487.278
 304  1575.435
 305  757.9236
 306  661.8311
 307  1179.019
 308  2276.96
 309  2504.527
 310  3162.079
 311  2870.908
 312  1960.931
 313  1654.483
 314  1333.792
 315  1415.147
 316  1510.131
 317  2057.624
 318  2442.561
 319  2534.542
 320  1630.636
 321  960.6924
 322  1348.577
 323  1459.85
 324  1751.848
 325  1941.712
 326  2594.059
 327  2306.174
 328  2160.708
 329  1592.193
 330  1283.985
 331  1137.609
 332  1208.305
 333  1572.415
 334  1763.049
 335  2184.192
 336  2181.058
 337  1508.167
 338  1364.342
 339  1117.566
 340  1665.126
 341  2062.829
 342  2415.983
 343  2759.162
 344  2761.352
 345  2470.373
 346  1247.902
 347  1067.409
 348  1203.06
 349  1620.693
 350  1898.538
 351  1888.353
 352  2036.237
 353  1722.263
 354  970.0087
 355  827.7941
 356  1201.084
 357  1908.148
 358  2643.293
 359  2735.177
 360  2598.417
 361  2316.773
 362  1439.107
 363  843.3747
 364  953.2167
 365  1487.963
 366  1846.089
 367  2142.209
 368  2367.855
 369  1958.562
 370  1509.998
 371  797.6233
 372  691.8736
 373  1589.108
 374  2145.292
 375  2421.287
 376  2753.754
 377  2665.498
 378  1789.852
 379  886.6603
 380  778.1949
 381  839.7228
 382  1307.935
 383  1922.604
 384  2025.317
 385  2541.739
 386  2053.222
 387  1172.314
 388  783.5394
 389  979.4943
 390  1903.561
 391  2310.585
 392  2934.923
 393  3050.414
 394  2564.145
 395  1762.764
 396  945.3231
 397  1183.528
 398  1281.801
 399  1098.776
 400  1649.258
 401  1814.112
 402  1801.616
 403  1553.646
 404  1181.31
 405  1094.54
 406  1407.198
 407  2467.523
 408  2570.108
 409  2928.939
 410  2782.188
 411  2442.817
 412  1568.079
 413  1289.291
 414  1267.016
 415  1263.901
 416  1185.71
 417  1863.445
 418  2163.979
 419  1909.242
 420  1456.71
 421  1126.469
 422  1472.889
 423  2163.286
 424  2213.516
 425  2169.344
 426  2221.686
 427  2617.588
 428  1984.227
 429  1078.516
 430  1146.223
 431  1363.661
 432  1918.311
 433  1889.85
 434  2097.415
 435  1604.419
 436  1453.875
 437  1293.314
 438  1107.357
 439  1581.005
 440  2028.209
 441  2560.033
 442  2583.081
 443  2362.611
 444  1993.053
 445  1082.034
 446  763.1538
 447  771.5479
 448  1143.953
 449  1250.255
 450  2082.411
 451  2365.553
 452  1860.682
 453  1099.795
 454  464.0497
 455  1178.277
 456  1892.35
 457  2439.355
 458  2526.35
 459  2522.391
 460  2209.489
 461  1483.123
 462  1117.022
 463  1022.524
 464  1412.862
 465  1590.188
 466  1733.116
 467  2178.225
 468  2005.05
 469  1603.606
 470  813.0342
 471  1055.155
 472  1127.616
 473  1453.242
 474  2268.072
 475  2277.334
 476  2665.352
 477  2279.357
 478  1475.483
 479  820.8649
 480  943.8391
 481  990.2172
 482  1244.683
 483  1779.871
 484  2153.883
 485  2104.384
 486  1702.618
 487  1087.935
 488  978.2396
 489  1666.281
 490  2209.809
 491  2268.808
 492  2719.946
 493  2395.417
 494  1727.176
 495  1355.702
 496  743.3433
 497  923.4718
 498  1125.329
 499  1515.358
 500  1592.344
 501  1469.811
 502  1651.71
 503  1472.879
 504  1413.05
 505  1120.394
 506  1516.651
 507  1988.094
 508  2191.428
 509  2527.814
 510  2407.245
 511  1592.671
