# Input file       =  1201792005.108639_cleaned.dat
# Candidate        =  PSR_0332+5434
# Telescope        =  AR
# Epoch_topo       =  58153.629908664807
# Epoch_bary       =  N/A
# T_sample         =  0.002
# Data Folded      =  7340032
# Data Avg         =  0.136589932700319
# Data StdDev      =  4.33962229456286 
# Profile Bins     =  1024
# Profile Avg      =  979.387031862643 
# Profile StdDev   =  367.409964011674 
# Reduced chi-sqr  =  0.675
# Prob(Noise)      <  1   (~0.0 sigma)
# P_topo (ms)      =  714.577290687603  +/- 0.000502
# P'_topo (s/s)    =  -0                +/- 2.65e-10
# P''_topo (s/s^2) =  0                 +/- 1.17e-13
# P_bary (ms)      =  N/A
# P'_bary (s/s)    =  N/A
# P''_bary (s/s^2) =  N/A
# P_orb (s)        =  N/A
# asin(i)/c (s)    =  N/A
# eccentricity     =  N/A
# w (rad)          =  N/A
# T_peri           =  N/A
######################################################
   0  1100.516
   1  1184.85
   2  1243.897
   3  1217.465
   4  1286.711
   5  1228.127
   6  1241.246
   7  1189.115
   8  1220.07
   9  1176.324
  10  1234.467
  11  1228.961
  12  1202.38
  13  1161.375
  14  1241.465
  15  1230.663
  16  1251.585
  17  1273.081
  18  1201.779
  19  1161.677
  20  1045.37
  21  1134.162
  22  1088.658
  23  962.0017
  24  886.6375
  25  1060.99
  26  1190.062
  27  1198.261
  28  1176.259
  29  1170.999
  30  1141.83
  31  1057.056
  32  1017.516
  33  1045.755
  34  1117.306
  35  1073.82
  36  844.2084
  37  773.4364
  38  884.7199
  39  906.9521
  40  990.407
  41  925.2688
  42  831.4465
  43  869.0663
  44  682.913
  45  719.4086
  46  773.5792
  47  878.3437
  48  800.0335
  49  815.6159
  50  991.3261
  51  1036.713
  52  1109.166
  53  1151.823
  54  1161.927
  55  1022.368
  56  822.2261
  57  795.7517
  58  791.029
  59  904.5221
  60  979.4802
  61  1114.759
  62  1060.668
  63  983.6868
  64  1038.594
  65  1059.38
  66  999.1382
  67  957.9603
  68  894.1246
  69  866.6775
  70  928.131
  71  1063.613
  72  1084.997
  73  1051.252
  74  1034.933
  75  948.2264
  76  964.8813
  77  815.3386
  78  845.7623
  79  838.6229
  80  848.6008
  81  1020.681
  82  1070.762
  83  1033.832
  84  876.207
  85  814.786
  86  835.8145
  87  830.014
  88  841.5365
  89  926.9675
  90  855.4182
  91  942.7431
  92  834.4191
  93  758.826
  94  745.213
  95  703.0019
  96  714.8705
  97  817.001
  98  921.1649
  99  1090.204
 100  1158.636
 101  1156.026
 102  1055.352
 103  961.5356
 104  925.4149
 105  917.4764
 106  948.7388
 107  870.3686
 108  880.988
 109  897.2209
 110  976.1643
 111  1031.935
 112  1109.264
 113  1113.485
 114  977.3788
 115  921.7307
 116  870.7454
 117  897.2516
 118  996.8118
 119  1076.346
 120  1117.076
 121  993.3564
 122  837.6152
 123  777.9545
 124  808.5425
 125  807.1383
 126  846.6124
 127  818.6772
 128  777.8545
 129  799.1814
 130  840.9862
 131  856.1666
 132  922.1501
 133  927.4389
 134  873.7523
 135  835.9687
 136  917.729
 137  940.3089
 138  826.0026
 139  732.0844
 140  729.2465
 141  770.5995
 142  829.6016
 143  812.1936
 144  873.7009
 145  958.0192
 146  1060.877
 147  1240.66
 148  1213.528
 149  1109.32
 150  908.1868
 151  709.2137
 152  715.2189
 153  878.1636
 154  1126.54
 155  1004.602
 156  988.8613
 157  1060.408
 158  1052.728
 159  983.6042
 160  958.2375
 161  1007.944
 162  915.2936
 163  960.6794
 164  961.4893
 165  1146.224
 166  1151.593
 167  1099.562
 168  1139.227
 169  1024.192
 170  936.5981
 171  984.8434
 172  1095.643
 173  1082.328
 174  983.5536
 175  1110.396
 176  1170.501
 177  1167.574
 178  1231.209
 179  1220.989
 180  1199.915
 181  978.1225
 182  843.9514
 183  784.4574
 184  828.4449
 185  789.7145
 186  801.4224
 187  860.0758
 188  840.9786
 189  956.1508
 190  1028.708
 191  1081.038
 192  1071.573
 193  1113.252
 194  1282.013
 195  1258.818
 196  1191.955
 197  1185.11
 198  1211.716
 199  1188.465
 200  978.6952
 201  888.9108
 202  921.8298
 203  1049.294
 204  1317.148
 205  1428.933
 206  1385.008
 207  1299.779
 208  1157.774
 209  1122.38
 210  1140.494
 211  1177.617
 212  1208.738
 213  1193.745
 214  1161.681
 215  1002.783
 216  1043.61
 217  1034.274
 218  1118.345
 219  1117.822
 220  1053.621
 221  1072.22
 222  1160.868
 223  1341.969
 224  1354.151
 225  1358.82
 226  1209.462
 227  1099.15
 228  1128.311
 229  1054.635
 230  921.0254
 231  839.4941
 232  803.3809
 233  843.8549
 234  992.9144
 235  1068.44
 236  841.5239
 237  660.1084
 238  623.3993
 239  686.9094
 240  762.777
 241  819.3345
 242  871.5598
 243  913.3418
 244  918.0681
 245  906.5143
 246  980.4319
 247  875.2265
 248  688.3437
 249  679.0596
 250  841.462
 251  906.239
 252  912.1037
 253  746.3958
 254  704.5358
 255  788.8007
 256  1004.355
 257  1084.652
 258  1168.778
 259  1237.368
 260  1256.909
 261  1250.19
 262  1102.396
 263  945.7156
 264  882.6954
 265  956.6176
 266  985.1187
 267  895.9843
 268  908.3929
 269  985.5383
 270  1225.753
 271  1235.211
 272  1289.656
 273  1318.884
 274  1359.314
 275  1240.365
 276  1126.674
 277  1007.92
 278  851.2825
 279  838.6259
 280  871.4482
 281  777.2126
 282  756.0839
 283  674.7009
 284  731.5045
 285  757.038
 286  845.5957
 287  915.7372
 288  866.3995
 289  843.213
 290  816.7094
 291  802.0864
 292  824.3042
 293  762.9857
 294  803.0356
 295  723.7728
 296  673.2044
 297  713.5604
 298  700.2064
 299  692.4444
 300  811.4631
 301  927.2346
 302  987.5195
 303  914.2211
 304  877.388
 305  886.2266
 306  984.0244
 307  938.9963
 308  934.8337
 309  933.9534
 310  964.4581
 311  943.3195
 312  924.5617
 313  845.4271
 314  772.5874
 315  664.372
 316  551.8022
 317  638.8317
 318  791.7905
 319  844.7533
 320  782.654
 321  729.7132
 322  738.4053
 323  948.4171
 324  1032.647
 325  953.0937
 326  824.7556
 327  874.2527
 328  837.3688
 329  840.8783
 330  937.463
 331  870.4632
 332  935.9256
 333  821.6478
 334  883.8318
 335  813.9512
 336  985.7032
 337  1065.332
 338  1006.188
 339  1025.947
 340  996.2776
 341  1025.341
 342  935.9328
 343  807.5313
 344  811.166
 345  894.0408
 346  944.85
 347  880.9626
 348  1081.054
 349  1118.012
 350  1167.47
 351  998.7906
 352  923.656
 353  999.1068
 354  1022.528
 355  1013.511
 356  910.0447
 357  908.7276
 358  890.4492
 359  977.0054
 360  1047.157
 361  1137.997
 362  1059.644
 363  1045.596
 364  1020.362
 365  1030.459
 366  1046.7
 367  994.6064
 368  1145.249
 369  1225.235
 370  1179.96
 371  951.4614
 372  911.1176
 373  940.4771
 374  983.8676
 375  975.1934
 376  1093.872
 377  1093.991
 378  1087.776
 379  984.2214
 380  1034.574
 381  1101.339
 382  1147.769
 383  1052.975
 384  1019.631
 385  931.0794
 386  931.8337
 387  988.7867
 388  964.7813
 389  845.5205
 390  728.8507
 391  692.876
 392  797.5338
 393  785.0585
 394  831.3953
 395  803.398
 396  868.876
 397  862.4936
 398  1031.571
 399  1037.645
 400  1031.59
 401  829.6605
 402  761.299
 403  803.9123
 404  882.8963
 405  1002.492
 406  1060.04
 407  1091.841
 408  959.5837
 409  908.7776
 410  846.34
 411  992.0662
 412  1027.552
 413  1211.847
 414  1174.245
 415  1118.245
 416  1042.373
 417  992.3419
 418  980.7917
 419  949.9414
 420  1032.636
 421  948.4608
 422  983.4194
 423  1117.391
 424  1103.517
 425  1088.734
 426  945.8148
 427  907.5925
 428  998.2475
 429  1035.068
 430  1174.55
 431  1107.542
 432  1106.83
 433  1187.805
 434  1135.534
 435  1043.635
 436  920.1913
 437  950.0258
 438  893.1597
 439  852.6373
 440  987.6915
 441  1090.622
 442  1160.802
 443  1099.945
 444  1011.435
 445  870.4842
 446  886.1171
 447  995.4055
 448  1003.222
 449  1071.884
 450  1049.531
 451  922.4717
 452  885.3269
 453  729.7134
 454  796.2915
 455  953.9508
 456  950.8318
 457  853.6713
 458  848.7637
 459  880.4223
 460  844.9793
 461  777.4032
 462  843.5626
 463  818.4995
 464  891.3813
 465  852.5289
 466  818.4796
 467  801.9816
 468  799.7399
 469  799.9156
 470  745.9581
 471  668.5388
 472  650.2241
 473  842.8758
 474  933.0612
 475  920.4729
 476  836.7084
 477  758.6418
 478  776.4841
 479  894.0735
 480  943.0028
 481  872.0599
 482  925.0229
 483  1028.355
 484  1052.067
 485  982.3579
 486  1023.422
 487  1049.061
 488  1019.356
 489  921.9809
 490  870.8205
 491  971.9073
 492  965.8852
 493  1129.248
 494  1125.136
 495  1224.324
 496  1149.16
 497  1143.195
 498  1088.51
 499  1069.16
 500  1060.052
 501  971.5494
 502  961.8312
 503  931.5562
 504  1069.736
 505  1142.976
 506  1220.813
 507  1203.404
 508  1133.898
 509  1170.288
 510  1104.951
 511  1197.76
 512  1195.254
 513  1071.948
 514  944.7215
 515  858.2986
 516  732.2695
 517  619.5163
 518  795.3676
 519  1039.654
 520  1132.592
 521  929.7739
 522  902.4002
 523  989.6011
 524  951.4022
 525  872.447
 526  742.0594
 527  815.4901
 528  758.3005
 529  838.7744
 530  895.4422
 531  1005.54
 532  1114.518
 533  1158.568
 534  1140.049
 535  1056.975
 536  997.5589
 537  907.6505
 538  760.5234
 539  720.6736
 540  678.1987
 541  805.6133
 542  788.2064
 543  828.9467
 544  711.1708
 545  715.4676
 546  707.7969
 547  721.7599
 548  855.9369
 549  945.1545
 550  949.527
 551  1022.453
 552  1015.062
 553  1046.792
 554  982.1591
 555  987.7068
 556  980.07
 557  893.6495
 558  749.9958
 559  849.2657
 560  918.5847
 561  1075.869
 562  1153.184
 563  1032.147
 564  852.6749
 565  814.6853
 566  939.4276
 567  935.3655
 568  944.0593
 569  1039.079
 570  1153.417
 571  1141.41
 572  1099.191
 573  1059.614
 574  1001.96
 575  1013.178
 576  920.6568
 577  1077.168
 578  1262.788
 579  1423.187
 580  1381.566
 581  1194.407
 582  982.4976
 583  976.6129
 584  1018.608
 585  996.6537
 586  909.0491
 587  945.2361
 588  967.3914
 589  1035.644
 590  1010.922
 591  979.1639
 592  1009.124
 593  1052.324
 594  990.2089
 595  867.4564
 596  935.9783
 597  1084.661
 598  1240.056
 599  1192.619
 600  1131.928
 601  965.9774
 602  966.2895
 603  905.054
 604  977.3963
 605  1006.271
 606  1013.552
 607  1089.205
 608  1215.9
 609  1419.801
 610  1598.302
 611  1644.427
 612  1660.174
 613  1751.417
 614  1783.84
 615  1670.58
 616  1538.681
 617  1348.17
 618  1274.336
 619  1204.742
 620  1154.045
 621  1094.671
 622  1120.276
 623  1162.119
 624  1207.41
 625  1132.382
 626  1003.812
 627  983.525
 628  1018.408
 629  955.951
 630  760.98
 631  755.7656
 632  751.4491
 633  802.0634
 634  892.4901
 635  874.0275
 636  888.1795
 637  945.5777
 638  929.7448
 639  896.015
 640  789.804
 641  867.9044
 642  876.8229
 643  1025.311
 644  1041.149
 645  1037.706
 646  1059.12
 647  1012.801
 648  894.4135
 649  888.7833
 650  927.5546
 651  975.7881
 652  1003.161
 653  1056.79
 654  1059.477
 655  1108.156
 656  1013.217
 657  900.8165
 658  812.289
 659  788.4233
 660  749.2408
 661  843.8945
 662  1002.588
 663  1042.261
 664  1062.69
 665  915.1523
 666  911.0919
 667  826.2098
 668  842.2047
 669  886.8448
 670  1015.869
 671  1022.015
 672  1037.051
 673  1026.371
 674  1025.543
 675  1123.971
 676  1285.713
 677  1265.783
 678  1151.6
 679  1056.554
 680  1039.678
 681  977.5319
 682  1050.492
 683  1121.214
 684  1298.465
 685  1320.351
 686  1371.784
 687  1334.711
 688  1252.613
 689  1162.496
 690  1074.07
 691  1221.856
 692  1108.597
 693  1057.349
 694  1056.012
 695  1009.406
 696  1080.504
 697  1055.321
 698  1058.935
 699  1045.856
 700  1227.631
 701  1240.34
 702  1168.68
 703  1117.995
 704  1103.932
 705  1101.536
 706  1073.87
 707  1012.308
 708  1007.396
 709  1178.516
 710  1330.911
 711  1199.743
 712  1134.448
 713  1013.972
 714  1010.947
 715  882.1566
 716  696.1337
 717  714.8077
 718  783.7682
 719  814.2797
 720  889.8724
 721  978.2778
 722  1014.91
 723  1033.232
 724  986.114
 725  820.5248
 726  807.5998
 727  967.3264
 728  979.09
 729  822.4863
 730  806.572
 731  823.8811
 732  853.0196
 733  936.0664
 734  865.1834
 735  809.2025
 736  641.4349
 737  559.0446
 738  506.072
 739  606.1239
 740  660.6439
 741  668.8034
 742  599.5666
 743  636.2617
 744  744.7577
 745  797.7708
 746  773.36
 747  867.3646
 748  968.0428
 749  999.9217
 750  900.1219
 751  821.1318
 752  783.9092
 753  820.5351
 754  900.7202
 755  824.2649
 756  769.0878
 757  812.2225
 758  918.2623
 759  1012.695
 760  1073.212
 761  979.3421
 762  917.0607
 763  945.4543
 764  1104.27
 765  1107.934
 766  1002.564
 767  897.3451
 768  825.232
 769  1012.073
 770  954.2326
 771  1037.36
 772  979.9489
 773  968.889
 774  855.2706
 775  726.543
 776  647.0488
 777  680.7844
 778  837.1798
 779  933.7665
 780  1101.785
 781  1000.143
 782  936.7974
 783  830.8672
 784  733.7283
 785  738.1827
 786  769.769
 787  891.4395
 788  804.7928
 789  691.3429
 790  719.5937
 791  739.2376
 792  763.0181
 793  918.3206
 794  995.5369
 795  1034.37
 796  930.2856
 797  862.724
 798  909.8643
 799  955.69
 800  971.6837
 801  1119.362
 802  1057.827
 803  972.9506
 804  912.6108
 805  870.5546
 806  814.1816
 807  829.7447
 808  904.4827
 809  1065.71
 810  1065.757
 811  1091.622
 812  1053.755
 813  1065.061
 814  1064.677
 815  1096.13
 816  1081
 817  1018.142
 818  776.6303
 819  784.5695
 820  899.0178
 821  974.6425
 822  993.5291
 823  867.8742
 824  769.616
 825  720.1567
 826  691.3472
 827  757.0305
 828  825.3661
 829  853.528
 830  745.3278
 831  776.8398
 832  755.0667
 833  650.5783
 834  729.6038
 835  824.2903
 836  936.462
 837  964.2233
 838  963.5765
 839  790.5571
 840  760.3885
 841  768.2165
 842  850.2941
 843  885.3646
 844  912.7738
 845  943.5874
 846  902.5798
 847  966.6621
 848  1038.337
 849  1086.707
 850  940.0544
 851  898.7676
 852  960.6127
 853  953.3716
 854  870.1149
 855  1010.176
 856  1100.077
 857  1085.346
 858  1109.319
 859  1055.882
 860  907.3808
 861  846.6213
 862  869.0132
 863  1004.695
 864  938.5368
 865  829.8104
 866  797.4258
 867  893.6666
 868  936.9666
 869  913.5908
 870  923.4974
 871  990.5771
 872  999.8559
 873  1029.446
 874  961.4494
 875  799.953
 876  848.074
 877  879.5629
 878  820.6753
 879  821.6754
 880  781.3914
 881  788.0097
 882  796.6187
 883  879.9903
 884  982.0973
 885  1023.177
 886  934.5242
 887  864.2188
 888  819.9447
 889  774.7941
 890  801.1113
 891  902.6984
 892  1030.501
 893  977.3393
 894  1017.438
 895  1059.809
 896  1130.444
 897  1185.466
 898  1069.679
 899  890.3467
 900  939.0126
 901  959.3517
 902  1048.142
 903  846.4404
 904  710.5029
 905  805.7878
 906  821.1107
 907  905.3691
 908  981.1136
 909  1136.106
 910  1140.049
 911  1079.601
 912  1037.523
 913  1108.939
 914  1038.549
 915  1129.121
 916  995.5784
 917  855.4496
 918  712.8076
 919  767.528
 920  868.0033
 921  948.7584
 922  880.3974
 923  864.1256
 924  891.709
 925  940.8578
 926  1027.905
 927  1170.207
 928  1089.768
 929  1037.865
 930  1074.388
 931  1037.671
 932  966.1138
 933  913.661
 934  924.1058
 935  946.0012
 936  916.799
 937  884.3105
 938  850.3586
 939  1016.972
 940  1059.458
 941  1027.077
 942  894.1232
 943  840.6071
 944  984.4057
 945  1037.984
 946  968.7263
 947  823.729
 948  792.4254
 949  861.2039
 950  843.5169
 951  922.886
 952  911.5683
 953  896.1144
 954  975.3193
 955  939.7648
 956  1039.436
 957  986.1794
 958  878.4749
 959  796.7935
 960  878.3489
 961  985.7955
 962  923.9059
 963  966.0797
 964  977.8203
 965  1136.506
 966  1161.79
 967  1098.908
 968  1110.859
 969  1077.85
 970  1063.331
 971  1067.086
 972  1200.776
 973  1307.18
 974  1256.071
 975  1079.584
 976  895.0828
 977  880.7793
 978  1011.304
 979  1044.9
 980  1061.581
 981  1103.171
 982  1007.657
 983  958.0798
 984  893.5626
 985  1005.312
 986  1028.798
 987  1086.528
 988  1128.41
 989  1280.165
 990  1253.53
 991  1211.115
 992  1221.403
 993  1396.706
 994  1353.181
 995  1259.817
 996  1329.357
 997  1482.084
 998  1378.12
 999  1256.113
1000  1096.392
1001  1238.823
1002  1323.678
1003  1185.834
1004  1151.658
1005  1192.551
1006  1159.059
1007  1140.183
1008  1097.476
1009  1166.643
1010  1205.639
1011  1233.463
1012  1103.074
1013  1035.025
1014  1107.159
1015  1071.772
1016  1128.446
1017  1241.802
1018  1350.376
1019  1390.392
1020  1345.745
1021  1296.705
1022  1209.749
1023  1176.114
