# Input file       =  1201031938.106413_cleaned.dat
# Candidate        =  PSR_0332+5434
# Telescope        =  AR
# Epoch_topo       =  58144.832836879781
# Epoch_bary       =  N/A
# T_sample         =  0.002
# Data Folded      =  7340032
# Data Avg         =  0.0454361139917247
# Data StdDev      =  3.55686606378185 
# Profile Bins     =  512
# Profile Avg      =  651.450738852853 
# Profile StdDev   =  425.874373802077 
# Reduced chi-sqr  =  0.700
# Prob(Noise)      <  1   (~0.0 sigma)
# P_topo (ms)      =  714.573921290458  +/- 0.000219
# P'_topo (s/s)    =  -0                +/- 1.16e-10
# P''_topo (s/s^2) =  0                 +/- 5.1e-14
# P_bary (ms)      =  N/A
# P'_bary (s/s)    =  N/A
# P''_bary (s/s^2) =  N/A
# P_orb (s)        =  N/A
# asin(i)/c (s)    =  N/A
# eccentricity     =  N/A
# w (rad)          =  N/A
# T_peri           =  N/A
######################################################
   0  791.3926
   1  1001.815
   2  834.7363
   3  738.0134
   4  669.9053
   5  851.2272
   6  777.6484
   7  971.1325
   8  1154.998
   9  904.2982
  10  959.2842
  11  569.8133
  12  484.8591
  13  711.4001
  14  769.4263
  15  831.6449
  16  968.5306
  17  1253.876
  18  978.5486
  19  801.2322
  20  818.6078
  21  903.3708
  22  1004.841
  23  963.5254
  24  741.0366
  25  760.4269
  26  929.5493
  27  850.3864
  28  429.873
  29  594.8066
  30  602.049
  31  465.397
  32  750.2534
  33  271.2866
  34  423.2637
  35  336.8984
  36  420.9245
  37  491.2309
  38  748.2026
  39  812.9267
  40  520.8837
  41  643.4098
  42  664.0176
  43  453.6487
  44  831.5795
  45  679.5729
  46  573.2729
  47  585.7395
  48  464.5389
  49  381.2804
  50  704.3303
  51  880.7064
  52  721.5612
  53  700.3903
  54  913.0403
  55  771.5043
  56  749.2687
  57  602.3461
  58  574.6957
  59  735.821
  60  645.4724
  61  641.1569
  62  342.5035
  63  522.8964
  64  631.0822
  65  538.9654
  66  808.4404
  67  1029.216
  68  867.7392
  69  547.8076
  70  501.6631
  71  573.0606
  72  474.1512
  73  487.6966
  74  336.1005
  75  499.7896
  76  384.3386
  77  406.5483
  78  334.5654
  79  380.0319
  80  376.9842
  81  435.0331
  82  472.5253
  83  464.0863
  84  259.2285
  85  377.8016
  86  719.4106
  87  805.3893
  88  541.879
  89  891.6407
  90  888.192
  91  458.1981
  92  498.4768
  93  575.2372
  94  568.1321
  95  473.881
  96  766.3322
  97  875.9572
  98  680.9891
  99  1086.435
 100  987.0441
 101  734.4955
 102  569.3818
 103  803.8931
 104  835.6618
 105  650.1701
 106  755.3762
 107  457.0841
 108  353.3568
 109  774.0416
 110  763.7059
 111  620.2661
 112  648.736
 113  1131.771
 114  712.939
 115  814.3247
 116  1962.6
 117  1861.601
 118  1786.322
 119  1520.828
 120  1307.185
 121  636.8633
 122  421.7227
 123  586.6674
 124  516.4064
 125  332.5266
 126  351.5819
 127  166.9485
 128  268.1277
 129  263.8206
 130  449.9058
 131  414.2026
 132  727.8185
 133  1040.521
 134  747.4825
 135  737.457
 136  628.4251
 137  656.3597
 138  549.973
 139  726.9667
 140  791.9445
 141  382.0307
 142  579.965
 143  354.0277
 144  526.5953
 145  616.3104
 146  624.3402
 147  459.6202
 148  468.027
 149  501.8469
 150  487.8936
 151  716.3827
 152  783.9983
 153  381.5453
 154  488.439
 155  839.7432
 156  985.5292
 157  884.7226
 158  794.0272
 159  803.8407
 160  855.9989
 161  991.7361
 162  408.0497
 163  363.7931
 164  413.6021
 165  481.8975
 166  325.3548
 167  432.5964
 168  234.896
 169  483.4012
 170  469.4634
 171  622.2923
 172  550.3408
 173  407.0435
 174  684.1822
 175  682.0261
 176  780.1126
 177  706.36
 178  584.3504
 179  547.5308
 180  859.1716
 181  608.431
 182  652.9864
 183  413.208
 184  635.1534
 185  856.68
 186  938.5008
 187  609.95
 188  545.4038
 189  1041.313
 190  986.9979
 191  853.9698
 192  462.7427
 193  403.2549
 194  975.1684
 195  1189.24
 196  878.6457
 197  977.3829
 198  1096.953
 199  1110.792
 200  843.3431
 201  617.3011
 202  812.1104
 203  694.1013
 204  527.6874
 205  409.4368
 206  528.8379
 207  623.7974
 208  685.4146
 209  707.4048
 210  393.9668
 211  863.0518
 212  1048.518
 213  812.2835
 214  658.1752
 215  587.746
 216  600.6746
 217  655.319
 218  682.239
 219  826.155
 220  743.7894
 221  779.26
 222  908.4618
 223  736.7032
 224  968.4189
 225  931.5595
 226  933.5251
 227  978.4665
 228  792.7405
 229  803.2154
 230  626.6855
 231  487.703
 232  591.1127
 233  735.4711
 234  827.2783
 235  749.3384
 236  582.1917
 237  788.9559
 238  658.8314
 239  546.6715
 240  434.2147
 241  387.6067
 242  456.8795
 243  548.5051
 244  524.8488
 245  205.4932
 246  348.7262
 247  815.4093
 248  800.3878
 249  636.6799
 250  234.9421
 251  -95.63087
 252  -306.0892
 253  -95.57767
 254  744.9973
 255  760.4193
 256  917.504
 257  888.0455
 258  759.7834
 259  222.9163
 260  56.63889
 261  501.5964
 262  732.8187
 263  586.3498
 264  677.203
 265  1011.721
 266  772.6021
 267  730.9946
 268  504.3373
 269  593.1891
 270  519.0266
 271  633.7528
 272  309.7704
 273  327.6271
 274  473.9113
 275  558.3147
 276  589.69
 277  486.0704
 278  472.4799
 279  706.5176
 280  329.1526
 281  236.4671
 282  287.5273
 283  195.349
 284  -73.03341
 285  48.19912
 286  588.6051
 287  776.3922
 288  631.0731
 289  521.5497
 290  620.0356
 291  689.6795
 292  57.91592
 293  200.662
 294  452.7261
 295  283.8795
 296  724.9102
 297  757.9142
 298  469.2953
 299  162.2191
 300  535.353
 301  626.2189
 302  798.6304
 303  999.6125
 304  943.2478
 305  634.1763
 306  297.6202
 307  558.8621
 308  816.4033
 309  610.6518
 310  388.6909
 311  643.4243
 312  1043.73
 313  1220.706
 314  1092.193
 315  907.1249
 316  865.0831
 317  689.0456
 318  839.7161
 319  1004.976
 320  990.2848
 321  934.7831
 322  816.6533
 323  834.3605
 324  735.3596
 325  985.8144
 326  1127.65
 327  1025.642
 328  768.002
 329  825.0579
 330  1235.737
 331  1122.565
 332  602.9174
 333  845.8099
 334  924.3586
 335  842.0303
 336  613.3998
 337  957.7655
 338  1216.684
 339  1048.222
 340  637.4697
 341  630.1763
 342  894.8834
 343  849.7316
 344  977.7375
 345  655.4969
 346  787.78
 347  638.728
 348  637.9999
 349  516.1873
 350  523.6552
 351  763.3903
 352  864.6853
 353  665.6783
 354  664.2714
 355  835.6943
 356  751.5842
 357  516.4756
 358  511.9601
 359  555.7759
 360  792.9152
 361  822.5339
 362  1005.114
 363  784.1393
 364  720.9895
 365  723.6718
 366  592.543
 367  673.3967
 368  731.6742
 369  1019.877
 370  921.7927
 371  540.3883
 372  722.2723
 373  924.7187
 374  820.769
 375  712.4217
 376  723.934
 377  571.6742
 378  352.7815
 379  638.0085
 380  407.4534
 381  831.6642
 382  1151.236
 383  725.1805
 384  535.6068
 385  830.9936
 386  373.2417
 387  377.5452
 388  676.7289
 389  704.3044
 390  506.1759
 391  216.039
 392  185.6723
 393  352.4568
 394  16.15085
 395  445.5494
 396  436.287
 397  572.6398
 398  305.4474
 399  373.4588
 400  615.8077
 401  862.5219
 402  885.9347
 403  905.6658
 404  774.8185
 405  857.8908
 406  983.6221
 407  263.7053
 408  285.9024
 409  456.3871
 410  557.479
 411  450.213
 412  403.5279
 413  449.8996
 414  578.2615
 415  509.4237
 416  497.9512
 417  384.269
 418  194.4312
 419  415.6829
 420  403.1123
 421  505.0679
 422  465.9605
 423  430.15
 424  191.4396
 425  288.2011
 426  593.6956
 427  402.9601
 428  101.9684
 429  662.9454
 430  591.8638
 431  636.6535
 432  745.8517
 433  791.5869
 434  671.2252
 435  310.0584
 436  412.8445
 437  571.9373
 438  558.7599
 439  656.1069
 440  520.319
 441  689.171
 442  564.2211
 443  590.2415
 444  817.0751
 445  524.7711
 446  634.301
 447  391.933
 448  445.9209
 449  447.0799
 450  493.3092
 451  764.9653
 452  732.5757
 453  561.8571
 454  314.4775
 455  395.9755
 456  361.7417
 457  308.074
 458  413.6819
 459  769.8643
 460  883.0507
 461  811.9183
 462  881.8207
 463  682.1806
 464  745.4526
 465  814.2693
 466  792.2406
 467  504.5422
 468  575.4833
 469  613.9488
 470  1053.488
 471  811.3994
 472  853.1129
 473  702.6064
 474  905.0572
 475  771.6158
 476  613.5647
 477  496.3261
 478  465.7275
 479  676.1387
 480  1107.383
 481  957.7019
 482  997.7492
 483  929.8023
 484  967.948
 485  522.9044
 486  277.8479
 487  444.9057
 488  565.2708
 489  547.3846
 490  527.9966
 491  598.6586
 492  234.0548
 493  238.5251
 494  156.8465
 495  625.8425
 496  717.9852
 497  378.1913
 498  566.629
 499  790.7394
 500  725.7265
 501  894.4882
 502  718.9045
 503  756.4307
 504  710.7665
 505  847.6258
 506  535.7301
 507  390.0446
 508  610.8225
 509  747.8477
 510  641.3903
 511  747.1968
