# Input file       =  1201274952.113662_cleaned.dat
# Candidate        =  PSR_0332+5434
# Telescope        =  AR
# Epoch_topo       =  58147.645499000719
# Epoch_bary       =  N/A
# T_sample         =  0.002
# Data Folded      =  7340032
# Data Avg         =  0.0984326253310432
# Data StdDev      =  3.49527886032176 
# Profile Bins     =  512
# Profile Avg      =  1410.33940222733 
# Profile StdDev   =  418.500350929846 
# Reduced chi-sqr  =  0.888
# Prob(Noise)      <  0.967   (~0.0 sigma)
# P_topo (ms)      =  714.57489223376   +/- 0.000613
# P'_topo (s/s)    =  -0                +/- 3.24e-10
# P''_topo (s/s^2) =  0                 +/- 1.43e-13
# P_bary (ms)      =  N/A
# P'_bary (s/s)    =  N/A
# P''_bary (s/s^2) =  N/A
# P_orb (s)        =  N/A
# asin(i)/c (s)    =  N/A
# eccentricity     =  N/A
# w (rad)          =  N/A
# T_peri           =  N/A
######################################################
   0  1304.423
   1  1095.996
   2  1223.899
   3  1419.649
   4  1166.6
   5  1352.603
   6  1685.716
   7  1712.753
   8  1570.287
   9  1163.799
  10  1362.717
  11  1546.374
  12  1266.351
  13  1368.867
  14  1220.358
  15  908.1311
  16  1249.115
  17  1662.646
  18  1695.653
  19  1413.249
  20  1073.172
  21  1251.428
  22  1146.605
  23  1038.898
  24  767.89
  25  994.3033
  26  1326.126
  27  1503.638
  28  1353.895
  29  1050.023
  30  949.0195
  31  932.9106
  32  1055.259
  33  794.7377
  34  1234.963
  35  1641.992
  36  1386.944
  37  1156.145
  38  1350.273
  39  1259.502
  40  976.7125
  41  853.5491
  42  676.9004
  43  844.102
  44  1137.427
  45  1100.089
  46  1207.745
  47  1026.617
  48  862.1849
  49  1160.844
  50  1278.29
  51  1157.106
  52  1325.463
  53  1446.101
  54  1156.929
  55  1036.592
  56  1163.048
  57  1203.254
  58  1257.331
  59  1358.101
  60  1259.817
  61  1289.223
  62  1114.332
  63  1163.207
  64  1383.893
  65  1278.727
  66  1389.828
  67  1696.286
  68  1594.278
  69  1631.381
  70  1344.178
  71  1198.576
  72  1021.121
  73  1145.873
  74  1415.236
  75  1498.224
  76  1434.684
  77  1503.418
  78  1493.229
  79  1447.526
  80  1512.776
  81  1554.361
  82  1333.421
  83  1236.483
  84  1350.728
  85  1269.042
  86  1341.434
  87  1101.207
  88  1225.51
  89  1241.848
  90  1043.814
  91  1167.326
  92  1057.807
  93  1017.427
  94  1066.098
  95  1074.824
  96  1554.827
  97  1428.358
  98  1086.15
  99  1045.582
 100  1350.307
 101  1340.723
 102  1327.205
 103  1522.234
 104  1260.988
 105  1720.542
 106  1596.465
 107  1461.478
 108  1407.394
 109  1411.89
 110  1732.121
 111  1643.8
 112  1828.147
 113  1835.873
 114  1535.21
 115  1733.064
 116  1308.34
 117  1243.806
 118  1427.546
 119  1309.536
 120  1302.657
 121  1568.68
 122  1672.027
 123  1606.399
 124  1490.363
 125  1410.595
 126  1590.581
 127  1662.215
 128  1745.994
 129  1461.409
 130  1331.053
 131  1525.478
 132  1531.533
 133  1649.033
 134  1389.089
 135  1587.508
 136  1556.209
 137  1342.401
 138  1369.7
 139  1587.898
 140  1737.738
 141  1738.671
 142  1761.97
 143  1587.817
 144  1347.57
 145  1366.556
 146  1673.361
 147  1772.769
 148  1617.183
 149  1649.819
 150  1734.809
 151  1552.483
 152  1305.194
 153  1544.337
 154  1684.192
 155  1593.129
 156  1486.373
 157  1542.021
 158  1569.892
 159  1394.877
 160  1624.469
 161  1827.93
 162  1353.377
 163  1387.429
 164  1633.788
 165  1471.224
 166  1275.698
 167  1512.227
 168  1272.282
 169  1482.121
 170  1518.623
 171  1818.978
 172  1675.261
 173  1130.703
 174  1282.96
 175  1327.506
 176  1749.792
 177  1809.95
 178  1743.76
 179  1707.515
 180  1460.119
 181  1497.565
 182  1436.352
 183  1644.782
 184  1637.171
 185  1382.44
 186  1355.713
 187  1207.833
 188  1256.633
 189  1351.648
 190  1366.645
 191  1453.014
 192  1300.264
 193  1729.714
 194  1667.379
 195  1648.506
 196  1828.759
 197  1780.774
 198  1577.462
 199  1481.308
 200  1524.017
 201  1416.317
 202  1128.528
 203  1264.506
 204  1397.957
 205  1449.257
 206  1452.938
 207  1429.647
 208  1725.988
 209  1474.89
 210  1792.598
 211  1674.766
 212  1695.176
 213  1547.35
 214  1536.254
 215  1756.4
 216  1670.514
 217  1758.988
 218  1944.815
 219  1673.806
 220  1655.167
 221  1825.047
 222  1788.956
 223  1140.882
 224  1146.457
 225  1250.888
 226  1208.406
 227  1359.356
 228  1540.17
 229  1354.465
 230  1479.871
 231  1157.003
 232  1379.39
 233  1549.036
 234  1434.404
 235  1141.594
 236  1472.427
 237  1519.06
 238  1558.955
 239  1509.666
 240  1791.424
 241  1699.3
 242  1409.208
 243  1570.035
 244  1625.049
 245  1388.413
 246  1319.976
 247  1560.717
 248  1811.1
 249  1509.405
 250  1459.257
 251  1544.269
 252  1512.394
 253  1297.693
 254  1464.478
 255  1376.939
 256  1395.474
 257  1544.938
 258  1572.143
 259  1437.348
 260  1519.116
 261  1605.16
 262  1292.641
 263  1244.869
 264  1150.941
 265  1865.73
 266  1689.916
 267  1416.969
 268  1454.243
 269  1762.784
 270  1214.947
 271  1327.071
 272  1303.363
 273  1530.561
 274  1600.485
 275  1671.38
 276  1488.857
 277  1581.407
 278  1495.916
 279  1636.251
 280  1683.794
 281  1431.725
 282  1673.241
 283  1502.452
 284  1784.837
 285  1820.181
 286  1833.479
 287  1344.832
 288  1245.915
 289  1866.036
 290  1741.586
 291  1319.034
 292  1491.901
 293  1837.878
 294  1560.775
 295  1155.464
 296  1551.442
 297  1814.793
 298  1483.341
 299  1238.522
 300  1480.018
 301  1417.59
 302  1554.041
 303  1672.172
 304  1848.876
 305  2366.559
 306  2754.108
 307  3059.827
 308  3041.58
 309  2814.665
 310  2318.302
 311  1970.847
 312  1543.925
 313  1437.914
 314  1293.093
 315  1477.824
 316  1673.994
 317  1552.793
 318  1557.387
 319  1541.067
 320  1585.353
 321  1793.399
 322  1749.07
 323  1428.475
 324  1487.993
 325  1596.935
 326  1663.318
 327  1835.946
 328  1496.365
 329  1356.045
 330  1483.562
 331  1479.673
 332  1467.134
 333  1272.661
 334  1214.016
 335  1322.266
 336  1344.196
 337  1461.494
 338  1499.441
 339  1384.955
 340  1278.677
 341  1268.88
 342  1156.658
 343  1377.634
 344  1543.363
 345  1547.652
 346  1503.16
 347  1645.192
 348  1740.14
 349  1678.692
 350  1309.201
 351  1327.526
 352  1556.974
 353  1658.841
 354  1712.082
 355  1866.843
 356  1897.074
 357  1583.533
 358  1882.48
 359  1717.048
 360  1741.322
 361  1735.092
 362  1673.395
 363  1517.877
 364  1549.962
 365  1439.094
 366  1488.8
 367  1060.955
 368  1003.363
 369  1075.122
 370  1159.664
 371  1384.046
 372  1234.147
 373  1103.39
 374  928.5583
 375  1090.978
 376  1226.723
 377  1024.207
 378  1171.264
 379  1312.147
 380  1316.415
 381  1528.033
 382  1189.436
 383  1258.227
 384  1110.911
 385  928.5431
 386  980.7628
 387  895.7115
 388  964.5293
 389  1083.417
 390  1182.441
 391  1039.438
 392  934.815
 393  1197.498
 394  1213.802
 395  1380.169
 396  1014.929
 397  1127.198
 398  1174.408
 399  1143.432
 400  1328.745
 401  1351.263
 402  1158.062
 403  1138.28
 404  1357.283
 405  1433.007
 406  1042.486
 407  1190.206
 408  1160.781
 409  999.0543
 410  1084.339
 411  1243.697
 412  1136.908
 413  964.0291
 414  731.8558
 415  775.4567
 416  818.1425
 417  702.0342
 418  1093.682
 419  1120.68
 420  1105.484
 421  1045.917
 422  1095.009
 423  1095.912
 424  851.0307
 425  1404.29
 426  1547.69
 427  1336.659
 428  1452.444
 429  1519.51
 430  1356.43
 431  1259.52
 432  1406.257
 433  1488.139
 434  1453.781
 435  1767.399
 436  1710.968
 437  1558.183
 438  1139.332
 439  1524.155
 440  1637.839
 441  1450.911
 442  1406.953
 443  1682.989
 444  1597.711
 445  1667.69
 446  1745.922
 447  1723.365
 448  1325.014
 449  1418.935
 450  1432.752
 451  1820.894
 452  1904.376
 453  1811.2
 454  1422.513
 455  1462.781
 456  1501.208
 457  1194.185
 458  1444.381
 459  1544.465
 460  1479.609
 461  1061.027
 462  897.187
 463  1069.759
 464  1351.623
 465  1344.249
 466  1662.368
 467  1489.435
 468  1165.829
 469  1072.636
 470  909.7393
 471  1101.796
 472  1616.31
 473  1529.179
 474  1299.179
 475  1138.09
 476  1420.612
 477  1145.84
 478  891.0322
 479  1317.679
 480  1313.017
 481  1364.777
 482  1298.886
 483  1308.327
 484  1292.442
 485  1128.941
 486  1157.098
 487  1159.709
 488  1354.435
 489  1225.244
 490  1136.736
 491  1284.314
 492  1322.9
 493  1301.249
 494  1315.747
 495  1274.173
 496  1133.185
 497  1538.025
 498  1506.148
 499  1182.273
 500  1066.963
 501  1054.466
 502  1384.901
 503  1162.78
 504  1213.514
 505  1523.516
 506  1068.778
 507  998.3458
 508  1175.023
 509  1331.694
 510  1054.204
 511  1305.259
