# Input file       =  1201102552.109643-PSRB0329-2ms-sampling-dd.dat
# Candidate        =  PSR_0332+5434
# Telescope        =  AR
# Epoch_topo       =  58145.650128583831
# Epoch_bary       =  N/A
# T_sample         =  0.002
# Data Folded      =  7340032
# Data Avg         =  -6.37072618450311e-11
# Data StdDev      =  9.40576031303567 
# Profile Bins     =  512
# Profile Avg      =  -0.14006219027237
# Profile StdDev   =  1126.18024171184 
# Reduced chi-sqr  =  0.883
# Prob(Noise)      <  0.973   (~0.0 sigma)
# P_topo (ms)      =  714.573966465786  +/- 0.000233
# P'_topo (s/s)    =  -0                +/- 1.23e-10
# P''_topo (s/s^2) =  0                 +/- 5.44e-14
# P_bary (ms)      =  N/A
# P'_bary (s/s)    =  N/A
# P''_bary (s/s^2) =  N/A
# P_orb (s)        =  N/A
# asin(i)/c (s)    =  N/A
# eccentricity     =  N/A
# w (rad)          =  N/A
# T_peri           =  N/A
######################################################
   0  -1401.728
   1  -1092.366
   2  -788.705
   3  -464.5267
   4  -352.1775
   5  -758.9837
   6  -488.1845
   7  -570.5812
   8  38.65977
   9  529.3456
  10  1170.677
  11  1115.657
  12  678.6613
  13  1503.217
  14  1417.109
  15  1345.137
  16  2272.625
  17  2841.787
  18  1928.819
  19  1442.71
  20  822.3497
  21  769.2017
  22  679.7967
  23  658.1118
  24  963.4904
  25  618.2915
  26  -196.8454
  27  -464.7003
  28  -491.9239
  29  -336.0281
  30  307.7123
  31  318.8386
  32  452.3285
  33  150.0377
  34  -322.8959
  35  -297.5307
  36  -161.9891
  37  318.789
  38  817.1871
  39  789.1931
  40  751.4073
  41  31.69116
  42  104.3374
  43  128.6191
  44  430.378
  45  498.1992
  46  292.6378
  47  38.99956
  48  -64.73705
  49  -5.620565
  50  430.5803
  51  127.8115
  52  208.4609
  53  108.5447
  54  -247.477
  55  -343.8036
  56  -58.36573
  57  154.7943
  58  41.30636
  59  266.3542
  60  371.6541
  61  568.7849
  62  344.4746
  63  -349.8704
  64  -209.4812
  65  169.0142
  66  233.031
  67  275.1218
  68  -410.9503
  69  -686.5453
  70  -595.2468
  71  -55.1306
  72  -111.4727
  73  -68.16144
  74  44.74619
  75  -480.2354
  76  -707.1012
  77  -980.7917
  78  -469.5523
  79  -437.9072
  80  -764.8541
  81  -717.3344
  82  -1180.357
  83  -1230.018
  84  -1248.898
  85  -1233.155
  86  -304.3515
  87  73.87757
  88  402.3408
  89  764.2757
  90  -482.0794
  91  -587.8806
  92  -18.01574
  93  898.9535
  94  909.6467
  95  1195.921
  96  1103.857
  97  -531.8729
  98  -809.8564
  99  -664.2207
 100  -363.94
 101  -196.3414
 102  31.87745
 103  160.0323
 104  -465.0877
 105  -619.9802
 106  -351.5209
 107  -169.9604
 108  -148.6603
 109  -390.7924
 110  -43.49379
 111  45.43324
 112  -352.2542
 113  -289.1313
 114  -138.6536
 115  -186.2977
 116  -199.3089
 117  66.3182
 118  8.398276
 119  -58.06338
 120  -45.19692
 121  -276.6335
 122  -410.0093
 123  -220.6154
 124  40.67973
 125  46.10109
 126  -2.485221
 127  -59.43138
 128  -223.8081
 129  -492.8049
 130  -278.5804
 131  90.01134
 132  290.6095
 133  35.34476
 134  8.887849
 135  -18.53967
 136  -330.9664
 137  -626.7247
 138  -169.809
 139  41.43283
 140  -154.6033
 141  -150.6044
 142  -547.0118
 143  -442.2453
 144  -739.3279
 145  -769.2254
 146  -578.9713
 147  -243.7039
 148  -204.663
 149  -369.3421
 150  -345.4292
 151  -565.6928
 152  -1173.894
 153  -806.3905
 154  -906.0299
 155  -521.392
 156  -660.7755
 157  -305.3419
 158  -483.995
 159  -978.2014
 160  -869.5646
 161  -735.5073
 162  -624.8417
 163  -653.7151
 164  -631.5015
 165  -714.6002
 166  -1034.544
 167  -1191.929
 168  -1360.901
 169  -1174.411
 170  -828.2159
 171  -531.2994
 172  -797.6805
 173  -1019.715
 174  -943.2184
 175  -894.9648
 176  -690.5523
 177  -557.628
 178  -574.6552
 179  -176.1669
 180  -408.1084
 181  -315.9031
 182  -196.7719
 183  -576.2466
 184  -243.9978
 185  -205.974
 186  -103.4407
 187  -244.8342
 188  -634.2534
 189  -33.97734
 190  -145.5782
 191  -533.0704
 192  -453.8089
 193  -139.4286
 194  145.9607
 195  174.1577
 196  249.1072
 197  682.4576
 198  889.9689
 199  472.9235
 200  -7.352734
 201  495.2225
 202  277.1312
 203  326.7948
 204  169.948
 205  482.7508
 206  388.3803
 207  190.2664
 208  397.6861
 209  -1.048599
 210  210.0893
 211  193.7137
 212  102.5658
 213  69.95875
 214  2.616755
 215  -163.849
 216  -208.566
 217  141.2281
 218  -313.6544
 219  -238.2794
 220  -266.6318
 221  -177.7811
 222  -160.757
 223  12.60135
 224  -20.4593
 225  -486.9883
 226  -412.3689
 227  158.2996
 228  71.79922
 229  -38.87673
 230  -183.693
 231  -219.8364
 232  -174.9542
 233  -294.2216
 234  22.03567
 235  -271.3251
 236  -34.14843
 237  118.0257
 238  20.02693
 239  516.8267
 240  436.4148
 241  225.48
 242  179.8196
 243  62.55598
 244  248.6381
 245  64.65584
 246  117.0173
 247  -91.63213
 248  138.0708
 249  111.9202
 250  262.3114
 251  175.6577
 252  148.7357
 253  107.2665
 254  -177.5553
 255  -214.3258
 256  304.0001
 257  776.3669
 258  735.9913
 259  888.9113
 260  1165.078
 261  958.7676
 262  108.7226
 263  323.0334
 264  2331.721
 265  3007.227
 266  3392.201
 267  2719.792
 268  1805.858
 269  1021.134
 270  617.9705
 271  727.3394
 272  556.1735
 273  306.6799
 274  293.3033
 275  -277.7315
 276  57.16611
 277  50.06185
 278  -233.9395
 279  250.6279
 280  761.7077
 281  303.5508
 282  -117.1259
 283  -268.2673
 284  -222.7967
 285  126.0703
 286  -12.19726
 287  -161.9491
 288  -381.8406
 289  -312.6075
 290  -267.2113
 291  12.64324
 292  326.208
 293  192.2751
 294  1003.433
 295  1108.955
 296  750.4576
 297  122.4762
 298  71.64821
 299  244.0588
 300  614.5484
 301  1003.798
 302  632.6655
 303  309.7595
 304  6.565189
 305  270.0593
 306  117.4219
 307  542.6828
 308  878.9493
 309  695.1467
 310  421.8044
 311  99.48653
 312  143.3192
 313  707.0169
 314  725.4026
 315  1071.095
 316  494.9622
 317  132.3517
 318  96.97176
 319  -150.1165
 320  146.3182
 321  350.7051
 322  590.6238
 323  706.7164
 324  453.429
 325  1017.082
 326  1110.516
 327  629.099
 328  601.9509
 329  795.5873
 330  707.4348
 331  108.4609
 332  537.8842
 333  466.5493
 334  328.4708
 335  665.1204
 336  215.6399
 337  70.56907
 338  -676.2053
 339  -556.9692
 340  -757.5005
 341  -769.4993
 342  -617.681
 343  -137.0089
 344  -132.8732
 345  -651.367
 346  -1020.713
 347  -290.4658
 348  -142.6925
 349  5.200702
 350  -106.5734
 351  -467.7967
 352  -436.552
 353  -269.8398
 354  -156.6463
 355  -109.5228
 356  14.1799
 357  -90.16529
 358  -171.6682
 359  -85.63232
 360  -781.2836
 361  -192.9524
 362  -52.44127
 363  338.8611
 364  45.79264
 365  236.8256
 366  385.8468
 367  350.6142
 368  1562.102
 369  1725.742
 370  1968.81
 371  2039.058
 372  1860.043
 373  990.9801
 374  1161.042
 375  2533.95
 376  2939.738
 377  2828.571
 378  2259.194
 379  1370.443
 380  20.34364
 381  -769.3032
 382  -800.1765
 383  -403.0645
 384  -344.2828
 385  -757.1564
 386  -750.6086
 387  -728.2429
 388  -1130.503
 389  -1164.093
 390  -971.1446
 391  -423.6686
 392  -656.3375
 393  -609.5914
 394  -365.6804
 395  -676.7863
 396  -771.3028
 397  -736.0538
 398  -650.723
 399  -179.8083
 400  -170.366
 401  -431.1542
 402  -878.8956
 403  -1075.818
 404  -551.401
 405  -453.2264
 406  -609.2131
 407  -686.5978
 408  -873.2999
 409  -1075.05
 410  -888.3234
 411  -298.9545
 412  119.0214
 413  220.3365
 414  287.6754
 415  -72.88995
 416  -402.3738
 417  -452.8146
 418  -650.5831
 419  -422.8965
 420  -128.2129
 421  19.49893
 422  -163.0305
 423  162.7575
 424  355.3805
 425  663.0455
 426  1515.834
 427  1639.839
 428  2405.031
 429  2118.968
 430  299.313
 431  785.4957
 432  1443.317
 433  3193.046
 434  3238.427
 435  2531.006
 436  1570.715
 437  -552.699
 438  -557.4496
 439  -414.8532
 440  -230.7858
 441  -270.3966
 442  98.43019
 443  163.1659
 444  -247.3905
 445  -620.1779
 446  -832.4496
 447  -74.97832
 448  -510.1969
 449  -255.1603
 450  -85.99538
 451  -259.9169
 452  -423.7152
 453  -497.1548
 454  -250.9996
 455  -541.4615
 456  -308.9167
 457  -280.5684
 458  33.3862
 459  280.9309
 460  515.5229
 461  307.2044
 462  -85.35043
 463  -515.1823
 464  -603.6662
 465  -748.006
 466  -21.92178
 467  39.98326
 468  -584.2324
 469  -385.3109
 470  -267.8704
 471  -729.6383
 472  -1656.553
 473  -1627.931
 474  -1174.369
 475  -977.127
 476  -755.3858
 477  -1185.58
 478  -1026.218
 479  -983.3769
 480  -926.6963
 481  -1150.926
 482  -1183.13
 483  -922.1063
 484  -838.1038
 485  -623.7655
 486  -496.5789
 487  -379.1981
 488  -48.19484
 489  -107.5866
 490  -528.015
 491  -338.5149
 492  -410.0261
 493  -605.6447
 494  -595.6551
 495  72.67063
 496  127.4288
 497  142.3576
 498  -200.0009
 499  -775.5341
 500  -1082.445
 501  -951.1725
 502  -662.6251
 503  -441.9774
 504  -526.6279
 505  -910.1702
 506  -737.7736
 507  -707.836
 508  -301.3429
 509  -494.2703
 510  -669.0131
 511  -861.2506
