# Input file       =  1201893636.114452_cleaned.dat
# Candidate        =  PSR_0332+5434
# Telescope        =  AR
# Epoch_topo       =  58154.806193454308
# Epoch_bary       =  N/A
# T_sample         =  0.002
# Data Folded      =  7340032
# Data Avg         =  0.0607835033681893
# Data StdDev      =  3.47820242004787 
# Profile Bins     =  512
# Profile Avg      =  871.349595429625 
# Profile StdDev   =  416.455736885347 
# Reduced chi-sqr  =  0.798
# Prob(Noise)      <  1   (~0.0 sigma)
# P_topo (ms)      =  714.578046335272  +/- 0.000432
# P'_topo (s/s)    =  -0                +/- 2.28e-10
# P''_topo (s/s^2) =  0                 +/- 1.01e-13
# P_bary (ms)      =  N/A
# P'_bary (s/s)    =  N/A
# P''_bary (s/s^2) =  N/A
# P_orb (s)        =  N/A
# asin(i)/c (s)    =  N/A
# eccentricity     =  N/A
# w (rad)          =  N/A
# T_peri           =  N/A
######################################################
   0  870.7451
   1  802.1985
   2  484.3874
   3  521.1458
   4  826.4321
   5  1134.841
   6  901.6559
   7  895.9973
   8  531.8775
   9  847.5618
  10  659.4271
  11  728.0087
  12  858.8723
  13  812.1547
  14  777.5845
  15  946.5134
  16  874.9574
  17  732.7384
  18  593.8735
  19  586.2122
  20  820.7542
  21  1353.733
  22  1159.638
  23  921.5361
  24  488.2349
  25  731.6098
  26  655.517
  27  361.2578
  28  611.3279
  29  724.0452
  30  819.8391
  31  574.2793
  32  683.245
  33  956.8997
  34  1007.002
  35  569.7167
  36  741.7638
  37  1190.006
  38  1007.741
  39  1074.816
  40  946.0296
  41  982.9805
  42  756.057
  43  566.8308
  44  656.8511
  45  417.2086
  46  698.3494
  47  682.0279
  48  1079.949
  49  985.1786
  50  442.7691
  51  537.0701
  52  744.1943
  53  980.1087
  54  842.8381
  55  723.7616
  56  821.0004
  57  866.3828
  58  964.2977
  59  969.5195
  60  730.72
  61  712.0425
  62  660.4277
  63  689.5138
  64  874.7001
  65  1095.945
  66  1346.758
  67  1191.572
  68  1045.522
  69  947.9027
  70  942.1465
  71  879.3843
  72  670.4374
  73  680.2284
  74  638.7246
  75  805.9604
  76  700.8386
  77  885.5671
  78  963.9815
  79  1077.579
  80  1038.848
  81  927.6641
  82  1029.101
  83  948.8766
  84  973.3557
  85  912.8438
  86  720.9924
  87  844.7385
  88  975.5697
  89  670.8812
  90  940.8928
  91  809.1295
  92  1025.517
  93  1064.751
  94  930.6021
  95  731.4166
  96  971.2465
  97  1076.814
  98  898.4324
  99  821.8716
 100  1254.422
 101  1468.168
 102  1073.935
 103  892.6114
 104  794.3495
 105  921.2824
 106  850.8636
 107  973.3541
 108  660.9055
 109  787.0134
 110  1016.327
 111  755.9512
 112  529.3704
 113  516.9589
 114  817.6393
 115  820.7461
 116  699.6469
 117  797.5784
 118  1337.412
 119  1237.705
 120  1006.293
 121  903.616
 122  1109.684
 123  1029.807
 124  662.3428
 125  815.714
 126  754.3508
 127  1018.753
 128  929.8459
 129  949.1545
 130  1015.822
 131  873.4512
 132  952.1707
 133  1114.997
 134  895.7635
 135  875.3203
 136  1054.457
 137  1056.431
 138  707.8748
 139  929.5896
 140  967.0189
 141  862.1088
 142  860.1411
 143  824.2708
 144  591.9756
 145  590.9384
 146  866.1866
 147  594.5748
 148  671.282
 149  645.4541
 150  575.8459
 151  726.322
 152  606.5677
 153  1087.505
 154  1141.389
 155  915.3674
 156  534.3185
 157  624.0024
 158  738.6708
 159  706.5494
 160  813.8404
 161  808.8967
 162  698.4133
 163  279.1211
 164  422.6156
 165  959.373
 166  904.043
 167  957.5486
 168  981.9551
 169  886.5565
 170  982.4047
 171  944.5319
 172  675.5974
 173  476.8885
 174  810.7633
 175  649.1886
 176  641.9706
 177  599.3028
 178  626.6698
 179  934.9996
 180  721.7204
 181  701.9698
 182  1046.229
 183  989.9194
 184  664.3861
 185  427.7658
 186  809.0751
 187  873.988
 188  817.8345
 189  1103.527
 190  1051.791
 191  1063.456
 192  946.8676
 193  1097.397
 194  1047.258
 195  778.3936
 196  896.0386
 197  1092.461
 198  1212.113
 199  1401.312
 200  1083.094
 201  868.4954
 202  806.5797
 203  737.0568
 204  938.4311
 205  781.5329
 206  768.8726
 207  919.5712
 208  1087.984
 209  845.2815
 210  1011.119
 211  1281.908
 212  884.4527
 213  809.6447
 214  1112.835
 215  1026.892
 216  873.8115
 217  737.2133
 218  621.2218
 219  446.7408
 220  715.0238
 221  723.7175
 222  280.2585
 223  635.7095
 224  914.9633
 225  828.8648
 226  717.8229
 227  929.5939
 228  790.6948
 229  819.5367
 230  630.7237
 231  500.5689
 232  776.827
 233  283.1349
 234  189.5775
 235  429.9124
 236  503.0933
 237  453.1895
 238  321.8688
 239  543.6034
 240  878.5989
 241  893.6565
 242  589.048
 243  742.4456
 244  833.1991
 245  577.0665
 246  127.7847
 247  142.0939
 248  276.9252
 249  750.6902
 250  874.6539
 251  802.5338
 252  833.0018
 253  576.725
 254  586.2413
 255  1167.737
 256  1194.541
 257  589.5596
 258  646.0567
 259  841.4404
 260  1000.511
 261  807.8652
 262  771.9588
 263  513.153
 264  613.1481
 265  606.0325
 266  728.9319
 267  1060.191
 268  1352.997
 269  1183.975
 270  803.6755
 271  751.2112
 272  1013.671
 273  1178.41
 274  1182.202
 275  1158.02
 276  1228.459
 277  974.376
 278  824.3904
 279  854.1735
 280  985.4186
 281  895.568
 282  1138.415
 283  1293.828
 284  1343.791
 285  1229.31
 286  1266.694
 287  986.0245
 288  470.6736
 289  759.7686
 290  1329.592
 291  1125.892
 292  1105.548
 293  761.6245
 294  834.2473
 295  990.7543
 296  915.5945
 297  969.8674
 298  1134.323
 299  1353.206
 300  1288.911
 301  1089.373
 302  1084.423
 303  1175.778
 304  1917.764
 305  1969.3
 306  2111.306
 307  2402.298
 308  2641.405
 309  2170.679
 310  1766.905
 311  1715.861
 312  1404.33
 313  1023.699
 314  1048.595
 315  1041.861
 316  799.6625
 317  731.7058
 318  697.3181
 319  357.0669
 320  580.3625
 321  377.2881
 322  883.1157
 323  945.9913
 324  754.1395
 325  763.7043
 326  1046.845
 327  1161.675
 328  919.6893
 329  1006.057
 330  1119.232
 331  704.6039
 332  534.1061
 333  390.0738
 334  626.7309
 335  984.8361
 336  947.7343
 337  854.5553
 338  895.1341
 339  1076.23
 340  964.4007
 341  699.9547
 342  473.4503
 343  577.8692
 344  823.8383
 345  815.5095
 346  703.7934
 347  639.2903
 348  911.894
 349  737.1145
 350  847.6686
 351  1280.933
 352  1310.003
 353  1031.542
 354  924.7778
 355  696.5847
 356  692.0687
 357  646.7701
 358  755.9758
 359  675.7836
 360  656.2267
 361  751.1277
 362  789.0385
 363  619.9923
 364  568.1739
 365  794.876
 366  855.6834
 367  575.2708
 368  869.0142
 369  864.2867
 370  743.5332
 371  779.5445
 372  797.2061
 373  878.4888
 374  766.4685
 375  721.785
 376  820.1827
 377  801.6025
 378  909.7677
 379  893.4675
 380  869.6412
 381  1023.192
 382  901.0622
 383  790.8872
 384  964.6431
 385  1146.194
 386  902.2181
 387  809.1552
 388  795.5855
 389  524.6434
 390  775.2185
 391  1050.479
 392  925.8401
 393  815.8727
 394  1067.005
 395  1224.847
 396  906.9803
 397  779.0115
 398  905.9885
 399  745.2056
 400  655.7574
 401  691.4776
 402  349.6545
 403  946.1392
 404  916.1457
 405  612.5877
 406  642.3998
 407  757.1016
 408  663.9808
 409  388.7473
 410  743.1524
 411  713.7842
 412  898.6304
 413  1086.23
 414  1318.49
 415  1063.525
 416  750.1863
 417  862.5966
 418  928.0487
 419  902.3088
 420  833.4333
 421  840.2471
 422  1272.557
 423  990.3333
 424  1108.645
 425  1191.065
 426  1251.201
 427  850.3817
 428  782.1021
 429  950.546
 430  958.516
 431  928.8876
 432  791.0122
 433  801.2315
 434  896.1312
 435  870.3062
 436  762.2234
 437  749.0144
 438  627.8306
 439  1051.654
 440  1052.624
 441  991.6356
 442  944.8983
 443  758.0585
 444  854.6482
 445  833.5081
 446  902.5137
 447  733.756
 448  694.3107
 449  796.0143
 450  1185.529
 451  942.9692
 452  599.8101
 453  589.0098
 454  577.7173
 455  1123.226
 456  1238.908
 457  1019.38
 458  1068.636
 459  1141.172
 460  1283.45
 461  1153.469
 462  1054.199
 463  706.8305
 464  837.2805
 465  1064.227
 466  868.5206
 467  813.2667
 468  648.1032
 469  438.9512
 470  506.1593
 471  636.0117
 472  867.876
 473  1068.393
 474  912.6093
 475  1110.337
 476  819.3801
 477  733.6321
 478  943.1838
 479  990.5635
 480  969.219
 481  1275.07
 482  1107.127
 483  988.8255
 484  1208.887
 485  756.1848
 486  980.7218
 487  904.1422
 488  866.7682
 489  985.1738
 490  1302.965
 491  1095.219
 492  663.3306
 493  930.5361
 494  1237.617
 495  972.7034
 496  692.3227
 497  1117.515
 498  885.1773
 499  893.1664
 500  791.3424
 501  869.2759
 502  850.8257
 503  818.6194
 504  940.7252
 505  937.7026
 506  689.7871
 507  717.8544
 508  687.6549
 509  665.2258
 510  892.459
 511  734.5246
