# Input file       =  1201605060.106532_cleaned.dat
# Candidate        =  PSR_0332+5434
# Telescope        =  AR
# Epoch_topo       =  58151.466193362641
# Epoch_bary       =  N/A
# T_sample         =  0.002
# Data Folded      =  7208960
# Data Avg         =  0.0874477942177858
# Data StdDev      =  3.955235920064   
# Profile Bins     =  512
# Profile Avg      =  1231.44054124861 
# Profile StdDev   =  469.325034343761 
# Reduced chi-sqr  =  1.342
# Prob(Noise)      <  3.34e-07   (~5.0 sigma)
# P_topo (ms)      =  714.576469287374  +/- 2.51e-05
# P'_topo (s/s)    =  -0                +/- 1.35e-11
# P''_topo (s/s^2) =  0                 +/- 6.06e-15
# P_bary (ms)      =  N/A
# P'_bary (s/s)    =  N/A
# P''_bary (s/s^2) =  N/A
# P_orb (s)        =  N/A
# asin(i)/c (s)    =  N/A
# eccentricity     =  N/A
# w (rad)          =  N/A
# T_peri           =  N/A
######################################################
   0  1670.812
   1  1355.593
   2  1067.825
   3  1037.367
   4  1246.234
   5  1334.478
   6  1417.02
   7  1582.806
   8  1205.136
   9  975.8512
  10  768.509
  11  568.8893
  12  996.1061
  13  1596.862
  14  1929.053
  15  1892.477
  16  1543.095
  17  1350.906
  18  1042.114
  19  830.3889
  20  912.744
  21  1614.286
  22  1623.949
  23  1848.79
  24  1525.08
  25  970.63
  26  529.0479
  27  556.5917
  28  806.8704
  29  1036.207
  30  1665.651
  31  1702.392
  32  1664.63
  33  1697.915
  34  1439.359
  35  954.3143
  36  585.071
  37  945.6523
  38  1031.781
  39  1370.79
  40  1491.564
  41  857.1714
  42  1041.9
  43  1045.3
  44  1140.74
  45  1581.449
  46  2048.13
  47  2056.828
  48  1856.104
  49  1679.431
  50  1499.096
  51  1365.399
  52  1279.171
  53  1411.928
  54  1277.042
  55  1361.304
  56  1236.062
  57  1340.399
  58  1364.245
  59  1062.778
  60  1062.979
  61  1119.232
  62  1456.073
  63  1629.724
  64  1675.487
  65  1916.518
  66  1944.913
  67  1447.479
  68  994.6652
  69  758.832
  70  1025.206
  71  1137.205
  72  1348.461
  73  1304.043
  74  1401.188
  75  1156.725
  76  833.8256
  77  641.0585
  78  1037.486
  79  1680.074
  80  1943.171
  81  1926.299
  82  1446.197
  83  912.8029
  84  775.6953
  85  786.3907
  86  858.0421
  87  1264.218
  88  1426.606
  89  1319.334
  90  881.2219
  91  907.9401
  92  581.9816
  93  637.1913
  94  864.5673
  95  1455.569
  96  2009.431
  97  2101.795
  98  2102.886
  99  1514.331
 100  1039.593
 101  471.1214
 102  475.7887
 103  687.7921
 104  1387.612
 105  1449.785
 106  1312.828
 107  1504.737
 108  1212.251
 109  645.3056
 110  590.9362
 111  741.3282
 112  1407.884
 113  1585.684
 114  1504.145
 115  1280.557
 116  1155.791
 117  902.973
 118  781.8775
 119  988.5081
 120  1376.347
 121  1423.33
 122  1165.306
 123  1061.477
 124  1137.643
 125  1085.274
 126  821.7676
 127  942.0544
 128  1425.716
 129  1758.581
 130  1549.608
 131  1075.429
 132  1129.74
 133  992.3842
 134  941.5978
 135  930.3201
 136  1008.795
 137  985.5118
 138  1425.067
 139  1573.74
 140  1227.825
 141  808.5825
 142  727.6249
 143  844.785
 144  1048.799
 145  1442.364
 146  1492.138
 147  1181.176
 148  1562.253
 149  1436.705
 150  866.0002
 151  1078.387
 152  882.5789
 153  1111.578
 154  1477.376
 155  1538.859
 156  1246.746
 157  976.4291
 158  730.0684
 159  537.7597
 160  746.1947
 161  1558.563
 162  1523.4
 163  1909.969
 164  1950.228
 165  1337.44
 166  936.9744
 167  722.4948
 168  820.0261
 169  869.3599
 170  1285.741
 171  1432.089
 172  1382.17
 173  1135.284
 174  746.2644
 175  867.3918
 176  558.4049
 177  1173.327
 178  1721.84
 179  1731.028
 180  1409.106
 181  1610.235
 182  1005.082
 183  348.2441
 184  823.6254
 185  1033.473
 186  1482.972
 187  1288.336
 188  1447.396
 189  1387.814
 190  918.5134
 191  723.9089
 192  501.4142
 193  769.1683
 194  1020.783
 195  1474.344
 196  1274.627
 197  1171.665
 198  1306.118
 199  1093.132
 200  858.886
 201  615.5235
 202  721.7877
 203  1096.663
 204  1327.449
 205  1315.964
 206  1075.919
 207  630.5001
 208  407.1164
 209  646.7679
 210  1129.261
 211  1484.046
 212  1334.459
 213  1410.427
 214  1243.559
 215  1503.63
 216  1471.121
 217  1183.582
 218  932.0489
 219  917.5994
 220  1088.472
 221  1356.458
 222  1322.208
 223  1133.654
 224  721.1761
 225  563.6323
 226  853.8914
 227  1281.628
 228  1497.422
 229  1864.078
 230  1658.902
 231  1532.894
 232  1196.767
 233  648.5219
 234  787.0161
 235  1492.002
 236  1357.798
 237  1711.655
 238  1372.446
 239  654.2521
 240  658.3995
 241  458.4415
 242  802.1938
 243  951.7961
 244  1416.57
 245  1575.942
 246  1581.416
 247  1824.371
 248  1359.522
 249  924.27
 250  667.8622
 251  776.6954
 252  804.9572
 253  887.6818
 254  1383.786
 255  1292.774
 256  1240.57
 257  929.812
 258  604.9159
 259  522.2126
 260  1333.343
 261  1570.086
 262  1780.285
 263  1564.773
 264  1489.373
 265  1193.061
 266  875.1671
 267  578.7939
 268  891.4887
 269  1130.76
 270  1429.606
 271  1216.428
 272  1145.277
 273  979.2261
 274  706.8329
 275  886.0893
 276  803.4321
 277  1198.807
 278  1563.998
 279  1735.551
 280  1466.484
 281  1255.698
 282  931.3243
 283  649.9415
 284  767.012
 285  971.1593
 286  1518.427
 287  1999.005
 288  2053.178
 289  1502.712
 290  1140.843
 291  809.3068
 292  968.3474
 293  1500.716
 294  1629.497
 295  1761.53
 296  1603.566
 297  1759.523
 298  1680.676
 299  1402.888
 300  1383.93
 301  1385.696
 302  1389.995
 303  1356.18
 304  1546.94
 305  2022.24
 306  2390.461
 307  2071.661
 308  2234.073
 309  2545.992
 310  2277.855
 311  1922.877
 312  1803.137
 313  1834.312
 314  1216.368
 315  626.3663
 316  801.0837
 317  1146.345
 318  1395.342
 319  1878.76
 320  1663.198
 321  1558.52
 322  1032.049
 323  675.3023
 324  671.7535
 325  876.1952
 326  1418.774
 327  1950.941
 328  2185.766
 329  1565.869
 330  1190.942
 331  987.5869
 332  840.8946
 333  786.7952
 334  1202.141
 335  1715.922
 336  1441.326
 337  1268.576
 338  999.4492
 339  817.3174
 340  834.2452
 341  528.3823
 342  1001.438
 343  1346.498
 344  1863.591
 345  1770.589
 346  1388.492
 347  1154.165
 348  975.5433
 349  838.5962
 350  729.6285
 351  1216.885
 352  1474.792
 353  1198.322
 354  1223.336
 355  1112.034
 356  938.4963
 357  636.7543
 358  860.1671
 359  1450.613
 360  1770.879
 361  1896.719
 362  1805.603
 363  1457.376
 364  1182.727
 365  667.3355
 366  786.8187
 367  949.411
 368  1279.891
 369  1438.246
 370  1444.922
 371  1213.88
 372  936.74
 373  829.519
 374  374.0805
 375  905.4289
 376  1402.224
 377  1452.65
 378  1415.65
 379  1627.75
 380  1525.772
 381  751.2997
 382  675.3825
 383  1119.803
 384  1073.808
 385  1352.214
 386  1308.274
 387  1269.148
 388  1090.297
 389  776.4169
 390  678.2624
 391  833.7488
 392  1206.711
 393  1573.542
 394  1664.73
 395  1696.899
 396  1673.439
 397  1546.063
 398  1386.604
 399  1013.036
 400  1169.981
 401  1208.737
 402  1049.246
 403  1185.84
 404  985.4041
 405  862.3901
 406  586.9302
 407  888.2806
 408  1448.659
 409  1820.14
 410  1691.513
 411  1830.656
 412  1537.413
 413  1232.354
 414  1026.655
 415  1107.102
 416  1216.745
 417  1579.686
 418  1355.563
 419  1430.13
 420  1224.718
 421  758.3975
 422  564.6268
 423  709.8551
 424  1077.831
 425  1208.842
 426  1776.328
 427  2062.549
 428  1674.479
 429  1458.626
 430  1115.347
 431  527.3015
 432  716.7966
 433  1296.224
 434  1577.062
 435  1324.788
 436  1343.369
 437  1561.139
 438  1565.178
 439  766.8574
 440  901.5588
 441  1137.831
 442  1496.774
 443  1741.961
 444  1705.449
 445  2056.985
 446  1298.259
 447  946.5276
 448  598.8497
 449  387.6687
 450  744.2866
 451  1308.541
 452  1405.168
 453  1023.028
 454  1060.756
 455  955.8774
 456  649.3079
 457  671.5372
 458  1006.764
 459  1438.779
 460  1455.207
 461  1835.979
 462  1903.604
 463  1245.828
 464  894.8308
 465  752.1344
 466  784.077
 467  1111.345
 468  1593.416
 469  1507.401
 470  1581.851
 471  1454.582
 472  1136.109
 473  891.3713
 474  820.1981
 475  1546.12
 476  1523.475
 477  1379.027
 478  1507.145
 479  1493.435
 480  1427.549
 481  1048.141
 482  1136.324
 483  1033.087
 484  1432.309
 485  1539.392
 486  1273.615
 487  1230.143
 488  1070.489
 489  1054.336
 490  1078.268
 491  1242.202
 492  1587.388
 493  1756.941
 494  1784.462
 495  1523.733
 496  1257.708
 497  1008.361
 498  1051.215
 499  1197.748
 500  1437.506
 501  1171.521
 502  1125.872
 503  1058.668
 504  751.5453
 505  911.7503
 506  980.6964
 507  1333.003
 508  1531.811
 509  2075.039
 510  2045.182
 511  1851.853
