# Input file       =  1201346468.110104_cleaned.dat
# Candidate        =  PSR_0332+5434
# Telescope        =  AR
# Epoch_topo       =  58148.473230441021
# Epoch_bary       =  N/A
# T_sample         =  0.002
# Data Folded      =  7208960
# Data Avg         =  0.13824314908442 
# Data StdDev      =  4.15526850957174 
# Profile Bins     =  512
# Profile Avg      =  1946.52385132876 
# Profile StdDev   =  493.060736546595 
# Reduced chi-sqr  =  1.416
# Prob(Noise)      <  1.55e-09   (~5.9 sigma)
# P_topo (ms)      =  714.575239915597  +/- 4.75e-05
# P'_topo (s/s)    =  -0                +/- 2.55e-11
# P''_topo (s/s^2) =  0                 +/- 1.15e-14
# P_bary (ms)      =  N/A
# P'_bary (s/s)    =  N/A
# P''_bary (s/s^2) =  N/A
# P_orb (s)        =  N/A
# asin(i)/c (s)    =  N/A
# eccentricity     =  N/A
# w (rad)          =  N/A
# T_peri           =  N/A
######################################################
   0  2173.532
   1  1760.567
   2  1114.881
   3  1014.428
   4  1546.915
   5  1729.031
   6  2036.255
   7  2369.847
   8  2326.956
   9  2384.03
  10  2302.615
  11  1974.429
  12  2033.143
  13  2178.546
  14  2137.34
  15  1697.43
  16  1946.232
  17  1793.672
  18  1466.288
  19  1133.652
  20  1279.202
  21  1538.38
  22  1682.299
  23  2022.876
  24  2116.594
  25  2544.888
  26  2187.154
  27  1931.141
  28  1758.525
  29  1969.399
  30  1647.482
  31  1748.531
  32  1889.749
  33  1676.739
  34  1756.443
  35  1044.039
  36  1078.356
  37  1151.757
  38  1498.786
  39  1611.047
  40  1907.043
  41  2268.385
  42  2200.102
  43  1808.157
  44  1710.123
  45  1796.853
  46  2021.066
  47  1977.111
  48  1642.903
  49  1435.302
  50  1515.21
  51  1139.835
  52  999.1308
  53  1084.888
  54  1363.113
  55  1815.401
  56  2071.93
  57  2330.897
  58  2553.732
  59  2277.104
  60  1797.043
  61  1601.83
  62  1886.823
  63  2200.417
  64  2136.632
  65  2142.876
  66  1757.81
  67  1742.776
  68  1685.136
  69  1326.295
  70  1510.13
  71  1733.052
  72  2336.316
  73  2403.569
  74  2717.431
  75  2763.099
  76  2621.698
  77  1905.03
  78  1727.992
  79  2342.245
  80  2446.512
  81  2446.077
  82  2476.867
  83  2226.064
  84  1820.076
  85  1248.391
  86  1216.236
  87  1364.407
  88  1496.232
  89  1618.35
  90  2518.061
  91  2960.357
  92  2671.832
  93  2031.809
  94  1987.02
  95  2103.466
  96  2126.674
  97  2105.285
  98  1683.001
  99  2074.486
 100  2029.728
 101  1512.861
 102  1261.865
 103  1397.822
 104  1463.265
 105  1843.232
 106  2116.988
 107  2365.84
 108  2423.559
 109  2191.7
 110  1977.983
 111  1933.721
 112  2091.198
 113  1785.902
 114  1532.775
 115  1601.39
 116  1472.584
 117  1296.755
 118  1243.539
 119  1411.224
 120  1281.353
 121  1572.969
 122  1724.047
 123  2130.908
 124  2097.983
 125  2328.358
 126  2044.873
 127  1650.597
 128  1872.163
 129  2179.572
 130  2050.541
 131  1525.623
 132  1917.008
 133  1524.014
 134  1281.212
 135  1157.665
 136  1598.984
 137  2095.513
 138  1984.091
 139  2473.477
 140  2534.857
 141  2415.983
 142  2426.944
 143  2401.103
 144  2335.322
 145  2271.969
 146  2204.847
 147  2028.995
 148  1696.024
 149  1866.357
 150  1936.387
 151  1354.753
 152  1497.642
 153  1940.99
 154  2139.88
 155  2102.854
 156  2283.868
 157  2628.681
 158  2622.384
 159  2113.313
 160  2045.23
 161  1946.893
 162  2052.035
 163  2094.147
 164  2173.833
 165  2166.276
 166  1672.271
 167  1400.887
 168  1719.442
 169  1813.286
 170  2320.873
 171  2690.462
 172  3112.296
 173  3955.885
 174  4223.122
 175  3612.498
 176  3103.835
 177  2638.492
 178  1987.608
 179  2067.766
 180  1898.788
 181  1984.508
 182  1847.261
 183  1594.588
 184  1637.63
 185  1769.617
 186  1961.789
 187  1919.845
 188  1832.447
 189  2318.365
 190  2546.36
 191  2300.647
 192  2260.834
 193  2025.067
 194  2053.625
 195  1830.495
 196  1535.975
 197  1466.352
 198  1778.71
 199  1891.318
 200  1528.97
 201  1333.943
 202  1631.147
 203  1983.441
 204  2034.833
 205  2315.155
 206  2481.401
 207  2231.224
 208  2113.761
 209  1885.804
 210  1990.904
 211  1610.743
 212  1763.138
 213  1774.272
 214  2257.523
 215  2394.807
 216  1774.454
 217  1312.416
 218  1153.49
 219  1442.365
 220  1751.85
 221  2037.267
 222  2458.484
 223  2411.19
 224  2248.972
 225  1669.562
 226  1727.302
 227  1766.685
 228  2272.309
 229  2159.765
 230  2042.947
 231  1847.457
 232  1863
 233  1738.778
 234  1415.682
 235  2075.168
 236  2038.375
 237  1819.01
 238  2160.584
 239  2329.574
 240  2310.115
 241  1900.383
 242  1885.273
 243  1842.64
 244  1773.866
 245  1886.717
 246  1875.468
 247  1847.157
 248  1861.661
 249  1667.468
 250  1495.591
 251  1343.559
 252  1789.175
 253  2037.439
 254  2014.206
 255  2103.113
 256  2410.928
 257  2366.002
 258  1845.938
 259  1861.527
 260  1650.257
 261  1816.444
 262  1642.314
 263  1801.269
 264  2022.394
 265  2011.703
 266  1932.069
 267  1860.216
 268  1900.082
 269  1508.942
 270  1571.931
 271  1847.46
 272  2473.997
 273  2746.904
 274  2783.333
 275  2599.878
 276  2098.508
 277  2002.66
 278  1947.173
 279  2275.499
 280  2306.723
 281  2102.104
 282  1902.501
 283  1716.296
 284  1693.417
 285  1599.235
 286  1468.085
 287  1954.13
 288  2578.181
 289  2759.329
 290  2371.201
 291  2463.867
 292  2063.498
 293  1813.737
 294  1946.78
 295  1870
 296  1615.057
 297  1698.887
 298  1709.357
 299  1620.106
 300  1574.033
 301  1433.196
 302  1845.447
 303  1740.694
 304  2184.949
 305  2416.801
 306  2400.11
 307  2264.3
 308  1882.716
 309  2012.156
 310  2151.618
 311  2109.911
 312  1993.567
 313  1765.156
 314  2092.779
 315  1498.281
 316  1232.099
 317  1139.911
 318  1347.003
 319  2091.559
 320  2149.701
 321  2233.546
 322  2751.408
 323  2792.832
 324  2150.386
 325  1819.26
 326  1870.461
 327  2178.294
 328  1678.25
 329  1643.546
 330  1968.004
 331  1728.023
 332  1389.45
 333  1173.544
 334  1463.246
 335  1876.417
 336  1690.504
 337  1871.587
 338  1973.922
 339  2547.574
 340  2651.365
 341  2014
 342  1844.753
 343  2013.429
 344  1841.574
 345  1858.848
 346  2090.086
 347  2135.4
 348  1800.913
 349  1453.756
 350  1748.935
 351  1735.978
 352  1362.915
 353  1641.824
 354  2155.861
 355  2505.541
 356  2579.266
 357  2516.279
 358  2311.852
 359  1902.772
 360  1701.314
 361  1750.973
 362  1884.889
 363  1901.65
 364  1845.997
 365  1561.337
 366  1380.712
 367  1493.02
 368  1609.649
 369  1632.515
 370  1893.248
 371  2496.468
 372  2666.397
 373  2164.866
 374  1834.65
 375  1578.957
 376  2125.442
 377  2325.24
 378  1683.307
 379  1465.055
 380  1436.714
 381  1233.483
 382  1331.938
 383  1391.48
 384  1545.248
 385  1881.373
 386  1769.075
 387  2299.859
 388  2389.178
 389  2411.816
 390  2069.912
 391  1637.03
 392  1944.767
 393  1896.278
 394  1752.132
 395  1817.756
 396  1881.328
 397  1649.163
 398  1029.857
 399  635.2305
 400  808.8995
 401  1482.281
 402  1737.763
 403  2055.492
 404  2649.108
 405  2698.797
 406  2343.614
 407  1906.88
 408  1650.804
 409  1952.78
 410  2194.918
 411  2011.477
 412  1844.362
 413  1951.652
 414  1880.402
 415  1557.692
 416  1301.588
 417  2078.766
 418  2183.356
 419  2136.166
 420  2328.045
 421  2429.71
 422  2680.595
 423  2509.243
 424  2218.836
 425  2122.249
 426  2254.339
 427  2146.942
 428  2227.834
 429  2554.616
 430  2416.375
 431  1853.108
 432  1502.237
 433  1612.139
 434  1872.345
 435  2009.296
 436  2026.772
 437  2515.132
 438  2996.515
 439  2920.531
 440  2425.053
 441  2544.572
 442  2558.074
 443  2074.934
 444  1791.902
 445  1630.536
 446  1905.161
 447  1847.505
 448  1842.07
 449  1475.648
 450  1680.009
 451  2004.08
 452  2055.229
 453  2322.834
 454  2446.431
 455  2385.511
 456  2423.01
 457  1880.576
 458  2003.767
 459  2234.989
 460  2007.964
 461  1762.369
 462  1699.08
 463  1743.84
 464  1552.806
 465  1552.78
 466  1523.437
 467  1706.74
 468  1832.724
 469  1662.725
 470  2100.826
 471  2390.63
 472  2140.073
 473  1688.403
 474  2283.741
 475  2226.667
 476  1988.89
 477  1650.39
 478  1678.754
 479  1458.237
 480  1550.844
 481  1021.494
 482  1010.724
 483  1703.373
 484  2046.04
 485  2162.965
 486  2577.985
 487  2412.262
 488  2093.289
 489  1674.768
 490  1704.202
 491  1927.773
 492  2139.375
 493  2026.115
 494  1983.516
 495  1919.452
 496  2133.641
 497  1814.369
 498  1302.744
 499  1224.208
 500  1685.822
 501  2509.578
 502  2564.487
 503  2801.269
 504  2815.281
 505  2541.363
 506  2041.096
 507  1890.558
 508  1748.815
 509  1868.186
 510  2167.13
 511  2118.218
