# Input file       =  1201274952.113662_cleaned.dat
# Candidate        =  PSR_0332+5434
# Telescope        =  AR
# Epoch_topo       =  58147.645499000719
# Epoch_bary       =  N/A
# T_sample         =  0.002
# Data Folded      =  7340032
# Data Avg         =  0.0984326253310432
# Data StdDev      =  3.49527886032176 
# Profile Bins     =  1024
# Profile Avg      =  705.16970103499  
# Profile StdDev   =  295.924436071444 
# Reduced chi-sqr  =  0.806
# Prob(Noise)      <  1   (~0.0 sigma)
# P_topo (ms)      =  714.574892224239  +/- 0.000614
# P'_topo (s/s)    =  -0                +/- 3.24e-10
# P''_topo (s/s^2) =  0                 +/- 1.43e-13
# P_bary (ms)      =  N/A
# P'_bary (s/s)    =  N/A
# P''_bary (s/s^2) =  N/A
# P_orb (s)        =  N/A
# asin(i)/c (s)    =  N/A
# eccentricity     =  N/A
# w (rad)          =  N/A
# T_peri           =  N/A
######################################################
   0  637.7238
   1  632.6262
   2  549.0307
   3  496.1525
   4  627.3068
   5  711.0345
   6  723.8721
   7  646.5756
   8  549.313
   9  617.5923
  10  665.6503
  11  808.079
  12  830.6539
  13  855.3338
  14  858.2632
  15  843.8128
  16  803.3439
  17  644.4093
  18  583.1066
  19  564.1277
  20  706.5444
  21  782.3365
  22  787.475
  23  647.5397
  24  652.6757
  25  626.8383
  26  712.2921
  27  663.3559
  28  614.9594
  29  526.7189
  30  421.4456
  31  507.4606
  32  617.7514
  33  748.722
  34  842.6384
  35  877.4809
  36  866.217
  37  782.137
  38  723.7276
  39  578.4844
  40  519.1841
  41  563.0485
  42  625.0634
  43  629.2926
  44  562.1519
  45  552.5067
  46  513.5923
  47  502.5226
  48  350.8035
  49  386.3575
  50  500.5338
  51  604.1787
  52  648.3796
  53  741.3027
  54  746.0274
  55  740.8106
  56  675.3522
  57  609.0173
  58  498.4524
  59  490.7862
  60  449.9343
  61  510.8232
  62  408.0261
  63  562.438
  64  525.1328
  65  482.2715
  66  368.6648
  67  422.7777
  68  638.4739
  69  755.6998
  70  843.61
  71  776.9287
  72  717.085
  73  571.3838
  74  562.3243
  75  638.4929
  76  675.996
  77  707.1974
  78  609.6098
  79  583.5609
  80  453.0242
  81  464.151
  82  419.2075
  83  410.0226
  84  328.943
  85  327.4944
  86  394.6749
  87  563.9652
  88  581.0175
  89  524.4999
  90  540.3998
  91  590.9489
  92  610.91
  93  585.4576
  94  520.5249
  95  387.7737
  96  420.6064
  97  551.3066
  98  564.4526
  99  629.4217
 100  634.9783
 101  658.2016
 102  548.7355
 103  586.8044
 104  640.5294
 105  771.6522
 106  718.5134
 107  654.9333
 108  574.6085
 109  529.0951
 110  517.1878
 111  548.4615
 112  578.1295
 113  594.2862
 114  569.4818
 115  661.446
 116  577.8545
 117  670.4333
 118  685.3633
 119  687.3265
 120  619.3138
 121  615.2912
 122  641.7038
 123  668.8061
 124  530.3077
 125  489.8775
 126  575.7628
 127  685.097
 128  722.2364
 129  646.3873
 130  636.3668
 131  634.9507
 132  682.1311
 133  801.4432
 134  875.1733
 135  801.3572
 136  826.1279
 137  762.0184
 138  838.5815
 139  778.1815
 140  670.5388
 141  618.3988
 142  586.2459
 143  574.6293
 144  504.6143
 145  531.2389
 146  548.238
 147  641.74
 148  701.7045
 149  771.562
 150  752.2311
 151  721.9601
 152  694.1429
 153  753.4707
 154  752.0538
 155  746.3773
 156  740.2549
 157  773.7554
 158  715.1736
 159  702.1817
 160  754.7256
 161  800.7526
 162  803.7037
 163  681.4199
 164  689.874
 165  636.2424
 166  625.9946
 167  582.9449
 168  701.5128
 169  669.8213
 170  650.8285
 171  595.5333
 172  698.2369
 173  642.7416
 174  544.4668
 175  530.7101
 176  598.1608
 177  678.7664
 178  651.528
 179  527.4238
 180  514.6902
 181  549.2902
 182  590.3591
 183  575.5121
 184  515.3655
 185  516.2059
 186  479.6797
 187  563.2123
 188  525.7271
 189  505.6854
 190  523.3027
 191  656.9665
 192  830.7094
 193  740.4549
 194  734.9627
 195  621.748
 196  548.165
 197  474.6472
 198  510.9111
 199  626.8994
 200  705.2177
 201  670.4994
 202  678.5392
 203  606.4155
 204  686.3427
 205  713.634
 206  805.6686
 207  671.1617
 208  625.8173
 209  696.1071
 210  868.5169
 211  925.451
 212  782.9763
 213  675.6587
 214  727.011
 215  801.2126
 216  686.9597
 217  652.6255
 218  693.5418
 219  833.3409
 220  861.4606
 221  829.8461
 222  869.8417
 223  785.8707
 224  973.6922
 225  953.3751
 226  959.0986
 227  768.1788
 228  744.0927
 229  827.1884
 230  912.0391
 231  779.1295
 232  647.5588
 233  558.7692
 234  626.0784
 235  705.603
 236  711.4556
 237  694.6499
 238  638.9299
 239  647.5807
 240  643.9459
 241  683.2462
 242  780.6523
 243  843.0255
 244  843.3991
 245  819.2939
 246  804.9661
 247  784.2406
 248  754.8941
 249  713.4539
 250  692.8922
 251  734.0143
 252  801.5518
 253  845.8459
 254  827.0948
 255  816.6823
 256  896.2729
 257  867.6252
 258  712.7567
 259  603.6403
 260  662.6965
 261  774.9525
 262  772.3934
 263  720.197
 264  748.923
 265  835.827
 266  838.7131
 267  744.9673
 268  662.427
 269  772.1573
 270  757.6797
 271  866.8445
 272  745.3445
 273  753.7192
 274  651.1908
 275  648.5599
 276  681.337
 277  755.7919
 278  783.8112
 279  828.9485
 280  874.001
 281  864.3895
 282  873.6623
 283  882.4714
 284  881.8298
 285  861.6693
 286  790.2063
 287  771.7233
 288  636.7039
 289  652.1541
 290  666.2881
 291  770.2731
 292  817.582
 293  895.0773
 294  861.8305
 295  884.6985
 296  791.0562
 297  811.1974
 298  816.4778
 299  861.9862
 300  860.0945
 301  858.603
 302  789.6698
 303  685.722
 304  616.7405
 305  728.533
 306  774.7507
 307  778.0717
 308  863.0245
 309  871.0579
 310  805.3548
 311  705.3848
 312  748.1859
 313  777.7584
 314  757.7616
 315  771.9734
 316  820.8064
 317  748.0526
 318  688.3707
 319  662.4817
 320  819.9805
 321  949.286
 322  923.3109
 323  786.3539
 324  656.8961
 325  648.822
 326  683.6856
 327  779.4895
 328  817.1983
 329  812.4049
 330  753.8887
 331  607.7583
 332  635.8046
 333  709.0435
 334  796.5737
 335  679.9528
 336  624.889
 337  694.4604
 338  758.0747
 339  728.8458
 340  749.3489
 341  862.3404
 342  890.4652
 343  935.2269
 344  862.5996
 345  626.5017
 346  571.4568
 347  583.2441
 348  655.3573
 349  610.0705
 350  647.9651
 351  803.5218
 352  877.1593
 353  918.9384
 354  910.0161
 355  885.2113
 356  866.0975
 357  877.1591
 358  858.0833
 359  787.7179
 360  717.6925
 361  764.449
 362  731.2949
 363  728.8827
 364  701.6413
 365  775.0941
 366  824.4733
 367  845.674
 368  823.1474
 369  728.3013
 370  676.3677
 371  700.8068
 372  702.7887
 373  632.5629
 374  602.6308
 375  589.6743
 376  618.5498
 377  665.7958
 378  685.9951
 379  670.4425
 380  674.5317
 381  746.4001
 382  714.7133
 383  691.8007
 384  640.3828
 385  713.0603
 386  873.6503
 387  927.1094
 388  841.5174
 389  749.1077
 390  825.3041
 391  889.3458
 392  909.7014
 393  946.7017
 394  893.2355
 395  822.943
 396  792.2612
 397  755.1904
 398  729.4742
 399  723.4083
 400  761.2365
 401  789.8418
 402  717.1464
 403  612.9818
 404  545.991
 405  587.0593
 406  616.2288
 407  677.6883
 408  697.5836
 409  721.6154
 410  734.8301
 411  721.5466
 412  703.5209
 413  740.2061
 414  681.2496
 415  818.5701
 416  878.7136
 417  825.8621
 418  702.9216
 419  808.3531
 420  896.9872
 421  895.1903
 422  800.3596
 423  861.2762
 424  841.8765
 425  832.1663
 426  748.3497
 427  764.7988
 428  785.7758
 429  809.7132
 430  886.4233
 431  863.439
 432  858.0476
 433  787.2779
 434  894.8342
 435  951.5486
 436  1014.107
 437  901.7541
 438  825.3083
 439  769.0425
 440  838.6625
 441  862.7068
 442  921.6215
 443  947.6063
 444  933.3934
 445  731.874
 446  552.1159
 447  476.143
 448  588.477
 449  629.5751
 450  628.0344
 451  624.6895
 452  589.4313
 453  638.1591
 454  656.6514
 455  776.9571
 456  784.2647
 457  713.5017
 458  667.2318
 459  715.2707
 460  759.2361
 461  656.1816
 462  569.374
 463  552.3696
 464  706.9266
 465  775.5436
 466  762.7506
 467  791.2603
 468  710.8784
 469  643.848
 470  528.432
 471  641.2029
 472  742.0466
 473  788.7419
 474  754.3409
 475  727.5435
 476  801.95
 477  766.9639
 478  750.5817
 479  802.8691
 480  908.9772
 481  939.5036
 482  848.7701
 483  746.5309
 484  676.2235
 485  748.3098
 486  792.3639
 487  800.3707
 488  831.9637
 489  764.5301
 490  689.6222
 491  612.2422
 492  674.8414
 493  718.1828
 494  766.0308
 495  865.8596
 496  920.7114
 497  881.3248
 498  737.695
 499  723.3675
 500  706.2957
 501  762.6725
 502  743.3042
 503  830.7714
 504  761.2767
 505  666.3869
 506  648.525
 507  667.6165
 508  739.0828
 509  731.1544
 510  694.0459
 511  654.1882
 512  700.7342
 513  761.4504
 514  769.8755
 515  781.1154
 516  769.0104
 517  792.8668
 518  712.9485
 519  686.2349
 520  785.9745
 521  779.4281
 522  822.1522
 523  729.4521
 524  626.1794
 525  647.9111
 526  593.8239
 527  622.6693
 528  513.7133
 529  767.9298
 530  938.539
 531  982.6035
 532  822.6074
 533  747.9321
 534  701.1756
 535  685.8322
 536  705.2701
 537  850.0494
 538  915.3071
 539  752.9268
 540  592.6146
 541  603.8966
 542  675.4574
 543  638.7138
 544  653.8646
 545  690.0222
 546  768.494
 547  798.4945
 548  781.7704
 549  850.4022
 550  822.5678
 551  817.4672
 552  720.6847
 553  767.8999
 554  798.9119
 555  745.7995
 556  776.5522
 557  755.362
 558  835.572
 559  832.3737
 560  848.3668
 561  773.9557
 562  700.3057
 563  787.6774
 564  857.2866
 565  765.4218
 566  759.472
 567  788.2839
 568  925.2736
 569  903.6708
 570  900.1371
 571  903.8406
 572  941.2025
 573  847.9758
 574  675.6807
 575  566.4955
 576  595.7394
 577  778.3305
 578  946.5018
 579  972.5907
 580  892.6887
 581  727.957
 582  680.1571
 583  618.8959
 584  743.4901
 585  877.0482
 586  916.7979
 587  908.7287
 588  782.8351
 589  648.5728
 590  539.4791
 591  646.6978
 592  790.482
 593  877.9063
 594  903.6669
 595  879.5607
 596  729.5118
 597  635.9781
 598  593.6483
 599  692.4447
 600  758.4905
 601  738.9873
 602  693.9865
 603  692.9799
 604  798.5023
 605  842.0762
 606  852.0103
 607  802.2208
 608  923.1155
 609  1067.093
 610  1190.421
 611  1275.418
 612  1376.511
 613  1463.22
 614  1540.241
 615  1541.28
 616  1534.63
 617  1467.652
 618  1422.948
 619  1262.953
 620  1172.416
 621  1058.444
 622  996.7504
 623  915.0294
 624  740.8763
 625  704.1445
 626  711.3588
 627  753.5958
 628  622.6427
 629  606.4144
 630  756.5543
 631  812.5045
 632  847.2595
 633  850.105
 634  767.3539
 635  714.8154
 636  766.0453
 637  857.4474
 638  764.0972
 639  729.2864
 640  758.6687
 641  908.532
 642  881.8676
 643  914.6545
 644  881.1095
 645  785.0203
 646  708.6154
 647  704.5478
 648  741.3996
 649  802.3072
 650  767.4249
 651  824.1141
 652  817.4716
 653  903.2619
 654  922.9717
 655  871.3947
 656  741.5297
 657  658.4641
 658  682.1827
 659  680.7336
 660  764.9616
 661  777.7152
 662  733.3965
 663  717.0226
 664  716.9709
 665  735.5909
 666  629.9617
 667  555.1302
 668  625.0396
 669  669.033
 670  668.5415
 671  619.8231
 672  675.7781
 673  710.4146
 674  740.8721
 675  741.2452
 676  765.3615
 677  720.3043
 678  702.279
 679  639.3395
 680  639.2285
 681  641.7837
 682  636.8764
 683  600.9893
 684  545.9357
 685  641.595
 686  668.6813
 687  783.5897
 688  751.1493
 689  770.1492
 690  787.3779
 691  766.3545
 692  768.3413
 693  729.9982
 694  833.978
 695  893.8934
 696  873.1243
 697  855.7658
 698  827.2441
 699  777.4631
 700  633.1556
 701  611.5709
 702  658.1103
 703  729.397
 704  805.6517
 705  781.4372
 706  834.7579
 707  851.4052
 708  862.5654
 709  882.4838
 710  921.4426
 711  995.6135
 712  952.8944
 713  828.9051
 714  789.1758
 715  822.4794
 716  975.9108
 717  957.9021
 718  836.1239
 719  845.5551
 720  866.1339
 721  881.7738
 722  873.5385
 723  834.0806
 724  843.1589
 725  814.0811
 726  747.4392
 727  749.8416
 728  764.8623
 729  781.6598
 730  723.1342
 731  721.709
 732  756.9144
 733  652.6434
 734  509.5114
 735  513.3336
 736  485.3467
 737  510.1137
 738  553.637
 739  566.1794
 740  573.7308
 741  634.7189
 742  708.3766
 743  647.0835
 744  628.5822
 745  546.8301
 746  585.2216
 747  500.3194
 748  446.2314
 749  479.558
 750  532.0839
 751  651.9971
 752  610.5623
 753  589.5984
 754  515.0541
 755  460.2032
 756  571.8513
 757  674.078
 758  655.3927
 759  628.4052
 760  648.6362
 761  752.317
 762  757.3907
 763  699.5173
 764  584.6495
 765  573.7012
 766  640.7852
 767  619.9414
 768  575.754
 769  481.3857
 770  446.8698
 771  497.0655
 772  492.6027
 773  442.8104
 774  456.8828
 775  436.0435
 776  511.7773
 777  504.4668
 778  536.8237
 779  570.9473
 780  576.8427
 781  628.1434
 782  515.2186
 783  419.8027
 784  471.0635
 785  537.8426
 786  618.6934
 787  591.4351
 788  603.9185
 789  661.3832
 790  702.4022
 791  631.9148
 792  483.6789
 793  482.3418
 794  567.7118
 795  643.8099
 796  577.9774
 797  559.3056
 798  539.7944
 799  614.0635
 800  667.7819
 801  729.8081
 802  671.7476
 803  609.6902
 804  560.6193
 805  600.242
 806  557.2283
 807  572.4023
 808  667.1458
 809  792.3965
 810  714.8045
 811  595.084
 812  493.0337
 813  567.5739
 814  586.4733
 815  609.4528
 816  578.6149
 817  558.4483
 818  474.4519
 819  510.0282
 820  536.5941
 821  625.3043
 822  608.7469
 823  592.9725
 824  586.3847
 825  501.2319
 826  497.6312
 827  415.3117
 828  372.3683
 829  334.9804
 830  386.2062
 831  457.0429
 832  426.578
 833  338.4601
 834  327.0823
 835  436.747
 836  553.2363
 837  559.2866
 838  587.1967
 839  535.2379
 840  589.868
 841  516.5974
 842  551.8746
 843  478.2514
 844  547.7472
 845  573.1384
 846  589.5413
 847  404.6499
 848  403.602
 849  593.4231
 850  717.7351
 851  761.4925
 852  752.644
 853  784.7837
 854  649.0791
 855  620.6331
 856  738.5587
 857  788.1889
 858  782.4981
 859  659.9999
 860  717.1494
 861  620.8315
 862  639.3125
 863  645.5241
 864  680.324
 865  804.5612
 866  709.6895
 867  738.2224
 868  685.4798
 869  859.0638
 870  848.7763
 871  934.6631
 872  814.3267
 873  872.6848
 874  744.4686
 875  690.5847
 876  543.7902
 877  592.7752
 878  765.2615
 879  890.4854
 880  820.1582
 881  734.2463
 882  716.5636
 883  719.9283
 884  693.2012
 885  746.1411
 886  859.3105
 887  869.5376
 888  805.0256
 889  765.1412
 890  846.5209
 891  864.1857
 892  864.2728
 893  882.6306
 894  864.9322
 895  745.0301
 896  660.806
 897  658.7047
 898  738.5437
 899  689.5683
 900  704.1101
 901  814.7828
 902  921.0148
 903  970.0175
 904  925.2374
 905  963.3447
 906  898.0942
 907  833.9431
 908  701.7616
 909  642.358
 910  738.1083
 911  812.7987
 912  783.126
 913  597.7429
 914  587.761
 915  677.3998
 916  714.6239
 917  749.0965
 918  739.7059
 919  833.3188
 920  719.5829
 921  653.0204
 922  517.2147
 923  488.6942
 924  438.1359
 925  448.5281
 926  535.1535
 927  619.2753
 928  683.8412
 929  679.3534
 930  657.9511
 931  736.4034
 932  843.3442
 933  854.7127
 934  735.2135
 935  663.8674
 936  600.7041
 937  513.6771
 938  549.8587
 939  462.7503
 940  471.5664
 941  450.5606
 942  551.8751
 943  690.7557
 944  826.9225
 945  855.9794
 946  760.766
 947  662.4969
 948  658.2325
 949  594.4912
 950  580.863
 951  595.4272
 952  715.2825
 953  738.883
 954  555.9441
 955  434.6115
 956  430.422
 957  550.6209
 958  684.2905
 959  686.423
 960  662.9426
 961  651.4037
 962  685.3098
 963  675.8177
 964  644.1944
 965  617.9705
 966  653.7289
 967  687.5484
 968  651.4755
 969  584.0825
 970  553.4492
 971  593.6375
 972  584.1619
 973  560.3924
 974  574.2903
 975  635.8859
 976  674.1804
 977  686.3851
 978  594.603
 979  573.0121
 980  563.62
 981  589.4395
 982  656.8807
 983  673.7416
 984  657.8232
 985  628.2572
 986  634.6476
 987  686.8229
 988  662.1058
 989  685.4144
 990  631.4406
 991  553.7532
 992  558.9565
 993  630.1259
 994  815.3055
 995  771.9327
 996  790.261
 997  652.857
 998  573.0613
 999  593.1288
1000  518.6434
1001  521.5519
1002  496.8873
1003  617.1295
1004  710.2429
1005  691.0166
1006  558.1827
1007  509.826
1008  613.7151
1009  738.4818
1010  783.8376
1011  657.4297
1012  528.5082
1013  452.1606
1014  528.4591
1015  488.826
1016  575.929
1017  704.5267
1018  689.1431
1019  533.5851
1020  515.5704
1021  644.8748
1022  667.0795
1023  632.0604
