# Input file       =  1201792005.108639_cleaned.dat
# Candidate        =  PSR_0332+5434
# Telescope        =  AR
# Epoch_topo       =  58153.629908664807
# Epoch_bary       =  N/A
# T_sample         =  0.002
# Data Folded      =  7340032
# Data Avg         =  0.136589932700319
# Data StdDev      =  4.33962229456286 
# Profile Bins     =  512
# Profile Avg      =  1958.77406372529 
# Profile StdDev   =  519.59615405632  
# Reduced chi-sqr  =  0.737
# Prob(Noise)      <  1   (~0.0 sigma)
# P_topo (ms)      =  714.577290687603  +/- 0.000502
# P'_topo (s/s)    =  -0                +/- 2.65e-10
# P''_topo (s/s^2) =  0                 +/- 1.17e-13
# P_bary (ms)      =  N/A
# P'_bary (s/s)    =  N/A
# P''_bary (s/s^2) =  N/A
# P_orb (s)        =  N/A
# asin(i)/c (s)    =  N/A
# eccentricity     =  N/A
# w (rad)          =  N/A
# T_peri           =  N/A
######################################################
   0  1432.537
   1  1957.641
   2  1985.355
   3  2120.239
   4  1938.343
   5  1953.161
   6  1892.999
   7  2290.353
   8  2241.4
   9  1991.871
  10  2046.544
  11  2069.542
  12  2264.293
  13  2379.77
  14  2452.093
  15  1870.003
  16  1619.435
  17  1576.163
  18  1711.338
  19  1939.822
  20  2149.172
  21  2363.756
  22  2477.28
  23  2376.766
  24  2226.381
  25  1799.542
  26  2285.195
  27  2812.227
  28  2499.613
  29  2265.744
  30  2374.867
  31  2380.747
  32  2052.577
  33  2151.204
  34  2174.985
  35  2194.804
  36  2684.521
  37  2611.822
  38  2227.798
  39  2019.139
  40  1643.84
  41  1785.539
  42  1981.267
  43  1295.243
  44  1431.004
  45  1663.727
  46  1843.06
  47  1862.388
  48  1634.46
  49  1460.15
  50  1826.175
  51  1486.011
  52  1721.567
  53  2231.241
  54  2479.971
  55  2401.597
  56  1846.351
  57  1937.909
  58  1799.104
  59  2164.723
  60  2506.711
  61  2691.373
  62  2392.854
  63  1911.168
  64  1705.582
  65  1555.391
  66  1402.563
  67  1588.265
  68  1777.737
  69  1657.711
  70  1635.715
  71  1568.517
  72  1412.208
  73  1425.686
  74  1474.212
  75  1880.776
  76  1825.778
  77  1829.5
  78  1889.171
  79  1898.204
  80  1880.125
  81  1645.309
  82  1243.347
  83  1385.795
  84  1635.776
  85  1468.615
  86  1931.969
  87  1814.047
  88  1704.338
  89  1773.016
  90  1809.912
  91  1713.853
  92  1763.531
  93  2082.521
  94  2018.844
  95  1990.334
  96  1628.615
  97  1818.904
  98  1927.065
  99  2279.317
 100  1960.123
 101  2001.552
 102  1947.909
 103  1793.883
 104  2001.236
 105  2205.627
 106  2073.54
 107  2071.117
 108  2105.75
 109  2416.589
 110  1894.497
 111  1914.778
 112  2042.566
 113  2217.721
 114  1992.983
 115  2255.332
 116  2090.545
 117  1867.16
 118  1951.513
 119  1627.39
 120  1456.919
 121  1616.565
 122  1666.645
 123  1862.049
 124  2078.618
 125  1626.742
 126  1666.052
 127  2044.717
 128  2072.592
 129  1749.808
 130  1995.772
 131  2369.098
 132  2196.808
 133  1970.975
 134  1977.46
 135  1925.062
 136  2214.966
 137  2068.702
 138  1884.088
 139  2178.429
 140  2208.583
 141  2345.35
 142  1989.43
 143  1866.207
 144  1793.37
 145  2241.938
 146  2143.46
 147  1763.325
 148  1974.912
 149  2128.24
 150  1850.655
 151  1507.75
 152  1904.525
 153  1708.638
 154  1744.263
 155  1597.619
 156  1706.395
 157  1678.024
 158  1611.231
 159  1553.14
 160  1323.607
 161  1725.829
 162  1797.524
 163  1521.971
 164  1830.465
 165  1783.175
 166  2069.105
 167  2007.155
 168  2061.944
 169  1827.262
 170  1910.541
 171  2237.326
 172  2377.196
 173  2233.094
 174  2133.211
 175  1966.603
 176  1947.75
 177  2351.159
 178  2347.186
 179  2276.528
 180  2394.992
 181  2044.68
 182  1659.381
 183  1374.932
 184  2140.824
 185  1840.342
 186  1946.518
 187  1638.795
 188  1582.095
 189  1695.035
 190  2093.65
 191  2306.64
 192  2088.547
 193  1698.379
 194  1406.503
 195  1580.38
 196  1554.318
 197  1417.058
 198  1552.494
 199  1877.062
 200  2017.277
 201  2058.018
 202  1950.246
 203  1694.832
 204  1719.059
 205  2214.358
 206  1938.47
 207  1722.852
 208  1879.607
 209  2159.032
 210  2261.555
 211  2059.684
 212  1954.739
 213  2266.652
 214  2810.013
 215  2238.993
 216  1983.606
 217  1924.44
 218  1897.883
 219  2046.192
 220  1979.47
 221  2056.72
 222  1807.524
 223  2272.007
 224  2349.405
 225  1961.891
 226  1876.32
 227  2022.407
 228  2237.498
 229  2959.824
 230  3299.779
 231  3539.224
 232  3246.641
 233  2661.739
 234  2371.928
 235  2218.222
 236  2367.611
 237  2169.042
 238  1987.049
 239  1775.807
 240  1495.777
 241  1652.651
 242  1784.451
 243  1863.325
 244  1709.121
 245  1716.522
 246  2057.926
 247  2080.817
 248  1949.1
 249  1806.625
 250  1965.167
 251  2108.731
 252  2141.746
 253  1747
 254  1537.272
 255  1795.813
 256  2096.341
 257  1867.099
 258  1663.283
 259  1890.257
 260  2043.237
 261  2045.241
 262  2366.479
 263  2451.74
 264  2113.655
 265  2023.035
 266  2383.917
 267  2664.959
 268  2639.487
 269  2236.426
 270  2348.037
 271  2114.629
 272  2090.021
 273  2104.056
 274  2256.832
 275  2421.595
 276  2233.735
 277  2180.083
 278  2014.611
 279  2473.296
 280  2370.952
 281  2035.619
 282  1632.593
 283  1474.076
 284  1686.984
 285  1989.998
 286  2028.806
 287  1643.027
 288  1923.767
 289  1641.444
 290  1672.923
 291  1808.851
 292  1491.208
 293  1076.23
 294  1236.525
 295  1285.182
 296  1351.723
 297  1569.916
 298  1803.846
 299  1914.779
 300  1628.149
 301  1685.742
 302  1623.896
 303  1692.976
 304  2088.097
 305  1907.916
 306  2019.329
 307  2128.91
 308  1737.062
 309  1955.474
 310  2003.689
 311  1849.135
 312  1413.347
 313  1484.192
 314  1983.587
 315  1981.566
 316  1589.296
 317  1491.802
 318  1716.024
 319  1411.232
 320  1492.043
 321  1870.242
 322  1977.813
 323  1784.058
 324  1916.239
 325  2163.353
 326  1903.393
 327  1704.804
 328  1721.745
 329  2108.474
 330  2147.051
 331  2117.719
 332  2183.439
 333  1848.577
 334  1654.606
 335  1963.443
 336  1672.533
 337  1428.056
 338  1542.52
 339  1632.077
 340  1524.267
 341  1379.558
 342  1713.919
 343  1951.848
 344  1566.961
 345  1600.259
 346  1783.35
 347  1843.444
 348  1983.106
 349  2064.598
 350  1843.534
 351  1838.22
 352  2075.586
 353  2182.062
 354  2018.847
 355  1689.608
 356  1962.318
 357  1636.384
 358  1822.978
 359  1830.434
 360  1973.222
 361  1998.771
 362  1663.915
 363  1705.279
 364  1619.948
 365  1576.238
 366  1819.461
 367  1982.554
 368  1690.812
 369  1576.261
 370  1893.707
 371  2007.347
 372  2152.477
 373  2292.77
 374  1831.294
 375  2015.244
 376  1595.55
 377  1601.9
 378  1863.871
 379  2260.67
 380  2118.802
 381  2154.589
 382  2148.485
 383  1602.639
 384  1602.995
 385  1831.299
 386  1765.457
 387  1927.264
 388  2259.453
 389  2107.752
 390  2035.552
 391  1835.545
 392  1860.722
 393  1745.714
 394  2047.149
 395  1954.031
 396  1782.513
 397  2049.827
 398  1628.899
 399  1693.977
 400  1819.734
 401  1861.077
 402  1958.27
 403  1911.182
 404  1657.451
 405  1910.379
 406  1921.987
 407  2276.845
 408  2229.684
 409  2146.919
 410  2224.84
 411  2562.185
 412  2055.898
 413  1849.801
 414  2108.29
 415  2115.195
 416  1871.58
 417  2011.753
 418  2190.745
 419  2507.022
 420  2432.863
 421  2750.037
 422  2574.179
 423  2873.25
 424  2395.283
 425  2529.113
 426  2363
 427  2342.757
 428  2236.499
 429  2360.686
 430  2376.38
 431  2137.666
 432  2190.673
 433  2554.319
 434  2740.884
 435  2526.665
 436  2288.253
 437  2418.12
 438  2497.207
 439  2467.332
 440  2422.894
 441  2401.894
 442  2447.149
 443  2373.279
 444  2481.924
 445  2484.476
 446  2248.202
 447  2215.779
 448  1878.98
 449  2183.716
 450  2389.2
 451  2329.281
 452  2091.264
 453  2130.494
 454  1977.355
 455  1645.075
 456  1872.456
 457  1790.201
 458  1585.119
 459  1467.72
 460  1684.831
 461  1755.088
 462  2126.443
 463  2313.071
 464  1914.03
 465  1585.246
 466  1833.689
 467  2175.647
 468  2026.446
 469  2063.593
 470  1878.605
 471  1766.159
 472  2152.053
 473  2079.832
 474  1930.663
 475  1675.442
 476  1681.538
 477  2065.932
 478  1937.216
 479  1656.24
 480  1674.589
 481  1780.858
 482  1779.36
 483  1526.62
 484  1407.782
 485  1705.88
 486  2200.045
 487  2257.914
 488  1891.91
 489  1860.602
 490  1767.172
 491  1853.763
 492  2120.62
 493  2113.352
 494  1809.147
 495  1869.154
 496  2194.16
 497  1871.937
 498  1592.83
 499  1643.935
 500  1607.517
 501  1622.741
 502  1767.354
 503  1812.256
 504  1739.445
 505  1782.838
 506  1478.844
 507  1582.426
 508  1665.789
 509  1997.095
 510  2440.433
 511  2077.812
