# Input file       =  1201605060.106532_cleaned.dat
# Candidate        =  PSR_0332+5434
# Telescope        =  AR
# Epoch_topo       =  58151.466193362641
# Epoch_bary       =  N/A
# T_sample         =  0.002
# Data Folded      =  7208960
# Data Avg         =  0.0874477942177858
# Data StdDev      =  3.955235920064   
# Profile Bins     =  512
# Profile Avg      =  1231.4405409654  
# Profile StdDev   =  469.325034343761 
# Reduced chi-sqr  =  1.331
# Prob(Noise)      <  7.37e-07   (~4.8 sigma)
# P_topo (ms)      =  714.576469175683  +/- 2.52e-05
# P'_topo (s/s)    =  -0                +/- 1.35e-11
# P''_topo (s/s^2) =  0                 +/- 6.08e-15
# P_bary (ms)      =  N/A
# P'_bary (s/s)    =  N/A
# P''_bary (s/s^2) =  N/A
# P_orb (s)        =  N/A
# asin(i)/c (s)    =  N/A
# eccentricity     =  N/A
# w (rad)          =  N/A
# T_peri           =  N/A
######################################################
   0  953.3042
   1  1272.387
   2  1542.868
   3  1662.653
   4  1998.694
   5  1430.78
   6  936.126
   7  778.6063
   8  731.9469
   9  1050.725
  10  1464.305
  11  1544.164
  12  1509.77
  13  1570.875
  14  1221.152
  15  932.7921
  16  770.8875
  17  1352.49
  18  1616.558
  19  1373.131
  20  1501.759
  21  1483.252
  22  1460.552
  23  1120.657
  24  1108.088
  25  1101.81
  26  1221.245
  27  1645.888
  28  1304.563
  29  1269.624
  30  1065.47
  31  1086.635
  32  1036.928
  33  1240.275
  34  1440.639
  35  1733.323
  36  1789.031
  37  1590.085
  38  1365.236
  39  1054.538
  40  1046.138
  41  1072.195
  42  1453.573
  43  1196.202
  44  1173.09
  45  1102.396
  46  766.84
  47  889.0215
  48  956.6956
  49  1280.205
  50  1391.612
  51  1983.6
  52  2085.481
  53  1909.48
  54  1761.268
  55  1437.863
  56  1103.97
  57  982.1241
  58  1246.449
  59  1303.295
  60  1318.48
  61  1596.757
  62  1298.025
  63  1067.156
  64  821.8484
  65  599.3857
  66  796.8298
  67  1505.06
  68  1894.524
  69  1913.971
  70  1620.749
  71  1337.924
  72  1128.272
  73  950.0969
  74  805.7596
  75  1454.562
  76  1600.917
  77  1847.727
  78  1664.692
  79  1138.613
  80  567.9081
  81  488.077
  82  789.6129
  83  959.4399
  84  1491.21
  85  1714.636
  86  1641.52
  87  1718.513
  88  1527.006
  89  1164.557
  90  570.2034
  91  809.0391
  92  1070.409
  93  1265.223
  94  1560.911
  95  953.9818
  96  957.4578
  97  1064.724
  98  1113.958
  99  1431.36
 100  1926.574
 101  2091.101
 102  1936.583
 103  1731.517
 104  1526.871
 105  1428.414
 106  1259.15
 107  1365.829
 108  1313.631
 109  1341.644
 110  1244.517
 111  1338.237
 112  1387.286
 113  1157.839
 114  1011.893
 115  1121.186
 116  1310.807
 117  1699.319
 118  1595.227
 119  1874.945
 120  1953.007
 121  1581.92
 122  1079.601
 123  790.8496
 124  1017.965
 125  1023.224
 126  1371.238
 127  1304.934
 128  1411.357
 129  1209.418
 130  916.483
 131  652.5378
 132  866.2012
 133  1575.123
 134  1850.076
 135  1975.756
 136  1588.171
 137  1066.503
 138  768.0014
 139  793.8377
 140  808.657
 141  1101.897
 142  1468.287
 143  1401.851
 144  944.5272
 145  867.1996
 146  649.9755
 147  628.2996
 148  772.3657
 149  1302.05
 150  1844.645
 151  2155.483
 152  2123.157
 153  1739.02
 154  1139.006
 155  554.7327
 156  453.2617
 157  591.4337
 158  1269.661
 159  1461.375
 160  1302.879
 161  1422.033
 162  1410.942
 163  696.5327
 164  640.7697
 165  619.0428
 166  1291.157
 167  1565.621
 168  1536.871
 169  1353.023
 170  1160.644
 171  975.015
 172  768.3077
 173  936.5259
 174  1294.854
 175  1426.66
 176  1247.995
 177  1071.063
 178  1111.169
 179  1127.52
 180  856.2393
 181  893.3261
 182  1278.606
 183  1734.361
 184  1612.926
 185  1222.25
 186  1019.894
 187  1062.928
 188  951.4966
 189  960.9603
 190  970.2869
 191  999.723
 192  1288.701
 193  1599.578
 194  1325.288
 195  872.6385
 196  716.7241
 197  806.7641
 198  1030.354
 199  1289.677
 200  1611.663
 201  1156.771
 202  1454.311
 203  1567.726
 204  946.4965
 205  1018.922
 206  921.8124
 207  1065.716
 208  1370.243
 209  1566.589
 210  1324.136
 211  1015.535
 212  831.2292
 213  551.9688
 214  647.1051
 215  1348.311
 216  1626.791
 217  1752.151
 218  2012.371
 219  1497.841
 220  980.4622
 221  749.5719
 222  790.8709
 223  886.9805
 224  1140.181
 225  1424.312
 226  1419.862
 227  1227.265
 228  815.4827
 229  816.3367
 230  644.8525
 231  913.8451
 232  1673.302
 233  1777.859
 234  1422.416
 235  1604.879
 236  1212.207
 237  390.7698
 238  729.3133
 239  1006.755
 240  1329.773
 241  1389.809
 242  1373.141
 243  1472.093
 244  1018.488
 245  773.6129
 246  490.5524
 247  723.9763
 248  910.4487
 249  1405.506
 250  1373.714
 251  1148.874
 252  1307.545
 253  1162.052
 254  962.1233
 255  608.3823
 256  647.4686
 257  987.0957
 258  1305.846
 259  1341.448
 260  1151.197
 261  767.357
 262  390.818
 263  578.2239
 264  970.5383
 265  1440.679
 266  1387.455
 267  1414.64
 268  1281.154
 269  1394.822
 270  1549.203
 271  1224.33
 272  974.5251
 273  964.3777
 274  962.759
 275  1359.689
 276  1321.208
 277  1235.192
 278  799.3793
 279  564.7558
 280  770.7679
 281  1191.229
 282  1431.699
 283  1768.971
 284  1746.438
 285  1515.713
 286  1338.382
 287  789.4265
 288  646.3546
 289  1394.986
 290  1321.373
 291  1652.73
 292  1553.832
 293  823.6406
 294  605.6469
 295  493.119
 296  682.4916
 297  885.2991
 298  1338.086
 299  1543.128
 300  1581.884
 301  1768.219
 302  1549.759
 303  1019.557
 304  681.9462
 305  730.524
 306  779.6332
 307  897.6918
 308  1215.406
 309  1391.326
 310  1222.228
 311  1053.625
 312  713.2523
 313  417.1003
 314  1123.413
 315  1570.784
 316  1767.016
 317  1612.391
 318  1509.208
 319  1279.455
 320  939.6023
 321  607.113
 322  803.2876
 323  1092.653
 324  1370.114
 325  1297.278
 326  1132.191
 327  1072.666
 328  744.9699
 329  836.5605
 330  794.4424
 331  1093.851
 332  1494.666
 333  1715.612
 334  1572.132
 335  1219.356
 336  1049.426
 337  702.2302
 338  769.9662
 339  839.459
 340  1404.815
 341  1867.468
 342  2112.044
 343  1676.521
 344  1164.104
 345  934.2292
 346  780.7134
 347  1491.542
 348  1522.571
 349  1794.121
 350  1620.559
 351  1752.626
 352  1732.085
 353  1473.447
 354  1341.697
 355  1361.063
 356  1467.352
 357  1358.671
 358  1418.016
 359  1859.402
 360  2384.486
 361  2126.61
 362  2168.664
 363  2515.008
 364  2341.237
 365  2071.609
 366  1767.176
 367  1862.83
 368  1405.165
 369  732.6697
 370  674.295
 371  1115.789
 372  1314.947
 373  1754.546
 374  1744.164
 375  1584.516
 376  1194.899
 377  758.8794
 378  617.2491
 379  857.5481
 380  1190.277
 381  1882.33
 382  2204.573
 383  1711.32
 384  1271.605
 385  1011.887
 386  901.8901
 387  781.6147
 388  1064.831
 389  1583.022
 390  1562.6
 391  1313.17
 392  1080.84
 393  822.8892
 394  850.9631
 395  565.0167
 396  813.5881
 397  1298.93
 398  1730.101
 399  1867.849
 400  1478.966
 401  1186.971
 402  1066.365
 403  879.4176
 404  725.1326
 405  1027.324
 406  1524.946
 407  1248.333
 408  1202.551
 409  1095.32
 410  1076.287
 411  642.2431
 412  780.8776
 413  1275.61
 414  1718.959
 415  1875.879
 416  1861.064
 417  1547.41
 418  1306.44
 419  729.4755
 420  716.9861
 421  871.5369
 422  1252.045
 423  1343.829
 424  1520.042
 425  1249.339
 426  1028.567
 427  891.1691
 428  429.7404
 429  693.5781
 430  1353.602
 431  1489.885
 432  1373.004
 433  1596.915
 434  1560.314
 435  966.4067
 436  615.6624
 437  1070.532
 438  1064.652
 439  1219.233
 440  1435.087
 441  1231.075
 442  1248.406
 443  741.3644
 444  702.9678
 445  744.1849
 446  1097.118
 447  1510.844
 448  1619.401
 449  1730.308
 450  1641.623
 451  1611.455
 452  1486.611
 453  1083.094
 454  1047.744
 455  1282.092
 456  1096.719
 457  1131.466
 458  1077.584
 459  831.1467
 460  662.3489
 461  775.6377
 462  1313.587
 463  1744.203
 464  1728.612
 465  1795.097
 466  1679.281
 467  1324.256
 468  1061.783
 469  1057.519
 470  1112.298
 471  1584.922
 472  1380.839
 473  1365.886
 474  1306.863
 475  897.6744
 476  579.7816
 477  644.0354
 478  1021.297
 479  1118.352
 480  1662.156
 481  2044.227
 482  1777.817
 483  1503.056
 484  1251.206
 485  621.7479
 486  618.4637
 487  1201.372
 488  1473.359
 489  1439.861
 490  1298.587
 491  1515.221
 492  1631.462
 493  944.6196
 494  773.3333
 495  1104.361
 496  1419.082
 497  1680.16
 498  1670.591
 499  2033.559
 500  1538.389
 501  1006.861
 502  689.1714
 503  436.0287
 504  530.2742
 505  1253.136
 506  1422.141
 507  1126.17
 508  1007.356
 509  1021.113
 510  745.2882
 511  573.4077
