# Input file       =  1201964296.100175-PSRB0329-2ms-sampling-dd.dat
# Candidate        =  PSR_0332+5434
# Telescope        =  AR
# Epoch_topo       =  58155.624017363138
# Epoch_bary       =  N/A
# T_sample         =  0.002
# Data Folded      =  7340032
# Data Avg         =  -2.98769046876242e-10
# Data StdDev      =  16.534381877592  
# Profile Bins     =  512
# Profile Avg      =  0.187576078845533
# Profile StdDev   =  1979.71174681707 
# Reduced chi-sqr  =  0.921
# Prob(Noise)      <  0.899   (~0.0 sigma)
# P_topo (ms)      =  714.577961160395  +/- 0.000486
# P'_topo (s/s)    =  -0                +/- 2.56e-10
# P''_topo (s/s^2) =  0                 +/- 1.13e-13
# P_bary (ms)      =  N/A
# P'_bary (s/s)    =  N/A
# P''_bary (s/s^2) =  N/A
# P_orb (s)        =  N/A
# asin(i)/c (s)    =  N/A
# eccentricity     =  N/A
# w (rad)          =  N/A
# T_peri           =  N/A
######################################################
   0  558.0316
   1  210.9209
   2  84.84847
   3  -339.5279
   4  123.419
   5  299.2014
   6  -76.0595
   7  932.6581
   8  1371.994
   9  1430.016
  10  909.3271
  11  877.6982
  12  914.2784
  13  264.2335
  14  300.2719
  15  -1.029251
  16  253.4837
  17  -109.0803
  18  102.2344
  19  454.4269
  20  -96.34985
  21  -665.7892
  22  -829.8171
  23  -759.5634
  24  -1124.145
  25  -945.2898
  26  -131.7281
  27  -168.7918
  28  -1000.568
  29  -1516.014
  30  -1491.945
  31  -972.2234
  32  -1073.04
  33  -714.5104
  34  -1074.427
  35  -1550.71
  36  -1935.129
  37  -2126.297
  38  -1870.848
  39  -2420.157
  40  -2405.748
  41  -1595.691
  42  -1608.899
  43  -967.0886
  44  -1358.211
  45  -1152.71
  46  -1728.819
  47  -1224.401
  48  -1004.065
  49  -608.5225
  50  -440.0224
  51  -90.75172
  52  127.0715
  53  -466.6699
  54  -1003.066
  55  -824.9712
  56  -600.1432
  57  -379.6174
  58  82.95713
  59  867.6964
  60  131.3637
  61  528.9093
  62  236.8893
  63  774.1364
  64  1114.155
  65  999.1873
  66  396.6366
  67  -13.40276
  68  97.69485
  69  289.1414
  70  654.4495
  71  39.05385
  72  493.2166
  73  309.491
  74  102.725
  75  -13.3841
  76  320.0452
  77  393.2182
  78  -309.9309
  79  -161.2815
  80  -60.99676
  81  -257.1898
  82  -597.5183
  83  -690.2
  84  -1358.939
  85  -1317.898
  86  328.1995
  87  1092.469
  88  1371.098
  89  633.1343
  90  -522.4467
  91  -1207.758
  92  -139.0424
  93  348.7199
  94  1020.957
  95  1426.901
  96  858.666
  97  696.264
  98  -428.7879
  99  -556.2135
 100  -772.8742
 101  -765.6218
 102  -265.6467
 103  -263.4591
 104  81.18204
 105  277.4487
 106  94.2567
 107  -278.8304
 108  -569.7809
 109  -488.5456
 110  -638.5463
 111  -305.1542
 112  -165.2316
 113  -204.7438
 114  -704.2726
 115  -854.6177
 116  -359.5252
 117  -771.836
 118  -1108.482
 119  -835.048
 120  -1080.895
 121  -1360.368
 122  -1442.31
 123  -954.0525
 124  -1117.39
 125  -929.5759
 126  -487.2592
 127  -570.0566
 128  -1052.593
 129  -1313.465
 130  -1499.404
 131  -1362.217
 132  -1289.009
 133  -1137.332
 134  -1006.448
 135  -1655.042
 136  -2006.393
 137  -1775.735
 138  -721.2583
 139  -1099.214
 140  -1399.896
 141  -1588.819
 142  -1674.853
 143  -1451.169
 144  -1131.519
 145  -1023.411
 146  -1542.314
 147  -1672.422
 148  -1435.936
 149  -932.0692
 150  -579.5739
 151  -617.0433
 152  -753.0899
 153  -1265.276
 154  -687.3263
 155  -589.9122
 156  -538.7581
 157  -794.5959
 158  -850.2389
 159  -490.069
 160  -477.1516
 161  -784.239
 162  -412.4875
 163  -405.9872
 164  -737.752
 165  -537.9815
 166  -335.0895
 167  -279.6301
 168  -248.5751
 169  -591.2821
 170  -585.7709
 171  -704.3715
 172  -54.8508
 173  485.0715
 174  660.2388
 175  467.3617
 176  73.13901
 177  33.48306
 178  -627.1968
 179  703.2015
 180  699.1036
 181  403.8384
 182  -200.2453
 183  -455.6096
 184  -98.47942
 185  -516.2953
 186  -198.0721
 187  -216.4937
 188  1674.062
 189  2121.715
 190  3504.436
 191  4383.729
 192  3759.272
 193  1700.007
 194  967.9149
 195  3050.399
 196  4936.178
 197  4311.077
 198  3751.207
 199  2669.849
 200  740.1027
 201  242.8024
 202  72.85268
 203  458.3091
 204  177.6021
 205  -210.3253
 206  -257.1103
 207  276.9299
 208  237.2635
 209  198.6631
 210  155.116
 211  -11.55125
 212  -299.2407
 213  -187.3838
 214  -74.09666
 215  228.6826
 216  528.6579
 217  490.0837
 218  175.517
 219  -83.36311
 220  -418.8741
 221  -389.7863
 222  502.7025
 223  1095.266
 224  1291.99
 225  671.0049
 226  121.1378
 227  -85.92301
 228  -135.0284
 229  577.0862
 230  1187.784
 231  993.5566
 232  578.963
 233  202.9322
 234  195.4007
 235  408.2532
 236  220.1366
 237  397.5265
 238  133.0491
 239  -92.48494
 240  -445.754
 241  -62.59282
 242  -847.8362
 243  -1002.081
 244  -818.3547
 245  -561.1213
 246  -447.6197
 247  -591.0484
 248  -771.7554
 249  -865.7305
 250  -403.3682
 251  -296.0359
 252  -174.6304
 253  -412.3016
 254  -65.14942
 255  240.965
 256  149.9823
 257  907.7614
 258  1171.403
 259  152.5748
 260  206.0627
 261  526.4611
 262  583.894
 263  1136.182
 264  499.5392
 265  401.872
 266  440.5724
 267  964.4985
 268  1331.628
 269  651.522
 270  928.4258
 271  468.9871
 272  -88.79224
 273  -550.6585
 274  -491.8205
 275  -611.2045
 276  326.6703
 277  356.8124
 278  -455.7658
 279  -1448.111
 280  -1249.643
 281  -1237.944
 282  -1392.345
 283  -882.2792
 284  -621.0741
 285  -748.5711
 286  -1665.814
 287  -1629.782
 288  -1795.552
 289  -1184.309
 290  -997.2823
 291  353.124
 292  825.9041
 293  1514.948
 294  667.7794
 295  138.8269
 296  27.05247
 297  -308.9729
 298  -99.07191
 299  178.3152
 300  267.1976
 301  609.8386
 302  831.0113
 303  -221.1576
 304  -316.7073
 305  -1004.512
 306  -972.1468
 307  -795.9538
 308  -662.9015
 309  -481.7488
 310  -481.8737
 311  72.82577
 312  -124.1812
 313  868.779
 314  644.5751
 315  758.1384
 316  860.4516
 317  643.2593
 318  401.4046
 319  612.0618
 320  1064.691
 321  1016.758
 322  883.1653
 323  764.842
 324  24.09176
 325  -483.227
 326  -450.7965
 327  -312.281
 328  170.3548
 329  274.3651
 330  1261.652
 331  1423.615
 332  328.9343
 333  -1127.895
 334  -1207.885
 335  -348.7641
 336  106.2025
 337  401.0837
 338  919.36
 339  510.774
 340  40.56382
 341  -969.5255
 342  -1059.972
 343  -503.4026
 344  617.8492
 345  1520.516
 346  912.6445
 347  -532.0203
 348  -892.515
 349  -783.0361
 350  825.7972
 351  1805.677
 352  1884.791
 353  1019.829
 354  -453.4353
 355  -565.4286
 356  59.85118
 357  683.6
 358  1195.036
 359  2605.165
 360  5251.024
 361  5578.219
 362  5424.321
 363  5447.655
 364  3706.698
 365  2136.443
 366  3014.74
 367  4208.656
 368  5490.555
 369  9012.722
 370  7497.861
 371  5782.529
 372  2812.701
 373  2519.969
 374  1616.913
 375  -491.4338
 376  -748.4225
 377  -1038.186
 378  -1482.908
 379  -1138.821
 380  -548.163
 381  64.78802
 382  -87.47177
 383  -257.4187
 384  -368.2957
 385  174.9534
 386  25.32669
 387  1570.264
 388  1751.559
 389  493.1996
 390  -48.2759
 391  229.97
 392  219.1943
 393  783.3851
 394  908.8528
 395  1068.605
 396  -264.9753
 397  -150.7036
 398  -441.1422
 399  -359.4687
 400  -739.8463
 401  -651.434
 402  -664.6573
 403  -743.0806
 404  -1557.213
 405  -1618.004
 406  -1059.179
 407  -664.7424
 408  -541.2933
 409  -55.79793
 410  -552.7744
 411  -1380.715
 412  -1858.328
 413  -584.4951
 414  -248.3097
 415  123.3788
 416  531.7966
 417  1085.132
 418  1866.808
 419  3028.382
 420  3236.796
 421  3571.297
 422  3764.948
 423  1317.259
 424  2003.74
 425  2969.281
 426  3204.072
 427  2615.708
 428  2509.195
 429  610.5242
 430  -479.249
 431  -450.9413
 432  -524.9999
 433  -414.9446
 434  -998.2474
 435  -1037.107
 436  -1691.778
 437  -1058.229
 438  -1040.627
 439  -854.4068
 440  -417.3431
 441  -671.6059
 442  -498.3546
 443  -409.4052
 444  -478.5646
 445  -577.715
 446  -39.70317
 447  -582.8811
 448  -720.5576
 449  -973.3824
 450  -1048.222
 451  -1169.72
 452  -623.3463
 453  -370.2928
 454  -607.0127
 455  -548.156
 456  -847.1439
 457  -1284.917
 458  -1531.62
 459  -872.6891
 460  -298.7364
 461  -510.3782
 462  -639.1219
 463  -971.5861
 464  -1680.269
 465  -1998.613
 466  -1512.752
 467  -1415.619
 468  -1189.306
 469  -961.303
 470  -1132.411
 471  -1321.911
 472  -1742.416
 473  -1104.871
 474  -864.7444
 475  -936.3228
 476  -675.1341
 477  -1126.335
 478  -1747.992
 479  -1884.351
 480  -1033.14
 481  -1099.256
 482  -1497.27
 483  -1732.304
 484  -2341.986
 485  -2549.001
 486  -2660.41
 487  -2400.48
 488  -1407.692
 489  -952.8842
 490  -761.8889
 491  -192.3975
 492  -426.9344
 493  -970.0981
 494  -716.8831
 495  515.4565
 496  644.2665
 497  899.6973
 498  1305.269
 499  1361.249
 500  642.5768
 501  96.2598
 502  508.0685
 503  863.5396
 504  132.2277
 505  -39.92132
 506  -110.6289
 507  -36.06314
 508  124.2327
 509  565.0565
 510  1050.332
 511  745.387
