# Input file       =  1201001850.126311_cleaned.dat
# Candidate        =  PSR_0332+5434
# Telescope        =  AR
# Epoch_topo       =  58144.484596369344
# Epoch_bary       =  N/A
# T_sample         =  0.002
# Data Folded      =  7471104
# Data Avg         =  0.134044742185149
# Data StdDev      =  4.63030510816353 
# Profile Bins     =  1024
# Profile Avg      =  977.906938704725 
# Profile StdDev   =  395.505039765139 
# Reduced chi-sqr  =  1.607
# Prob(Noise)      <  9.31e-32   (~11.7 sigma)
# P_topo (ms)      =  714.573379444516  +/- 1.91e-05
# P'_topo (s/s)    =  -0                +/- 9.88e-12
# P''_topo (s/s^2) =  0                 +/- 4.29e-15
# P_bary (ms)      =  N/A
# P'_bary (s/s)    =  N/A
# P''_bary (s/s^2) =  N/A
# P_orb (s)        =  N/A
# asin(i)/c (s)    =  N/A
# eccentricity     =  N/A
# w (rad)          =  N/A
# T_peri           =  N/A
######################################################
   0  846.0285
   1  849.4297
   2  803.6572
   3  861.8332
   4  755.0441
   5  967.3398
   6  1257.886
   7  1499.228
   8  1615.352
   9  1622.346
  10  1402.868
  11  1280.836
  12  1061.91
  13  881.9492
  14  778.211
  15  742.5566
  16  1008.86
  17  916.3209
  18  920.668
  19  887.7
  20  893.9869
  21  905.9172
  22  1056.522
  23  1134.849
  24  1359.521
  25  1212.755
  26  1242.65
  27  1017.962
  28  979.0248
  29  855.7292
  30  753.6417
  31  680.0073
  32  578.9429
  33  610.7339
  34  699.6772
  35  754.6049
  36  874.0729
  37  992.9042
  38  1145.226
  39  1327.869
  40  1463.114
  41  1510.135
  42  1482.434
  43  1400.808
  44  1335.906
  45  965.2262
  46  802.3836
  47  637.5635
  48  684.1343
  49  764.7382
  50  705.1306
  51  617.8884
  52  534.9633
  53  740.8959
  54  986.1448
  55  1202.862
  56  1361.464
  57  1485.953
  58  1448.91
  59  1238.785
  60  1046.105
  61  907.0394
  62  660.1896
  63  541.3448
  64  688.6923
  65  742.8775
  66  770.3538
  67  606.9242
  68  673.0253
  69  731.8254
  70  811.3351
  71  982.1004
  72  1226.675
  73  1282.404
  74  1485.02
  75  1434.248
  76  1440.636
  77  1252.498
  78  1154.422
  79  1030.299
  80  778.1359
  81  773.8829
  82  823.144
  83  925.3994
  84  1023.267
  85  932.05
  86  924.105
  87  880.9003
  88  909.4084
  89  1071.078
  90  1143.751
  91  1153.807
  92  1055.613
  93  925.4251
  94  896.0685
  95  718.3004
  96  705.7372
  97  701.3687
  98  653.8546
  99  775.813
 100  658.6822
 101  688.6002
 102  617.5572
 103  708.4146
 104  820.741
 105  1078.908
 106  1290.192
 107  1585.912
 108  1403.471
 109  1387.823
 110  1012.69
 111  965.1398
 112  811.0696
 113  731.7771
 114  749.0023
 115  690.0142
 116  755.2374
 117  727.8558
 118  655.3353
 119  653.3579
 120  877.8749
 121  1078.475
 122  1245.651
 123  1171.587
 124  1153.191
 125  906.1558
 126  789.0216
 127  691.441
 128  655.6931
 129  552.3076
 130  504.6539
 131  571.3788
 132  626.8212
 133  830.4599
 134  1169.925
 135  1137.942
 136  1104.434
 137  1066.625
 138  1234.478
 139  1363.63
 140  1353.052
 141  1374.478
 142  1443.328
 143  1265.598
 144  1088.756
 145  782.129
 146  731.0376
 147  664.013
 148  692.2057
 149  942.5961
 150  911.012
 151  810.0211
 152  731.1324
 153  789.8356
 154  890.1266
 155  1119.27
 156  1210.903
 157  1184.927
 158  952.4709
 159  1079.126
 160  1022.981
 161  970.4121
 162  785.5359
 163  693.3325
 164  567.5791
 165  476.3016
 166  578.9151
 167  438.9547
 168  339.7381
 169  613.7876
 170  1084.158
 171  1299.471
 172  1367.241
 173  1449.054
 174  1493.748
 175  1209.555
 176  989.6015
 177  857.5019
 178  767.4376
 179  764.8934
 180  719.1902
 181  656.2175
 182  501.6022
 183  412.907
 184  619.0129
 185  734.6013
 186  780.4205
 187  927.0403
 188  1101.279
 189  1312.859
 190  1338.238
 191  1200.66
 192  1083.147
 193  781.7911
 194  712.2153
 195  499.3113
 196  540.1424
 197  521.3388
 198  596.0832
 199  770.791
 200  698.3197
 201  781.165
 202  956.2752
 203  1027.694
 204  1186.133
 205  1079.898
 206  1324.249
 207  1515.382
 208  1425.95
 209  1341.19
 210  1087.145
 211  1035.089
 212  1007.84
 213  786.855
 214  885.586
 215  794.9919
 216  926.189
 217  883.9115
 218  788.3244
 219  756.074
 220  751.3561
 221  843.4247
 222  957.3321
 223  935.636
 224  1174.964
 225  1165.347
 226  1177.583
 227  918.0201
 228  793.3662
 229  863.4049
 230  684.3936
 231  719.6916
 232  745.3405
 233  689.4182
 234  642.7881
 235  634.2317
 236  1031.984
 237  1333.583
 238  1372.661
 239  1540.643
 240  1593.035
 241  1415.24
 242  1181.554
 243  867.6342
 244  801.7324
 245  556.6347
 246  692.2552
 247  831.9838
 248  868.2017
 249  804.3362
 250  689.981
 251  611.1396
 252  754.4992
 253  996.3741
 254  1156.23
 255  1124.355
 256  961.9741
 257  988.1422
 258  922.6795
 259  928.0883
 260  757.6641
 261  781.8938
 262  696.9397
 263  726.6579
 264  749.1429
 265  675.2574
 266  584.3527
 267  772.1319
 268  978.4064
 269  1114.145
 270  1246.382
 271  1374.94
 272  1517.632
 273  1338.229
 274  1497.702
 275  1367.203
 276  1173.245
 277  835.9915
 278  571.6576
 279  547.8097
 280  496.9403
 281  523.8735
 282  795.5533
 283  754.8074
 284  802.5974
 285  818.9361
 286  846.4817
 287  913.3582
 288  978.3425
 289  981.9523
 290  999.0568
 291  956.1455
 292  1151.109
 293  891.7431
 294  694.3271
 295  545.8624
 296  636.9832
 297  746.9511
 298  651.5557
 299  726.866
 300  707.7359
 301  770.8902
 302  783.7851
 303  936.7277
 304  1225.283
 305  1608.988
 306  1559.21
 307  1513.19
 308  1199.334
 309  1169.367
 310  993.7399
 311  1002.408
 312  862.8259
 313  916.4824
 314  846.5318
 315  845.6672
 316  720.4142
 317  819.1374
 318  681.0305
 319  739.0182
 320  943.7387
 321  1094.672
 322  1132.182
 323  970.6897
 324  809.7739
 325  595.335
 326  483.6536
 327  498.9043
 328  589.3513
 329  718.3222
 330  730.7416
 331  760.5137
 332  860.9297
 333  895.8505
 334  957.6314
 335  878.2637
 336  783.4384
 337  1029.725
 338  1220.341
 339  1523.046
 340  1395.722
 341  1229.094
 342  1093.094
 343  793.0345
 344  773.2075
 345  703.4911
 346  649.2307
 347  669.3066
 348  555.8752
 349  660.408
 350  611.9716
 351  747.1621
 352  902.4435
 353  1127.458
 354  1213.123
 355  1282.209
 356  1143.526
 357  1122.827
 358  945.4661
 359  909.3749
 360  715.6428
 361  731.3682
 362  743.5338
 363  677.9088
 364  550.5859
 365  534.5359
 366  704.035
 367  922.7794
 368  962.3066
 369  1109.297
 370  1373.781
 371  1517.19
 372  1604.855
 373  1457.504
 374  1231.26
 375  987.5482
 376  797.256
 377  899.7873
 378  822.1693
 379  1029.48
 380  1106.997
 381  1116.381
 382  1008
 383  898.1183
 384  993.8991
 385  1020.912
 386  1090.424
 387  1100.286
 388  1230.739
 389  1109.486
 390  967.5004
 391  706.5256
 392  727.142
 393  737.3239
 394  928.5363
 395  767.165
 396  655.7545
 397  674.9222
 398  790.0524
 399  864.2844
 400  820.668
 401  867.5897
 402  1187.241
 403  1460.031
 404  1725.46
 405  1683.425
 406  1478.255
 407  1299.888
 408  902.9852
 409  857.931
 410  781.707
 411  929.6964
 412  876.0716
 413  780.252
 414  741.6462
 415  743.5033
 416  792.8666
 417  883.4407
 418  1082.963
 419  1135.61
 420  1314.047
 421  1174.606
 422  1131.191
 423  944.8762
 424  917.5294
 425  904.4432
 426  759.9768
 427  780.7156
 428  665.9544
 429  806.9498
 430  718.7839
 431  657.4045
 432  688.7769
 433  702.347
 434  858.7797
 435  1146.367
 436  1388.853
 437  1515.675
 438  1462.475
 439  1434.453
 440  1403.927
 441  1074.079
 442  981.343
 443  816.6608
 444  1018.684
 445  873.6553
 446  757.7673
 447  706.2449
 448  682.3787
 449  789.2733
 450  884.4541
 451  1095.116
 452  1123.194
 453  1127.525
 454  1036.305
 455  1123.644
 456  1056.947
 457  1062.78
 458  873.5311
 459  824.756
 460  677.858
 461  702.4207
 462  708.5712
 463  702.7422
 464  762.2902
 465  990.6451
 466  1037.417
 467  1181.231
 468  1260.564
 469  1483.873
 470  1580.918
 471  1522.57
 472  1516.176
 473  1232.296
 474  1195.541
 475  1119.864
 476  1026.285
 477  899.9309
 478  765.3078
 479  730.6664
 480  728.6606
 481  688.7306
 482  801.0259
 483  771.5563
 484  949.3342
 485  1099.081
 486  1278.42
 487  1294.137
 488  1382.34
 489  1251.397
 490  1159.458
 491  919.5353
 492  890.703
 493  832.0994
 494  986.1135
 495  1018.596
 496  1033.019
 497  1158.297
 498  1210.195
 499  1236.582
 500  1130.139
 501  1094.465
 502  1292.917
 503  1528.679
 504  1536.397
 505  1531.428
 506  1229.374
 507  1207.574
 508  946.0958
 509  1002.475
 510  894.0383
 511  896.3647
 512  944.6437
 513  1023.163
 514  963.1939
 515  990.1405
 516  862.9875
 517  941.9684
 518  1058.669
 519  1224.861
 520  1409.542
 521  1224.355
 522  1149.208
 523  925.2081
 524  854.759
 525  734.2604
 526  571.0992
 527  681.4188
 528  577.8333
 529  668.717
 530  643.9391
 531  688.2894
 532  821.2374
 533  846.8143
 534  914.1757
 535  1061.321
 536  1206.261
 537  1464.186
 538  1415.488
 539  1247.913
 540  1300.583
 541  1056.977
 542  1071.377
 543  712.543
 544  723.7242
 545  796.9464
 546  847.5066
 547  902.2847
 548  860.4884
 549  856.21
 550  1083.417
 551  1180.503
 552  1413.832
 553  1423.611
 554  1281.364
 555  1114.47
 556  789.8518
 557  668.8953
 558  482.8007
 559  548.0785
 560  455.536
 561  475.3392
 562  670.7644
 563  737.439
 564  764.2974
 565  732.0905
 566  833.7396
 567  1115.957
 568  1365.493
 569  1562.535
 570  1531.954
 571  1291.421
 572  1176.162
 573  994.4258
 574  987.6324
 575  954.4825
 576  988.7557
 577  1030.379
 578  886.8315
 579  910.6722
 580  782.3672
 581  730.1029
 582  648.9592
 583  799.0027
 584  965.6569
 585  1052.03
 586  1091.55
 587  1148.572
 588  1075.345
 589  1022.081
 590  890.885
 591  743.7399
 592  756.6497
 593  716.733
 594  879.7787
 595  896.095
 596  844.6826
 597  699.2418
 598  630.912
 599  716.7676
 600  1045.729
 601  1364.559
 602  1609.438
 603  1705.561
 604  1707.611
 605  1744.542
 606  1480.033
 607  1248.817
 608  989.8707
 609  861.0601
 610  901.7711
 611  993.2001
 612  1217.822
 613  1345.053
 614  1412.419
 615  1588.506
 616  1619.64
 617  1802.037
 618  1837.401
 619  1721.487
 620  1599.085
 621  1431.568
 622  1256.024
 623  935.0256
 624  830.0882
 625  841.6212
 626  840.2061
 627  694.0984
 628  670.3283
 629  733.6553
 630  945.1765
 631  851.462
 632  1054.651
 633  1161.393
 634  1361.874
 635  1503.823
 636  1608.343
 637  1497.852
 638  1355.579
 639  1370.788
 640  1499.897
 641  1183.381
 642  1057.649
 643  902.9926
 644  916.5459
 645  941.657
 646  905.9823
 647  802.6198
 648  808.8915
 649  833.8874
 650  967.154
 651  985.97
 652  1111.72
 653  1243.409
 654  1110.557
 655  903.4811
 656  670.6594
 657  836.2744
 658  642.9612
 659  544.6954
 660  469.4838
 661  584.4774
 662  752.4516
 663  799.9509
 664  950.2585
 665  975.739
 666  1018.358
 667  1253.035
 668  1495.108
 669  1413.413
 670  1447.761
 671  1357.407
 672  1134.364
 673  788.2902
 674  711.7293
 675  781.7938
 676  743.4352
 677  756.5637
 678  717.947
 679  653.637
 680  601.4524
 681  734.6489
 682  902.5491
 683  1082.099
 684  1196.26
 685  1405.779
 686  1452.493
 687  1219.141
 688  986.2047
 689  622.1235
 690  537.3564
 691  436.1618
 692  788.697
 693  750.0262
 694  772.9249
 695  729.443
 696  912.2511
 697  988.5432
 698  1026.778
 699  1284.655
 700  1540.21
 701  1621.235
 702  1522.437
 703  1449.095
 704  1196.147
 705  1091.6
 706  839.8479
 707  1004.856
 708  894.0815
 709  896.689
 710  877.4115
 711  698.6895
 712  642.1573
 713  616.5021
 714  677.9622
 715  831.2883
 716  1070.939
 717  1308.832
 718  1426.039
 719  1227.148
 720  1170.224
 721  1011.788
 722  961.642
 723  826.4744
 724  777.9456
 725  762.812
 726  625.9182
 727  704.5143
 728  764.2717
 729  847.1077
 730  872.032
 731  770.6027
 732  928.6523
 733  1206.226
 734  1473.435
 735  1605.817
 736  1473.355
 737  1228.479
 738  1108.368
 739  930.1931
 740  1136.755
 741  1098.169
 742  1097.795
 743  924.244
 744  735.088
 745  734.1937
 746  742.808
 747  775.8295
 748  925.4053
 749  977.5839
 750  1111.047
 751  1126.44
 752  1263.679
 753  1311.515
 754  1125.493
 755  931.7877
 756  645.4208
 757  737.1606
 758  612.511
 759  801.8799
 760  855.7368
 761  959.0568
 762  928.9549
 763  903.8704
 764  882.0688
 765  999.8576
 766  1295.113
 767  1505.311
 768  1636.691
 769  1518.063
 770  1438.479
 771  1034.407
 772  933.3681
 773  856.3395
 774  926.9438
 775  791.0414
 776  727.688
 777  577.2298
 778  595.2795
 779  581.7606
 780  814.217
 781  844.1283
 782  1062.611
 783  1163.201
 784  1250.63
 785  1155.211
 786  1074.978
 787  986.8989
 788  873.5094
 789  618.3539
 790  674.6409
 791  538.5828
 792  547.912
 793  651.0376
 794  888.4741
 795  993.3966
 796  894.0686
 797  935.6157
 798  1223.44
 799  1234.409
 800  1365.37
 801  1350.863
 802  1331.088
 803  1305.154
 804  1102.044
 805  1047.102
 806  782.2075
 807  742.3244
 808  804.1392
 809  875.7316
 810  1006.98
 811  1042.953
 812  1052.734
 813  1116.543
 814  1116.637
 815  1174.99
 816  1111.074
 817  1141.757
 818  1235.328
 819  1148.06
 820  922.4337
 821  783.0001
 822  845.9495
 823  905.6272
 824  872.6656
 825  1007.963
 826  882.5234
 827  899.2529
 828  851.4542
 829  994.7615
 830  1146.336
 831  1161.74
 832  1259.516
 833  1438.654
 834  1472.994
 835  1455.212
 836  1313.073
 837  1079.365
 838  889.4786
 839  750.9534
 840  849.9052
 841  704.8871
 842  802.7367
 843  967.4993
 844  1025.45
 845  942.5433
 846  904.5557
 847  1033.279
 848  1294.722
 849  1303.239
 850  1371.525
 851  1157.938
 852  951.9055
 853  792.0048
 854  661.2845
 855  547.0488
 856  396.6262
 857  573.0491
 858  687.7416
 859  616.1598
 860  547.0267
 861  587.9703
 862  715.7085
 863  912.5206
 864  1114.289
 865  1273.68
 866  1282.615
 867  1337.732
 868  1414.416
 869  1243.86
 870  1016.64
 871  839.7162
 872  783.1725
 873  839.4899
 874  834.8571
 875  922.3215
 876  912.4301
 877  985.8685
 878  977.8428
 879  894.3573
 880  922.5845
 881  1164.906
 882  1397.008
 883  1422.983
 884  1234.268
 885  886.1181
 886  674.3799
 887  589.4377
 888  538.207
 889  562.8526
 890  619.8842
 891  601.275
 892  719.2818
 893  792.9782
 894  782.264
 895  629.2104
 896  779.9915
 897  1065.594
 898  1441.465
 899  1659.186
 900  1825.244
 901  1596.923
 902  1374.765
 903  1124.442
 904  909.9279
 905  832.2114
 906  749.9969
 907  838.678
 908  800.7363
 909  779.3873
 910  681.9573
 911  637.2134
 912  630.0273
 913  820.1728
 914  754.8999
 915  904.4781
 916  945.6605
 917  1071.29
 918  1075.299
 919  1052.557
 920  812.1698
 921  605.9938
 922  614.2911
 923  807.5355
 924  829.8146
 925  864.433
 926  801.9313
 927  844.6102
 928  873.4623
 929  892.4461
 930  1104.982
 931  1361.416
 932  1525.849
 933  1601.668
 934  1436.761
 935  1383.885
 936  1223.47
 937  1181.793
 938  1099.935
 939  960.8735
 940  960.54
 941  960.231
 942  1012.328
 943  933.2979
 944  804.4218
 945  727.6645
 946  835.0582
 947  957.6251
 948  1205.091
 949  1262.775
 950  1338.044
 951  1239.968
 952  1148.164
 953  998.8478
 954  807.9659
 955  727.9129
 956  605.2491
 957  788.1953
 958  978.7804
 959  1102.559
 960  986.9147
 961  830.5995
 962  689.1054
 963  815.0974
 964  898.9564
 965  1242.811
 966  1291.99
 967  1340.165
 968  1233.84
 969  1154.564
 970  1095.175
 971  973.4358
 972  975.5714
 973  888.8724
 974  668.9341
 975  753.9556
 976  743.2578
 977  770.6057
 978  732.6092
 979  858.5536
 980  1006.139
 981  1172.229
 982  1066.316
 983  1097.092
 984  937.0268
 985  949.9926
 986  890.7054
 987  885.3022
 988  887.2565
 989  751.7
 990  815.1342
 991  708.2599
 992  752.2014
 993  940.6124
 994  1126.281
 995  1130.911
 996  1137.817
 997  1230.038
 998  1372.843
 999  1455.648
1000  1523.679
1001  1506.03
1002  1314.963
1003  1103.407
1004  921.4153
1005  1008.475
1006  971.4178
1007  816.8398
1008  656.1289
1009  486.2074
1010  513.7493
1011  801.9915
1012  935.274
1013  1117.606
1014  1155.686
1015  1250.978
1016  1202.064
1017  1179.79
1018  1148.479
1019  926.5925
1020  637.4653
1021  588.9716
1022  806.1611
1023  961.0837
