# Input file       =  1201117473.116012_cleaned.dat
# Candidate        =  PSR_0332+5434
# Telescope        =  AR
# Epoch_topo       =  58145.822825416806
# Epoch_bary       =  N/A
# T_sample         =  0.002
# Data Folded      =  7340032
# Data Avg         =  0.0721734165511277
# Data StdDev      =  3.2109951071595  
# Profile Bins     =  512
# Profile Avg      =  1034.58322321633 
# Profile StdDev   =  384.462193971146 
# Reduced chi-sqr  =  0.792
# Prob(Noise)      <  1   (~0.0 sigma)
# P_topo (ms)      =  714.574384778773  +/- 0.00124
# P'_topo (s/s)    =  -0                +/- 6.57e-10
# P''_topo (s/s^2) =  0                 +/- 2.9e-13
# P_bary (ms)      =  N/A
# P'_bary (s/s)    =  N/A
# P''_bary (s/s^2) =  N/A
# P_orb (s)        =  N/A
# asin(i)/c (s)    =  N/A
# eccentricity     =  N/A
# w (rad)          =  N/A
# T_peri           =  N/A
######################################################
   0  781.3709
   1  937.0449
   2  1381.041
   3  1220.129
   4  1272.375
   5  1407.598
   6  1340.23
   7  966.9747
   8  852.9874
   9  937.3301
  10  1376.936
  11  1228.673
  12  1050.488
  13  874.2662
  14  739.6293
  15  846.4948
  16  1146.159
  17  846.9434
  18  593.9968
  19  881.8113
  20  1097.111
  21  752.2714
  22  631.1343
  23  917.1298
  24  1251.53
  25  1347.254
  26  1459.071
  27  1428.218
  28  1312.61
  29  1585.351
  30  1446.51
  31  1238.171
  32  1185.501
  33  1092.344
  34  1106.948
  35  1094.146
  36  899.4111
  37  1064.868
  38  889.049
  39  931.781
  40  941.2977
  41  1150.688
  42  1310.764
  43  882.1235
  44  966.2227
  45  1317.148
  46  1245.246
  47  1009.779
  48  1278.237
  49  1419.069
  50  1254.219
  51  1317.243
  52  1043.287
  53  1418.987
  54  1272.787
  55  1291.523
  56  1383.225
  57  1279.727
  58  1219.395
  59  1333.382
  60  1497.345
  61  1384.567
  62  1032.875
  63  786.079
  64  1019.879
  65  1592.969
  66  1362.887
  67  1447.401
  68  1802.468
  69  1772.036
  70  1131.297
  71  1324.995
  72  1266.841
  73  883.9518
  74  1178.068
  75  1416.893
  76  1217.828
  77  1042.788
  78  1151.952
  79  1092.373
  80  1217.21
  81  1134.143
  82  1167.155
  83  1122.301
  84  1356.114
  85  889.1562
  86  871.5886
  87  841.6084
  88  863.5526
  89  1215.201
  90  1256.697
  91  847.9095
  92  795.5741
  93  814.9962
  94  1100.292
  95  1024.487
  96  1248.725
  97  1272.916
  98  1018.019
  99  1220.58
 100  1296.589
 101  1071.741
 102  697.8922
 103  1080.711
 104  767.4214
 105  899.7837
 106  1109.469
 107  901.0368
 108  882.3697
 109  726.5964
 110  773.5225
 111  1131.53
 112  954.5188
 113  888.5359
 114  673.9479
 115  766.3491
 116  936.8074
 117  1286.603
 118  1239.648
 119  976.9399
 120  986.5165
 121  962.0115
 122  953.1378
 123  1071.905
 124  1145.036
 125  1100.979
 126  1009.965
 127  916.9275
 128  930.4744
 129  893.0432
 130  819.6665
 131  627.7803
 132  648.3213
 133  861.9966
 134  1025.05
 135  1052.668
 136  1123.265
 137  789.3947
 138  687.5244
 139  971.5266
 140  999.9409
 141  1008.926
 142  627.558
 143  709.1289
 144  898.5162
 145  1098.804
 146  1456.293
 147  982.5775
 148  1083.069
 149  1025.466
 150  1230.475
 151  1091.18
 152  827.0549
 153  1028.694
 154  704.9898
 155  679.3083
 156  970.3582
 157  859.8997
 158  499.5603
 159  809.8416
 160  1030.098
 161  862.3972
 162  1079.605
 163  1302.276
 164  1272.311
 165  657.7971
 166  972.7629
 167  1067.284
 168  745.197
 169  762.9088
 170  1032.55
 171  972.4772
 172  1108.54
 173  983.7147
 174  1133.01
 175  1078.445
 176  1216.533
 177  1366.632
 178  1111.966
 179  954.9854
 180  885.1782
 181  637.9059
 182  878.7448
 183  935.3412
 184  976.2686
 185  815.1249
 186  862.2481
 187  613.2304
 188  666.894
 189  866.8494
 190  938.0632
 191  1020.018
 192  1072.718
 193  1054.811
 194  1189.298
 195  1175.81
 196  1126.537
 197  1043.821
 198  1051.342
 199  1293.512
 200  1446.975
 201  1254.469
 202  1052.239
 203  1146.875
 204  1250.308
 205  1243.346
 206  941.3053
 207  1078.015
 208  1018.982
 209  1010.344
 210  864.2774
 211  869.3009
 212  1160.749
 213  1089.03
 214  1025.404
 215  1050.798
 216  958.1089
 217  833.1163
 218  903.5443
 219  881.583
 220  1042.13
 221  1436.828
 222  1219.982
 223  1109.945
 224  902.846
 225  1103.644
 226  1254.672
 227  656.8359
 228  622.3885
 229  1012.49
 230  1488.207
 231  1441.751
 232  1353.347
 233  1440.609
 234  1233.154
 235  892.8823
 236  1203.437
 237  1145.634
 238  1217.627
 239  1216.082
 240  1086.608
 241  847.4261
 242  951.624
 243  785.2052
 244  1161.204
 245  1133.853
 246  1095.446
 247  927.903
 248  878.5305
 249  587.5537
 250  812.0726
 251  966.7781
 252  1267.723
 253  1030.146
 254  991.3114
 255  1013.239
 256  828.6232
 257  1084.895
 258  1222.171
 259  1023.507
 260  947.553
 261  1255.94
 262  1163.734
 263  843.6179
 264  733.6051
 265  1130.041
 266  1238.074
 267  1245.873
 268  997.3124
 269  1298.817
 270  1284.077
 271  1200.807
 272  1424.82
 273  1411.244
 274  1293.211
 275  1471.426
 276  1485.333
 277  1806.645
 278  1999.82
 279  2010.792
 280  2240.108
 281  1868.592
 282  1858.378
 283  1236.647
 284  1217.695
 285  987.9456
 286  1183.491
 287  1216.492
 288  1125.913
 289  943.0394
 290  829.5164
 291  959.4107
 292  1403.942
 293  1297.444
 294  1065.682
 295  1087.907
 296  1253.882
 297  1194.758
 298  1214.835
 299  1341.679
 300  962.5928
 301  766.4363
 302  1065.86
 303  1183.659
 304  1116.967
 305  870.2375
 306  920.6493
 307  853.6351
 308  923.4614
 309  903.464
 310  1192.041
 311  1266.891
 312  835.4732
 313  460.3003
 314  611.6741
 315  785.7795
 316  832.3342
 317  940.1687
 318  1103.798
 319  815.7629
 320  767.4512
 321  626.0728
 322  366.1472
 323  477.4218
 324  627.8622
 325  771.088
 326  778.2605
 327  915.7214
 328  704.966
 329  487.1679
 330  604.4911
 331  634.3334
 332  481.769
 333  446.8617
 334  520.8545
 335  824.2602
 336  835.6693
 337  735.7516
 338  770.0186
 339  935.5014
 340  943.8975
 341  1072.167
 342  748.9059
 343  737.3141
 344  844.6224
 345  827.5392
 346  816.2498
 347  474.8131
 348  562.3331
 349  977.319
 350  1361.162
 351  1095.508
 352  761.8527
 353  702.2163
 354  1228.865
 355  1397.488
 356  1009.112
 357  707.1608
 358  921.5502
 359  943.3235
 360  899.3459
 361  1021.281
 362  1023.061
 363  854.3887
 364  742.7597
 365  1044.232
 366  943.7544
 367  776.576
 368  911.0511
 369  940.2491
 370  975.1938
 371  776.9984
 372  999.7662
 373  1302.631
 374  1267.368
 375  1291.183
 376  1298.144
 377  1189.218
 378  964.9846
 379  1095.382
 380  1061.399
 381  841.7361
 382  862.6105
 383  1085.597
 384  920.1541
 385  589.5659
 386  692.6401
 387  871.875
 388  817.4565
 389  1152.704
 390  1093.991
 391  1026.674
 392  1069.983
 393  1265.069
 394  1129.792
 395  908.3834
 396  1150.892
 397  1127.049
 398  1060.085
 399  816.4004
 400  807.5306
 401  748.4255
 402  932.7648
 403  1152.603
 404  1393.61
 405  1111.546
 406  858.6973
 407  869.0591
 408  1214.541
 409  1535.707
 410  1043.342
 411  1102.684
 412  1176.911
 413  944.3493
 414  855.4459
 415  911.6626
 416  1027.799
 417  1132.679
 418  957.6838
 419  700.5043
 420  618.7549
 421  781.3647
 422  1080.421
 423  1043.618
 424  850.7285
 425  926.5737
 426  649.9922
 427  842.2127
 428  966.8091
 429  735.6197
 430  601.0644
 431  980.4467
 432  1040.791
 433  1117.78
 434  994.0461
 435  970.6866
 436  1121.077
 437  1116.991
 438  1356.133
 439  1256.044
 440  1259.459
 441  1067.738
 442  1093.418
 443  952.0251
 444  918.4063
 445  930.5244
 446  957.2239
 447  1142.257
 448  1167.596
 449  1089.712
 450  970.2313
 451  814.3589
 452  1037.039
 453  1195.977
 454  1274.876
 455  1217.772
 456  953.8873
 457  1027.352
 458  1200.586
 459  1408.474
 460  973.5086
 461  776.5447
 462  861.4866
 463  838.3733
 464  993.5532
 465  1293.691
 466  1038.455
 467  897.8716
 468  912.4991
 469  1313.939
 470  1360.99
 471  897.42
 472  1052.306
 473  1287.755
 474  1022.385
 475  1229.569
 476  1253.524
 477  785.9791
 478  563.616
 479  752.1322
 480  1020.283
 481  676.7784
 482  666.2321
 483  1009.59
 484  1065.276
 485  672.9949
 486  755.861
 487  1047.144
 488  913.6535
 489  1078.64
 490  1058.61
 491  1106.095
 492  1217.111
 493  1173.286
 494  1061.06
 495  832.3038
 496  915.9053
 497  1137.118
 498  1450.286
 499  1152.447
 500  1229.818
 501  1194.467
 502  1079.208
 503  1041.297
 504  1076.538
 505  889.626
 506  1172.142
 507  1337.929
 508  978.851
 509  974.476
 510  935.5793
 511  738.7214
