# Input file       =  1201533515.12507_cleaned.dat
# Candidate        =  PSR_0332+5434
# Telescope        =  AR
# Epoch_topo       =  58150.638126447571
# Epoch_bary       =  N/A
# T_sample         =  0.002
# Data Folded      =  7340032
# Data Avg         =  0.119413042016926
# Data StdDev      =  4.40612715726184 
# Profile Bins     =  512
# Profile Avg      =  1711.92800412267 
# Profile StdDev   =  527.558983201089 
# Reduced chi-sqr  =  0.881
# Prob(Noise)      <  0.976   (~0.0 sigma)
# P_topo (ms)      =  714.576162353505  +/- 0.000439
# P'_topo (s/s)    =  -0                +/- 2.32e-10
# P''_topo (s/s^2) =  0                 +/- 1.02e-13
# P_bary (ms)      =  N/A
# P'_bary (s/s)    =  N/A
# P''_bary (s/s^2) =  N/A
# P_orb (s)        =  N/A
# asin(i)/c (s)    =  N/A
# eccentricity     =  N/A
# w (rad)          =  N/A
# T_peri           =  N/A
######################################################
   0  1856.655
   1  1891.034
   2  1549.245
   3  1438.98
   4  1559.949
   5  1548.34
   6  1376.772
   7  1475.385
   8  1278.475
   9  1095.169
  10  1199.292
  11  1259.376
  12  1399.041
  13  1228.012
  14  1297.746
  15  1404.563
  16  1234.819
  17  910.6954
  18  1174.757
  19  1310.594
  20  1649.387
  21  1932.561
  22  2038.508
  23  1764.4
  24  1617.578
  25  2065.679
  26  1755.277
  27  1596.895
  28  1653.725
  29  1674.582
  30  1549.915
  31  1417.156
  32  1732.801
  33  2044.231
  34  1700.743
  35  1766.71
  36  1681.661
  37  1307.373
  38  1367.077
  39  1315.719
  40  1851.585
  41  1663.858
  42  1717.316
  43  1647.872
  44  1264.971
  45  1359.021
  46  1461.464
  47  1750.78
  48  2084.987
  49  1952.615
  50  1532.13
  51  1704.486
  52  2046.171
  53  2190.81
  54  2122.719
  55  1824.35
  56  1871.218
  57  2081.234
  58  1918.587
  59  1828.457
  60  2109.984
  61  2160.506
  62  2062.019
  63  1770.207
  64  1677.187
  65  1704.454
  66  1591.463
  67  1603.056
  68  1788.872
  69  1762.851
  70  1751.059
  71  1566.852
  72  1662.146
  73  1782.346
  74  1479.989
  75  2083.233
  76  1831.276
  77  1762.116
  78  1533.209
  79  1443.354
  80  1081.858
  81  1034.573
  82  1424.15
  83  1791.197
  84  2025.224
  85  1487.679
  86  1509.837
  87  1609.058
  88  1201.542
  89  1266.069
  90  1647.604
  91  1597.851
  92  1399.777
  93  918.7211
  94  1405.333
  95  1266.14
  96  1642.03
  97  1810.694
  98  1968.992
  99  1809.638
 100  1438.163
 101  1474.363
 102  2031.891
 103  1907.707
 104  2095.215
 105  1685.553
 106  1529.634
 107  1479.753
 108  1382.635
 109  1628.58
 110  1626.373
 111  1933.739
 112  1922.817
 113  1323.179
 114  1063.73
 115  1274.898
 116  1391.959
 117  1752.581
 118  1941.751
 119  2042.654
 120  1646.863
 121  1416.097
 122  1560.425
 123  1305.696
 124  1047.714
 125  1255.645
 126  1586.678
 127  1486.018
 128  1096.696
 129  1319.247
 130  1221.959
 131  1690.241
 132  1431.885
 133  1672.603
 134  1515.42
 135  1332.478
 136  1306.383
 137  1367.449
 138  1327.34
 139  1508.148
 140  1489.312
 141  1857.904
 142  1380.638
 143  1172.174
 144  1450.8
 145  1519.524
 146  1659.908
 147  1803.042
 148  1548.458
 149  1350.498
 150  1392.765
 151  1542.559
 152  1702.436
 153  1811.246
 154  2064.417
 155  1599.766
 156  1173.644
 157  1215.208
 158  1293.97
 159  1543.734
 160  1660.975
 161  1726.356
 162  1728.017
 163  1464.664
 164  1278.772
 165  1095.558
 166  1386.544
 167  1300.027
 168  1547.542
 169  1681.662
 170  1580.137
 171  1712.391
 172  2082.668
 173  1887.785
 174  1564.94
 175  1836.618
 176  2029.445
 177  2130.096
 178  2092.823
 179  2408.249
 180  2331.814
 181  2018.732
 182  2086.795
 183  1876.413
 184  1824.267
 185  2109.619
 186  2103.342
 187  1877.272
 188  1537.107
 189  1532.566
 190  1579.648
 191  2155.493
 192  1954.659
 193  1722.392
 194  1654.76
 195  1250.735
 196  1421.203
 197  1551.355
 198  1687.695
 199  1882.456
 200  1994.98
 201  2055.269
 202  1706.167
 203  1375.883
 204  1389.73
 205  1867.027
 206  1736.501
 207  1612.119
 208  1563.726
 209  1583.885
 210  1761.106
 211  1730.901
 212  1567.123
 213  1766.071
 214  2190.804
 215  2171.794
 216  2007.435
 217  1725.527
 218  1967.248
 219  1859.557
 220  1618.838
 221  1395.902
 222  1573.007
 223  1757.86
 224  1524.346
 225  1731.331
 226  2068.875
 227  1982.362
 228  1856.719
 229  2245.982
 230  2370.002
 231  2066.823
 232  2112.246
 233  2247.753
 234  2422.249
 235  2130.893
 236  1903.416
 237  2163.71
 238  1878.016
 239  1436.597
 240  1833.267
 241  1912.303
 242  2037.846
 243  1750.984
 244  1557.631
 245  1083.028
 246  905.6089
 247  1452.494
 248  1542.847
 249  1727.186
 250  1235.975
 251  1490.786
 252  1398.783
 253  1319.018
 254  1318.967
 255  1346.135
 256  1291.128
 257  1160.593
 258  1545.083
 259  1789.022
 260  2162.599
 261  1958.179
 262  1722.827
 263  1534.256
 264  1232.074
 265  1514.138
 266  1572.118
 267  1671.04
 268  1674.453
 269  2057.917
 270  1817.665
 271  1419.171
 272  1503.709
 273  1434.259
 274  1793.128
 275  2109.729
 276  1813.589
 277  1874.071
 278  1776.525
 279  1447.748
 280  1527.154
 281  1251.679
 282  1398.577
 283  1601.964
 284  1824.105
 285  1838.262
 286  1141.072
 287  1329.3
 288  1110.904
 289  1076.459
 290  1450.178
 291  1552.277
 292  1620.65
 293  1661.46
 294  1177.18
 295  1416.123
 296  1542.858
 297  1630.684
 298  1376.937
 299  996.6521
 300  1359.533
 301  1294.986
 302  1463.491
 303  1510.622
 304  1530.606
 305  1630.477
 306  1555.146
 307  1435.613
 308  1219.38
 309  1376.139
 310  1299.096
 311  1445.146
 312  1669.901
 313  1890.913
 314  2204.126
 315  2256.106
 316  2161.942
 317  1652.222
 318  1322.492
 319  1394.076
 320  1846.733
 321  2019.454
 322  1999.398
 323  2275.908
 324  2310.193
 325  1925.758
 326  1992.897
 327  2411.108
 328  2502.457
 329  2079.929
 330  2212.545
 331  2616.522
 332  2308.635
 333  2080.546
 334  2712.808
 335  2378.926
 336  1918.367
 337  2263.873
 338  2175.204
 339  2188.583
 340  2711.604
 341  2688.495
 342  2307.241
 343  2041.535
 344  2300.742
 345  2118.706
 346  1994.924
 347  2263.607
 348  2208.475
 349  1996.744
 350  1940.58
 351  2016.223
 352  1618.98
 353  1696.912
 354  2058.641
 355  2095.359
 356  1865.296
 357  1544.66
 358  1625.182
 359  1831.413
 360  1813.36
 361  1525.382
 362  1558.531
 363  1305.839
 364  1496.829
 365  1262.493
 366  1252.114
 367  1889.919
 368  1584.131
 369  1935.23
 370  2015.102
 371  1762.454
 372  1307.322
 373  1220.804
 374  1444.576
 375  1907.311
 376  1816.875
 377  1993.721
 378  2015.43
 379  2125.832
 380  1939.438
 381  1827.572
 382  2062.763
 383  2145.546
 384  2059.23
 385  2061.8
 386  1695.551
 387  2143.659
 388  2105.852
 389  1384.203
 390  1501.485
 391  1770.39
 392  1554.04
 393  1402.466
 394  1416.383
 395  1288.812
 396  1292.724
 397  1216.977
 398  1482.813
 399  1711.631
 400  1847.135
 401  2117.462
 402  2154.608
 403  1821.432
 404  1626.932
 405  1847.294
 406  1820.887
 407  1740.414
 408  1857.873
 409  1786.961
 410  1826.266
 411  2081.217
 412  2218.335
 413  1870.101
 414  1154.046
 415  1626.958
 416  2192.655
 417  1859.005
 418  1723.205
 419  2158.483
 420  2140.38
 421  1666.602
 422  2036.735
 423  2010.939
 424  1947.133
 425  1697.662
 426  1634.15
 427  1425.163
 428  1629.014
 429  1761.593
 430  2006.155
 431  1934.148
 432  1647.775
 433  1579.604
 434  1294.122
 435  1382.301
 436  1711.503
 437  1853.802
 438  1897.42
 439  1424.48
 440  1289.039
 441  1510.487
 442  1504.63
 443  1363.346
 444  1386.4
 445  1487.583
 446  1637.278
 447  1673.551
 448  1554.726
 449  1416.189
 450  1362.251
 451  1726.781
 452  1763.193
 453  1798.177
 454  2092.174
 455  2742.973
 456  3164.032
 457  3470.158
 458  3732.393
 459  3398.734
 460  2488.75
 461  1890.046
 462  1370.051
 463  1527.002
 464  1635.955
 465  1519.375
 466  1706.756
 467  1368.24
 468  1455.77
 469  1760.393
 470  1920.22
 471  1874.728
 472  1588.563
 473  1649.733
 474  1832.411
 475  1701.49
 476  1542.347
 477  1494.728
 478  1295.643
 479  1229.602
 480  1441.617
 481  1437.178
 482  1307.617
 483  1506.447
 484  1370.911
 485  1330.243
 486  1745.712
 487  2062.872
 488  1712.606
 489  1749.013
 490  1728.27
 491  1708.854
 492  1815.928
 493  1662.225
 494  2023.49
 495  2122.185
 496  2237.768
 497  1659.704
 498  1680.13
 499  1808.759
 500  1912.963
 501  1830.66
 502  2296.227
 503  2469.919
 504  1929.744
 505  1706.938
 506  1764.258
 507  1920.797
 508  1810.855
 509  1691.588
 510  1831.057
 511  1779.437
