# Input file       =  1201863564.114864_cleaned.dat
# Candidate        =  PSR_0332+5434
# Telescope        =  AR
# Epoch_topo       =  58154.458137903523
# Epoch_bary       =  N/A
# T_sample         =  0.002
# Data Folded      =  7405568
# Data Avg         =  0.109588224714852
# Data StdDev      =  4.24685155050323 
# Profile Bins     =  512
# Profile Avg      =  1585.08479581578 
# Profile StdDev   =  510.753424269341 
# Reduced chi-sqr  =  2.674
# Prob(Noise)      <  3.85e-79   (~18.8 sigma)
# P_topo (ms)      =  714.577557769794  +/- 2.15e-05
# P'_topo (s/s)    =  -0                +/- 1.12e-11
# P''_topo (s/s^2) =  0                 +/- 4.92e-15
# P_bary (ms)      =  N/A
# P'_bary (s/s)    =  N/A
# P''_bary (s/s^2) =  N/A
# P_orb (s)        =  N/A
# asin(i)/c (s)    =  N/A
# eccentricity     =  N/A
# w (rad)          =  N/A
# T_peri           =  N/A
######################################################
   0  1237.105
   1  1068.523
   2  1326.302
   3  1617.307
   4  1310.363
   5  1260.613
   6  1006.206
   7  1004.812
   8  1176.589
   9  1313.254
  10  1937.253
  11  2461.111
  12  2397.321
  13  2421.439
  14  1634.34
  15  1324.148
  16  1403.822
  17  1158.412
  18  994.4436
  19  1301.046
  20  1150.54
  21  1363.704
  22  1014.04
  23  1033.093
  24  1125.55
  25  1565.093
  26  2367.982
  27  2609.68
  28  2609.369
  29  2367.32
  30  1692.882
  31  1134.905
  32  777.9913
  33  1084.958
  34  1346.297
  35  1655.041
  36  1531.51
  37  1261.282
  38  982.4197
  39  829.6118
  40  818.3262
  41  1663.328
  42  2071.091
  43  2316.717
  44  2407.024
  45  2490.496
  46  2150.543
  47  1684.853
  48  1297.52
  49  993.0037
  50  1185.101
  51  1187.815
  52  1491.729
  53  1703.279
  54  1389.309
  55  1412.973
  56  830.92
  57  774.2631
  58  1440.174
  59  2371.145
  60  2678.876
  61  2829.503
  62  2300.784
  63  1831.759
  64  1486.563
  65  1138.959
  66  1158.864
  67  1362.698
  68  1609.709
  69  1685.16
  70  1575.99
  71  1418.371
  72  879.7828
  73  750.8113
  74  1220.567
  75  1535.416
  76  2210.439
  77  2666.785
  78  3048.286
  79  2649.777
  80  1804.068
  81  1396.158
  82  1075.415
  83  1037.641
  84  1227.479
  85  1456.554
  86  1326.57
  87  1315.976
  88  1324.152
  89  919.8144
  90  1003.226
  91  1449.424
  92  2084.066
  93  2097.078
  94  2322.688
  95  2408.738
  96  2153.058
  97  1533.51
  98  1419.497
  99  1448.557
 100  1056.905
 101  1182.117
 102  1449.944
 103  1204.824
 104  1477.562
 105  1400.568
 106  1122.095
 107  1174.003
 108  1840.227
 109  2482.855
 110  2736.55
 111  2598.657
 112  2284.983
 113  1586.573
 114  1236.804
 115  1222.648
 116  1372.352
 117  1354.794
 118  1266.998
 119  1630.96
 120  1408.856
 121  1061.37
 122  953.8051
 123  899.6838
 124  1363.781
 125  2110.332
 126  2204.167
 127  2267.408
 128  2686.368
 129  2330.117
 130  1643.271
 131  1187.384
 132  1043.954
 133  1347.575
 134  1384.022
 135  1532.164
 136  1525.369
 137  1458.686
 138  921.3785
 139  855.0972
 140  774.9617
 141  1394.675
 142  2227.037
 143  2250.744
 144  3180.392
 145  2795.806
 146  1920.369
 147  1057.682
 148  709.9656
 149  950.0361
 150  1397.935
 151  1751.266
 152  1900.428
 153  2048.796
 154  1572.311
 155  1170.511
 156  887.4462
 157  1093.162
 158  1833.47
 159  2851.24
 160  2999.784
 161  2596.809
 162  2244.503
 163  1092.307
 164  751.3967
 165  1179.611
 166  1162.36
 167  1411.298
 168  1527.29
 169  1707.264
 170  1461.595
 171  1379.827
 172  973.0428
 173  1022.725
 174  1725.666
 175  2128.699
 176  2670.289
 177  2983.73
 178  2792.596
 179  2161.148
 180  1347.405
 181  963.074
 182  1071.551
 183  1299.833
 184  1665.764
 185  1674.69
 186  1324.506
 187  1304.03
 188  899.5383
 189  1086.911
 190  1398.997
 191  2024.484
 192  2288.546
 193  2379.937
 194  2266.672
 195  1864.119
 196  1550.804
 197  1437.796
 198  1352.354
 199  1531.883
 200  1885.314
 201  1547.414
 202  1517.583
 203  1430.013
 204  1260.181
 205  584.2235
 206  688.159
 207  1261.29
 208  1948.771
 209  2564.231
 210  2750.613
 211  2121.729
 212  1507.225
 213  1091.031
 214  1347.387
 215  1138.556
 216  1577.714
 217  1650.41
 218  1513.045
 219  1625.893
 220  965.3495
 221  1082.248
 222  668.5494
 223  971.21
 224  1846.408
 225  2546.096
 226  2648.84
 227  2740.811
 228  2730.39
 229  1729.549
 230  1185.209
 231  966.4802
 232  1278.275
 233  1245.75
 234  1499.214
 235  1720.05
 236  1374.856
 237  830.5968
 238  812.6525
 239  858.8177
 240  1521.746
 241  2131.372
 242  2462.992
 243  2741.4
 244  2412.016
 245  1568.022
 246  1363.345
 247  710.3319
 248  1090.547
 249  1243.905
 250  1556.412
 251  1628.594
 252  1314.386
 253  1306.732
 254  1336.02
 255  1004.43
 256  986.1931
 257  1546.552
 258  2032.689
 259  2256.319
 260  2555.828
 261  2806.028
 262  1955.993
 263  1127.752
 264  1196.429
 265  1075.359
 266  750.6714
 267  1218.551
 268  1428.678
 269  1559.496
 270  1372.345
 271  1140.864
 272  1070.499
 273  1598.453
 274  1777.821
 275  2265.565
 276  2446.487
 277  2083.173
 278  1575.742
 279  1089.636
 280  1231.922
 281  1136.425
 282  1270.157
 283  1477.545
 284  1238.04
 285  1227.315
 286  803.1644
 287  866.7572
 288  855.7953
 289  1349.185
 290  1949.904
 291  2368.887
 292  2749.479
 293  2704.006
 294  2453.923
 295  1965.261
 296  1085.671
 297  953.8852
 298  1107.469
 299  1213.281
 300  1706.184
 301  1943.447
 302  1554.906
 303  1354.257
 304  1415.573
 305  1751.499
 306  2651.15
 307  3915.443
 308  4251.974
 309  3639.348
 310  2823.424
 311  1778.123
 312  1298.804
 313  1363.206
 314  893.9119
 315  926.2101
 316  1583.648
 317  1644.512
 318  1600.728
 319  1615.761
 320  1169.69
 321  822.0392
 322  983.0269
 323  1775.374
 324  2137.659
 325  2743.384
 326  2946.727
 327  2453.966
 328  1497.469
 329  670.5583
 330  706.7548
 331  627.7906
 332  1012.559
 333  1733.411
 334  1753.376
 335  1581.774
 336  1301.961
 337  1094.418
 338  817.5544
 339  1067.162
 340  1577.254
 341  2379.51
 342  2625.519
 343  2438.323
 344  2353.087
 345  1834.235
 346  981.1774
 347  1032.942
 348  1276.953
 349  1532.072
 350  1197.236
 351  1212.991
 352  1130.32
 353  1127.155
 354  1135.223
 355  1401.438
 356  2151.841
 357  2534.913
 358  2235.168
 359  2421.677
 360  2251.513
 361  1742.377
 362  1175.835
 363  1246.607
 364  1656.765
 365  1653.888
 366  1703.401
 367  1687.9
 368  1056.547
 369  806.5465
 370  913.8356
 371  905.8906
 372  1673.573
 373  2091.788
 374  2396.506
 375  2344.668
 376  2381.535
 377  1916.524
 378  1689.379
 379  1174.415
 380  771.1329
 381  869.8007
 382  1054.091
 383  1555.858
 384  1634.233
 385  1117.806
 386  799.7814
 387  591.513
 388  1177.663
 389  1606.381
 390  2139.162
 391  2452.566
 392  2542.597
 393  2143.803
 394  1227.453
 395  1047.593
 396  938.9571
 397  1541.021
 398  1836.68
 399  1854.742
 400  1754.279
 401  1632.657
 402  1239.337
 403  438.6944
 404  664.6183
 405  1198.568
 406  1814.624
 407  2163.711
 408  2468.153
 409  2444.441
 410  1743.871
 411  1493.815
 412  1179.32
 413  1093.717
 414  1188.189
 415  1271.941
 416  1404.583
 417  1300.957
 418  1539.294
 419  1370.273
 420  924.8514
 421  793.319
 422  1533.167
 423  1947.441
 424  2607.556
 425  2993.425
 426  2470.719
 427  1930.406
 428  1244.642
 429  1569.84
 430  1388.144
 431  970.0936
 432  1318.603
 433  1288.985
 434  1237.879
 435  1266.108
 436  802.9937
 437  761.0692
 438  1084.17
 439  1923.433
 440  2435.477
 441  2376.268
 442  2404.965
 443  2196.386
 444  1538.527
 445  1243.486
 446  1601.501
 447  1422.473
 448  1471.585
 449  1335.891
 450  1418.937
 451  881.5894
 452  829.445
 453  1012.257
 454  1101.2
 455  1431.456
 456  1991.562
 457  2826.711
 458  2531.704
 459  1883.564
 460  1520.065
 461  1260.779
 462  1207.849
 463  1112.62
 464  1495.863
 465  1525.127
 466  1365.64
 467  933.1329
 468  903.084
 469  822.8914
 470  1029.94
 471  1497.781
 472  1890.584
 473  2588.846
 474  2708.599
 475  2462.745
 476  1699.968
 477  928.2346
 478  457.489
 479  740.3265
 480  800.9191
 481  1333.231
 482  1672.512
 483  1586.441
 484  1214.095
 485  1005.797
 486  832.0253
 487  866.0664
 488  1656.912
 489  2360.97
 490  2528.507
 491  2384.479
 492  1757.833
 493  1668.626
 494  1323.869
 495  978.8453
 496  988.7255
 497  1094.161
 498  1292.906
 499  1603.646
 500  1786.001
 501  1521.942
 502  1371.477
 503  1187.001
 504  1378.528
 505  2165.163
 506  2643.57
 507  2787.482
 508  2983.966
 509  2015.655
 510  1085.854
 511  827.7313
