# Input file       =  1201878730.107112_cleaned.dat
# Candidate        =  PSR_0332+5434
# Telescope        =  AR
# Epoch_topo       =  58154.633670221199
# Epoch_bary       =  N/A
# T_sample         =  0.002
# Data Folded      =  7340032
# Data Avg         =  0.121998362719231
# Data StdDev      =  4.45613222664484 
# Profile Bins     =  512
# Profile Avg      =  1749.01102924894 
# Profile StdDev   =  533.546241992546 
# Reduced chi-sqr  =  0.874
# Prob(Noise)      <  0.982   (~0.0 sigma)
# P_topo (ms)      =  714.577645212017  +/- 0.000634
# P'_topo (s/s)    =  -0                +/- 3.35e-10
# P''_topo (s/s^2) =  0                 +/- 1.48e-13
# P_bary (ms)      =  N/A
# P'_bary (s/s)    =  N/A
# P''_bary (s/s^2) =  N/A
# P_orb (s)        =  N/A
# asin(i)/c (s)    =  N/A
# eccentricity     =  N/A
# w (rad)          =  N/A
# T_peri           =  N/A
######################################################
   0  1707.2
   1  1559.841
   2  1689.193
   3  1822.542
   4  1809.846
   5  1895.647
   6  1665.794
   7  1479.085
   8  1648.264
   9  1808.643
  10  1771.243
  11  1951.753
  12  1875.886
  13  1423.89
  14  1433.199
  15  1348.287
  16  1621.622
  17  1825.191
  18  2082.639
  19  2083.575
  20  2102.817
  21  2139.774
  22  2025.474
  23  1752.575
  24  1353.275
  25  1446.723
  26  1473.628
  27  1579.699
  28  1787.264
  29  1718.846
  30  1666.138
  31  1734.696
  32  1739.588
  33  1643.595
  34  1369.911
  35  1217.086
  36  1658.87
  37  1457.428
  38  1623.237
  39  1681.159
  40  1380.335
  41  1353.025
  42  1083.718
  43  1227.324
  44  1713.366
  45  1325.115
  46  1139.563
  47  1230.689
  48  1324.479
  49  1198
  50  1182.977
  51  1433.493
  52  1551.935
  53  1316.581
  54  1247.114
  55  1109.181
  56  848.2526
  57  1411.007
  58  1257.237
  59  1161.355
  60  940.0162
  61  1106.705
  62  1252.028
  63  1376.636
  64  1579.151
  65  1290.994
  66  513.2406
  67  928.3097
  68  1310.861
  69  1297.324
  70  1214.228
  71  1164.388
  72  1149.141
  73  1165.088
  74  1082.83
  75  1307.777
  76  1576.36
  77  1596.928
  78  2009.061
  79  1802.313
  80  1756.679
  81  1619.344
  82  1801.788
  83  2026.943
  84  1995.143
  85  1658.824
  86  1814.39
  87  1903.328
  88  1757.204
  89  2000.424
  90  1754.56
  91  1708.331
  92  1538.114
  93  1707.922
  94  2066.184
  95  1861.611
  96  1657.698
  97  1798.099
  98  1853.595
  99  1794.745
 100  2054.25
 101  1965.684
 102  1676.535
 103  1206.489
 104  1494.32
 105  1595.649
 106  1281.849
 107  1715.491
 108  1888.048
 109  1775.349
 110  1767.74
 111  1697.376
 112  1862.986
 113  1715.779
 114  1778.282
 115  2062.683
 116  2375.186
 117  2112.049
 118  1852.292
 119  1780.308
 120  1479.541
 121  1295.902
 122  1512.425
 123  2608.494
 124  2157.79
 125  1834.949
 126  1946.973
 127  1833.26
 128  1793.717
 129  1913.029
 130  2359.51
 131  2327.096
 132  2196.917
 133  2035.112
 134  2087.184
 135  2021.995
 136  2120.046
 137  2199.663
 138  2057.63
 139  1811.157
 140  1825.458
 141  1662.975
 142  1509.423
 143  1827.299
 144  2088.544
 145  1354.298
 146  1211.963
 147  1702.625
 148  2070.441
 149  1413.632
 150  1513.011
 151  1176.838
 152  1137.11
 153  1305.434
 154  1858.973
 155  2023.369
 156  1425.653
 157  1260.01
 158  1650.681
 159  1916.917
 160  1725.345
 161  1703.045
 162  1934.487
 163  1726.881
 164  1612.411
 165  1587.504
 166  1770.567
 167  1627.7
 168  1339.672
 169  1345.398
 170  1442.978
 171  1692.415
 172  1728.169
 173  1411.059
 174  1116.924
 175  1290.861
 176  1221.609
 177  1066.285
 178  825.1176
 179  1418.813
 180  1502.244
 181  1442.564
 182  1215.522
 183  1464.335
 184  1920.046
 185  1220.87
 186  1256.55
 187  1678.327
 188  1848.139
 189  1718.482
 190  1774.892
 191  1850.84
 192  1720.88
 193  1807.402
 194  2204.999
 195  1963.125
 196  1650.979
 197  1667.489
 198  2386.228
 199  2281.637
 200  2241.066
 201  2394.462
 202  2117.202
 203  2059.184
 204  1887.948
 205  1951.637
 206  1706.513
 207  1706.053
 208  1689.516
 209  1563.816
 210  1583.256
 211  1660.607
 212  1842.394
 213  1759.478
 214  1304.685
 215  1405.718
 216  1546.543
 217  1613.903
 218  1771.823
 219  1829.216
 220  1701.124
 221  2030.975
 222  1796.141
 223  1911.385
 224  2132.106
 225  1990.078
 226  1486.937
 227  1293.025
 228  1385.97
 229  1511.336
 230  2037.79
 231  2039.312
 232  1688.518
 233  1852.151
 234  1845.601
 235  1542.608
 236  1430.436
 237  1548.581
 238  1315.663
 239  1454.332
 240  2296.477
 241  2071.866
 242  1738.303
 243  2030.091
 244  1860.803
 245  1944.383
 246  1655.544
 247  1871.109
 248  1701.716
 249  1311.227
 250  1930.448
 251  1786.331
 252  1333.624
 253  1107.551
 254  1612.249
 255  1716.723
 256  1313.363
 257  1202.754
 258  1767.066
 259  2130.618
 260  2040.592
 261  1766.318
 262  1704.147
 263  1570.2
 264  1858.59
 265  1832.467
 266  1479.008
 267  1430.299
 268  1340.265
 269  1764.774
 270  1841.489
 271  1381.747
 272  1765.901
 273  1910.807
 274  1640.941
 275  1331.08
 276  1894.708
 277  1762.29
 278  1432.769
 279  1500.513
 280  1487.875
 281  1346.056
 282  1021.161
 283  955.3484
 284  1260.35
 285  1341.03
 286  1399.205
 287  1655.844
 288  1287.675
 289  1133.44
 290  1179.325
 291  1478.91
 292  1382.916
 293  900.9016
 294  925.2457
 295  1561.822
 296  1583.271
 297  1416.49
 298  1478.673
 299  1634.913
 300  1523.875
 301  1582.546
 302  1702.396
 303  1934.785
 304  2559.119
 305  2748.11
 306  2843.261
 307  2663.468
 308  2959.887
 309  3438.771
 310  2709.411
 311  1791.443
 312  1575.534
 313  1685.48
 314  1908.705
 315  1871.437
 316  1923.508
 317  1639.67
 318  1437.491
 319  1459.928
 320  1461.004
 321  1797.505
 322  1896.939
 323  1835.153
 324  1540.07
 325  1299.01
 326  1502.806
 327  1693.745
 328  2022.408
 329  2240.661
 330  2235.737
 331  2093.677
 332  2079.692
 333  1951.638
 334  1790.027
 335  1993.616
 336  2061.842
 337  1422.224
 338  1417.896
 339  1441.929
 340  1467.722
 341  1659.733
 342  1681.616
 343  1929.051
 344  1791.927
 345  1639.626
 346  1477.367
 347  1423.974
 348  1922.046
 349  2090.523
 350  2123.054
 351  2049.821
 352  1582.753
 353  1958.661
 354  1935.014
 355  2251.176
 356  2324.384
 357  2082.501
 358  2118.706
 359  1995.923
 360  2066.455
 361  2060.106
 362  2174.055
 363  1917.233
 364  2003.042
 365  1931.363
 366  2006.879
 367  1888.304
 368  1711.966
 369  1967.889
 370  2264.928
 371  2286.796
 372  1932.357
 373  1524.607
 374  1846.814
 375  1648.745
 376  1948.924
 377  1957.543
 378  1967.86
 379  2106.663
 380  2020.295
 381  1936.669
 382  1756.575
 383  1873.039
 384  2344.255
 385  2614.356
 386  2383.744
 387  1697.885
 388  1758.342
 389  1816.367
 390  1787.148
 391  1966.296
 392  2044.241
 393  2007.477
 394  1730.889
 395  2009.122
 396  2078.242
 397  2404.599
 398  2215.51
 399  1881.878
 400  1828.421
 401  1850.483
 402  2222.752
 403  2168.663
 404  2146.78
 405  2470.134
 406  2164.017
 407  1718.789
 408  1930.491
 409  2105.216
 410  1928.145
 411  1777.657
 412  1876.557
 413  2222.988
 414  2063.187
 415  1745.118
 416  1669.985
 417  1663.628
 418  1947.644
 419  2001.944
 420  1989.611
 421  1673.992
 422  1715.442
 423  1781.519
 424  1826.475
 425  1339.959
 426  1571.067
 427  1884.617
 428  1902.456
 429  2130.203
 430  2106.224
 431  2048.579
 432  1884.231
 433  1768.029
 434  2352.93
 435  2198.348
 436  2114.795
 437  1952.355
 438  1866.572
 439  1880.228
 440  2174.768
 441  1971.108
 442  2020.08
 443  1798.399
 444  2226.232
 445  2391.19
 446  2368.974
 447  2294.401
 448  1996.635
 449  2117.79
 450  2256.649
 451  2477.641
 452  2335.786
 453  2343.502
 454  2272.947
 455  2109.712
 456  1995.404
 457  2089.603
 458  2131.53
 459  1936.089
 460  1930.262
 461  2124.199
 462  1959.346
 463  1651.476
 464  2170.89
 465  2274.599
 466  2284.212
 467  2146.716
 468  1869.725
 469  2234.568
 470  2194.634
 471  2380.149
 472  2221.061
 473  1875.92
 474  1884.553
 475  1482.042
 476  1395.654
 477  1672.406
 478  1313.438
 479  1078.75
 480  1249.695
 481  1495.963
 482  1552.642
 483  1722.922
 484  2042.663
 485  1971.175
 486  1612.994
 487  1374.855
 488  1607.796
 489  1503.901
 490  1938.697
 491  1731.31
 492  1671.029
 493  1556.392
 494  1051.126
 495  1134.794
 496  1020.771
 497  1210.29
 498  1268.715
 499  1559.24
 500  1271.322
 501  1401.645
 502  1558.332
 503  1920.817
 504  1858.669
 505  1604.008
 506  1781.018
 507  2036.079
 508  1888.694
 509  2074.861
 510  2133.507
 511  2015.979
