# Input file       =  1201533515.12507_cleaned.dat
# Candidate        =  PSR_0332+5434
# Telescope        =  AR
# Epoch_topo       =  58150.638126447571
# Epoch_bary       =  N/A
# T_sample         =  0.002
# Data Folded      =  7340032
# Data Avg         =  0.119413042016926
# Data StdDev      =  4.40612715726184 
# Profile Bins     =  512
# Profile Avg      =  1711.92800411398 
# Profile StdDev   =  527.558983201089 
# Reduced chi-sqr  =  0.881
# Prob(Noise)      <  0.976   (~0.0 sigma)
# P_topo (ms)      =  714.576162445706  +/- 0.000439
# P'_topo (s/s)    =  -0                +/- 2.32e-10
# P''_topo (s/s^2) =  0                 +/- 1.02e-13
# P_bary (ms)      =  N/A
# P'_bary (s/s)    =  N/A
# P''_bary (s/s^2) =  N/A
# P_orb (s)        =  N/A
# asin(i)/c (s)    =  N/A
# eccentricity     =  N/A
# w (rad)          =  N/A
# T_peri           =  N/A
######################################################
   0  1372.52
   1  1537.619
   2  1675.584
   3  1800.304
   4  2044.234
   5  1708.08
   6  1159.883
   7  1234.378
   8  1250.001
   9  1537.935
  10  1622.027
  11  1719.107
  12  1741.552
  13  1544.975
  14  1283.936
  15  1071.067
  16  1376.028
  17  1313.38
  18  1511.6
  19  1654.252
  20  1578.866
  21  1675.741
  22  2054.161
  23  1954.956
  24  1573.322
  25  1792.847
  26  1988.849
  27  2155.846
  28  2058.72
  29  2386.124
  30  2374.431
  31  2026.898
  32  2073.35
  33  1921.483
  34  1826.091
  35  2039.247
  36  2174.894
  37  1877.854
  38  1599.017
  39  1524.272
  40  1533.26
  41  2091.544
  42  2010.359
  43  1734.448
  44  1713.782
  45  1273.436
  46  1393.423
  47  1523.903
  48  1677.339
  49  1798.192
  50  2021.343
  51  2077.129
  52  1758.725
  53  1434.278
  54  1322.537
  55  1816.941
  56  1774.21
  57  1646.674
  58  1536.502
  59  1593.112
  60  1707.368
  61  1776.42
  62  1569.109
  63  1715.676
  64  2152.421
  65  2160.358
  66  2087.135
  67  1704.365
  68  1953.095
  69  1876.594
  70  1672.947
  71  1427.141
  72  1518.878
  73  1746.694
  74  1572.167
  75  1655.379
  76  2039.009
  77  2042.208
  78  1818.688
  79  2186.628
  80  2374.773
  81  2124.804
  82  2098.085
  83  2237.962
  84  2361.829
  85  2232.323
  86  1878.934
  87  2141.85
  88  1953.736
  89  1457.047
  90  1759.241
  91  1938.18
  92  2027.9
  93  1779.681
  94  1617.658
  95  1151.962
  96  881.2466
  97  1364.325
  98  1562.164
  99  1702.537
 100  1312.707
 101  1415.836
 102  1445.465
 103  1309.404
 104  1325.932
 105  1336.936
 106  1329.153
 107  1153.114
 108  1491.284
 109  1736.282
 110  2112.748
 111  2007.44
 112  1755.094
 113  1582.577
 114  1232.247
 115  1472.769
 116  1574.773
 117  1693.868
 118  1619.435
 119  2000.43
 120  1912.988
 121  1424.828
 122  1525.377
 123  1396.766
 124  1744.825
 125  2112.19
 126  1867.722
 127  1829.039
 128  1831.561
 129  1441.264
 130  1546.204
 131  1290.847
 132  1363.505
 133  1571.074
 134  1763.228
 135  1909.25
 136  1175.65
 137  1348.635
 138  1134.772
 139  1047.57
 140  1375.543
 141  1595.714
 142  1576.173
 143  1711.492
 144  1207.583
 145  1367.014
 146  1533.425
 147  1637.258
 148  1436.718
 149  1006.809
 150  1309.793
 151  1303.325
 152  1452.431
 153  1499.451
 154  1499.578
 155  1629.001
 156  1592.037
 157  1452.078
 158  1224.322
 159  1373.565
 160  1307.859
 161  1400.633
 162  1634.318
 163  1867.851
 164  2172.375
 165  2261.018
 166  2143.479
 167  1801.691
 168  1328.469
 169  1352.829
 170  1766.825
 171  2034.808
 172  1993.265
 173  2208.183
 174  2362.223
 175  1962.467
 176  1978.837
 177  2318.961
 178  2535.161
 179  2116.611
 180  2164.906
 181  2592.684
 182  2396.569
 183  2043.435
 184  2609.542
 185  2523.423
 186  1878.093
 187  2240.212
 188  2225.053
 189  2144.796
 190  2658.915
 191  2701.501
 192  2385.347
 193  2007.777
 194  2316.96
 195  2139.38
 196  2008.723
 197  2210.219
 198  2237.132
 199  2035.606
 200  1923.019
 201  2039.573
 202  1652.746
 203  1659.901
 204  2004.837
 205  2118.391
 206  1924.009
 207  1581.039
 208  1614.65
 209  1752.011
 210  1892.832
 211  1506.419
 212  1604.605
 213  1275.411
 214  1515.281
 215  1325.326
 216  1159.792
 217  1843.138
 218  1605.75
 219  1891.551
 220  2016.99
 221  1839.872
 222  1347.013
 223  1225.136
 224  1363.821
 225  1903.726
 226  1799.958
 227  1997.222
 228  1976.905
 229  2158.71
 230  1932.181
 231  1846.356
 232  2013.362
 233  2191.472
 234  2023.93
 235  2099.424
 236  1688.237
 237  2063.396
 238  2202.328
 239  1474.298
 240  1411.69
 241  1763.589
 242  1606.875
 243  1389.164
 244  1461.842
 245  1267.474
 246  1347.642
 247  1140.144
 248  1479.667
 249  1677.99
 250  1829.665
 251  2064.768
 252  2169.544
 253  1878.742
 254  1661.264
 255  1798.646
 256  1829.921
 257  1728.514
 258  1863.925
 259  1820.714
 260  1772.293
 261  2067.334
 262  2172.453
 263  2009.045
 264  1178.174
 265  1512.913
 266  2217.332
 267  1896.094
 268  1700.461
 269  2043.443
 270  2274.622
 271  1656.263
 272  1993.808
 273  2003.069
 274  1989.449
 275  1729.326
 276  1678.713
 277  1390.458
 278  1616.88
 279  1726.282
 280  1968.386
 281  2000.24
 282  1651.19
 283  1608.763
 284  1315.065
 285  1335.72
 286  1699.688
 287  1828.502
 288  1913.045
 289  1512.452
 290  1269.104
 291  1463.727
 292  1542.81
 293  1364.315
 294  1400.513
 295  1434.261
 296  1635.265
 297  1664.663
 298  1592.878
 299  1413.153
 300  1377.472
 301  1661.024
 302  1772.914
 303  1765.404
 304  2020.014
 305  2663.957
 306  3123.127
 307  3413.937
 308  3695.045
 309  3516.172
 310  2609.849
 311  1968.039
 312  1439.85
 313  1491.64
 314  1652.702
 315  1480.9
 316  1693.409
 317  1457.997
 318  1369.576
 319  1759.632
 320  1876.053
 321  1915.432
 322  1595.228
 323  1641.332
 324  1824.035
 325  1772.266
 326  1494.57
 327  1545.724
 328  1305.263
 329  1230.057
 330  1397.69
 331  1452.805
 332  1305.567
 333  1490.487
 334  1402.307
 335  1321.735
 336  1660.731
 337  2081.891
 338  1741.448
 339  1721.595
 340  1772.457
 341  1685.19
 342  1813.992
 343  1650.365
 344  1975.737
 345  2100.752
 346  2231.511
 347  1766.373
 348  1639.655
 349  1806.657
 350  1914.545
 351  1804.032
 352  2234.204
 353  2492.009
 354  2014.266
 355  1699.951
 356  1772.004
 357  1896.678
 358  1832.964
 359  1684.519
 360  1811.918
 361  1800.388
 362  1838.074
 363  1903.98
 364  1598.879
 365  1439.111
 366  1532.967
 367  1575.679
 368  1419.734
 369  1433.189
 370  1340.316
 371  1072.73
 372  1199.553
 373  1268.01
 374  1365.199
 375  1264.605
 376  1258.473
 377  1408.415
 378  1306.61
 379  904.5087
 380  1147.964
 381  1279.841
 382  1568.485
 383  1923.741
 384  2013.746
 385  1838.967
 386  1588.429
 387  2035.539
 388  1818.328
 389  1584.561
 390  1631.373
 391  1711.634
 392  1558.312
 393  1411.138
 394  1655.543
 395  2058.569
 396  1736.329
 397  1754.802
 398  1733.552
 399  1366.769
 400  1326.49
 401  1306.201
 402  1745.244
 403  1749.189
 404  1677.172
 405  1673.343
 406  1339.817
 407  1304.165
 408  1471.486
 409  1665.576
 410  2065.114
 411  2012.913
 412  1549.783
 413  1673.834
 414  1975.446
 415  2196.986
 416  2125.991
 417  1908.276
 418  1846.08
 419  2056.853
 420  1965.354
 421  1782.419
 422  2086.792
 423  2143.479
 424  2118.96
 425  1790.827
 426  1683.621
 427  1711.898
 428  1568.082
 429  1624.868
 430  1759.67
 431  1788.206
 432  1727.579
 433  1600.536
 434  1621.606
 435  1844.156
 436  1447.85
 437  2031.409
 438  1858.706
 439  1787.87
 440  1543.149
 441  1481.623
 442  1145.67
 443  978.76
 444  1396.485
 445  1697.473
 446  2083.737
 447  1548.34
 448  1481.906
 449  1606.44
 450  1267.087
 451  1198.664
 452  1641.675
 453  1599.355
 454  1463.812
 455  933.7944
 456  1352.933
 457  1276.741
 458  1583.481
 459  1793.178
 460  1955.775
 461  1865.639
 462  1480.925
 463  1403.772
 464  2018.873
 465  1884.954
 466  2120.161
 467  1708.726
 468  1542.163
 469  1487.989
 470  1398.246
 471  1562.691
 472  1670.197
 473  1849.659
 474  1977.257
 475  1416.298
 476  1029.049
 477  1298.767
 478  1330.029
 479  1719.104
 480  1895.553
 481  2077.283
 482  1720.773
 483  1380.577
 484  1574.516
 485  1355.844
 486  1078.451
 487  1180.692
 488  1565.835
 489  1546.867
 490  1102.724
 491  1298.062
 492  1222.171
 493  1634.799
 494  1468.957
 495  1614.699
 496  1595.625
 497  1344.605
 498  1300.861
 499  1351.403
 500  1339.132
 501  1477.669
 502  1453.513
 503  1844.859
 504  1488.807
 505  1144.436
 506  1389.891
 507  1557.624
 508  1607.178
 509  1818.396
 510  1580.162
 511  1370.182
