# Input file       =  1201691254.111097_cleaned.dat
# Candidate        =  PSR_0332+5434
# Telescope        =  AR
# Epoch_topo       =  58152.463809156216
# Epoch_bary       =  N/A
# T_sample         =  0.002
# Data Folded      =  7143424
# Data Avg         =  0.00989029643166743
# Data StdDev      =  1.00005112384954 
# Profile Bins     =  512
# Profile Avg      =  137.996013870641 
# Profile StdDev   =  118.124623158609 
# Reduced chi-sqr  =  1.865
# Prob(Noise)      <  4.17e-29   (~11.1 sigma)
# P_topo (ms)      =  714.576848105431  +/- 5.08e-05
# P'_topo (s/s)    =  -0                +/- 2.75e-11
# P''_topo (s/s^2) =  0                 +/- 1.25e-14
# P_bary (ms)      =  N/A
# P'_bary (s/s)    =  N/A
# P''_bary (s/s^2) =  N/A
# P_orb (s)        =  N/A
# asin(i)/c (s)    =  N/A
# eccentricity     =  N/A
# w (rad)          =  N/A
# T_peri           =  N/A
######################################################
   0  231.4296
   1  163.6615
   2  100.4219
   3  97.9948
   4  121.045
   5  134.673
   6  217.012
   7  167.1796
   8  295.4433
   9  379.6506
  10  247.425
  11  244.8961
  12  106.4464
  13  53.45672
  14  138.3058
  15  165.3661
  16  174.0046
  17  264.0411
  18  281.1401
  19  112.8787
  20  46.51713
  21  14.41894
  22  59.4957
  23  177.2036
  24  294.876
  25  268.8476
  26  211.1241
  27  300.5734
  28  174.8153
  29  47.34638
  30  14.98522
  31  31.00295
  32  116.7035
  33  162.2977
  34  97.07159
  35  2.538442
  36  21.94375
  37  116.3706
  38  145.4971
  39  146.4358
  40  133.0791
  41  128.194
  42  97.94363
  43  14.16283
  44  23.53678
  45  16.80334
  46  41.11055
  47  205.0129
  48  110.8886
  49  210.068
  50  261.801
  51  118.2616
  52  47.37519
  53  76.54607
  54  67.1432
  55  -46.09915
  56  -59.02551
  57  140.1915
  58  270.5869
  59  196.5039
  60  128.6296
  61  72.76353
  62  72.30097
  63  41.68631
  64  13.4601
  65  45.5323
  66  183.3133
  67  201.3668
  68  140.6962
  69  86.56484
  70  18.84656
  71  62.41669
  72  77.47919
  73  109.1237
  74  174.991
  75  139.0017
  76  167.666
  77  124.409
  78  96.67644
  79  12.14267
  80  112.381
  81  113.1945
  82  110.6817
  83  210.0079
  84  317.6544
  85  89.97021
  86  -0.7341704
  87  12.9471
  88  42.69044
  89  129.1631
  90  233.5783
  91  177.5761
  92  188.6198
  93  150.5567
  94  137.0272
  95  79.04601
  96  48.32029
  97  189.6688
  98  205.3693
  99  285.3385
 100  370.0959
 101  208.6554
 102  244.8452
 103  156.6639
 104  209.4466
 105  198.2694
 106  141.8707
 107  142.747
 108  38.46128
 109  174.396
 110  284.5056
 111  240.7263
 112  81.28063
 113  113.1244
 114  228.252
 115  282.6942
 116  215.3435
 117  184.9344
 118  158.145
 119  36.74193
 120  52.95751
 121  8.703612
 122  63.76712
 123  77.83862
 124  -7.71793
 125  180.9414
 126  120.4153
 127  87.16184
 128  10.1861
 129  25.32781
 130  39.39849
 131  41.19443
 132  284.9208
 133  294.4708
 134  188.7086
 135  48.96124
 136  107.9132
 137  49.04783
 138  198.0479
 139  259.8677
 140  369.5898
 141  438.9303
 142  514.3789
 143  498.0627
 144  674.3755
 145  725.8826
 146  785.1359
 147  880.2162
 148  829.8466
 149  602.8113
 150  341.6825
 151  123.6648
 152  134.2867
 153  237.7223
 154  148.5171
 155  49.63592
 156  197.3766
 157  318.6108
 158  262.7756
 159  163.8392
 160  98.27844
 161  90.88615
 162  254.5007
 163  168.0818
 164  156.2875
 165  217.2642
 166  242.6657
 167  76.03339
 168  104.6263
 169  8.293743
 170  -21.40378
 171  -29.53245
 172  -41.36343
 173  131.3136
 174  151.9956
 175  275.2302
 176  126.1176
 177  110.3181
 178  142.9735
 179  46.26936
 180  147.182
 181  226.5737
 182  213.9434
 183  176.1325
 184  107.9557
 185  62.50214
 186  216.2697
 187  299.3395
 188  248.3187
 189  262.2175
 190  188.5853
 191  203.9025
 192  254.9313
 193  151.0759
 194  140.7394
 195  90.36552
 196  82.69753
 197  127.1149
 198  98.86336
 199  105.6839
 200  157.1161
 201  157.321
 202  200.3968
 203  171.6611
 204  179.1766
 205  277.0101
 206  111.0262
 207  174.705
 208  218.677
 209  196.4186
 210  174.8497
 211  -8.170382
 212  -87.32646
 213  42.8343
 214  114.3378
 215  257.6529
 216  252.4101
 217  163.9278
 218  116.6973
 219  82.97161
 220  122.9439
 221  128.4209
 222  186.7943
 223  200.2695
 224  156.9139
 225  104.2031
 226  62.61922
 227  86.64162
 228  221.8219
 229  270.1566
 230  369.3089
 231  310.2415
 232  97.5451
 233  59.16573
 234  214.5119
 235  208.4521
 236  -16.4057
 237  3.46274
 238  33.94155
 239  112.1319
 240  190.6581
 241  212.8122
 242  176.2287
 243  -34.63
 244  -45.08105
 245  75.50659
 246  141.6017
 247  246.4048
 248  314.5105
 249  195.4187
 250  100.7545
 251  26.66661
 252  -80.28689
 253  -70.9286
 254  22.53599
 255  325.5066
 256  197.3379
 257  192.0689
 258  115.1265
 259  -67.529
 260  40.26944
 261  -53.01817
 262  -34.52982
 263  -42.95631
 264  122.1142
 265  198.3633
 266  24.46443
 267  55.30278
 268  113.813
 269  172.4975
 270  159.4039
 271  89.54231
 272  185.1571
 273  121.2403
 274  -6.827345
 275  90.09962
 276  149.3624
 277  14.52873
 278  9.327493
 279  59.57229
 280  81.03274
 281  219.7196
 282  139.9069
 283  17.9609
 284  74.48608
 285  32.16105
 286  42.70798
 287  1.725072
 288  139.3916
 289  208.7852
 290  96.80841
 291  84.94403
 292  114.6476
 293  227.2079
 294  201.9645
 295  53.973
 296  71.76298
 297  119.4056
 298  171.5611
 299  164.3137
 300  171.6461
 301  42.42018
 302  128.8284
 303  109.5454
 304  154.5367
 305  232.4314
 306  210.8441
 307  116.8955
 308  101.8065
 309  -18.72222
 310  31.29186
 311  109.4092
 312  75.7096
 313  142.5607
 314  200.1062
 315  305.1194
 316  153.4736
 317  -0.6550139
 318  42.5414
 319  -4.680672
 320  59.24307
 321  311.5068
 322  381.7637
 323  238.7091
 324  121.3351
 325  -0.5019965
 326  61.70992
 327  184.8798
 328  195.9961
 329  117.3696
 330  173.9023
 331  234.6642
 332  194.065
 333  273.6034
 334  263.1474
 335  121.2082
 336  116.0742
 337  12.49225
 338  123.4146
 339  224.2206
 340  176.4737
 341  113.2542
 342  117.029
 343  242.5512
 344  137.6948
 345  143.6349
 346  130.8725
 347  181.1108
 348  178.2181
 349  -67.6589
 350  -37.839
 351  83.08853
 352  100.8
 353  -12.40693
 354  -3.208908
 355  15.85404
 356  171.1484
 357  161.1998
 358  70.10114
 359  9.839055
 360  110.7059
 361  212.5367
 362  222.6926
 363  266.9852
 364  307.7421
 365  282.4933
 366  74.67355
 367  28.08128
 368  194.4744
 369  149.1362
 370  173.7424
 371  100.9065
 372  162.6867
 373  108.9236
 374  152.1742
 375  194.9882
 376  129.8674
 377  -2.891008
 378  83.40025
 379  180.3834
 380  107.1528
 381  126.4558
 382  164.2864
 383  65.285
 384  8.025126
 385  5.322668
 386  101.9266
 387  212.9453
 388  158.0877
 389  224.5654
 390  87.16504
 391  133.5363
 392  151.5947
 393  189.8988
 394  99.82091
 395  -71.21732
 396  97.22654
 397  238.0995
 398  107.6614
 399  50.38939
 400  114.2114
 401  139.3859
 402  124.0454
 403  164.6324
 404  209.0868
 405  175.3989
 406  192.7158
 407  109.6008
 408  130.9364
 409  130.1974
 410  -21.93719
 411  -78.43175
 412  35.29144
 413  158.4088
 414  87.47128
 415  -44.69002
 416  -15.59559
 417  46.99611
 418  86.21761
 419  -58.30545
 420  -26.73931
 421  144.8566
 422  168.4147
 423  71.53616
 424  -20.58004
 425  15.46761
 426  -7.41285
 427  34.2542
 428  -24.46068
 429  66.66403
 430  238.3011
 431  228.3916
 432  95.93155
 433  30.12104
 434  18.73803
 435  121.5369
 436  210.3405
 437  242.0167
 438  85.76591
 439  74.60951
 440  17.9142
 441  4.845686
 442  36.53139
 443  -21.82515
 444  31.99553
 445  250.7662
 446  250.301
 447  200.99
 448  158.777
 449  88.68194
 450  63.44936
 451  141.1863
 452  182.7581
 453  146.3369
 454  148.3096
 455  144.9146
 456  100.9975
 457  -3.356429
 458  -84.99598
 459  -38.25281
 460  92.69449
 461  186.0068
 462  222.914
 463  168.9604
 464  208.3776
 465  212.5658
 466  165.3633
 467  88.11179
 468  84.14999
 469  119.6292
 470  161.8755
 471  105.3151
 472  137.5372
 473  184.9056
 474  100.1985
 475  1.712111
 476  74.28798
 477  76.29588
 478  142.2059
 479  295.7438
 480  363.0889
 481  205.3481
 482  192.2792
 483  139.9178
 484  69.76125
 485  43.21614
 486  121.2939
 487  167.1076
 488  131.3437
 489  251.0482
 490  147.4044
 491  115.0686
 492  92.23078
 493  36.46268
 494  -83.74753
 495  29.60404
 496  207.5639
 497  180.9963
 498  -28.57057
 499  54.94373
 500  141.1152
 501  175.1606
 502  185.8457
 503  300.2764
 504  354.6983
 505  310.0096
 506  75.94
 507  127.385
 508  243.7734
 509  165.8367
 510  171.8428
 511  135.2111
