# Input file       =  1201376082.115093_cleaned.dat
# Candidate        =  PSR_0332+5434
# Telescope        =  AR
# Epoch_topo       =  58148.815985128393
# Epoch_bary       =  N/A
# T_sample         =  0.002
# Data Folded      =  7340032
# Data Avg         =  0.0879487656441465
# Data StdDev      =  3.39311078156397 
# Profile Bins     =  1024
# Profile Avg      =  630.436767629981 
# Profile StdDev   =  287.274473565128 
# Reduced chi-sqr  =  0.827
# Prob(Noise)      <  1   (~0.0 sigma)
# P_topo (ms)      =  714.575743272235  +/- 0.000269
# P'_topo (s/s)    =  -0                +/- 1.42e-10
# P''_topo (s/s^2) =  0                 +/- 6.26e-14
# P_bary (ms)      =  N/A
# P'_bary (s/s)    =  N/A
# P''_bary (s/s^2) =  N/A
# P_orb (s)        =  N/A
# asin(i)/c (s)    =  N/A
# eccentricity     =  N/A
# w (rad)          =  N/A
# T_peri           =  N/A
######################################################
   0  626.5912
   1  555.3825
   2  694.5185
   3  874.2453
   4  1044.276
   5  976.6638
   6  832.8184
   7  728.1509
   8  714.02
   9  811.8206
  10  835.6587
  11  847.2349
  12  776.1468
  13  771.104
  14  661.9868
  15  668.8747
  16  630.349
  17  567.8239
  18  503.9362
  19  545.5867
  20  689.4473
  21  773.4774
  22  753.022
  23  801.3416
  24  756.9429
  25  729.8805
  26  694.9578
  27  728.9428
  28  796.3331
  29  787.8201
  30  678.7028
  31  465.7857
  32  394.7872
  33  430.0336
  34  540.3206
  35  557.7709
  36  651.4667
  37  601.8985
  38  656.7669
  39  541.8203
  40  551.1735
  41  542.6232
  42  739.9871
  43  729.2584
  44  720.3069
  45  578.0574
  46  543.5212
  47  417.3599
  48  404.4909
  49  500.5067
  50  623.3386
  51  568.5405
  52  637.3265
  53  709.8635
  54  751.0683
  55  681.3868
  56  656.5266
  57  576.0965
  58  523.707
  59  370.5185
  60  443.1073
  61  450.5415
  62  538.6414
  63  665.3398
  64  668.0891
  65  659.4846
  66  587.1853
  67  641.9213
  68  760.8046
  69  883.4349
  70  832.3897
  71  774.574
  72  616.9842
  73  463.5607
  74  351.5807
  75  338.6249
  76  479.0645
  77  648.4285
  78  761.3234
  79  782.4084
  80  587.8136
  81  549.0447
  82  590.7434
  83  738.0401
  84  732.242
  85  727.1788
  86  733.6185
  87  690.3995
  88  665.6068
  89  600.4656
  90  541.7506
  91  513.8479
  92  565.7991
  93  637.226
  94  647.1293
  95  564.2593
  96  546.947
  97  643.72
  98  708.9877
  99  674.7791
 100  552.8343
 101  526.3164
 102  514.2878
 103  497.7952
 104  471.1469
 105  460.1108
 106  496.7432
 107  442.1664
 108  446.1775
 109  458.253
 110  371.1598
 111  363.2066
 112  347.5805
 113  373.7047
 114  371.8451
 115  476.5012
 116  480.2442
 117  503.7666
 118  514.658
 119  622.7318
 120  673.2784
 121  674.4069
 122  763.387
 123  758.9329
 124  712.782
 125  641.4395
 126  560.1055
 127  612.2932
 128  571.0483
 129  630.849
 130  611.6862
 131  628.3126
 132  648.0541
 133  647.6619
 134  677.0281
 135  676.8317
 136  769.8181
 137  742.3473
 138  769.4431
 139  751.8845
 140  714.6483
 141  678.1038
 142  704.2258
 143  688.1627
 144  677.721
 145  644.1293
 146  718.6675
 147  674.9469
 148  649.2863
 149  639.48
 150  559.5635
 151  593.4362
 152  591.4599
 153  622.5095
 154  581.1394
 155  492.9637
 156  449.695
 157  426.54
 158  516.8424
 159  469.9679
 160  372.307
 161  311.7024
 162  355.8781
 163  572.8192
 164  658.4614
 165  708.7368
 166  629.4442
 167  598.3643
 168  625.1035
 169  545.7316
 170  508.0266
 171  559.8665
 172  633.4036
 173  814.4808
 174  769.5269
 175  771.7317
 176  723.4861
 177  667.1315
 178  763.093
 179  751.5605
 180  764.0114
 181  782.4815
 182  770.0195
 183  723.6006
 184  614.0213
 185  559.7562
 186  578.4477
 187  614.6782
 188  652.5256
 189  734.3937
 190  686.655
 191  630.7231
 192  667.6581
 193  592.9866
 194  562.7814
 195  532.913
 196  514.77
 197  434.9039
 198  470.7375
 199  580.7371
 200  715.9764
 201  767.939
 202  688.6574
 203  564.5081
 204  565.4695
 205  514.2823
 206  508.2513
 207  490.0863
 208  499.4675
 209  334.0016
 210  287.5017
 211  436.3035
 212  465.1812
 213  494.6386
 214  613.9402
 215  714.6859
 216  619.1846
 217  481.7914
 218  544.3045
 219  606.4295
 220  586.9426
 221  527.7955
 222  699.656
 223  728.0256
 224  733.3983
 225  623.6713
 226  556.5807
 227  489.5293
 228  451.2295
 229  491.7756
 230  538.4937
 231  576.3492
 232  606.6257
 233  481.6912
 234  301.5233
 235  303.0681
 236  359.3342
 237  470.7102
 238  582.9221
 239  683.1911
 240  613.1346
 241  486.875
 242  370.9259
 243  315.4791
 244  297.8243
 245  379.6896
 246  542.1954
 247  596.2728
 248  633.6613
 249  647.8853
 250  583.6179
 251  581.0633
 252  541.3332
 253  675.3005
 254  616.7272
 255  594.0048
 256  575.5245
 257  566.0525
 258  467.363
 259  387.8181
 260  310.0458
 261  437.1375
 262  512.8232
 263  563.0283
 264  512.9661
 265  509.5326
 266  449.0027
 267  490.3884
 268  529.7602
 269  616.514
 270  708.7927
 271  655.0255
 272  657.6482
 273  630.6827
 274  630.1707
 275  498.3514
 276  496.4991
 277  686.7266
 278  763.6274
 279  689.5906
 280  689.7829
 281  625.1337
 282  592.2909
 283  607.7984
 284  788.2377
 285  765.5625
 286  663.5341
 287  574.1107
 288  576.1931
 289  667.4058
 290  620.491
 291  571.2078
 292  554.6698
 293  571.8914
 294  600.3784
 295  535.545
 296  475.2274
 297  513.5663
 298  511.6222
 299  559.1531
 300  602.369
 301  564.476
 302  587.9274
 303  575.0519
 304  630.0762
 305  509.9567
 306  539.9488
 307  605.7115
 308  635.8383
 309  671.9358
 310  690.3846
 311  664.5013
 312  550.7172
 313  540.9723
 314  627.1786
 315  593.9419
 316  580.8328
 317  647.3707
 318  757.7867
 319  731.9631
 320  611.0261
 321  593.0979
 322  614.0027
 323  574.5957
 324  583.8069
 325  655.264
 326  651.6204
 327  626.2573
 328  614.4258
 329  687.648
 330  682.2033
 331  713.825
 332  757.3973
 333  862.5204
 334  802.9075
 335  691.3065
 336  612.9354
 337  632.181
 338  709.7833
 339  715.8589
 340  747.9421
 341  811.6948
 342  799.7328
 343  726.486
 344  606.0466
 345  573.3246
 346  541.7404
 347  552.9589
 348  557.5521
 349  615.0341
 350  646.5205
 351  754.7841
 352  722.6169
 353  759.9207
 354  893.4279
 355  1002.561
 356  1003.766
 357  898.0715
 358  768.791
 359  712.1856
 360  649.9918
 361  633.0654
 362  605.2491
 363  635.5006
 364  714.975
 365  701.6786
 366  706.9888
 367  714.9235
 368  786.456
 369  731.4767
 370  641.2985
 371  610.655
 372  721.4427
 373  653.1096
 374  563.9612
 375  488.9871
 376  547.8651
 377  608.8345
 378  600.2762
 379  625.7373
 380  529.4904
 381  452.7456
 382  430.0655
 383  556.7335
 384  652.577
 385  650.1942
 386  586.1725
 387  627.8868
 388  688.7705
 389  761.5068
 390  738.4396
 391  760.1968
 392  713.053
 393  763.3115
 394  705.3987
 395  715.1913
 396  712.4142
 397  843.9861
 398  765.2542
 399  775.7314
 400  888.3928
 401  1030.237
 402  1034.817
 403  829.9861
 404  755.5837
 405  787.8039
 406  922.1214
 407  860.08
 408  763.5189
 409  669.2719
 410  710.7194
 411  730.7441
 412  776.9523
 413  714.3117
 414  671.3729
 415  735.6089
 416  745.6898
 417  605.1285
 418  535.8066
 419  598.3596
 420  783.0352
 421  744.5006
 422  679.8978
 423  582.9895
 424  573.5196
 425  489.9174
 426  563.5533
 427  596.7316
 428  699.1265
 429  674.8727
 430  590.9875
 431  567.9688
 432  566.6981
 433  517.0964
 434  449.1429
 435  418.8364
 436  471.1505
 437  585.2646
 438  585.5359
 439  569.4283
 440  592.4287
 441  607.6264
 442  661.4515
 443  660.0756
 444  632.8154
 445  616.5104
 446  452.7604
 447  419.6921
 448  500.2503
 449  625.2347
 450  676.118
 451  646.6407
 452  722.2771
 453  692.0808
 454  714.3969
 455  792.5062
 456  768.5009
 457  596.3733
 458  388.0552
 459  440.7427
 460  611.2551
 461  814.5938
 462  878.4216
 463  775.0178
 464  628.4275
 465  513.3787
 466  503.7341
 467  633.0284
 468  710.7646
 469  839.4896
 470  846.3767
 471  803.627
 472  675.1185
 473  572.3116
 474  544.1008
 475  649.4199
 476  707.5668
 477  700.3929
 478  644.2299
 479  593.4497
 480  704.7102
 481  714.9779
 482  834.7598
 483  907.5178
 484  832.6776
 485  701.3187
 486  594.5219
 487  618.1379
 488  652.2585
 489  595.6857
 490  601.6219
 491  540.1309
 492  551.3911
 493  524.2042
 494  679.3667
 495  710.6753
 496  773.8539
 497  723.1751
 498  718.3057
 499  738.8708
 500  746.9955
 501  708.2236
 502  609.1595
 503  438.7043
 504  558.8319
 505  653.3707
 506  736.2039
 507  663.3116
 508  470.1224
 509  515.4188
 510  402.8861
 511  519.6723
 512  531.8849
 513  660.348
 514  675.2443
 515  649.3948
 516  524.8415
 517  498.0178
 518  514.9481
 519  585.9321
 520  485.5219
 521  379.0445
 522  310.6117
 523  372.1304
 524  454.4962
 525  491.9721
 526  480.3686
 527  480.2723
 528  606.7525
 529  589.7698
 530  571.3712
 531  539.0527
 532  534.1577
 533  645.4136
 534  672.9839
 535  610.1985
 536  478.7328
 537  516.6322
 538  638.7211
 539  673.9527
 540  631.8903
 541  625.2214
 542  710.6263
 543  718.4716
 544  731.2751
 545  706.7987
 546  738.5929
 547  743.3406
 548  690.3167
 549  670.7604
 550  578.2568
 551  518.5879
 552  460.7713
 553  538.4588
 554  698.4905
 555  810.9776
 556  761.942
 557  659.2155
 558  718.952
 559  757.1118
 560  825.2828
 561  688.4142
 562  738.1469
 563  671.9709
 564  663.9449
 565  695.4117
 566  728.2253
 567  707.4353
 568  614.6099
 569  595.9657
 570  567.7186
 571  604.3083
 572  583.4083
 573  602.9105
 574  652.605
 575  600.8112
 576  659.7436
 577  720.1556
 578  752.1488
 579  698.7501
 580  647.2488
 581  725.1594
 582  783.4153
 583  863.6349
 584  821.2436
 585  729.3981
 586  593.1306
 587  545.1487
 588  553.7249
 589  559.671
 590  654.7885
 591  597.8456
 592  649.9501
 593  668.1211
 594  662.799
 595  600.963
 596  512.6381
 597  526.1259
 598  491.0658
 599  462.2046
 600  530.7191
 601  657.3018
 602  693.6331
 603  747.791
 604  762.1951
 605  756.0884
 606  705.4435
 607  765.4507
 608  828.3315
 609  967.6322
 610  1048.849
 611  1135.72
 612  1226.274
 613  1329.273
 614  1421.722
 615  1497.826
 616  1598.237
 617  1674.449
 618  1536.075
 619  1437.559
 620  1328.646
 621  1154.505
 622  847.1476
 623  569.1437
 624  497.7344
 625  616.6396
 626  717.2418
 627  710.7275
 628  839.9521
 629  796.5165
 630  742.4819
 631  670.7443
 632  687.2189
 633  813.271
 634  740.7531
 635  741.6846
 636  727.3972
 637  817.4276
 638  917.8654
 639  908.576
 640  871.3517
 641  825.6591
 642  831.2961
 643  746.5052
 644  596.3442
 645  523.2386
 646  653.5784
 647  717.998
 648  664.1141
 649  592.9195
 650  650.9234
 651  785.7188
 652  736.7153
 653  517.988
 654  520.6578
 655  655.8386
 656  672.2229
 657  678.5544
 658  655.6943
 659  671.2444
 660  469.1003
 661  407.4004
 662  429.4291
 663  478.3382
 664  538.7048
 665  552.2001
 666  635.5996
 667  703.6422
 668  737.3145
 669  672.0164
 670  632.4888
 671  673.767
 672  646.0853
 673  606.3443
 674  594.5703
 675  659.6929
 676  778.004
 677  766.0375
 678  758.9259
 679  710.2063
 680  638.6476
 681  696.7488
 682  630.3854
 683  572.0518
 684  535.5234
 685  549.8453
 686  602.1146
 687  594.1521
 688  619.9799
 689  626.0322
 690  582.5027
 691  528.2431
 692  479.7018
 693  472.0078
 694  511.7585
 695  403.2629
 696  344.1227
 697  410.5179
 698  540.951
 699  545.7488
 700  516.8747
 701  517.9935
 702  585.4678
 703  621.5698
 704  669.4593
 705  602.2308
 706  615.5227
 707  504.4076
 708  577.4221
 709  547.4822
 710  604.5717
 711  526.4963
 712  569.6277
 713  587.1354
 714  615.6212
 715  483.587
 716  432.7893
 717  414.3815
 718  473.0659
 719  508.5418
 720  486.7806
 721  578.2497
 722  625.4497
 723  633.455
 724  573.9069
 725  551.0074
 726  565.8873
 727  601.5422
 728  547.0696
 729  559.7025
 730  550.0679
 731  534.6762
 732  527.4609
 733  466.8576
 734  479.816
 735  424.8676
 736  491.5269
 737  587.4448
 738  659.5446
 739  603.9611
 740  583.4748
 741  582.1165
 742  481.0207
 743  462.4246
 744  451.0769
 745  503.8849
 746  543.3014
 747  647.1876
 748  607.1002
 749  549.4402
 750  513.1363
 751  693.2629
 752  910.4916
 753  982.3066
 754  942.0186
 755  771.1428
 756  692.05
 757  716.1418
 758  722.5062
 759  694.8005
 760  593.5652
 761  628.6079
 762  651.8701
 763  553.7252
 764  539.9253
 765  570.7922
 766  669.5877
 767  722.0303
 768  675.223
 769  707.9755
 770  631.1584
 771  655.2986
 772  667.7554
 773  662.1134
 774  627.0556
 775  448.1214
 776  409.8943
 777  457.5123
 778  593.5029
 779  667.9495
 780  732.174
 781  731.0103
 782  622.9418
 783  516.0444
 784  483.6742
 785  476.3105
 786  446.4598
 787  577.2563
 788  688.7102
 789  853.426
 790  740.0353
 791  590.1078
 792  471.4429
 793  505.8879
 794  622.8199
 795  648.9862
 796  593.0626
 797  541.8538
 798  557.5176
 799  549.3929
 800  490.6682
 801  546.0653
 802  633.3457
 803  647.1732
 804  533.1991
 805  464.8203
 806  432.3755
 807  476.3359
 808  483.8297
 809  562.817
 810  579.7101
 811  693.399
 812  715.6
 813  659.3221
 814  559.9734
 815  469.7607
 816  597.5038
 817  591.8305
 818  726.704
 819  573.3887
 820  469.2465
 821  372.5325
 822  358.5696
 823  373.7712
 824  422.6931
 825  465.0983
 826  489.8782
 827  482.0501
 828  513.3906
 829  515.0022
 830  504.1571
 831  447.9081
 832  518.399
 833  568.1817
 834  688.3979
 835  670.8571
 836  595.1957
 837  532.2626
 838  446.9132
 839  409.2932
 840  415.6588
 841  493.0938
 842  485.4359
 843  455.275
 844  490.0119
 845  619.8278
 846  652.8511
 847  668.8355
 848  629.4725
 849  598.029
 850  498.957
 851  656.4467
 852  701.5684
 853  674.3325
 854  515.5197
 855  591.1487
 856  615.0781
 857  602.0833
 858  574.5999
 859  611.8385
 860  574.4764
 861  557.6702
 862  669.2999
 863  731.6581
 864  718.6356
 865  653.5626
 866  717.5726
 867  804.4867
 868  749.7111
 869  662.4242
 870  685.994
 871  687.8184
 872  694.8882
 873  584.0809
 874  633.2775
 875  597.3989
 876  653.1621
 877  621.9603
 878  685.22
 879  792.7017
 880  824.5833
 881  766.746
 882  697.3921
 883  645.9083
 884  704.9857
 885  736.5468
 886  792.043
 887  746.3234
 888  688.479
 889  676.7302
 890  505.8612
 891  441.6883
 892  460.92
 893  663.5999
 894  794.4188
 895  760.0578
 896  751.4893
 897  609.8083
 898  634.6431
 899  628.3456
 900  687.5874
 901  687.3281
 902  666.9438
 903  618.9968
 904  556.3635
 905  594.3988
 906  597.5338
 907  560.4149
 908  465.7315
 909  503.1467
 910  549.6327
 911  515.0518
 912  550.8317
 913  686.2722
 914  771.7335
 915  723.2735
 916  624.7921
 917  719.6973
 918  726.1224
 919  681.598
 920  552.6811
 921  462.3557
 922  435.0369
 923  476.0786
 924  461.8472
 925  459.888
 926  474.2422
 927  499.8764
 928  612.4232
 929  653.1603
 930  746.5074
 931  717.5533
 932  717.881
 933  570.0278
 934  563.662
 935  597.2186
 936  722.1193
 937  634.6545
 938  443.0943
 939  364.6335
 940  404.819
 941  499.6934
 942  635.6231
 943  634.48
 944  540.5385
 945  447.6656
 946  462.8088
 947  472.6403
 948  484.1023
 949  580.6193
 950  815.1937
 951  839.4224
 952  752.8378
 953  586.8127
 954  686.9952
 955  770.934
 956  867.4238
 957  741.2949
 958  712.5991
 959  670.1308
 960  635.9775
 961  607.4097
 962  739.26
 963  871.9284
 964  859.8668
 965  723.0974
 966  725.4989
 967  679.0439
 968  669.4029
 969  638.8705
 970  576.9996
 971  481.6399
 972  530.0215
 973  700.642
 974  837.4284
 975  785.3531
 976  621.9268
 977  601.5607
 978  589.3092
 979  646.1912
 980  554.7263
 981  598.8975
 982  666.4023
 983  776.8065
 984  655.3011
 985  531.1954
 986  490.0063
 987  579.5773
 988  628.0375
 989  639.2676
 990  614.4996
 991  585.8118
 992  600.9451
 993  704.4786
 994  665.3093
 995  637.1343
 996  590.8198
 997  646.3259
 998  635.7242
 999  647.6048
1000  661.5594
1001  640.3436
1002  591.4813
1003  546.6172
1004  496.5569
1005  401.9113
1006  471.484
1007  624.8207
1008  749.4604
1009  777.8273
1010  738.6536
1011  711.0858
1012  673.8414
1013  559.3867
1014  553.1957
1015  568.6586
1016  610.411
1017  651.3816
1018  705.6579
1019  712.5914
1020  763.5984
1021  730.7413
1022  751.9122
1023  644.4452
