# Input file       =  1201117473.116012_cleaned.dat
# Candidate        =  PSR_0332+5434
# Telescope        =  AR
# Epoch_topo       =  58145.822825416806
# Epoch_bary       =  N/A
# T_sample         =  0.002
# Data Folded      =  7340032
# Data Avg         =  0.0721734165511277
# Data StdDev      =  3.2109951071595  
# Profile Bins     =  512
# Profile Avg      =  1034.58322322191 
# Profile StdDev   =  384.462193971146 
# Reduced chi-sqr  =  0.797
# Prob(Noise)      <  1   (~0.0 sigma)
# P_topo (ms)      =  714.574385034441  +/- 0.00125
# P'_topo (s/s)    =  -0                +/- 6.57e-10
# P''_topo (s/s^2) =  0                 +/- 2.9e-13
# P_bary (ms)      =  N/A
# P'_bary (s/s)    =  N/A
# P''_bary (s/s^2) =  N/A
# P_orb (s)        =  N/A
# asin(i)/c (s)    =  N/A
# eccentricity     =  N/A
# w (rad)          =  N/A
# T_peri           =  N/A
######################################################
   0  1144.065
   1  875.2238
   2  658.4891
   3  911.6296
   4  1042.081
   5  907.5425
   6  1165.049
   7  967.0087
   8  1207.809
   9  1194.792
  10  1157.752
  11  917.2488
  12  846.767
  13  1005.058
  14  1337.95
  15  1325.872
  16  1152.051
  17  1250.837
  18  1149.612
  19  1010.548
  20  1124.182
  21  896.6816
  22  1021.582
  23  1269.973
  24  1197.181
  25  906.0582
  26  1048.57
  27  774.8308
  28  766.2182
  29  818.0995
  30  1197.065
  31  1377.195
  32  1172.266
  33  1395.608
  34  1404.307
  35  1142.666
  36  848.4006
  37  824.8015
  38  1210.72
  39  1344.562
  40  1163.234
  41  927.1281
  42  824.5886
  43  748.4035
  44  1011.642
  45  1080.968
  46  609.3845
  47  735.466
  48  1069.027
  49  926.6199
  50  621.9197
  51  728.2172
  52  1125.616
  53  1328.894
  54  1381.705
  55  1488.144
  56  1349.255
  57  1434.711
  58  1587.263
  59  1286.135
  60  1222.558
  61  1130.402
  62  1093.366
  63  1121.022
  64  993.2675
  65  961.1241
  66  1012.611
  67  820.9799
  68  1014.655
  69  921.0692
  70  1377.955
  71  1046.368
  72  869.4347
  73  1183.594
  74  1317.797
  75  1116.36
  76  1053.65
  77  1489.686
  78  1261.939
  79  1364.71
  80  1083.074
  81  1222.821
  82  1470.104
  83  1189.819
  84  1406.703
  85  1273.15
  86  1267.066
  87  1252.696
  88  1458.391
  89  1440.336
  90  1217.933
  91  841.9436
  92  831.0248
  93  1366.697
  94  1586.839
  95  1299.288
  96  1673.485
  97  1870.377
  98  1394.758
  99  1148.949
 100  1421.359
 101  990.6169
 102  959.7727
 103  1391.581
 104  1366.906
 105  1094.343
 106  1051.645
 107  1161.182
 108  1080.956
 109  1234.91
 110  1115.169
 111  1148.253
 112  1302.318
 113  1129.491
 114  794.5804
 115  903.9373
 116  800.2853
 117  1044.287
 118  1274.229
 119  1038.34
 120  824.8669
 121  781.1211
 122  975.1649
 123  1034.701
 124  1115.812
 125  1331.911
 126  1134.895
 127  1084.424
 128  1297.085
 129  1223.563
 130  808.4638
 131  914.4891
 132  1018.767
 133  725.5406
 134  1034.781
 135  1041.652
 136  829.8519
 137  876.7285
 138  612.491
 139  1016.865
 140  1042.751
 141  970.2866
 142  760.6992
 143  695.6615
 144  810.5362
 145  1173.345
 146  1315.956
 147  1095.394
 148  901.1847
 149  1029.862
 150  911.8765
 151  1060.129
 152  1065.385
 153  1142.642
 154  1047.718
 155  977.5584
 156  957.5887
 157  866.3905
 158  898.5607
 159  655.6399
 160  629.7765
 161  690.0278
 162  1039.99
 163  1008.667
 164  1161.672
 165  956.2321
 166  660.0977
 167  849.5426
 168  996.0876
 169  1079.458
 170  778.217
 171  635.7436
 172  802.5135
 173  928.9208
 174  1403.673
 175  1211.49
 176  997.9858
 177  1030.968
 178  1119.932
 179  1266.66
 180  875.3682
 181  981.4801
 182  827.322
 183  672.0667
 184  761.6877
 185  1073.422
 186  550.3281
 187  624.5864
 188  959.764
 189  981.9182
 190  914.989
 191  1228.182
 192  1356.195
 193  904.929
 194  747.1815
 195  1128.134
 196  891.8322
 197  676.4427
 198  973.534
 199  934.1847
 200  1120.061
 201  1009.07
 202  1109.931
 203  1079.939
 204  1080.789
 205  1329.206
 206  1280.836
 207  994.5591
 208  947.9189
 209  747.7979
 210  711.3056
 211  971.8548
 212  923.7995
 213  884.2095
 214  848.5031
 215  772.7385
 216  577.4532
 217  795.9678
 218  900.3516
 219  985.0385
 220  1067.608
 221  1050.291
 222  1113.94
 223  1176.231
 224  1172.756
 225  1098.345
 226  1037.464
 227  1101.534
 228  1442.63
 229  1338.172
 230  1169.667
 231  1054.23
 232  1244.241
 233  1284.056
 234  1066.48
 235  958.2412
 236  1080.274
 237  1026.122
 238  942.623
 239  777.4442
 240  1070.446
 241  1166.052
 242  1039.845
 243  1014.731
 244  1035.386
 245  879.1121
 246  857.5641
 247  865.7372
 248  930.9129
 249  1245.692
 250  1439.709
 251  1062.651
 252  1116.883
 253  852.8588
 254  1347.89
 255  897.9575
 256  585.2018
 257  758.5085
 258  1323.702
 259  1496.274
 260  1402.258
 261  1383.615
 262  1396.978
 263  989.0309
 264  1027.207
 265  1260.659
 266  1056.474
 267  1314.079
 268  1129.105
 269  1016.148
 270  841.8088
 271  932.9781
 272  854.6209
 273  1231.199
 274  1057.206
 275  1055.488
 276  930.4713
 277  686.6698
 278  675.4137
 279  881.7213
 280  1175.164
 281  1176.184
 282  922.5983
 283  1051.184
 284  896.121
 285  923.5538
 286  1205.162
 287  1116.675
 288  941.5543
 289  1107.427
 290  1308.524
 291  996.1042
 292  720.3914
 293  939.4297
 294  1188.244
 295  1276.464
 296  1096.11
 297  1105.588
 298  1399.118
 299  1141.325
 300  1363.5
 301  1455.794
 302  1303.776
 303  1350.182
 304  1502.505
 305  1611.516
 306  1960.406
 307  1945.288
 308  2198.97
 309  2080.467
 310  1893.813
 311  1494.914
 312  1172.474
 313  1117.142
 314  1099.132
 315  1226.13
 316  1186.627
 317  974.5714
 318  920.3646
 319  783.2124
 320  1234.998
 321  1420.808
 322  1149.634
 323  1087.933
 324  1126.745
 325  1279.201
 326  1142.517
 327  1334.266
 328  1184.535
 329  782.4193
 330  908.4323
 331  1181.567
 332  1179.257
 333  937.8152
 334  901.8466
 335  875.5807
 336  911.3448
 337  887.923
 338  1026.166
 339  1329.755
 340  1067.609
 341  597.2906
 342  445.6552
 343  742.6421
 344  793.6968
 345  885.3211
 346  1084.557
 347  952.8939
 348  772.2558
 349  709.3658
 350  510.184
 351  329.6513
 352  624.8887
 353  674.2745
 354  778.075
 355  819.8814
 356  903.6108
 357  529.2111
 358  518.7929
 359  636.0432
 360  531.8771
 361  501.4349
 362  441.5072
 363  692.0919
 364  869.5897
 365  767.6685
 366  778.7749
 367  816.4218
 368  961.8737
 369  1005.41
 370  973.6124
 371  639.2504
 372  793.824
 373  843.7595
 374  873.1917
 375  692.0694
 376  400.7613
 377  789.8755
 378  1229.645
 379  1274.899
 380  909.6513
 381  601.9305
 382  975.7678
 383  1386.841
 384  1217.722
 385  813.1115
 386  773.3678
 387  1016.235
 388  890.7796
 389  943.6097
 390  1055.073
 391  957.9897
 392  789.2162
 393  836.0251
 394  1090.759
 395  750.5521
 396  902.0689
 397  923.9484
 398  973.53
 399  871.1785
 400  828.6566
 401  1192.484
 402  1329.841
 403  1239.585
 404  1333.114
 405  1257.365
 406  1034.611
 407  995.5731
 408  1104.745
 409  991.4492
 410  770.1629
 411  1027.407
 412  1005.649
 413  750.8677
 414  577.3169
 415  856.025
 416  774.3951
 417  985.913
 418  1178.634
 419  1020.798
 420  1064.223
 421  1146.053
 422  1273.822
 423  932.7823
 424  1056.619
 425  1153.877
 426  1157.033
 427  886.8
 428  802.6579
 429  743.9969
 430  850.8821
 431  1036.493
 432  1325.431
 433  1272.93
 434  983.8226
 435  820.9484
 436  1007.377
 437  1445.021
 438  1305.444
 439  1018.829
 440  1196.775
 441  1051.918
 442  849.8674
 443  889.7023
 444  935.7172
 445  1130.93
 446  1039.629
 447  858.8232
 448  602.2579
 449  685.6513
 450  889.4482
 451  1173.559
 452  890.8209
 453  954.8507
 454  721.0394
 455  698.8818
 456  940.9854
 457  896.2473
 458  621.7806
 459  765.0444
 460  1094.906
 461  1057.26
 462  1078.901
 463  916.5411
 464  1052.755
 465  1149.614
 466  1201.441
 467  1337.464
 468  1222.42
 469  1224.959
 470  1068.57
 471  1022.017
 472  896.8024
 473  909.0952
 474  1006.748
 475  977.1957
 476  1217.953
 477  1083.567
 478  1109.327
 479  863.5527
 480  889.1921
 481  1167.476
 482  1191.355
 483  1365.897
 484  969.6165
 485  1008.295
 486  1040.545
 487  1396.502
 488  1203.822
 489  823.6803
 490  821.0141
 491  891.689
 492  815.6863
 493  1199.601
 494  1182.461
 495  1016.795
 496  863.0808
 497  1054.782
 498  1442.644
 499  1101.572
 500  892.1674
 501  1272.514
 502  1067.382
 503  1165.534
 504  1248.866
 505  1080.117
 506  574.4182
 507  663.476
 508  956.0068
 509  858.4417
 510  534.7697
 511  853.0046
