# Input file       =  1202481266.11084_cleaned.dat
# Candidate        =  PSR_0332+5434
# Telescope        =  AR
# Epoch_topo       =  58161.607466560650
# Epoch_bary       =  N/A
# T_sample         =  0.002
# Data Folded      =  7340032
# Data Avg         =  0.0335097784956961
# Data StdDev      =  1.00006656331928 
# Profile Bins     =  512
# Profile Avg      =  480.808406647726 
# Profile StdDev   =  119.741006205095 
# Reduced chi-sqr  =  1.195
# Prob(Noise)      <  0.00156   (~3.0 sigma)
# P_topo (ms)      =  714.579556474167  +/- 0.000288
# P'_topo (s/s)    =  -0                +/- 1.52e-10
# P''_topo (s/s^2) =  0                 +/- 6.7e-14
# P_bary (ms)      =  N/A
# P'_bary (s/s)    =  N/A
# P''_bary (s/s^2) =  N/A
# P_orb (s)        =  N/A
# asin(i)/c (s)    =  N/A
# eccentricity     =  N/A
# w (rad)          =  N/A
# T_peri           =  N/A
######################################################
   0  334.5981
   1  429.6803
   2  419.3401
   3  542.9562
   4  544.8175
   5  406.5752
   6  358.5929
   7  467.2856
   8  463.3195
   9  438.849
  10  450.0446
  11  444.6585
  12  319.3441
  13  243.0885
  14  408.9191
  15  433.9264
  16  354.2406
  17  372.9607
  18  365.4086
  19  440.9331
  20  436.3056
  21  515.1044
  22  443.3977
  23  557.2132
  24  573.7974
  25  486.7252
  26  478.8378
  27  461.6967
  28  459.1496
  29  375.0992
  30  392.608
  31  394.123
  32  396.2145
  33  457.3494
  34  432.486
  35  386.053
  36  470.7919
  37  455.9081
  38  467.7071
  39  541.0192
  40  487.0728
  41  453.4668
  42  429.8117
  43  435.6516
  44  492.6621
  45  462.9501
  46  460.9136
  47  499.4613
  48  507.8394
  49  477.5606
  50  583.9046
  51  595.041
  52  590.2253
  53  472.3835
  54  444.3241
  55  468.9007
  56  464.0627
  57  557.0056
  58  516.3238
  59  400.5927
  60  395.1201
  61  407.7439
  62  458.4804
  63  360.1241
  64  337.8753
  65  400.2498
  66  349.0697
  67  307.1839
  68  321.8632
  69  441.8788
  70  509.2794
  71  499.2697
  72  421.3569
  73  436.2986
  74  380.5951
  75  446.1532
  76  460.235
  77  414.1511
  78  543.7477
  79  535.0268
  80  359.0952
  81  317.01
  82  323.4161
  83  278.6494
  84  292.2499
  85  405.6336
  86  430.094
  87  432.9162
  88  459.1498
  89  483.7913
  90  384.9512
  91  451.367
  92  534.8219
  93  566.8192
  94  573.7371
  95  622.6288
  96  495.5632
  97  567.8321
  98  554.8755
  99  544.999
 100  441.5973
 101  515.3868
 102  494.0698
 103  435.1964
 104  568.2045
 105  522.7456
 106  431.7996
 107  435.7994
 108  501.9398
 109  492.6391
 110  502.8253
 111  496.8124
 112  386.6965
 113  447.1305
 114  417.9231
 115  419.0918
 116  402.2593
 117  399.0676
 118  433.201
 119  492.4366
 120  368.9267
 121  490.5037
 122  565.1125
 123  511.0574
 124  577.7945
 125  586.6554
 126  602.3325
 127  513.6194
 128  467.3403
 129  451.4694
 130  431.5937
 131  384.1658
 132  346.167
 133  319.8846
 134  437.1404
 135  501.6555
 136  567.1748
 137  489.8787
 138  388.3744
 139  324.2861
 140  412.8553
 141  440.2244
 142  424.8725
 143  375.7555
 144  467.777
 145  525.3189
 146  488.4335
 147  366.2768
 148  393.8795
 149  367.9112
 150  385.3407
 151  398.5442
 152  472.8
 153  497.7788
 154  508.6444
 155  399.6075
 156  383.5902
 157  449.4335
 158  379.4492
 159  419.7606
 160  517.2453
 161  553.6358
 162  577.5722
 163  569.48
 164  588.0591
 165  480.9142
 166  450.1385
 167  495.8184
 168  598.3264
 169  488.4717
 170  460.9103
 171  474.1005
 172  517.343
 173  608.6704
 174  501.2411
 175  513.0013
 176  463.5333
 177  412.6867
 178  518.9194
 179  444.0869
 180  485.3962
 181  570.009
 182  489.5266
 183  446.7104
 184  491.1659
 185  479.7417
 186  479.4807
 187  553.2025
 188  427.9941
 189  432.0055
 190  495.4955
 191  621.8399
 192  599.9111
 193  447.5975
 194  467.7227
 195  578.1666
 196  488.7092
 197  525.4642
 198  522.4359
 199  587.3418
 200  610.1625
 201  509.9515
 202  438.7123
 203  564.702
 204  528.7222
 205  525.1285
 206  405.6594
 207  367.9693
 208  455.8032
 209  534.4603
 210  424.1749
 211  469.751
 212  442.4693
 213  382.6028
 214  416.5555
 215  409.06
 216  335.6083
 217  404.7484
 218  540.0762
 219  495.968
 220  413.2445
 221  422.345
 222  489.794
 223  499.0078
 224  525.6578
 225  595.7476
 226  635.6799
 227  645.8251
 228  508.4272
 229  511.6082
 230  473.6546
 231  441.0602
 232  524.6287
 233  517.1771
 234  457.4027
 235  536.8362
 236  598.7532
 237  522.3566
 238  547.4005
 239  567.1999
 240  495.4836
 241  355.9677
 242  349.8347
 243  493.373
 244  454.6764
 245  425.3728
 246  466.6173
 247  547.2772
 248  490.9138
 249  544.2626
 250  578.9166
 251  546.973
 252  529.9532
 253  553.1354
 254  632.6033
 255  692.8036
 256  581.1662
 257  502.1583
 258  594.757
 259  562.5616
 260  544.5696
 261  517.3561
 262  518.8654
 263  532.3574
 264  533.3871
 265  496.9239
 266  408.7247
 267  424.8995
 268  406.6242
 269  375.7881
 270  362.8851
 271  476.7156
 272  417.0936
 273  385.3537
 274  519.6423
 275  465.1909
 276  493.2452
 277  470.7086
 278  597.235
 279  514.7313
 280  464.6743
 281  422.0288
 282  495.2595
 283  460.5661
 284  501.6674
 285  451.5402
 286  472.2018
 287  492.0177
 288  463.2068
 289  454.7498
 290  433.3373
 291  418.9099
 292  448.6639
 293  430.2563
 294  448.5978
 295  444.8412
 296  427.6259
 297  483.9748
 298  448.6247
 299  463.7486
 300  539.3095
 301  530.4764
 302  430.4603
 303  374.2105
 304  414.3014
 305  451.5004
 306  482.1101
 307  622.867
 308  462.7987
 309  417.8207
 310  522.2136
 311  443.4233
 312  508.1323
 313  583.071
 314  701.2255
 315  627.9202
 316  526.2582
 317  551.9101
 318  481.919
 319  525.7266
 320  606.8764
 321  537.6737
 322  506.0161
 323  496.4178
 324  582.1177
 325  622.0547
 326  591.1807
 327  516.5547
 328  552.9423
 329  586.6531
 330  570.766
 331  557.118
 332  625.1611
 333  590.5045
 334  433.0308
 335  563.5837
 336  645.3873
 337  554.4309
 338  456.7091
 339  499.0089
 340  441.9836
 341  443.0652
 342  588.3528
 343  576.7725
 344  480.5232
 345  441.9775
 346  555.243
 347  407.5871
 348  508.7737
 349  595.2475
 350  587.3769
 351  517.7054
 352  609.475
 353  491.0223
 354  425.5057
 355  413.7587
 356  506.6387
 357  443.8007
 358  430.7517
 359  464.4412
 360  434.1567
 361  445.9272
 362  537.7721
 363  525.2665
 364  483.92
 365  423.5518
 366  462.5275
 367  454.2551
 368  451.6973
 369  596.5083
 370  571.4606
 371  593.406
 372  616.593
 373  577.241
 374  574.3475
 375  588.3255
 376  474.8539
 377  483.4743
 378  482.5315
 379  449.9605
 380  541.032
 381  425.4998
 382  407.3973
 383  508.0933
 384  439.2615
 385  622.9878
 386  592.5103
 387  501.3604
 388  597.4621
 389  586.9474
 390  581.7415
 391  526.6478
 392  496.1261
 393  408.3383
 394  479.1478
 395  502.0968
 396  530.9459
 397  514.6688
 398  341.6976
 399  424.1464
 400  451.2771
 401  365.2476
 402  368.1129
 403  436.2138
 404  516.8624
 405  483.8647
 406  465.791
 407  379.0914
 408  390.9513
 409  439.2883
 410  516.2656
 411  476.4549
 412  429.2844
 413  431.2874
 414  453.2328
 415  519.6016
 416  541.6785
 417  404.3338
 418  467.3405
 419  525.5991
 420  509.4219
 421  464.722
 422  451.9762
 423  534.5797
 424  505.3544
 425  541.1665
 426  498.4856
 427  467.8547
 428  510.7192
 429  473.7109
 430  438.2841
 431  501.4791
 432  526.5002
 433  554.3887
 434  700.1603
 435  867.302
 436  1159.743
 437  1219.461
 438  1047.909
 439  993.7277
 440  774.2843
 441  535.3761
 442  417.4143
 443  414.2516
 444  467.5183
 445  430.9646
 446  429.7986
 447  399.441
 448  321.8701
 449  339.3637
 450  431.2515
 451  518.0855
 452  471.6581
 453  495.6381
 454  475.0205
 455  414.9577
 456  363.0138
 457  462.8297
 458  539.498
 459  478.3957
 460  460.5815
 461  506.201
 462  434.2155
 463  468.1914
 464  426.8399
 465  455.4111
 466  507.8912
 467  506.9389
 468  437.7628
 469  475.3116
 470  466.3066
 471  510.6128
 472  464.1353
 473  472.2747
 474  438.3715
 475  344.9298
 476  423.0219
 477  493.0371
 478  525.1848
 479  507.818
 480  421.9802
 481  425.3677
 482  354.8931
 483  373.9726
 484  388.1099
 485  303.3538
 486  342.7108
 487  396.3608
 488  384.4458
 489  409.7075
 490  444.4808
 491  509.1458
 492  570.0538
 493  555.2457
 494  460.4729
 495  500.5605
 496  428.4813
 497  381.6822
 498  469.1069
 499  381.7924
 500  332.8244
 501  433.6493
 502  425.6017
 503  417.2331
 504  425.8391
 505  408.853
 506  371.3452
 507  363.0121
 508  373.8909
 509  439.6146
 510  414.1458
 511  299.2935
