# Input file       =  1202222673.110506-PSRB0329-2ms-sampling-dd.dat
# Candidate        =  PSR_0332+5434
# Telescope        =  AR
# Epoch_topo       =  58158.614492019748
# Epoch_bary       =  N/A
# T_sample         =  0.002
# Data Folded      =  7340032
# Data Avg         =  -1.61177789848104e-09
# Data StdDev      =  47.7543469056528 
# Profile Bins     =  512
# Profile Avg      =  -2.25213706920969
# Profile StdDev   =  5717.77295520323 
# Reduced chi-sqr  =  1.462
# Prob(Noise)      <  4.01e-11   (~6.5 sigma)
# P_topo (ms)      =  714.578837092245  +/- 0.000201
# P'_topo (s/s)    =  -0                +/- 1.06e-10
# P''_topo (s/s^2) =  0                 +/- 4.69e-14
# P_bary (ms)      =  N/A
# P'_bary (s/s)    =  N/A
# P''_bary (s/s^2) =  N/A
# P_orb (s)        =  N/A
# asin(i)/c (s)    =  N/A
# eccentricity     =  N/A
# w (rad)          =  N/A
# T_peri           =  N/A
######################################################
   0  -1908.942
   1  -1640.57
   2  -2020.103
   3  -2762.385
   4  -2670.313
   5  -2552.862
   6  -2642.938
   7  -2240.053
   8  -1675.84
   9  -1891.383
  10  -2065.612
  11  -1664.065
  12  -1007.094
  13  -1021.296
  14  -757.3867
  15  -1363.607
  16  -1928.282
  17  -2085.428
  18  -1267.483
  19  -1394.711
  20  -1023.791
  21  -1086.061
  22  -951.1174
  23  -1078.397
  24  -1039.488
  25  -796.2672
  26  -715.7372
  27  -584.5954
  28  -817.5538
  29  -606.2322
  30  -1103.271
  31  -1273.138
  32  -1039.605
  33  -1368.833
  34  -1453.547
  35  -1271.148
  36  -1359.812
  37  -1671.294
  38  -1239.118
  39  -471.3909
  40  -572.267
  41  -525.2402
  42  -419.743
  43  -1152.818
  44  -950.6495
  45  -1142.493
  46  -964.4927
  47  -1339.381
  48  -1044.186
  49  -1359.549
  50  -1809.525
  51  -1462.028
  52  -1960.776
  53  -1984.741
  54  -2134.843
  55  -2517.372
  56  -2469.582
  57  -2564.817
  58  -2005.658
  59  -2324.322
  60  -2570.358
  61  -2676.001
  62  -2630.68
  63  -2604.226
  64  -2319.393
  65  -2312.133
  66  -2054.302
  67  -2112.026
  68  -2342.177
  69  -2512.425
  70  -2322.647
  71  -2085.354
  72  -2496.291
  73  -2372.952
  74  -2262.738
  75  -2427.278
  76  -2358.992
  77  -2586.389
  78  -2206.747
  79  -1812.574
  80  -1854.79
  81  -1391.434
  82  -1448.442
  83  -1776.246
  84  -1797.906
  85  -1293.03
  86  -1116.703
  87  -975.4043
  88  -950.1055
  89  -1545.404
  90  -2038.279
  91  -1975.048
  92  -1655.493
  93  -1391.774
  94  -998.5021
  95  -304.4221
  96  -207.5996
  97  -664.6898
  98  -565.6146
  99  -762.2554
 100  -510.51
 101  99.09718
 102  228.45
 103  786.9855
 104  866.7761
 105  1046.936
 106  450.2893
 107  718.8831
 108  1145.905
 109  1118.943
 110  922.6722
 111  371.693
 112  -451.0251
 113  -741.2606
 114  -486.0606
 115  -60.10474
 116  -126.1156
 117  -56.3047
 118  -703.6312
 119  -1033.299
 120  -1299.794
 121  -1761.63
 122  -1455.14
 123  -1412.379
 124  -1408.058
 125  -1607.479
 126  -1762.739
 127  -2092.968
 128  -1836.426
 129  -1836.122
 130  -1911.81
 131  -1678.707
 132  -1843.037
 133  -2242.107
 134  -1915.512
 135  -1831.583
 136  -2350.558
 137  -1353.368
 138  -1558.923
 139  -1331.11
 140  -725.9453
 141  -2276.499
 142  -2155.337
 143  -1195.447
 144  -3945.531
 145  5453.668
 146  17322.96
 147  36903.17
 148  33605.85
 149  29340.71
 150  18639.21
 151  2366.539
 152  2770.35
 153  19561.26
 154  24867.04
 155  23576.66
 156  19699.31
 157  3817.693
 158  262.3023
 159  -2683.355
 160  -2312.455
 161  -2090.997
 162  -2163.22
 163  -2498.176
 164  -1835.062
 165  -1741.356
 166  -2179.896
 167  4807.847
 168  5094.037
 169  6312.599
 170  16304.85
 171  20326.99
 172  20573.43
 173  15643.94
 174  13697.94
 175  8184.798
 176  -1229.798
 177  11541.77
 178  13964.74
 179  15016.57
 180  16149.43
 181  8161.344
 182  2915.708
 183  -1772.778
 184  -1563.725
 185  -1459.949
 186  -1550.623
 187  -873.9451
 188  -723.0842
 189  -342.7897
 190  -554.3111
 191  -717.3713
 192  -876.9404
 193  -1563.79
 194  -1583.052
 195  -600.1116
 196  -156.1632
 197  -259.0771
 198  -656.114
 199  -1689.694
 200  -2055.243
 201  -2615.898
 202  -2447.233
 203  -2455.771
 204  -2697.9
 205  -2567.632
 206  -1799.222
 207  -1795.01
 208  -1825.776
 209  -1912.694
 210  -1709.008
 211  -2009.014
 212  -2377.345
 213  -2249.552
 214  -1928.455
 215  -1881.998
 216  -1701.282
 217  -1699.38
 218  -1975.396
 219  -2066.547
 220  -2204.741
 221  -2045.199
 222  -1749.726
 223  -1990.484
 224  -1754.721
 225  -1772.204
 226  -1656.229
 227  -1899.208
 228  -2326.549
 229  -2179.419
 230  -1291.629
 231  -911.2516
 232  -847.9302
 233  -731.6114
 234  -1725.715
 235  -2423.16
 236  -1894.379
 237  -1618.016
 238  -1415.962
 239  -961.5829
 240  -1327.424
 241  -1447.349
 242  -2024.765
 243  -2336.047
 244  -1926.03
 245  -845.5056
 246  -1522.522
 247  -719.7684
 248  1181.565
 249  10333.99
 250  1906.453
 251  -2580.811
 252  -1553.448
 253  -1453.636
 254  -470.9725
 255  78.13258
 256  -711.1024
 257  -837.0628
 258  -1427.777
 259  -1736.379
 260  -1987.183
 261  -1597.351
 262  -1388.821
 263  -1470.651
 264  -1178.3
 265  -1114.65
 266  -984.5523
 267  -1134.309
 268  -673.2937
 269  -754.2072
 270  -523.7599
 271  -243.3979
 272  -34.54212
 273  221.8678
 274  -730.4702
 275  -1011.78
 276  -1367.588
 277  -1365.721
 278  -1195.745
 279  -666.8103
 280  13.62366
 281  -1655.3
 282  -1782.169
 283  -1772.221
 284  -1952.121
 285  -2204.171
 286  -1683.767
 287  -1027.802
 288  -1616.497
 289  -1388.278
 290  -1362.888
 291  -2728.253
 292  606.9649
 293  4775.94
 294  13259.23
 295  16273.64
 296  16724.27
 297  14708.56
 298  -591.9556
 299  4992.381
 300  16372.61
 301  23734.79
 302  25094.66
 303  23107.95
 304  8335.077
 305  1224.255
 306  -1820.298
 307  -1117.25
 308  -2224.628
 309  -646.4667
 310  614.7454
 311  -31.936
 312  -269.7779
 313  -1175.732
 314  -1353.648
 315  -886.3622
 316  339.4202
 317  3.496919
 318  -354.9809
 319  -123.7498
 320  -695.9882
 321  -889.7135
 322  -1312.492
 323  -690.3549
 324  -423.4736
 325  -686.9131
 326  -1044.364
 327  -1716.655
 328  -1765.454
 329  -880.509
 330  48.85392
 331  859.5966
 332  1079.955
 333  -685.2367
 334  -1382.831
 335  -1325.272
 336  -512.1391
 337  -765.9573
 338  -768.6579
 339  -500.7864
 340  -1393.164
 341  -1934.434
 342  -1966.003
 343  -1840.24
 344  -1548.824
 345  -1630.345
 346  -1500.387
 347  -1703.566
 348  -1934.301
 349  -2239.885
 350  -1673.497
 351  -2097.339
 352  -1813.896
 353  -1902.556
 354  -2182.061
 355  -1810.044
 356  -1707.797
 357  -2005.219
 358  -2071.101
 359  -1931.434
 360  -1930.044
 361  -2079.749
 362  -2151.895
 363  -1961.097
 364  -1762.619
 365  -1495.622
 366  -1685.369
 367  -1696.289
 368  -1735.322
 369  -1689.936
 370  -1913.441
 371  -2233.493
 372  -1872.715
 373  -1420.102
 374  -1060.145
 375  -1114.334
 376  -869.1608
 377  -888.1279
 378  -1422.32
 379  -1575.645
 380  -1014.61
 381  -265.7474
 382  -259.6884
 383  -658.0767
 384  -512.2896
 385  -1216.998
 386  -1574.357
 387  -1324.709
 388  -483.15
 389  -782.2816
 390  -1278.763
 391  -1592.775
 392  -1974.083
 393  -1858.942
 394  -2003.312
 395  -1704.606
 396  -2145.904
 397  -2199.737
 398  -2438.019
 399  -2333.218
 400  -2275.532
 401  -2177.863
 402  -2211.893
 403  -2584.817
 404  -2215.077
 405  -1861.212
 406  -1607.629
 407  -1990.114
 408  -2308.902
 409  -2244.57
 410  -2404.251
 411  -2331.471
 412  -2324.328
 413  -2229.036
 414  -2172.966
 415  -2356.658
 416  -2189.868
 417  -1761.418
 418  -1326.192
 419  -1420.503
 420  -1223.256
 421  -1232.402
 422  -1406.198
 423  -1597.187
 424  -1450.38
 425  -850.6331
 426  -340.7417
 427  -217.9064
 428  -1173.251
 429  -1769.603
 430  -1531.936
 431  -860.7677
 432  696.7481
 433  1012.474
 434  812.1482
 435  143.6668
 436  -445.9019
 437  -735.4046
 438  283.0116
 439  1318.497
 440  1780.32
 441  1028.024
 442  642.1003
 443  866.6611
 444  1524.267
 445  1719.389
 446  1396.661
 447  1512.146
 448  -136.5272
 449  930.2238
 450  1177.487
 451  1535.44
 452  1330.374
 453  529.6884
 454  -266.2376
 455  -858.7285
 456  -1094.111
 457  -1332.56
 458  123.5672
 459  1049.395
 460  2036.723
 461  2327.041
 462  1483.489
 463  701.2553
 464  -660.4655
 465  430.653
 466  527.8801
 467  -531.2284
 468  -2.042996
 469  -527.1504
 470  -1110.882
 471  -1502.364
 472  -1968.807
 473  -2121.948
 474  -2127.754
 475  -1064.083
 476  -978.927
 477  -116.3473
 478  175.3437
 479  67.77071
 480  -498.8412
 481  -1505.567
 482  -1325.287
 483  -1312.859
 484  -1262.886
 485  -1123.006
 486  -2014.649
 487  -2186.068
 488  -2203.456
 489  -2333.777
 490  -2483.128
 491  -2396.347
 492  -2379.375
 493  -2771.212
 494  -2297.937
 495  -2170.261
 496  -1837.464
 497  -1869.167
 498  -2020.57
 499  -2400.757
 500  -3163.535
 501  -1906.076
 502  -1758.54
 503  -1306.148
 504  -1314.831
 505  -1619.548
 506  -2053.83
 507  -2203.296
 508  -2450.347
 509  -2346.373
 510  -2342.879
 511  -1734.791
