# Input file       =  1202323790.104277_cleaned.dat
# Candidate        =  PSR_0332+5434
# Telescope        =  AR
# Epoch_topo       =  58159.784827595795
# Epoch_bary       =  N/A
# T_sample         =  0.002
# Data Folded      =  7340032
# Data Avg         =  0.104289138814368
# Data StdDev      =  3.67834671638058 
# Profile Bins     =  512
# Profile Avg      =  1495.22467847322 
# Profile StdDev   =  440.419621198754 
# Reduced chi-sqr  =  0.634
# Prob(Noise)      <  1   (~0.0 sigma)
# P_topo (ms)      =  714.579473926355  +/- 0.000464
# P'_topo (s/s)    =  -0                +/- 2.45e-10
# P''_topo (s/s^2) =  0                 +/- 1.08e-13
# P_bary (ms)      =  N/A
# P'_bary (s/s)    =  N/A
# P''_bary (s/s^2) =  N/A
# P_orb (s)        =  N/A
# asin(i)/c (s)    =  N/A
# eccentricity     =  N/A
# w (rad)          =  N/A
# T_peri           =  N/A
######################################################
   0  1702.907
   1  1637.711
   2  1129.734
   3  1222.961
   4  1642.376
   5  1537.638
   6  1400.183
   7  1807.914
   8  1834.676
   9  1833.092
  10  1726.614
  11  1941.04
  12  1704.424
  13  1331.754
  14  1430.769
  15  1667.26
  16  1603.46
  17  1680.732
  18  1139.338
  19  1281.825
  20  1484.094
  21  1596.543
  22  1869.583
  23  1664.219
  24  1713.813
  25  1736.432
  26  1519.093
  27  1546.432
  28  1532.851
  29  1985.773
  30  1918.168
  31  1834.545
  32  1653.647
  33  1358.584
  34  1326.259
  35  1453.275
  36  1660.626
  37  1721.998
  38  1739.864
  39  1649.644
  40  1636.511
  41  1451.198
  42  1230.386
  43  1654.958
  44  1522.033
  45  1367.059
  46  1471.288
  47  1986.499
  48  2145.836
  49  1935.038
  50  1614.486
  51  1309.218
  52  1117.932
  53  1402.25
  54  1443.801
  55  1418.153
  56  1710.953
  57  1693.012
  58  1378.976
  59  1747.23
  60  1562.424
  61  1423.245
  62  1355.287
  63  1388.479
  64  1685.806
  65  1660.141
  66  1462.974
  67  1576.683
  68  1506.156
  69  1399.911
  70  1298.507
  71  1381.125
  72  1570.49
  73  1315.092
  74  1525.477
  75  1569.483
  76  1473.047
  77  1364.796
  78  1543.647
  79  1638.611
  80  1439.887
  81  1483.895
  82  1655.616
  83  1475.104
  84  1190.396
  85  1399.724
  86  1502.14
  87  1487.618
  88  1047.872
  89  1258.1
  90  1123.444
  91  1089.805
  92  1497.787
  93  1639.677
  94  1664.072
  95  1404.706
  96  1457.541
  97  1586.319
  98  1499.841
  99  1447.052
 100  1352.432
 101  1612.354
 102  1698.634
 103  1763.867
 104  1633.655
 105  1898.42
 106  1661.896
 107  1576.509
 108  1530.605
 109  1596.143
 110  1610.52
 111  1582.132
 112  1797.5
 113  1688.168
 114  1815.409
 115  1767.145
 116  1436.38
 117  1097.576
 118  1373.053
 119  1381.567
 120  1484.949
 121  1401.92
 122  1564.17
 123  1046.137
 124  1277.365
 125  1524.395
 126  1556.385
 127  1769.998
 128  1645.866
 129  1671.719
 130  1460.05
 131  1252.558
 132  1178.21
 133  1163.122
 134  1318.696
 135  1559.204
 136  1692.965
 137  1617.571
 138  1448.77
 139  1507.693
 140  1397.975
 141  1106.877
 142  1378.78
 143  1468.184
 144  1447.778
 145  1598.478
 146  1469.696
 147  1383.005
 148  1306.42
 149  1463.412
 150  1332.156
 151  1124.97
 152  1354.983
 153  1770.185
 154  1868.772
 155  1574.437
 156  1454.381
 157  1585.864
 158  1450.658
 159  1548.383
 160  1334.051
 161  1245.628
 162  1111.976
 163  1554.445
 164  1574.139
 165  1537.057
 166  1690.079
 167  1581.153
 168  1434.231
 169  1559.681
 170  1540.712
 171  1743.954
 172  1721.501
 173  1621.589
 174  1519.741
 175  1667.955
 176  1487.791
 177  1637.482
 178  1458.372
 179  1486.363
 180  1782.823
 181  1650.791
 182  1867.797
 183  1396.336
 184  1382.934
 185  1550.379
 186  1264.887
 187  1430.624
 188  1449.609
 189  1557.167
 190  1276.973
 191  1288.898
 192  1473.512
 193  1408.679
 194  1008.718
 195  1609.803
 196  2004.665
 197  1445.687
 198  1450.002
 199  1473.606
 200  1381.385
 201  1529.137
 202  1688.624
 203  1784.637
 204  1454.62
 205  1407.567
 206  1334.064
 207  1447.853
 208  1414.057
 209  1581.109
 210  1291.536
 211  1279.09
 212  1293.784
 213  1462.177
 214  1516.376
 215  1368.148
 216  1424.25
 217  1552.61
 218  1605.983
 219  1596.97
 220  1412.444
 221  1580.064
 222  1838.929
 223  1810.805
 224  1640.492
 225  1876.798
 226  1892.875
 227  1632.902
 228  1844.783
 229  1641.448
 230  1652.154
 231  1636.254
 232  1601.614
 233  1694.989
 234  1839.481
 235  1832.279
 236  1820.892
 237  1510.549
 238  1601.17
 239  1302.766
 240  1523.553
 241  1752.132
 242  1744.158
 243  1867.584
 244  1630.92
 245  1639.593
 246  1667.198
 247  1528.992
 248  1815.894
 249  1735.822
 250  1734.263
 251  1900.447
 252  1606.23
 253  1532.627
 254  1541.299
 255  1438.484
 256  1300.057
 257  1250.59
 258  1595.631
 259  1209.991
 260  1300.07
 261  1204.754
 262  1387.894
 263  1705.07
 264  1782.919
 265  1674.377
 266  1426.59
 267  1335.508
 268  1335.662
 269  1305.113
 270  1261.565
 271  1278.559
 272  1305.521
 273  1455.574
 274  1328.728
 275  1220.456
 276  1527.8
 277  1245.329
 278  1300.428
 279  1234.873
 280  742.8547
 281  1172.837
 282  1355.6
 283  1315.066
 284  1713.061
 285  1598.737
 286  1793.612
 287  1552.443
 288  1659.203
 289  1915.078
 290  2404.787
 291  2795.458
 292  2884.239
 293  2944.594
 294  2772.119
 295  1956.728
 296  1762.498
 297  1394.664
 298  1500.203
 299  1786.542
 300  1429.058
 301  1383.242
 302  1479.76
 303  1440.759
 304  1464.067
 305  1424.213
 306  1434.69
 307  1380.742
 308  1329.971
 309  1277.493
 310  1223.894
 311  1156.092
 312  1574.583
 313  1407.329
 314  1325.348
 315  1425.431
 316  1531.777
 317  1233.326
 318  1115.922
 319  1141.319
 320  1374.272
 321  1238.255
 322  838.525
 323  948.3292
 324  1218.15
 325  1486.695
 326  1477.691
 327  1229.355
 328  1291.427
 329  1222.292
 330  1493.116
 331  1556.059
 332  1343.678
 333  1433.26
 334  1705.779
 335  1708.938
 336  1673.562
 337  1483.135
 338  933.0475
 339  1270.668
 340  1740.57
 341  1668.011
 342  1652.212
 343  1666.007
 344  1617.337
 345  1364.441
 346  1320.179
 347  1262.55
 348  1528.917
 349  1504.264
 350  1035.155
 351  1047.538
 352  1192.802
 353  1556.435
 354  1361.852
 355  1406.562
 356  1492.834
 357  1325.574
 358  1532.405
 359  1659.716
 360  1540.509
 361  1268.254
 362  1315.321
 363  1322.56
 364  1631.618
 365  1384.866
 366  1421.048
 367  1544.386
 368  1494.844
 369  1375.89
 370  1347.619
 371  1468.805
 372  1498.677
 373  1082.119
 374  1238.372
 375  1339.378
 376  1604.945
 377  1592.438
 378  1447.852
 379  1489.362
 380  1400.87
 381  1717.437
 382  1648.868
 383  1592.669
 384  1300.737
 385  1314.381
 386  1614.443
 387  1216.562
 388  1513.24
 389  1309.623
 390  1140.714
 391  1193.186
 392  1317.31
 393  1722.294
 394  1181.087
 395  1423.412
 396  1596.736
 397  1582.097
 398  1745.839
 399  1379.673
 400  1380.466
 401  1606.949
 402  1488.217
 403  1345.417
 404  1822.949
 405  1838.241
 406  2056.074
 407  2112.23
 408  1752.174
 409  1576.191
 410  1729.755
 411  2069.195
 412  1691.854
 413  1319.735
 414  1730.612
 415  1523.606
 416  1877.717
 417  1471.527
 418  1363.977
 419  1361.275
 420  1295.726
 421  1369.487
 422  1379.934
 423  1371.795
 424  1496.163
 425  1099.779
 426  1081.297
 427  1216.101
 428  1543.586
 429  1568.079
 430  1566.813
 431  1762.617
 432  1833.849
 433  1929.102
 434  1787.384
 435  1688.612
 436  1577.534
 437  1760.981
 438  1440.824
 439  1552.738
 440  1488.164
 441  1639.024
 442  1668.238
 443  1681.022
 444  1884.983
 445  1425.272
 446  1034.667
 447  1193.168
 448  1258.787
 449  1264.754
 450  1327.137
 451  997.9326
 452  912.7775
 453  1112.244
 454  1781.094
 455  1673.337
 456  1290.095
 457  1300.413
 458  971.2435
 459  1104.281
 460  1354.524
 461  1179.286
 462  1345.859
 463  1214.554
 464  1314.251
 465  1156.636
 466  1175.305
 467  1173.634
 468  1198.15
 469  1350.019
 470  1286.557
 471  1443.311
 472  1117.208
 473  1141.618
 474  1491.05
 475  1428.349
 476  1602.718
 477  1644.33
 478  1367.823
 479  1157.718
 480  1211.044
 481  1377.519
 482  1256.705
 483  1435.689
 484  1785.498
 485  1883.475
 486  1712.527
 487  1383.393
 488  1453.968
 489  1611.242
 490  1418.333
 491  1306.125
 492  1488.109
 493  1575.009
 494  1229.031
 495  1070.137
 496  1243.677
 497  984.486
 498  938.9161
 499  1382.598
 500  1514.066
 501  1347.281
 502  1455.898
 503  1279.122
 504  1332.348
 505  1540.634
 506  1619.291
 507  1421.66
 508  1308.708
 509  1251.076
 510  1615.483
 511  1545.466
