# Input file       =  1202237599.111301_cleaned.dat
# Candidate        =  PSR_0332+5434
# Telescope        =  AR
# Epoch_topo       =  58158.787246658576
# Epoch_bary       =  N/A
# T_sample         =  0.002
# Data Folded      =  7340032
# Data Avg         =  0.0443446181598119
# Data StdDev      =  3.19223967643879 
# Profile Bins     =  512
# Profile Avg      =  635.795985697256 
# Profile StdDev   =  382.216549302402 
# Reduced chi-sqr  =  0.968
# Prob(Noise)      <  0.691   (~0.0 sigma)
# P_topo (ms)      =  714.57921902968   +/- 0.000329
# P'_topo (s/s)    =  -0                +/- 1.73e-10
# P''_topo (s/s^2) =  0                 +/- 7.66e-14
# P_bary (ms)      =  N/A
# P'_bary (s/s)    =  N/A
# P''_bary (s/s^2) =  N/A
# P_orb (s)        =  N/A
# asin(i)/c (s)    =  N/A
# eccentricity     =  N/A
# w (rad)          =  N/A
# T_peri           =  N/A
######################################################
   0  590.053
   1  701.7437
   2  546.5604
   3  689.8373
   4  636.5629
   5  404.2883
   6  340.4262
   7  270.3474
   8  279.8305
   9  350.0323
  10  304.1432
  11  341.9581
  12  365.0177
  13  506.3156
  14  442.2567
  15  155.4088
  16  470.6614
  17  891.3433
  18  1109.851
  19  518.1077
  20  663.3891
  21  698.3849
  22  342.7511
  23  391.9249
  24  697.5973
  25  658.2039
  26  785.0815
  27  627.301
  28  635.8918
  29  456.3884
  30  951.1221
  31  662.9447
  32  468.0644
  33  734.4012
  34  473.9825
  35  23.86312
  36  317.7346
  37  474.0785
  38  287.4864
  39  242.3037
  40  490.6448
  41  482.6422
  42  237.4789
  43  271.2021
  44  295.666
  45  147.6905
  46  204.2373
  47  416.4689
  48  857.4509
  49  617.6205
  50  374.5385
  51  384.1109
  52  408.246
  53  539.7534
  54  623.6978
  55  720.4351
  56  472.53
  57  469.5703
  58  653.8538
  59  612.6349
  60  356.3552
  61  203.9554
  62  230.7095
  63  162.7802
  64  300.2586
  65  629.9055
  66  720.1714
  67  666.9296
  68  206.9512
  69  82.56522
  70  168.8747
  71  445.8155
  72  307.0393
  73  175.9445
  74  124.2299
  75  220.4991
  76  14.90332
  77  269.6452
  78  544.8201
  79  627.1924
  80  393.635
  81  665.9341
  82  698.0563
  83  328.9316
  84  396.4132
  85  733.0957
  86  676.0104
  87  498.297
  88  465.8525
  89  349.7765
  90  655.5858
  91  922.1231
  92  1095.178
  93  726.3657
  94  856.4536
  95  729.7051
  96  902.4154
  97  535.2811
  98  351.7489
  99  301.8559
 100  341.932
 101  322.8863
 102  655.0768
 103  572.7111
 104  474.493
 105  469.6077
 106  539.7825
 107  727.4126
 108  523.8192
 109  619.1082
 110  731.8818
 111  580.4615
 112  760.7565
 113  848.4485
 114  636.4966
 115  615.2123
 116  971.6577
 117  1073.868
 118  804.8895
 119  741.8287
 120  359.5645
 121  219.3796
 122  370.5646
 123  661.5844
 124  1021.42
 125  1099.727
 126  680.5284
 127  516.1394
 128  448.6662
 129  451.3498
 130  571.8139
 131  442.2148
 132  629.6735
 133  756.5541
 134  934.5084
 135  1076.808
 136  688.9063
 137  808.9686
 138  669.774
 139  286.4317
 140  209.9293
 141  694.1089
 142  853.3273
 143  803.4099
 144  510.3101
 145  800.6111
 146  837.9375
 147  832.5021
 148  788.9781
 149  975.7921
 150  913.3755
 151  416.0099
 152  703.561
 153  938.9961
 154  870.7411
 155  712.0029
 156  848.2641
 157  905.881
 158  427.1556
 159  451.3891
 160  752.9603
 161  572.0432
 162  848.7084
 163  641.1821
 164  615.329
 165  445.7606
 166  460.9414
 167  378.0616
 168  635.6058
 169  417.905
 170  839.5181
 171  677.8691
 172  416.6031
 173  511.9016
 174  688.8806
 175  1087.164
 176  995.606
 177  853.3611
 178  894.8203
 179  836.049
 180  999.6844
 181  989.5244
 182  881.2252
 183  902.6577
 184  1072.083
 185  1013.157
 186  1144.669
 187  794.8278
 188  543.9878
 189  614.8415
 190  775.0107
 191  1198.96
 192  1431.182
 193  1452.252
 194  1991.74
 195  2341.844
 196  2159.156
 197  1918.771
 198  1696.928
 199  1202.251
 200  851.166
 201  1056.229
 202  1049.777
 203  906.9438
 204  1011.598
 205  855.3457
 206  626.634
 207  422.6401
 208  807.4651
 209  1084.643
 210  759.9033
 211  427.0361
 212  643.0804
 213  497.256
 214  678.0358
 215  965.1002
 216  814.2476
 217  467.9457
 218  310.6884
 219  345.83
 220  484.5203
 221  576.6034
 222  559.317
 223  538.7007
 224  688.637
 225  975.2188
 226  498.9397
 227  363.08
 228  405.9174
 229  851.0862
 230  990.2457
 231  475.9898
 232  321.0134
 233  552.1746
 234  527.8197
 235  444.1241
 236  521.0751
 237  640.5214
 238  419.7128
 239  785.655
 240  888.3965
 241  728.3978
 242  630.3972
 243  394.6121
 244  436.3703
 245  596.575
 246  571.4305
 247  767.1105
 248  1023.132
 249  878.4969
 250  874.9854
 251  1202.456
 252  1098.643
 253  919.9205
 254  968.2758
 255  985.347
 256  749.1801
 257  399.6281
 258  360.1717
 259  644.5056
 260  521.8693
 261  695.2189
 262  262.7912
 263  461.2464
 264  134.0007
 265  468.772
 266  772.9942
 267  780.1449
 268  605.0565
 269  682.0836
 270  759.3139
 271  893.2884
 272  735.6868
 273  807.1006
 274  702.6352
 275  708.0184
 276  721.554
 277  434.1844
 278  520.4813
 279  587.6266
 280  410.817
 281  693.9788
 282  597.8015
 283  389.332
 284  658.4524
 285  478.2594
 286  774.7271
 287  544.9905
 288  452.2773
 289  660.3385
 290  546.3948
 291  369.6709
 292  563.5561
 293  405.1794
 294  391.6754
 295  537.7828
 296  310.8351
 297  500.1047
 298  667.7127
 299  507.9044
 300  865.6201
 301  770.8279
 302  724.2251
 303  912.2321
 304  727.6176
 305  572.3767
 306  408.7232
 307  821.6769
 308  933.8888
 309  782.4232
 310  786.6119
 311  902.4169
 312  1108.833
 313  960.6414
 314  998.9027
 315  978.6138
 316  837.5493
 317  638.093
 318  746.285
 319  461.4545
 320  890.6945
 321  575.8781
 322  529.5659
 323  861.3204
 324  1020.926
 325  926.0423
 326  441.216
 327  923.811
 328  823.4523
 329  764.1312
 330  762.428
 331  1054.488
 332  852.6192
 333  614.3787
 334  795.5446
 335  534.0793
 336  539.5743
 337  393.068
 338  775.5065
 339  863.5239
 340  846.8511
 341  1191.823
 342  1279.719
 343  958.4218
 344  661.7419
 345  616.6223
 346  772.3016
 347  1041.807
 348  856.2636
 349  702.314
 350  766.4016
 351  783.2845
 352  666.0959
 353  577.0907
 354  684.5897
 355  648.7084
 356  766.3407
 357  608.7335
 358  777.4006
 359  1060.046
 360  958.2804
 361  886.879
 362  885.4925
 363  794.6711
 364  321.4645
 365  462.4214
 366  734.6528
 367  509.0518
 368  487.3436
 369  568.8079
 370  438.4578
 371  508.5658
 372  842.2546
 373  460.6246
 374  627.1919
 375  421.5562
 376  676.6385
 377  735.4995
 378  615.275
 379  812.8695
 380  828.6586
 381  1049.229
 382  574.515
 383  459.2791
 384  554.3688
 385  550.5089
 386  588.4951
 387  722.7536
 388  799.752
 389  1066.849
 390  1000.534
 391  791.6308
 392  918.7505
 393  757.2578
 394  524.7095
 395  423.4677
 396  519.502
 397  619.8693
 398  512.104
 399  782.0889
 400  754.5219
 401  487.9917
 402  372.5165
 403  441.1594
 404  369.1685
 405  269.3829
 406  464.9354
 407  851.4352
 408  703.0106
 409  644.2465
 410  653.1085
 411  722.3406
 412  760.4059
 413  504.9687
 414  507.3682
 415  595.7976
 416  890.4739
 417  717.9837
 418  789.6136
 419  675.4018
 420  348.6415
 421  342.0776
 422  373.2556
 423  729.4031
 424  666.6953
 425  448.9709
 426  491.3571
 427  418.4177
 428  686.9216
 429  568.3393
 430  532.8854
 431  600.8151
 432  546.1257
 433  496.954
 434  462.3562
 435  705.256
 436  550.119
 437  492.9911
 438  673.7367
 439  585.6243
 440  305.976
 441  425.4045
 442  610.4675
 443  411.0582
 444  342.6349
 445  589.9846
 446  688.2581
 447  581.5884
 448  595.886
 449  531.9242
 450  536.8368
 451  463.5348
 452  528.2883
 453  424.8293
 454  702.9301
 455  653.1805
 456  852.5945
 457  935.9059
 458  770.0151
 459  648.7999
 460  586.5038
 461  846.7235
 462  801.4075
 463  689.2845
 464  462.4326
 465  262.4216
 466  607.742
 467  665.0848
 468  676.2192
 469  600.4538
 470  655.4595
 471  721.6895
 472  597.9161
 473  325.1407
 474  435.7427
 475  112.1927
 476  449.3286
 477  267.7657
 478  392.6585
 479  382.2403
 480  388.684
 481  485.5893
 482  425.5087
 483  284.0465
 484  564.8248
 485  251.7161
 486  173.6298
 487  415.8492
 488  364.0609
 489  617.675
 490  628.493
 491  625.43
 492  488.9928
 493  426.2517
 494  624.0212
 495  589.925
 496  315.8492
 497  390.8586
 498  877.0148
 499  849.9081
 500  363.4997
 501  465.748
 502  675.384
 503  293.8722
 504  426.8094
 505  304.9731
 506  462.6409
 507  716.8992
 508  544.0627
 509  93.06748
 510  380.3583
 511  574.0849
