# Input file       =  1202308865.112091_cleaned.dat
# Candidate        =  PSR_0332+5434
# Telescope        =  AR
# Epoch_topo       =  58159.612084630680
# Epoch_bary       =  N/A
# T_sample         =  0.002
# Data Folded      =  7340032
# Data Avg         =  0.241688586090666
# Data StdDev      =  5.65685008139194 
# Profile Bins     =  1024
# Profile Avg      =  1732.53039803459 
# Profile StdDev   =  478.931792618834 
# Reduced chi-sqr  =  1.072
# Prob(Noise)      <  0.0552   (~1.6 sigma)
# P_topo (ms)      =  714.579095234424  +/- 0.000684
# P'_topo (s/s)    =  -0                +/- 3.61e-10
# P''_topo (s/s^2) =  0                 +/- 1.59e-13
# P_bary (ms)      =  N/A
# P'_bary (s/s)    =  N/A
# P''_bary (s/s^2) =  N/A
# P_orb (s)        =  N/A
# asin(i)/c (s)    =  N/A
# eccentricity     =  N/A
# w (rad)          =  N/A
# T_peri           =  N/A
######################################################
   0  1634.172
   1  1690.009
   2  1663.599
   3  1362.615
   4  1159.555
   5  939.4986
   6  1003.125
   7  1192.677
   8  1255.535
   9  1293.731
  10  1351.104
  11  1240.449
  12  1298.668
  13  1428.545
  14  1582.73
  15  1630.485
  16  1567.471
  17  1537.443
  18  1514.723
  19  1514.156
  20  1496.772
  21  1482.117
  22  1465.528
  23  1431.935
  24  1458.11
  25  1431.385
  26  1321.774
  27  1289.442
  28  1499.221
  29  1541.247
  30  1455.422
  31  1434.734
  32  1375.788
  33  1382.453
  34  1387.179
  35  1367.841
  36  1460.518
  37  1460.887
  38  1620.352
  39  1619.636
  40  1612.025
  41  1545.103
  42  1492.229
  43  1726.042
  44  1651.808
  45  1596.329
  46  1568.323
  47  1573.199
  48  1625.747
  49  1792.071
  50  1908.96
  51  1756.628
  52  1704.705
  53  1657.916
  54  1748.295
  55  1661.657
  56  1619.389
  57  1437.83
  58  1354.948
  59  1346.677
  60  1418.804
  61  1480.515
  62  1534.308
  63  1507.612
  64  1561.665
  65  1597.271
  66  1466.183
  67  1525.876
  68  1479.693
  69  1442.376
  70  1343.128
  71  1214.319
  72  1271.689
  73  1192.01
  74  1365.965
  75  1455.805
  76  1438.182
  77  1305.552
  78  1216.851
  79  1212.523
  80  1166.527
  81  1197.005
  82  1329.528
  83  1285.823
  84  1172.258
  85  1438.893
  86  1548.18
  87  1394.259
  88  1053.958
  89  1064.552
  90  1218.168
  91  1295.271
  92  1236.318
  93  1183.319
  94  1154.66
  95  1175.746
  96  1221.386
  97  1291.742
  98  1325.786
  99  1211.46
 100  1186.153
 101  1266.496
 102  1275.519
 103  1350.83
 104  1149.778
 105  1111.22
 106  1135.715
 107  1151.863
 108  1240.82
 109  1387.342
 110  1386.621
 111  1218.306
 112  1125.873
 113  1277.621
 114  1513.805
 115  1552.673
 116  1516.594
 117  1507.268
 118  1374.609
 119  1458.869
 120  1419.473
 121  1480.799
 122  1448.647
 123  1323.898
 124  1391.91
 125  1268.885
 126  1243.994
 127  1426.186
 128  1492.8
 129  1531.614
 130  1288.68
 131  1292.201
 132  1220.545
 133  1159.899
 134  1080.495
 135  1284.883
 136  1358.825
 137  1472.873
 138  1449.198
 139  1518.785
 140  1590.14
 141  1543.782
 142  1593.693
 143  1640.323
 144  1618.241
 145  1608.391
 146  1677.975
 147  1532.378
 148  1496.12
 149  1454.385
 150  1571.035
 151  1692.078
 152  1642.232
 153  1782.229
 154  1631.34
 155  1468.987
 156  1454.23
 157  1536.214
 158  1755.562
 159  1729.413
 160  1803.497
 161  1883.222
 162  1723.365
 163  1540.275
 164  1609.569
 165  1742.82
 166  1846.603
 167  1790.195
 168  1803.427
 169  1601.035
 170  1515.447
 171  1560.558
 172  1638.322
 173  1677.762
 174  1668.992
 175  1678.65
 176  1613.027
 177  1488.097
 178  1426.512
 179  1499.122
 180  1609.972
 181  1516.332
 182  1552.146
 183  1509.705
 184  1487.145
 185  1460.156
 186  1500.51
 187  1680.11
 188  1651.401
 189  1680.64
 190  1627.834
 191  1550.929
 192  1463.515
 193  1357.915
 194  1422.563
 195  1670.751
 196  1692.337
 197  1591.648
 198  1488.715
 199  1597.349
 200  1801.099
 201  1733.148
 202  1636.162
 203  1750.017
 204  1862.928
 205  1812.706
 206  1682.028
 207  1676.338
 208  1800.889
 209  1825.822
 210  2007.765
 211  1909.789
 212  1799.812
 213  1783.334
 214  1801.651
 215  1879.09
 216  1852.6
 217  1804.98
 218  1795.825
 219  1783.428
 220  1716.479
 221  1812.656
 222  1879.266
 223  2053.743
 224  1933.675
 225  1849.507
 226  1824.283
 227  1844.895
 228  1927.138
 229  1903.106
 230  1741.65
 231  1740.41
 232  1758.154
 233  1870.066
 234  1890.717
 235  1879.257
 236  1864.693
 237  1859.269
 238  1846.5
 239  1873.169
 240  1906.523
 241  1825.303
 242  1678.059
 243  1604.053
 244  1690.518
 245  1757.816
 246  1709.835
 247  1667.778
 248  1625.783
 249  1841.202
 250  1858.173
 251  1794.962
 252  1681.528
 253  1643.257
 254  1679.236
 255  1779.801
 256  1756.653
 257  1701.632
 258  1782.722
 259  1794.657
 260  1740.007
 261  1587.64
 262  1635.384
 263  1734.375
 264  1810.488
 265  1932.347
 266  1926.803
 267  1987.57
 268  2011.922
 269  1877.48
 270  2045.983
 271  2034.704
 272  2036.478
 273  1859.323
 274  1817.592
 275  1943.301
 276  1995.693
 277  1937.055
 278  1891.581
 279  1839.776
 280  1941.117
 281  1899.257
 282  1891.798
 283  1902.048
 284  1901.915
 285  1956.779
 286  1931.251
 287  1908.978
 288  1976.049
 289  2080.689
 290  2209.352
 291  2234.697
 292  2154.474
 293  1992.213
 294  1950.344
 295  1866.312
 296  1750.78
 297  1741.69
 298  1753.161
 299  1854.739
 300  1967.293
 301  1883.493
 302  1792.206
 303  1662.822
 304  1763.613
 305  1756.342
 306  1747.691
 307  1719.833
 308  1726.577
 309  1844.651
 310  1864.741
 311  1699.481
 312  1692.936
 313  1650.985
 314  1653.999
 315  1830.697
 316  1747.632
 317  1763.321
 318  1660.559
 319  1741.352
 320  1690.476
 321  1720.498
 322  1920.376
 323  2029.969
 324  2029.915
 325  2004.999
 326  1896.465
 327  1994.573
 328  1994.6
 329  1945.057
 330  1855.78
 331  1905.387
 332  1838.423
 333  1798.324
 334  1665.831
 335  1457.605
 336  1568.437
 337  1765.431
 338  1859.169
 339  1730.875
 340  1718.831
 341  1748.626
 342  1691.47
 343  1765.067
 344  1818.651
 345  1825.767
 346  1849.552
 347  1908.308
 348  1923.688
 349  1875.329
 350  1743.693
 351  1725.869
 352  1751.94
 353  1719.175
 354  1516.164
 355  1321.652
 356  1359.015
 357  1494.505
 358  1702.629
 359  1766.35
 360  1750.731
 361  1807.55
 362  1867.991
 363  1776.647
 364  1657.357
 365  1673.735
 366  1613.976
 367  1618.524
 368  1565.052
 369  1668.036
 370  1715.611
 371  1749.459
 372  1719.228
 373  1680.701
 374  1793.648
 375  1716.065
 376  1769.135
 377  1759.076
 378  1781.383
 379  1880.882
 380  2028.046
 381  1916.385
 382  2007.169
 383  1917.217
 384  1870.643
 385  1908.268
 386  1979.617
 387  1917.812
 388  1933.51
 389  2047.601
 390  2145.923
 391  2014.564
 392  1974.521
 393  1899.211
 394  1844.333
 395  1939.711
 396  2045.972
 397  2176.088
 398  2210.138
 399  2170.909
 400  2099.834
 401  2135.28
 402  2031.462
 403  2052.556
 404  2160.06
 405  2158.167
 406  2174.909
 407  2089.9
 408  2097.424
 409  2166.905
 410  2123.647
 411  2155.955
 412  1901.486
 413  1916.021
 414  1876.536
 415  1964.799
 416  1984.19
 417  1881.356
 418  1795.912
 419  1846.904
 420  1893.349
 421  2087.194
 422  2069.495
 423  1915.318
 424  1833.333
 425  2007.423
 426  2118.656
 427  2156.654
 428  2001.379
 429  1924.17
 430  1881.845
 431  1897.293
 432  2025.495
 433  1948.214
 434  1931.363
 435  1820.789
 436  1949.172
 437  2064.913
 438  2067.542
 439  2010.688
 440  2070.326
 441  1958.288
 442  1952.052
 443  1889.828
 444  1926.027
 445  2121.181
 446  2140.164
 447  2202.539
 448  1994.991
 449  1877.239
 450  1836.249
 451  1921.527
 452  1953.637
 453  1907.467
 454  1934.718
 455  2013.699
 456  1982.35
 457  1916.707
 458  1955.536
 459  1958.03
 460  1944.109
 461  1854.711
 462  1921.104
 463  1825.431
 464  1801.933
 465  1693.982
 466  1659.717
 467  1401.335
 468  1335.485
 469  1420.483
 470  1509.6
 471  1545.125
 472  1549.809
 473  1663.696
 474  1475.323
 475  1381.857
 476  1360.337
 477  1358.205
 478  1352.894
 479  1368.361
 480  1315.575
 481  1353.888
 482  1420.562
 483  1599.152
 484  1647.766
 485  1590.654
 486  1516.309
 487  1517.949
 488  1668.874
 489  1644.032
 490  1649.823
 491  1572.666
 492  1745.538
 493  1884.539
 494  2083.326
 495  2064.205
 496  1926.399
 497  1878.34
 498  1755.197
 499  1727.186
 500  1729.273
 501  1739.062
 502  1651.024
 503  1385.106
 504  1323.772
 505  1433.497
 506  1512.885
 507  1493.127
 508  1426.167
 509  1634.87
 510  1759.165
 511  1797.584
 512  1836.037
 513  1945.076
 514  1855.946
 515  1758.434
 516  1711.887
 517  1673.576
 518  1708.843
 519  1796.266
 520  1923.518
 521  1828.791
 522  1734.736
 523  1799.415
 524  1934.296
 525  1842.519
 526  1745.318
 527  1583.008
 528  1581.241
 529  1499.961
 530  1728.273
 531  2014.14
 532  1951.912
 533  1859.223
 534  1683.226
 535  1563.566
 536  1504.353
 537  1549.835
 538  1847.496
 539  1869.734
 540  1831.871
 541  1675.612
 542  1632.513
 543  1694.862
 544  1722.59
 545  1643.293
 546  1681.23
 547  1712.196
 548  1715.587
 549  1780.862
 550  1848.903
 551  1898.262
 552  1851.163
 553  1674.655
 554  1435.497
 555  1349.257
 556  1550.614
 557  1738.379
 558  1748.646
 559  1648.024
 560  1591.606
 561  1477.561
 562  1509.489
 563  1411.243
 564  1518.59
 565  1680.016
 566  1850.08
 567  1854.447
 568  1675.492
 569  1582.727
 570  1627.153
 571  1678.98
 572  1840.788
 573  1791.002
 574  1719.716
 575  1677.613
 576  1830.609
 577  1884.093
 578  1809.697
 579  1594.143
 580  1701.033
 581  1672.853
 582  1754.746
 583  1863.982
 584  1786.033
 585  1811
 586  1694.681
 587  1761.857
 588  1907.019
 589  1902.07
 590  1833.136
 591  1741.141
 592  1583.825
 593  1606.545
 594  1897.584
 595  2221.851
 596  2123.178
 597  1951.734
 598  2050.745
 599  2006.803
 600  1962.446
 601  1932.357
 602  2011.949
 603  1985.708
 604  2093.441
 605  2154.43
 606  2216.177
 607  2309.06
 608  2380.14
 609  2546.969
 610  2752.404
 611  2865.486
 612  2912.17
 613  2813.43
 614  2837.75
 615  2779.637
 616  2805.383
 617  2633.207
 618  2594.737
 619  2661.587
 620  2650.745
 621  2523.076
 622  2470.55
 623  2402.091
 624  2283.498
 625  2382.092
 626  2409.956
 627  2515.193
 628  2428.09
 629  2456.161
 630  2282.642
 631  2220.837
 632  2171.43
 633  2221.515
 634  2281.395
 635  2215.326
 636  2164.932
 637  2227.372
 638  2074.161
 639  1832.906
 640  1709.945
 641  1826.327
 642  1917.986
 643  2052.648
 644  1976.251
 645  1984.418
 646  1970.638
 647  2051.661
 648  2023.444
 649  1935.663
 650  1972.966
 651  1954.346
 652  1845.064
 653  1744.2
 654  1636.302
 655  1648.941
 656  1715.645
 657  1766.891
 658  1854.7
 659  1984.483
 660  1961.334
 661  1974.778
 662  1888.063
 663  2004.119
 664  2011.934
 665  1937.552
 666  2015.562
 667  2024.484
 668  1904.853
 669  1855.245
 670  1901.549
 671  2146.814
 672  2021.719
 673  2016.944
 674  2048.856
 675  2159.203
 676  2023.826
 677  1985.563
 678  1792.779
 679  1926.44
 680  1875.152
 681  2032.703
 682  1985.164
 683  1983.773
 684  2008.513
 685  1819.229
 686  1672.974
 687  1746.296
 688  1870.897
 689  1844.475
 690  1891.392
 691  1855.899
 692  1867.721
 693  1786.002
 694  1891.46
 695  1926.788
 696  1894.86
 697  1824.899
 698  1802.011
 699  1730.288
 700  1668.59
 701  1544.401
 702  1615.061
 703  1886.151
 704  2026.736
 705  1956.152
 706  1847.702
 707  1757.124
 708  1854.18
 709  1852.009
 710  1760.493
 711  1751.171
 712  1789.747
 713  1818.066
 714  1739.895
 715  1695.11
 716  1711.472
 717  1542.686
 718  1519.943
 719  1658.879
 720  1804.941
 721  1849.774
 722  1782.609
 723  1736.358
 724  1686.357
 725  1655.934
 726  1691.68
 727  1682.18
 728  1724.113
 729  1807.061
 730  1779.688
 731  1827.772
 732  1802.295
 733  1725.065
 734  1830.381
 735  1796.455
 736  1928.102
 737  1801.712
 738  1757.928
 739  1716.24
 740  1806.065
 741  1736.326
 742  1732.929
 743  1722.707
 744  1874.364
 745  2035.63
 746  2097.488
 747  2227.496
 748  2264.787
 749  2183.596
 750  2128.399
 751  2021.726
 752  1895.907
 753  1778.083
 754  1616.234
 755  1827.496
 756  1795.167
 757  1914.898
 758  1812.511
 759  1982.878
 760  2076.585
 761  2199.594
 762  2123.805
 763  2093.878
 764  2030.585
 765  2028.015
 766  1902.225
 767  1940.003
 768  1915.92
 769  1881.496
 770  1920.874
 771  2080.776
 772  2208.346
 773  2227.241
 774  2175.739
 775  2117.282
 776  2102.302
 777  1910.014
 778  1963.905
 779  1898.341
 780  1953.489
 781  1857.5
 782  1895.662
 783  1925.548
 784  2013.221
 785  2047.228
 786  2125.419
 787  2018.952
 788  1998.976
 789  1895.662
 790  1964.648
 791  2033.614
 792  2127.662
 793  2182.49
 794  2220.429
 795  2173.811
 796  2020.62
 797  1860.405
 798  1730.064
 799  1671.312
 800  1834.829
 801  1861.732
 802  1989.024
 803  1922.257
 804  2026.063
 805  1960.189
 806  1994.005
 807  2010.52
 808  1903.168
 809  1877.034
 810  1880.03
 811  1733.836
 812  1716.222
 813  1759.455
 814  1733.566
 815  1674.97
 816  1688.468
 817  1799.676
 818  1747.821
 819  1693.907
 820  1629.733
 821  1803.497
 822  1926.127
 823  1932.196
 824  1812.891
 825  1703.674
 826  1599.612
 827  1616.895
 828  1646.651
 829  1726.87
 830  1819.812
 831  2030.117
 832  2066.261
 833  1982.155
 834  1873.816
 835  1828.469
 836  1818.932
 837  1917.649
 838  1795.216
 839  1646.952
 840  1499.506
 841  1731.929
 842  1717.97
 843  1753.113
 844  1497.552
 845  1480.397
 846  1607.06
 847  1759.645
 848  1872.104
 849  1912.743
 850  1779.377
 851  1875.473
 852  2007.3
 853  1915.431
 854  1818.52
 855  1612.447
 856  1622.337
 857  1497.164
 858  1557.429
 859  1630.121
 860  1743.449
 861  1675.05
 862  1739.731
 863  1632.392
 864  1727.22
 865  1643.018
 866  1659.215
 867  1597.782
 868  1519.921
 869  1481.707
 870  1511.092
 871  1425.185
 872  1522.913
 873  1535.72
 874  1620.664
 875  1502.208
 876  1461.228
 877  1485.679
 878  1595.271
 879  1667.223
 880  1827.13
 881  1718.078
 882  1626.442
 883  1527.188
 884  1419.275
 885  1357.718
 886  1392.198
 887  1439.665
 888  1487.489
 889  1392.728
 890  1404.96
 891  1501.554
 892  1367.925
 893  1414.179
 894  1365.498
 895  1472.845
 896  1536.667
 897  1515.389
 898  1667.651
 899  1569.213
 900  1565.769
 901  1549.525
 902  1471.639
 903  1384.456
 904  1451.514
 905  1503.618
 906  1723.574
 907  1736.07
 908  1791.896
 909  1861.094
 910  2045.965
 911  2001.928
 912  1906.625
 913  1915.771
 914  1976.123
 915  1774.302
 916  1706.858
 917  1744.473
 918  1788.982
 919  1763.632
 920  1765.943
 921  1915.856
 922  1966.449
 923  1867.364
 924  1833.114
 925  1826.013
 926  1692.065
 927  1636.895
 928  1583.356
 929  1691.021
 930  1707.139
 931  1802.418
 932  1768.212
 933  1699.764
 934  1607.219
 935  1648.767
 936  1598.325
 937  1489.469
 938  1341.075
 939  1148.768
 940  1372.329
 941  1418.181
 942  1546.119
 943  1601.751
 944  1584.223
 945  1564.088
 946  1506.277
 947  1466.289
 948  1457.568
 949  1381.435
 950  1411.146
 951  1516.148
 952  1657.606
 953  1664.615
 954  1642.422
 955  1661.232
 956  1653.17
 957  1464.602
 958  1417.865
 959  1475.921
 960  1472.333
 961  1421.947
 962  1371.951
 963  1415.31
 964  1390.734
 965  1380.651
 966  1525.091
 967  1619.834
 968  1563.267
 969  1437.024
 970  1273.696
 971  1265.299
 972  1306.128
 973  1499.262
 974  1655.449
 975  1574.72
 976  1514.028
 977  1474.591
 978  1441.068
 979  1574.617
 980  1508.752
 981  1506.85
 982  1436.697
 983  1536.081
 984  1543.043
 985  1513.282
 986  1463.915
 987  1455.207
 988  1473.386
 989  1472.765
 990  1490.819
 991  1426.399
 992  1403.274
 993  1520.148
 994  1589.596
 995  1504.528
 996  1421.548
 997  1398.442
 998  1359.063
 999  1386.49
1000  1492.825
1001  1591.999
1002  1546.033
1003  1667.014
1004  1586.875
1005  1471.211
1006  1336.734
1007  1489.387
1008  1455.594
1009  1274.428
1010  1357.509
1011  1462.3
1012  1430.882
1013  1286.311
1014  1137.089
1015  1227.809
1016  1213.908
1017  1363.391
1018  1435.103
1019  1609.42
1020  1535.928
1021  1618.114
1022  1460.439
1023  1561.903
