# Input file       =  1202237599.111301_cleaned.dat
# Candidate        =  PSR_0332+5434
# Telescope        =  AR
# Epoch_topo       =  58158.787246658576
# Epoch_bary       =  N/A
# T_sample         =  0.002
# Data Folded      =  7340032
# Data Avg         =  0.0443446181598119
# Data StdDev      =  3.19223967643879 
# Profile Bins     =  512
# Profile Avg      =  635.795985639731 
# Profile StdDev   =  382.216549302402 
# Reduced chi-sqr  =  0.961
# Prob(Noise)      <  0.731   (~0.0 sigma)
# P_topo (ms)      =  714.579219038773  +/- 0.000324
# P'_topo (s/s)    =  -0                +/- 1.71e-10
# P''_topo (s/s^2) =  0                 +/- 7.55e-14
# P_bary (ms)      =  N/A
# P'_bary (s/s)    =  N/A
# P''_bary (s/s^2) =  N/A
# P_orb (s)        =  N/A
# asin(i)/c (s)    =  N/A
# eccentricity     =  N/A
# w (rad)          =  N/A
# T_peri           =  N/A
######################################################
   0  388.3257
   1  402.9252
   2  431.5653
   3  318.2128
   4  305.8927
   5  652.7281
   6  833.1379
   7  639.5999
   8  669.5224
   9  666.6653
  10  801.9279
  11  638.8361
  12  481.583
  13  496.1274
  14  741.6181
  15  860.6667
  16  699.4883
  17  850.3339
  18  457.7921
  19  399.5989
  20  301.4727
  21  505.077
  22  758.1561
  23  509.225
  24  488.8174
  25  449.6422
  26  511.7424
  27  714.9088
  28  519.8867
  29  554.3582
  30  617.188
  31  475.3403
  32  492.6649
  33  505.4474
  34  711.9528
  35  465.6547
  36  587.9641
  37  681.6554
  38  487.6604
  39  262.1533
  40  576.1028
  41  552.9
  42  341.2289
  43  440.8361
  44  605.6967
  45  715.7927
  46  519.9829
  47  610.0967
  48  486.9202
  49  533.3133
  50  496.0779
  51  502.2812
  52  505.5398
  53  698.7681
  54  708.4304
  55  902.1428
  56  910.6035
  57  671.5971
  58  641.3806
  59  655.1248
  60  928.0379
  61  722.3281
  62  623.3696
  63  310.4657
  64  361.4483
  65  704.4067
  66  674.5804
  67  660.4966
  68  579.855
  69  672.4655
  70  735.2539
  71  413.6848
  72  452.1997
  73  231.0974
  74  221.8544
  75  430.3626
  76  272.9265
  77  469.8116
  78  350.0408
  79  451.4506
  80  414.7945
  81  374.8658
  82  321.3213
  83  570.7189
  84  108.1975
  85  325.7912
  86  384.4007
  87  468.1032
  88  642.1991
  89  637.6102
  90  593.5208
  91  429.7435
  92  437.9543
  93  691.7477
  94  455.5916
  95  333.1823
  96  576.7696
  97  949.8911
  98  642.616
  99  327.4332
 100  597.2458
 101  544.0449
 102  284.7567
 103  431.3333
 104  285.9546
 105  616.8661
 106  744.4268
 107  304.9764
 108  127.0003
 109  479.9885
 110  613.9128
 111  614.1926
 112  676.838
 113  554.3851
 114  703.6448
 115  523.2315
 116  367.0224
 117  312.4928
 118  259.6899
 119  336.1736
 120  318.6128
 121  331.0299
 122  341.2564
 123  446.1086
 124  494.5334
 125  332.1811
 126  211.8037
 127  691.7509
 128  983.3147
 129  923.0616
 130  404.981
 131  849.1368
 132  505.2668
 133  294.8852
 134  569.4375
 135  642.7766
 136  774.981
 137  699.6906
 138  703.0114
 139  476.284
 140  674.2148
 141  884.0258
 142  565.874
 143  493.6702
 144  753.4767
 145  191.4029
 146  102.2021
 147  428.0358
 148  421.8586
 149  266.6843
 150  304.9775
 151  555.2617
 152  354.0151
 153  221.2628
 154  351.6271
 155  205.2958
 156  153.525
 157  243.3855
 158  643.588
 159  814.8103
 160  504.8307
 161  335.7821
 162  395.5572
 163  498.4557
 164  512.5116
 165  702.8898
 166  612.7239
 167  416.6688
 168  572.3706
 169  676.2057
 170  539.5057
 171  243.6908
 172  235.6145
 173  177.998
 174  192.206
 175  407.2566
 176  709.7355
 177  709.7994
 178  533.4308
 179  108.3597
 180  103.9142
 181  316.0935
 182  368.8109
 183  292.5176
 184  87.56869
 185  220.4327
 186  83.89266
 187  98.68929
 188  398.6472
 189  669.6678
 190  432.006
 191  510.514
 192  723.4565
 193  622.2722
 194  207.723
 195  603.8851
 196  718.5014
 197  599.6017
 198  455.4642
 199  396.5862
 200  424.2743
 201  814.4587
 202  989.4193
 203  1015.797
 204  714.3458
 205  905.4095
 206  706.5786
 207  900.0472
 208  313.6834
 209  393.1932
 210  276.7954
 211  343.4039
 212  405.9421
 213  709.8687
 214  477.3002
 215  508.469
 216  437.5991
 217  651.8847
 218  662.8762
 219  512.7159
 220  662.9572
 221  707.6608
 222  595.8029
 223  909.5457
 224  745.6281
 225  562.616
 226  726.2021
 227  1088.247
 228  969.2076
 229  785.4927
 230  586.5638
 231  300.8787
 232  225.326
 233  486.6039
 234  773.9647
 235  1154.705
 236  926.4482
 237  573.2186
 238  480.1149
 239  444.2949
 240  510.8531
 241  494.0786
 242  531.1321
 243  696.515
 244  821.7396
 245  996.772
 246  977.6367
 247  620.2807
 248  886.3528
 249  499.9859
 250  158.1254
 251  426.8629
 252  760.2847
 253  944.4369
 254  569.5835
 255  642.1339
 256  827.2736
 257  810.6373
 258  852.7037
 259  823.0749
 260  1040.81
 261  662.7477
 262  463.2943
 263  867.8127
 264  946.1821
 265  752.3623
 266  755.5432
 267  914.062
 268  765.4668
 269  260.715
 270  714.8723
 271  622.0337
 272  721.4271
 273  769.2003
 274  633.4427
 275  542.113
 276  450.1215
 277  398.6463
 278  497.8756
 279  524.794
 280  543.0393
 281  864.1137
 282  563.1201
 283  423.5754
 284  534.0975
 285  855.4498
 286  1101.236
 287  953.5379
 288  843.5894
 289  882.8275
 290  896.5612
 291  1018.587
 292  952.3099
 293  869.0705
 294  953.3848
 295  1049.591
 296  1061.459
 297  1086.286
 298  628.498
 299  570.5925
 300  642.118
 301  960.1848
 302  1339.636
 303  1407.934
 304  1585.921
 305  2233.209
 306  2296.568
 307  2080.609
 308  1796.987
 309  1545.98
 310  955.7986
 311  904.7931
 312  1133.22
 313  964.7907
 314  1003.643
 315  951.4855
 316  770.7355
 317  514.022
 318  494.4505
 319  999.5936
 320  1013.385
 321  551.4732
 322  486.4117
 323  612.7357
 324  512.351
 325  829.0741
 326  954.8362
 327  621.26
 328  403.7755
 329  320.4638
 330  418.4609
 331  541.0219
 332  583.4036
 333  502.1622
 334  593.8129
 335  804.5179
 336  896.4227
 337  355.1985
 338  381.0564
 339  531.0372
 340  991.4803
 341  802.8757
 342  333.0789
 343  459.5805
 344  580.1196
 345  498.1976
 346  405.3258
 347  600.8625
 348  539.4781
 349  537.0209
 350  856.6436
 351  832.2661
 352  713.9432
 353  497.7545
 354  404.4127
 355  484.6577
 356  641.0684
 357  554.4648
 358  937.0439
 359  978.3142
 360  826.9662
 361  992.1414
 362  1217.22
 363  1006.777
 364  938.1613
 365  1001.25
 366  936.4498
 367  592.6559
 368  301.376
 369  522.4223
 370  567.514
 371  628.8611
 372  507.2887
 373  316.245
 374  344.1544
 375  224.0391
 376  639.7636
 377  837.8456
 378  650.8134
 379  625.8315
 380  708.6525
 381  848.1653
 382  815.9882
 383  805.6967
 384  732.515
 385  712.2866
 386  710.6547
 387  638.614
 388  382.6681
 389  611.7787
 390  498.0876
 391  463.382
 392  737.049
 393  448.3102
 394  528.6542
 395  620.215
 396  531.3112
 397  813.8381
 398  411.8271
 399  557.6983
 400  595.3486
 401  471.7195
 402  430.0875
 403  579.2172
 404  331.1344
 405  444.6762
 406  528.4355
 407  235.6314
 408  695.701
 409  524.1743
 410  652.6672
 411  871.8979
 412  735.5692
 413  769.5277
 414  939.8367
 415  638.4034
 416  476.1282
 417  485.9821
 418  976.5411
 419  836.7447
 420  841.5125
 421  724.5528
 422  1025.013
 423  1060.906
 424  953.2898
 425  1057.39
 426  909.1971
 427  746.0404
 428  633.9822
 429  698.509
 430  536.8143
 431  945.9528
 432  398.7246
 433  738.5187
 434  892.8391
 435  1061.942
 436  686.8093
 437  550.1224
 438  974.6569
 439  754.3945
 440  778.5922
 441  850.7513
 442  1055.988
 443  694.756
 444  683.8596
 445  702.103
 446  529.8376
 447  446.7616
 448  529.081
 449  894.796
 450  820.6682
 451  942.3019
 452  1306.686
 453  1134.137
 454  870.999
 455  576.314
 456  681.304
 457  884.9326
 458  1026.073
 459  741.1408
 460  758.1167
 461  749.1132
 462  764.4795
 463  580.1377
 464  640.4491
 465  664.9659
 466  683.4321
 467  784.0673
 468  578.3403
 469  957.3555
 470  1022.437
 471  907.421
 472  878.9055
 473  865.6519
 474  618.6167
 475  297.4478
 476  663.4919
 477  625.6235
 478  463.6289
 479  493.6748
 480  538.8297
 481  420.351
 482  684.8883
 483  717.46
 484  492.1606
 485  594.5439
 486  479.3852
 487  750.7715
 488  700.5554
 489  634.6904
 490  827.4667
 491  880.9846
 492  914.7955
 493  513.2792
 494  474.994
 495  610.2699
 496  507.014
 497  679.8162
 498  726.7533
 499  928.9619
 500  1060.729
 501  881.148
 502  829.5704
 503  883.9988
 504  691.6542
 505  459.6107
 506  411.539
 507  601.8884
 508  554.2919
 509  590.1115
 510  838.5859
 511  652.4275
