# Input file       =  1202136489.108346_cleaned.dat
# Candidate        =  PSR_0332+5434
# Telescope        =  AR
# Epoch_topo       =  58157.616991994742
# Epoch_bary       =  N/A
# T_sample         =  0.002
# Data Folded      =  7340032
# Data Avg         =  0.21085366684773 
# Data StdDev      =  9.05770412921417 
# Profile Bins     =  1024
# Profile Avg      =  1511.44914385169 
# Profile StdDev   =  766.861842403313 
# Reduced chi-sqr  =  0.467
# Prob(Noise)      <  1   (~0.0 sigma)
# P_topo (ms)      =  714.578561526973  +/- 0.000596
# P'_topo (s/s)    =  -0                +/- 3.14e-10
# P''_topo (s/s^2) =  0                 +/- 1.39e-13
# P_bary (ms)      =  N/A
# P'_bary (s/s)    =  N/A
# P''_bary (s/s^2) =  N/A
# P_orb (s)        =  N/A
# asin(i)/c (s)    =  N/A
# eccentricity     =  N/A
# w (rad)          =  N/A
# T_peri           =  N/A
######################################################
   0  1956.622
   1  2074.095
   2  1907.74
   3  1742.423
   4  1589.766
   5  1533.889
   6  1752.235
   7  1870.986
   8  1736.16
   9  1809.545
  10  1607.778
  11  1685.469
  12  1589.669
  13  1644.892
  14  1772.921
  15  1781.333
  16  1845.01
  17  1798.415
  18  1547.067
  19  1591.234
  20  1518.228
  21  1250.282
  22  1124.745
  23  1207.697
  24  1370.74
  25  1509.252
  26  1317.541
  27  1470.064
  28  1334.14
  29  1454.235
  30  1786.542
  31  1721.623
  32  1623.615
  33  1516.752
  34  1597.165
  35  1659.823
  36  1401.096
  37  1485.725
  38  1767.544
  39  1793.827
  40  1729.536
  41  1656.265
  42  1629.622
  43  1603.714
  44  1520.279
  45  1769.001
  46  2055.906
  47  2026.275
  48  2007.36
  49  1787.813
  50  1782.283
  51  2241.337
  52  2378.113
  53  1967.175
  54  1244.531
  55  1182.943
  56  1438.59
  57  1203.043
  58  1212.195
  59  1338.427
  60  1611.699
  61  1807.148
  62  1734.628
  63  1618.972
  64  1576.201
  65  1602.337
  66  1730.731
  67  1544.71
  68  1469.08
  69  1588.873
  70  1529.383
  71  1539.399
  72  1434.197
  73  1483.071
  74  1629.343
  75  1680.331
  76  1837.379
  77  1712.622
  78  1651.23
  79  1646.632
  80  2127.971
  81  2293.041
  82  2137.052
  83  1883.422
  84  1803.689
  85  1911.587
  86  1894.367
  87  2025.703
  88  1948.22
  89  1792.682
  90  1838.25
  91  1719.431
  92  1847.859
  93  1685.79
  94  1337.705
  95  1386.638
  96  1056.087
  97  1180.537
  98  1261.628
  99  1468.619
 100  1587.912
 101  1159.704
 102  1198.82
 103  986.3444
 104  937.7329
 105  1219.476
 106  1367.058
 107  1344.946
 108  1450.162
 109  1560.344
 110  1528.931
 111  1416.318
 112  1327.694
 113  1537.148
 114  1404.888
 115  1323.737
 116  1641.502
 117  1656.998
 118  1563.474
 119  1388.07
 120  1367.02
 121  1395.65
 122  1215.497
 123  1264.951
 124  1476.167
 125  1227.037
 126  1189.491
 127  1102.799
 128  1320.505
 129  1402.759
 130  1332.016
 131  1514.587
 132  1825.453
 133  1800.572
 134  1635.52
 135  1461.779
 136  1407.616
 137  1416.183
 138  1479.323
 139  1557.317
 140  1481.975
 141  1524.243
 142  1723.146
 143  1554.048
 144  1468.109
 145  1469.898
 146  1643.573
 147  1787.181
 148  1547.907
 149  1832.102
 150  1932.477
 151  1965.227
 152  2120.422
 153  2327.49
 154  2364.964
 155  2030.131
 156  1768.652
 157  1406.018
 158  1260.606
 159  1357.659
 160  1701.176
 161  1633.945
 162  1661.554
 163  1900.707
 164  2000.452
 165  1788.719
 166  1628.371
 167  1696.251
 168  1689.011
 169  1154.353
 170  1101.018
 171  1196.743
 172  1029.275
 173  1279.885
 174  1702.039
 175  1843.973
 176  1414.437
 177  1214.862
 178  1340.663
 179  1439.255
 180  1644.783
 181  1931.639
 182  1819.243
 183  1883.203
 184  1823.491
 185  1565.523
 186  1320.883
 187  1143.628
 188  1375.433
 189  1567.379
 190  1298.422
 191  1225.181
 192  1033.938
 193  1056.479
 194  1431.585
 195  1787.996
 196  2090.296
 197  1695.928
 198  1449.247
 199  1447.196
 200  1301.396
 201  1485.326
 202  1887.778
 203  2177.74
 204  1989.142
 205  1488.765
 206  1255.395
 207  1563.805
 208  1766.933
 209  1903.8
 210  1922.822
 211  1874.629
 212  1942.518
 213  1938.068
 214  1849.054
 215  1900.997
 216  1854.645
 217  2099.859
 218  1897.005
 219  1744.781
 220  1508.883
 221  1774.371
 222  1882.142
 223  2264.224
 224  2093.254
 225  1881.945
 226  1684.291
 227  1776.479
 228  1903.056
 229  1663.844
 230  1798.827
 231  1869.647
 232  1780.295
 233  1877.118
 234  1720.957
 235  1805.209
 236  1820.721
 237  1701.92
 238  1713.509
 239  1442.709
 240  1196.79
 241  1265.969
 242  1251.636
 243  1347.222
 244  1444.974
 245  1438.9
 246  1466.097
 247  1211.034
 248  1250.688
 249  1297.141
 250  1330.786
 251  1331.297
 252  1206.371
 253  1162.778
 254  1261.882
 255  1307.185
 256  1417.967
 257  1482.356
 258  1260.836
 259  1322.428
 260  1414.191
 261  1702.036
 262  1539.038
 263  1377.81
 264  1456.652
 265  1435.642
 266  1334.918
 267  1334.727
 268  1117.961
 269  1315.959
 270  1325.834
 271  1277.391
 272  1157.819
 273  1045.673
 274  1124.446
 275  959.5182
 276  718.7112
 277  1086.54
 278  1310.038
 279  1494.977
 280  1577.181
 281  1847.639
 282  1991.261
 283  1662.001
 284  1237.432
 285  1309.471
 286  1227.536
 287  1019.309
 288  1222.289
 289  1299.616
 290  1432.751
 291  1194.138
 292  1233.19
 293  1388.855
 294  1300.942
 295  1454.206
 296  1710.532
 297  1626.811
 298  1261.255
 299  1090.994
 300  1194.009
 301  1255.116
 302  1115.154
 303  1201.691
 304  1309.753
 305  1275.124
 306  1580.268
 307  1715.655
 308  1611.904
 309  1678.569
 310  1616.665
 311  1725.605
 312  1492.44
 313  1581.13
 314  1644.139
 315  1495.609
 316  1585.734
 317  1513.715
 318  1577.595
 319  1559.635
 320  1762.302
 321  1929.432
 322  1953.831
 323  1811.699
 324  1872.381
 325  1622.063
 326  1614.481
 327  1614.629
 328  1538.161
 329  1628.612
 330  1690.66
 331  1836.483
 332  1869.922
 333  1695.804
 334  1644.673
 335  1573.1
 336  1500.709
 337  1469.656
 338  1604.063
 339  1552.004
 340  1297.705
 341  1023.024
 342  1300.529
 343  1493.831
 344  1406.368
 345  1496.908
 346  1664.269
 347  1416.366
 348  1311.477
 349  1005.336
 350  1301.052
 351  1156.9
 352  1340.315
 353  1338.704
 354  1026.989
 355  1106.734
 356  1155.348
 357  1322.9
 358  1463.381
 359  1255.79
 360  1231.988
 361  1206.359
 362  1089.468
 363  945.507
 364  727.8278
 365  939.8972
 366  1357.928
 367  1541.973
 368  1561.603
 369  1294.047
 370  1120.305
 371  1273.664
 372  1256.013
 373  1200.739
 374  1167.524
 375  1103.587
 376  1103.688
 377  1105.094
 378  951.3643
 379  1058.644
 380  1135.839
 381  1310.443
 382  1253.476
 383  980.6929
 384  827.8964
 385  803.7595
 386  938.9169
 387  1024.798
 388  929.7902
 389  1055.943
 390  1189.862
 391  1263.975
 392  1279.248
 393  1146.036
 394  1206.957
 395  1280.249
 396  1242.489
 397  1346.312
 398  1248.506
 399  1135.309
 400  1244.046
 401  1164.018
 402  1179.635
 403  1520.892
 404  1559.719
 405  1464.678
 406  1064.242
 407  1150.064
 408  1367.002
 409  1168.342
 410  1190.774
 411  1335.878
 412  1338.543
 413  1309.78
 414  973.6137
 415  1485.885
 416  1618.474
 417  1426.586
 418  1038.75
 419  880.9395
 420  790.7772
 421  797.0598
 422  828.0666
 423  775.0994
 424  1074.513
 425  1273.301
 426  1465.83
 427  1144.619
 428  1325.3
 429  1735.52
 430  1702.561
 431  1812.818
 432  1521.525
 433  1588.691
 434  1365.095
 435  1060.344
 436  1271.901
 437  1050.047
 438  1170.719
 439  1272.924
 440  1511.375
 441  1584.523
 442  1420.608
 443  1512.242
 444  1738.75
 445  1624.175
 446  1581.257
 447  1596.161
 448  1391.057
 449  1260.076
 450  1326.883
 451  1224.928
 452  1303.975
 453  1117.975
 454  1309.073
 455  1276.266
 456  1180.857
 457  1216.261
 458  1188.338
 459  1196.905
 460  1251.823
 461  1231.101
 462  1279.023
 463  1198.952
 464  972.9829
 465  957.6345
 466  681.5078
 467  827.8256
 468  807.1802
 469  869.0764
 470  955.144
 471  979.2213
 472  1313.75
 473  1578.459
 474  1634.885
 475  1514.415
 476  1344.077
 477  1288.553
 478  1190.118
 479  1250.523
 480  1341.937
 481  1667.495
 482  1673.248
 483  1723.43
 484  1721.033
 485  1853.325
 486  2049.297
 487  1903.941
 488  1882.754
 489  1677.329
 490  1464.971
 491  1629.513
 492  1597.47
 493  1668.83
 494  1623.884
 495  1576.819
 496  1722.434
 497  1541.981
 498  1425.364
 499  1293.118
 500  1099.788
 501  1152.484
 502  1231.391
 503  1286.482
 504  1331.324
 505  1319.237
 506  1584.088
 507  1732.696
 508  1732.831
 509  1791.378
 510  1766.384
 511  1804.522
 512  1619.635
 513  1356.225
 514  1356.648
 515  1293.171
 516  1312.975
 517  1574.274
 518  1667.154
 519  1668.53
 520  1796.284
 521  1757.826
 522  1773.273
 523  1526.201
 524  1606.608
 525  1904.55
 526  1684.234
 527  1730.209
 528  1427.53
 529  1152.917
 530  1296.448
 531  1445.529
 532  1516.255
 533  1593.717
 534  1349.966
 535  1558.338
 536  1475.03
 537  1388.979
 538  1548.71
 539  1472.54
 540  1374.367
 541  843.1481
 542  625.8676
 543  795.661
 544  1271.068
 545  1153.792
 546  1340.601
 547  1182.759
 548  1533.885
 549  1591.506
 550  1790.489
 551  1716.869
 552  1548.315
 553  1611.203
 554  1730.578
 555  1645.91
 556  1513.117
 557  1651.439
 558  1685.405
 559  1520.278
 560  1247.908
 561  1257.936
 562  1493.179
 563  1809.13
 564  1941.367
 565  1602.13
 566  1539.811
 567  1594.471
 568  1545.12
 569  1647.418
 570  1577.333
 571  1729.527
 572  1789.075
 573  1589.798
 574  1535.584
 575  1332.599
 576  1402.053
 577  1415.832
 578  1415.777
 579  1419.911
 580  1419.342
 581  1486.302
 582  1557.005
 583  1555.989
 584  1778.808
 585  1897.018
 586  1731.95
 587  1694.761
 588  1948.08
 589  2304.45
 590  2342.981
 591  2071.564
 592  2117.042
 593  1974.924
 594  1970.361
 595  1829.202
 596  2030.708
 597  2085.242
 598  2058.853
 599  1659.78
 600  1491.13
 601  1704.177
 602  1679.378
 603  1680.743
 604  1514.831
 605  1526.652
 606  1546.366
 607  1443.144
 608  1376.791
 609  1277.309
 610  1408.393
 611  1727.818
 612  1679.238
 613  1755.992
 614  1856.982
 615  2074.72
 616  2111.259
 617  1714.296
 618  1449.443
 619  1396.774
 620  1206.432
 621  1393.32
 622  1371.07
 623  1493.651
 624  1488.412
 625  1337.673
 626  1477.615
 627  1540.416
 628  1407.673
 629  1354.894
 630  1078.415
 631  1127.838
 632  1139.799
 633  1240.173
 634  1355.955
 635  1508.236
 636  1587.67
 637  1600.303
 638  1254.351
 639  1342.374
 640  1589.846
 641  1656.737
 642  1742.606
 643  1473.591
 644  1094.71
 645  1088.324
 646  1060.355
 647  1177.439
 648  1275.991
 649  1213.303
 650  1356.304
 651  1490.864
 652  1500.289
 653  1759.189
 654  1507.707
 655  1344.253
 656  1126.751
 657  1144.327
 658  1316.91
 659  1037.945
 660  1061.65
 661  1203.508
 662  1112.961
 663  1199.271
 664  1264.948
 665  1362.711
 666  1502.754
 667  1457.603
 668  1422.769
 669  1289.757
 670  1357.895
 671  1494.536
 672  1746.539
 673  1718.682
 674  1694.477
 675  1699.556
 676  1776.126
 677  1774.031
 678  1586.739
 679  1600.104
 680  1393.531
 681  1258.599
 682  1136.894
 683  1231.505
 684  1208.829
 685  1021.433
 686  1254.797
 687  1209.529
 688  1264.382
 689  1489.78
 690  1688.464
 691  1810.706
 692  1554.933
 693  1261.216
 694  1182.552
 695  1029.17
 696  1177.781
 697  1280.401
 698  1162.066
 699  1265.827
 700  1273.193
 701  1394.368
 702  1489.35
 703  1527.704
 704  1511.515
 705  1379.674
 706  1262.631
 707  1364.643
 708  1444.861
 709  1212.319
 710  1317.926
 711  1187.583
 712  1343.483
 713  1607.306
 714  1720.921
 715  1970.978
 716  1714.351
 717  1721.225
 718  1501.43
 719  1220.09
 720  1146.175
 721  1264.869
 722  1491.883
 723  1590.805
 724  1460.673
 725  1486.935
 726  1687.255
 727  1617.313
 728  1701.892
 729  1540.595
 730  1584.834
 731  1541.914
 732  1571.309
 733  1479.323
 734  1397.664
 735  1246.579
 736  1413.2
 737  1323.746
 738  1669.21
 739  1767.895
 740  2005.066
 741  1948.893
 742  1863.627
 743  1760.71
 744  1788.535
 745  1737.113
 746  1790.569
 747  1605.769
 748  1501.924
 749  1639.073
 750  1761.205
 751  1650.524
 752  1666.973
 753  1796.705
 754  1996.886
 755  1839.412
 756  1792.45
 757  1799.329
 758  1698.767
 759  1828.927
 760  1879.703
 761  1858.292
 762  1701.052
 763  1602.362
 764  1659.126
 765  1716.087
 766  1553.722
 767  1484.716
 768  1600.813
 769  1742.177
 770  2015.55
 771  2029.785
 772  1904.458
 773  1681.37
 774  1623.199
 775  1964.777
 776  1755.879
 777  1662.163
 778  1443.505
 779  1357.637
 780  1269.002
 781  1250.531
 782  1472.312
 783  1684.899
 784  1373.527
 785  1356.449
 786  1377.697
 787  1481.645
 788  1539.281
 789  1506.486
 790  1330.387
 791  1289.795
 792  1044.127
 793  1107.011
 794  1027.577
 795  1105.538
 796  1199.241
 797  1137.509
 798  1327.236
 799  1508.898
 800  1354.495
 801  1253.284
 802  960.4207
 803  1277.494
 804  1471.235
 805  1297.287
 806  1554.344
 807  1463.989
 808  1399.931
 809  1175.322
 810  992.4334
 811  1223.042
 812  1479.801
 813  1464.237
 814  1348.424
 815  961.8734
 816  1110.147
 817  1601.154
 818  1747.676
 819  1743.862
 820  1510.569
 821  1520.378
 822  1726.261
 823  1799.338
 824  1804.516
 825  1736.612
 826  1824.866
 827  1993.551
 828  2016.438
 829  1811.638
 830  2102.047
 831  1978.507
 832  2100.967
 833  1939.504
 834  1587.188
 835  1644.277
 836  1655.459
 837  1846.394
 838  1707.067
 839  1543.753
 840  1399.873
 841  1298.055
 842  1417.139
 843  1484.795
 844  1501.699
 845  1492.397
 846  1490.953
 847  1454.48
 848  1549.172
 849  1775.13
 850  1712.121
 851  1891.341
 852  1801.227
 853  1797.727
 854  1669.577
 855  1517.617
 856  1657.874
 857  1597.936
 858  1792.148
 859  1570.452
 860  1391.802
 861  1501.994
 862  1584.393
 863  1866.787
 864  1747.432
 865  1616.258
 866  1823.324
 867  1814.137
 868  1942.416
 869  1755.7
 870  1484.903
 871  1400.931
 872  1754.486
 873  2101.038
 874  2228.021
 875  1817.655
 876  1618.668
 877  1524.612
 878  1394.883
 879  1593.098
 880  1245.498
 881  1330.595
 882  1598.874
 883  1792.083
 884  1867.401
 885  1839.365
 886  1646.659
 887  1570.956
 888  1218.401
 889  1460.727
 890  1531.627
 891  1694.983
 892  1682.728
 893  1717.524
 894  1660.046
 895  1671.775
 896  1414.288
 897  1596.343
 898  1799.943
 899  1766.451
 900  1694.609
 901  1343.053
 902  1399.925
 903  1353.328
 904  1417.947
 905  1656.407
 906  1649.949
 907  1638.326
 908  1813.547
 909  1875.464
 910  1769.98
 911  1897.766
 912  2031.655
 913  2062.947
 914  1654.032
 915  1671.356
 916  2018.437
 917  1670.115
 918  1568.501
 919  1507.776
 920  1663.82
 921  1668.423
 922  1434.991
 923  1498.837
 924  1583.727
 925  1446.192
 926  1485.002
 927  1426.534
 928  1581.353
 929  1590.732
 930  1493.136
 931  1556.979
 932  1716.708
 933  1811.66
 934  1794.434
 935  1426.008
 936  1397.568
 937  1480.468
 938  1439.352
 939  1341.694
 940  1465.421
 941  1585.925
 942  1704.968
 943  1563.962
 944  1622.746
 945  1555.562
 946  1429.683
 947  1367.753
 948  1322.242
 949  1218.739
 950  1246.389
 951  1261.362
 952  1393.639
 953  1418.706
 954  1601.326
 955  1593.408
 956  1435.9
 957  1472.959
 958  1516.357
 959  1670.508
 960  1708.912
 961  1608.54
 962  1631.318
 963  1545.312
 964  1640.379
 965  2063.06
 966  2274.28
 967  1996.084
 968  1643.752
 969  1476.927
 970  1459.195
 971  1571.816
 972  1531.9
 973  1583.55
 974  1328.972
 975  1596.15
 976  2112.995
 977  2117.277
 978  1782.238
 979  1171.467
 980  1101.432
 981  1056.733
 982  932.0048
 983  1018.135
 984  1322.798
 985  1377.839
 986  1570.062
 987  1284.643
 988  1078.377
 989  958.1141
 990  1061.532
 991  1067.405
 992  767.8281
 993  676.906
 994  1098.121
 995  1195.353
 996  1284.207
 997  1432.02
 998  1529.157
 999  1753.519
1000  1513.513
1001  1362.288
1002  1240.729
1003  1189.09
1004  1791.882
1005  1861.441
1006  1913.802
1007  1970.406
1008  1960.889
1009  2030.922
1010  2079.697
1011  2044.121
1012  1803.626
1013  1342.528
1014  1526.375
1015  1806.945
1016  1831.321
1017  1669.819
1018  1828.057
1019  2048.578
1020  2075.471
1021  1963.813
1022  2013.626
1023  2177.375
