# Input file       =  1202395033.118852_cleaned.dat
# Candidate        =  PSR_0332+5434
# Telescope        =  AR
# Epoch_topo       =  58160.609399523746
# Epoch_bary       =  N/A
# T_sample         =  0.002
# Data Folded      =  7340032
# Data Avg         =  0.0424869302110841
# Data StdDev      =  1.00009295069038 
# Profile Bins     =  512
# Profile Avg      =  609.137670190153 
# Profile StdDev   =  119.744165645159 
# Reduced chi-sqr  =  1.130
# Prob(Noise)      <  0.0217   (~2.0 sigma)
# P_topo (ms)      =  714.579333246817  +/- 0.000456
# P'_topo (s/s)    =  -0                +/- 2.41e-10
# P''_topo (s/s^2) =  0                 +/- 1.06e-13
# P_bary (ms)      =  N/A
# P'_bary (s/s)    =  N/A
# P''_bary (s/s^2) =  N/A
# P_orb (s)        =  N/A
# asin(i)/c (s)    =  N/A
# eccentricity     =  N/A
# w (rad)          =  N/A
# T_peri           =  N/A
######################################################
   0  1184.462
   1  1079.367
   2  935.1213
   3  827.0576
   4  776.1149
   5  790.1026
   6  796.3658
   7  688.2021
   8  592.546
   9  686.005
  10  658.7527
  11  701.9426
  12  608.1302
  13  570.7888
  14  652.7628
  15  675.1296
  16  678.8071
  17  624.3621
  18  577.6337
  19  550.2289
  20  578.9373
  21  635.5968
  22  567.3641
  23  455.3141
  24  498.149
  25  539.7385
  26  634.3334
  27  519.5309
  28  552.1505
  29  632.9529
  30  701.5413
  31  590.0276
  32  519.2709
  33  513.2041
  34  624.4099
  35  605.1908
  36  575.7881
  37  614.7016
  38  557.8555
  39  551.7632
  40  536.183
  41  628.3721
  42  635.1566
  43  598.717
  44  646.9292
  45  663.2771
  46  696.9837
  47  625.8225
  48  626.9286
  49  590.1732
  50  559.3099
  51  693.5914
  52  663.2475
  53  604.9179
  54  557.7752
  55  477.3473
  56  477.5058
  57  560.0482
  58  521.7383
  59  562.8156
  60  532.5707
  61  563.3464
  62  462.149
  63  493.0056
  64  524.1912
  65  610.1622
  66  501.231
  67  529.4442
  68  508.4068
  69  490.6134
  70  497.7847
  71  590.9843
  72  635.6964
  73  661.4976
  74  631.4319
  75  702.5475
  76  708.9561
  77  619.1031
  78  612.584
  79  677.4669
  80  649.6495
  81  693.9493
  82  652.8163
  83  664.0958
  84  708.1135
  85  685.7578
  86  737.0651
  87  684.9985
  88  698.7003
  89  776.5499
  90  782.6201
  91  698.0577
  92  738.6496
  93  646.0941
  94  661.4055
  95  647.4167
  96  670.6929
  97  611.6425
  98  554.7947
  99  554.2919
 100  601.6044
 101  559.18
 102  722.4907
 103  862.9449
 104  658.9702
 105  669.8898
 106  617.4688
 107  558.5491
 108  669.9006
 109  699.1151
 110  671.8788
 111  649.8434
 112  582.7212
 113  483.1751
 114  393.9994
 115  595.6711
 116  758.6293
 117  638.4647
 118  612.2763
 119  597.1697
 120  514.8492
 121  528.6555
 122  520.0193
 123  501.9317
 124  477.6613
 125  531.8208
 126  506.8028
 127  569.3796
 128  604.0261
 129  700.9713
 130  710.4197
 131  641.0848
 132  523.1359
 133  546.9409
 134  496.3374
 135  563.249
 136  643.5219
 137  650.748
 138  571.6573
 139  600.7568
 140  605.0076
 141  556.2992
 142  662.7589
 143  747.0008
 144  719.407
 145  531.5887
 146  576.2765
 147  604.2842
 148  620.7015
 149  576.861
 150  588.4832
 151  473.6432
 152  503.86
 153  581.1682
 154  595.8427
 155  453.0979
 156  386.9432
 157  513.7311
 158  538.5768
 159  610.7609
 160  505.8122
 161  561.9837
 162  537.1562
 163  523.5276
 164  519.4651
 165  463.7693
 166  494.59
 167  498.8811
 168  574.101
 169  623.1138
 170  635.3046
 171  615.8874
 172  545.9172
 173  550.7787
 174  586.973
 175  670.7144
 176  630.2265
 177  536.4319
 178  566.2014
 179  614.4763
 180  458.0276
 181  418.8478
 182  490.2599
 183  455.0068
 184  453.4172
 185  555.7368
 186  580.3216
 187  641.9709
 188  550.7463
 189  663.5897
 190  533.2979
 191  427.4564
 192  557.0249
 193  532.4406
 194  586.6012
 195  563.5573
 196  554.4894
 197  565.7932
 198  536.9271
 199  511.6129
 200  514.7762
 201  613.8221
 202  617.1645
 203  507.7623
 204  603.1498
 205  685.4269
 206  609.461
 207  664.5007
 208  587.7014
 209  549.5795
 210  639.8505
 211  720.8437
 212  659.697
 213  650.2909
 214  646.4306
 215  617.5734
 216  705.3881
 217  789.0701
 218  693.3311
 219  535.1502
 220  615.7526
 221  694.9675
 222  687.4477
 223  672.2701
 224  525.2471
 225  584.4885
 226  657.1227
 227  637.3408
 228  638.1606
 229  616.3663
 230  566.7696
 231  557.1472
 232  557.6621
 233  661.3209
 234  688.4843
 235  668.5636
 236  709.9464
 237  691.8653
 238  613.6874
 239  617.6221
 240  706.9874
 241  709.1572
 242  672.4678
 243  720.8399
 244  639.1423
 245  660.5377
 246  748.5659
 247  645.809
 248  637.4354
 249  568.4463
 250  707.5018
 251  793.6119
 252  775.352
 253  723.1361
 254  658.4471
 255  705.5572
 256  652.3057
 257  667.2432
 258  656.7389
 259  687.5934
 260  667.0048
 261  647.9879
 262  637.2184
 263  601.2654
 264  710.348
 265  659.8279
 266  597.553
 267  626.8198
 268  619.275
 269  599.2276
 270  590.4455
 271  544.5309
 272  565.9594
 273  676.9464
 274  660.7108
 275  535.7386
 276  630.2025
 277  652.9412
 278  604.511
 279  623.4341
 280  605.6559
 281  613.9553
 282  749.1234
 283  721.9933
 284  617.1912
 285  604.4333
 286  538.5267
 287  580.309
 288  680.5297
 289  641.9696
 290  622.3948
 291  578.6806
 292  605.3174
 293  626.4884
 294  605.3405
 295  643.4372
 296  517.6078
 297  634.8814
 298  535.2425
 299  571.0208
 300  692.2537
 301  705.6103
 302  731.4343
 303  639.9511
 304  615.8346
 305  605.1371
 306  558.1857
 307  574.3176
 308  707.1975
 309  755.1682
 310  673.1533
 311  574.0391
 312  562.9035
 313  718.757
 314  682.2999
 315  641.5834
 316  556.8688
 317  548.121
 318  486.7167
 319  503.6959
 320  509.6039
 321  512.4086
 322  529.0192
 323  658.4957
 324  712.6331
 325  736.212
 326  617.6735
 327  624.9539
 328  602.4365
 329  637.0923
 330  665.4095
 331  517.1047
 332  528.0128
 333  547.701
 334  597.8853
 335  615.0504
 336  548.2043
 337  584.4196
 338  624.3838
 339  652.7612
 340  556.8817
 341  522.4872
 342  595.4521
 343  671.6529
 344  604.1663
 345  584.3794
 346  533.8322
 347  476.4598
 348  494.8654
 349  552.2336
 350  551.9976
 351  563.392
 352  541.0543
 353  563.5223
 354  439.4044
 355  465.9859
 356  512.8853
 357  547.3593
 358  515.7696
 359  475.4012
 360  506.5183
 361  585.3203
 362  542.0401
 363  405.6086
 364  469.7017
 365  490.1624
 366  541.2464
 367  556.0314
 368  601.6202
 369  580.6572
 370  567.2493
 371  588.3087
 372  588.3426
 373  536.5358
 374  632.3489
 375  731.201
 376  727.556
 377  786.5435
 378  724.1339
 379  698.3494
 380  588.1227
 381  634.6044
 382  659.2664
 383  695.5042
 384  648.2747
 385  650.7272
 386  672.4598
 387  544.3439
 388  561.274
 389  638.445
 390  630.8181
 391  559.0066
 392  560.4567
 393  726.2589
 394  660.051
 395  598.8543
 396  635.4625
 397  623.8436
 398  560.8409
 399  548.0213
 400  577.0234
 401  599.5911
 402  599.2631
 403  526.3147
 404  513.4926
 405  621.3483
 406  623.0883
 407  556.6934
 408  558.3947
 409  638.5182
 410  596.6572
 411  573.0164
 412  669.8384
 413  563.984
 414  464.9507
 415  551.8869
 416  543.6673
 417  595.3086
 418  670.8832
 419  692.1419
 420  650.7136
 421  677.6324
 422  644.3648
 423  621.3868
 424  723.7898
 425  679.73
 426  620.8986
 427  599.5301
 428  643.0952
 429  612.7322
 430  642.2937
 431  651.2877
 432  624.5148
 433  679.5524
 434  607.1991
 435  608.7549
 436  735.2747
 437  608.2526
 438  611.173
 439  638.7471
 440  690.441
 441  623.8743
 442  644.0506
 443  611.6881
 444  615.9123
 445  644.2098
 446  628.3404
 447  539.5171
 448  523.0853
 449  582.3426
 450  484.6413
 451  567.7455
 452  645.4533
 453  528.2808
 454  467.9016
 455  594.3414
 456  595.2281
 457  544.3712
 458  582.3526
 459  619.5753
 460  656.2075
 461  660.9706
 462  631.5679
 463  555.2029
 464  606.2443
 465  660.9938
 466  584.905
 467  632.4407
 468  637.2647
 469  563.9634
 470  609.9208
 471  650.4611
 472  435.6067
 473  346.185
 474  488.6636
 475  537.1346
 476  554.9646
 477  513.868
 478  459.9086
 479  500.8591
 480  466.6601
 481  518.5217
 482  568.5676
 483  524.5773
 484  414.5565
 485  554.6061
 486  590.5213
 487  414.4983
 488  448.6948
 489  549.4833
 490  645.4388
 491  574.6744
 492  607.074
 493  585.8134
 494  659.3383
 495  610.5293
 496  567.9275
 497  525.1021
 498  517.8184
 499  586.7211
 500  597.9324
 501  723.5045
 502  727.4944
 503  671.4558
 504  692.9221
 505  768.8608
 506  776.9135
 507  660.4163
 508  763.6143
 509  912.2436
 510  1053.676
 511  1158.829
