# Input file       =  1202668571.110739_cleaned.dat
# Candidate        =  PSR_0332+5434
# Telescope        =  AR
# Epoch_topo       =  58163.775348503921
# Epoch_bary       =  N/A
# T_sample         =  0.002
# Data Folded      =  7340032
# Data Avg         =  0.012598003031302
# Data StdDev      =  1.00002870215714 
# Profile Bins     =  512
# Profile Avg      =  180.681790140823 
# Profile StdDev   =  119.736472973191 
# Reduced chi-sqr  =  1.231
# Prob(Noise)      <  0.000267   (~3.5 sigma)
# P_topo (ms)      =  714.580309811387  +/- 0.000305
# P'_topo (s/s)    =  -0                +/- 1.61e-10
# P''_topo (s/s^2) =  0                 +/- 7.1e-14
# P_bary (ms)      =  N/A
# P'_bary (s/s)    =  N/A
# P''_bary (s/s^2) =  N/A
# P_orb (s)        =  N/A
# asin(i)/c (s)    =  N/A
# eccentricity     =  N/A
# w (rad)          =  N/A
# T_peri           =  N/A
######################################################
   0  804.6082
   1  718.5078
   2  559.7062
   3  338.555
   4  295.0493
   5  356.0791
   6  459.8562
   7  347.6664
   8  177.0945
   9  203.8191
  10  266.7953
  11  241.8611
  12  247.7685
  13  190.7976
  14  216.2819
  15  262.895
  16  283.6173
  17  340.7215
  18  338.8122
  19  187.49
  20  128.8468
  21  126.9317
  22  273.844
  23  253.8776
  24  218.296
  25  247.8659
  26  252.5026
  27  350.2823
  28  343.8819
  29  267.3774
  30  214.9296
  31  250.7563
  32  126.1984
  33  164.0108
  34  155.9975
  35  -43.05265
  36  42.83817
  37  160.3129
  38  192.7021
  39  71.26303
  40  212.7707
  41  181.7613
  42  117.2768
  43  201.8641
  44  229.7865
  45  192.0631
  46  168.0373
  47  195.8314
  48  266.4402
  49  160.5135
  50  110.4371
  51  155.2327
  52  138.2041
  53  133.4651
  54  124.4689
  55  235.8076
  56  170.6108
  57  107.3627
  58  134.5884
  59  173.1708
  60  64.83382
  61  57.87465
  62  210.7474
  63  226.2518
  64  193.7964
  65  146.7914
  66  11.17259
  67  59.84896
  68  209.0403
  69  180.9978
  70  173.8283
  71  144.0648
  72  244.7229
  73  194.3405
  74  197.6978
  75  93.892
  76  36.78632
  77  192.3655
  78  301.5703
  79  342.1896
  80  82.54938
  81  167.4755
  82  143.7202
  83  106.8381
  84  61.36774
  85  144.814
  86  168.1508
  87  266.9631
  88  246.0037
  89  225.937
  90  223.9377
  91  222.3799
  92  120.8839
  93  125.335
  94  281.8981
  95  239.7476
  96  264.8615
  97  167.0229
  98  202.7166
  99  187.6041
 100  177.9194
 101  203.5953
 102  235.2175
 103  269.6377
 104  143.1858
 105  151.8074
 106  272.7654
 107  138.5799
 108  109.1835
 109  174.7562
 110  208.6125
 111  190.9819
 112  70.25018
 113  101.5872
 114  224.2879
 115  128.142
 116  253.4311
 117  168.7425
 118  179.4037
 119  88.15192
 120  68.02995
 121  176.0687
 122  179.6118
 123  222.9423
 124  74.17059
 125  80.9453
 126  80.44294
 127  134.8326
 128  163.4384
 129  193.6127
 130  75.20644
 131  91.96722
 132  176.0131
 133  175.6221
 134  174.7477
 135  181.2861
 136  67.89809
 137  105.1556
 138  101.9064
 139  175.9218
 140  199.07
 141  84.29352
 142  68.81104
 143  90.99101
 144  111.6258
 145  132.7422
 146  119.4013
 147  75.01944
 148  156.0295
 149  277.9684
 150  132.6513
 151  69.23869
 152  199.6589
 153  119.865
 154  -34.12229
 155  79.84637
 156  88.39234
 157  74.32792
 158  73.98632
 159  118.643
 160  229.425
 161  203.6451
 162  66.72403
 163  111.6484
 164  -15.11689
 165  34.70305
 166  178.7735
 167  118.9551
 168  318.5025
 169  293.061
 170  218.6461
 171  318.5468
 172  232.1904
 173  239.0905
 174  105.7004
 175  64.55489
 176  99.6099
 177  164.5083
 178  244.8823
 179  230.1778
 180  185.9223
 181  218.8384
 182  57.19376
 183  80.64704
 184  121.4559
 185  245.7678
 186  286.062
 187  162.8695
 188  154.3572
 189  165.896
 190  84.04764
 191  47.17969
 192  101.1862
 193  139.6229
 194  168.9696
 195  296.2286
 196  199.4994
 197  82.1144
 198  82.23741
 199  265.9961
 200  268.2389
 201  121.1901
 202  125.239
 203  92.18346
 204  -32.24677
 205  28.90736
 206  30.07342
 207  116.0547
 208  150.5359
 209  190.5873
 210  271.6374
 211  285.4288
 212  175.3625
 213  189.8875
 214  224.0806
 215  307.7332
 216  266.8318
 217  147.7676
 218  79.3364
 219  157.4157
 220  409.8549
 221  289.5541
 222  187.9664
 223  242.5906
 224  221.3157
 225  108.4734
 226  119.935
 227  293.015
 228  215.8047
 229  177.2251
 230  107.0265
 231  143.2162
 232  252.3021
 233  201.6621
 234  170.1473
 235  225.9105
 236  243.1797
 237  102.4139
 238  105.3798
 239  100.0315
 240  134.3048
 241  232.6295
 242  247.1388
 243  193.6933
 244  147.1151
 245  131.0626
 246  151.4855
 247  112.446
 248  162.6616
 249  229.0047
 250  293.8179
 251  274.1768
 252  174.8006
 253  46.53539
 254  131.0335
 255  237.3061
 256  153.9093
 257  206.7118
 258  385.8602
 259  271.6156
 260  67.02325
 261  70.15082
 262  242.5872
 263  160.0711
 264  91.19859
 265  216.8777
 266  217.7745
 267  219.8491
 268  291.2514
 269  238.5473
 270  151.6301
 271  38.86193
 272  74.48571
 273  124.2278
 274  137.8231
 275  169.0452
 276  184.0065
 277  219.6659
 278  240.6445
 279  255.2993
 280  250.7081
 281  157.043
 282  44.66642
 283  77.7598
 284  44.11395
 285  92.51727
 286  125.8468
 287  137.8799
 288  204.5298
 289  149.3348
 290  143.5771
 291  67.10236
 292  -0.6376049
 293  -9.631493
 294  24.04835
 295  68.14861
 296  156.1162
 297  213.3642
 298  155.89
 299  171.3657
 300  240.3211
 301  307.8021
 302  234.8715
 303  198.5408
 304  284.6817
 305  149.2693
 306  160.0656
 307  201.7355
 308  90.77999
 309  149.6431
 310  301.8806
 311  206.8455
 312  240.1477
 313  258.2349
 314  143.8434
 315  150.3179
 316  110.2734
 317  184.1782
 318  239.7617
 319  227.2447
 320  211.4799
 321  88.08646
 322  90.58241
 323  211.3241
 324  191.8051
 325  -13.4511
 326  21.53146
 327  57.91897
 328  68.45386
 329  170.0331
 330  221.3135
 331  71.09497
 332  85.09212
 333  91.36034
 334  254.5439
 335  237.7783
 336  177.9759
 337  151.0951
 338  84.6637
 339  110.0465
 340  88.01135
 341  183.7261
 342  129.3902
 343  104.3882
 344  210.0105
 345  205.2589
 346  98.09332
 347  24.69893
 348  -22.10699
 349  47.70215
 350  230.4614
 351  301.8105
 352  253.6131
 353  140.3608
 354  107.612
 355  42.61777
 356  96.8625
 357  131.3657
 358  150.8026
 359  111.2691
 360  262.7823
 361  175.6924
 362  75.08215
 363  37.26068
 364  42.51524
 365  122.7469
 366  67.45002
 367  131.3646
 368  160.9693
 369  104.2635
 370  181.0388
 371  106.5573
 372  190.5442
 373  216.5287
 374  103.2812
 375  293.7858
 376  310.3217
 377  206.147
 378  122.0221
 379  96.71101
 380  162.5454
 381  238.8049
 382  194.7065
 383  238.6843
 384  114.6593
 385  250.7868
 386  192.4306
 387  114.0764
 388  154.3479
 389  153.1314
 390  187.4006
 391  163.5901
 392  145.9798
 393  99.8944
 394  34.22068
 395  114.249
 396  184.512
 397  281.1257
 398  146.7509
 399  25.45036
 400  128.8295
 401  210.6815
 402  282.4567
 403  321.2322
 404  350.0088
 405  327.4021
 406  251.5154
 407  224.3188
 408  140.2042
 409  53.06113
 410  146.5422
 411  204.2817
 412  245.3133
 413  287.8479
 414  212.6382
 415  194.5276
 416  218.3306
 417  253.6934
 418  198.5964
 419  81.82687
 420  20.89712
 421  147.6931
 422  186.2011
 423  209.4077
 424  270.7346
 425  285.8065
 426  229.3841
 427  137.0639
 428  218.6799
 429  154.85
 430  184.866
 431  206.3352
 432  256.1862
 433  156.6118
 434  98.99271
 435  146.7715
 436  148.7648
 437  176.2285
 438  252.65
 439  115.4915
 440  117.1535
 441  213.5886
 442  292.1628
 443  192.2463
 444  124.868
 445  237.7891
 446  144.8522
 447  60.45154
 448  68.64864
 449  169.722
 450  159.5742
 451  186.8204
 452  128.675
 453  229.8508
 454  244.0827
 455  158.3505
 456  71.0544
 457  254.4756
 458  261.9143
 459  160.4124
 460  146.9272
 461  250.2999
 462  242.2704
 463  282.7765
 464  223.7457
 465  173.7934
 466  206.9066
 467  189.2208
 468  98.90273
 469  126.5908
 470  134.6479
 471  241.5106
 472  360.5602
 473  347.1411
 474  200.7551
 475  181.1923
 476  193.5282
 477  268.9388
 478  251.0136
 479  199.6938
 480  208.774
 481  287.4332
 482  261.6824
 483  219.3522
 484  202.5827
 485  220.707
 486  142.3895
 487  134.9044
 488  223.8609
 489  148.809
 490  81.07394
 491  201.8494
 492  281.8628
 493  320.5589
 494  330.46
 495  362.6227
 496  243.835
 497  127.4167
 498  147.3045
 499  190.4127
 500  231.7802
 501  228.8106
 502  206.7281
 503  274.1089
 504  287.2285
 505  201.4255
 506  267.8672
 507  355.5991
 508  402.8253
 509  363.898
 510  565.6033
 511  819.2495
