# Input file       =  1202222673.110506_cleaned.dat
# Candidate        =  PSR_0332+5434
# Telescope        =  AR
# Epoch_topo       =  58158.614492019748
# Epoch_bary       =  N/A
# T_sample         =  0.002
# Data Folded      =  7340032
# Data Avg         =  0.185584887334179
# Data StdDev      =  5.13507906710374 
# Profile Bins     =  256
# Profile Avg      =  5317.63681441593 
# Profile StdDev   =  869.513099149443 
# Reduced chi-sqr  =  0.920
# Prob(Noise)      <  0.816   (~0.0 sigma)
# P_topo (ms)      =  714.578837122589  +/- 0.000566
# P'_topo (s/s)    =  -0                +/- 2.99e-10
# P''_topo (s/s^2) =  0                 +/- 1.32e-13
# P_bary (ms)      =  N/A
# P'_bary (s/s)    =  N/A
# P''_bary (s/s^2) =  N/A
# P_orb (s)        =  N/A
# asin(i)/c (s)    =  N/A
# eccentricity     =  N/A
# w (rad)          =  N/A
# T_peri           =  N/A
######################################################
   0  4579.167
   1  5583.641
   2  6464.503
   3  5463.884
   4  5467.979
   5  5152.375
   6  5639.327
   7  5480.938
   8  4713.729
   9  5201.302
  10  6127.583
  11  5864.587
  12  5292.679
  13  4899.047
  14  5538.686
  15  4174.308
  16  4745.374
  17  4743.021
  18  4536.439
  19  4333.481
  20  4442.386
  21  4764.175
  22  5715.511
  23  4900.391
  24  5053.045
  25  5134.704
  26  5866.675
  27  5526.857
  28  5545.891
  29  5066.808
  30  5814.805
  31  6115.893
  32  6435.351
  33  6362.612
  34  6247.042
  35  6095.478
  36  6188.64
  37  5806.482
  38  5761.977
  39  4979.588
  40  5206.956
  41  5178.74
  42  5654.156
  43  5736.852
  44  5648.19
  45  5547.304
  46  5107.063
  47  5879.703
  48  5206.986
  49  4730.231
  50  4936.662
  51  4996
  52  4865.417
  53  5664.242
  54  5210.072
  55  5416.344
  56  5985.466
  57  5898.931
  58  5341.463
  59  5584.685
  60  6062.735
  61  5940.51
  62  5328.099
  63  5539.838
  64  5913.326
  65  5363.442
  66  5578.007
  67  6062.773
  68  6903.073
  69  6032.074
  70  5829.551
  71  5595.518
  72  4856.879
  73  5757.276
  74  5296.057
  75  5526.57
  76  5706.434
  77  4991.313
  78  4065.5
  79  5134.674
  80  5147.307
  81  5103.06
  82  5458.203
  83  5975.83
  84  6177.845
  85  5229.615
  86  5246.958
  87  4412.999
  88  4754.88
  89  5029.1
  90  4894.521
  91  4779.621
  92  4598.881
  93  4436.431
  94  4172.758
  95  4279.137
  96  4674.838
  97  4496.081
  98  4925.562
  99  4766.629
 100  4495.767
 101  5123.97
 102  4258.326
 103  3897.263
 104  5081.817
 105  3949.338
 106  3721.06
 107  3925.038
 108  4769.771
 109  4753.713
 110  4661.629
 111  4952.454
 112  5226.325
 113  5989.006
 114  6384.49
 115  5220.047
 116  5072.978
 117  4446.26
 118  4923.992
 119  4513.097
 120  4333.921
 121  4752.526
 122  5194.227
 123  5551.993
 124  5208.711
 125  5362.664
 126  5767.55
 127  4924.141
 128  4053.262
 129  4559.576
 130  4094.924
 131  3879.431
 132  4212.868
 133  4838.159
 134  4412.058
 135  3998.676
 136  4207.511
 137  4721.082
 138  4711.815
 139  4479.97
 140  4280.141
 141  5289.754
 142  5421.888
 143  5825.369
 144  5576.884
 145  4959.127
 146  5580.91
 147  5906.642
 148  5631.287
 149  4977.606
 150  5996.812
 151  6537.588
 152  7288.009
 153  8224.145
 154  7629.064
 155  6472.285
 156  6482.069
 157  6092.747
 158  5537.05
 159  5705.419
 160  5888.815
 161  6167.581
 162  5955.109
 163  5489.928
 164  5420.48
 165  5599.757
 166  5760.026
 167  5083.458
 168  5400.763
 169  5065.616
 170  4004.312
 171  4114.783
 172  4366.402
 173  4137.154
 174  4428.787
 175  4439.419
 176  4856.534
 177  4799.146
 178  5330.751
 179  5393.221
 180  4946.992
 181  5334.639
 182  5198.428
 183  5996.854
 184  6760.938
 185  5820.406
 186  5658.674
 187  5524.826
 188  5377.008
 189  5369.486
 190  4543.233
 191  5611.281
 192  5236.592
 193  4766.094
 194  6303.936
 195  6583.986
 196  5748.267
 197  5645.121
 198  6524.172
 199  6698.592
 200  5902.295
 201  5723.228
 202  4772.865
 203  6197.622
 204  6078.73
 205  5843.453
 206  4943.302
 207  5209.043
 208  5136.842
 209  4900.127
 210  5054.714
 211  5498.814
 212  4826.604
 213  6059.556
 214  5637.326
 215  6349.522
 216  6574.831
 217  5969.957
 218  5614.271
 219  5464.173
 220  5909.922
 221  5418.897
 222  4759.404
 223  5329.045
 224  4774.124
 225  3867.737
 226  4323.821
 227  4217.006
 228  4259.414
 229  4604.359
 230  4942.488
 231  5377.421
 232  6098.181
 233  6094.926
 234  6173.836
 235  6827.963
 236  6674.259
 237  6194.93
 238  5632.892
 239  6055.052
 240  5634.843
 241  5688.686
 242  5390.768
 243  5682.47
 244  6240.556
 245  6027.622
 246  5274.905
 247  5381.084
 248  5514.928
 249  5756.515
 250  4970.054
 251  5253.865
 252  4380.581
 253  4399.174
 254  4611.928
 255  4750.59
