# Input file       =  1202668571.110739_cleaned.dat
# Candidate        =  PSR_0332+5434
# Telescope        =  AR
# Epoch_topo       =  58163.775348503921
# Epoch_bary       =  N/A
# T_sample         =  0.002
# Data Folded      =  7340032
# Data Avg         =  0.0429288833755501
# Data StdDev      =  2.924295814777   
# Profile Bins     =  512
# Profile Avg      =  615.576537005517 
# Profile StdDev   =  350.13481716712  
# Reduced chi-sqr  =  1.065
# Prob(Noise)      <  0.15   (~1.0 sigma)
# P_topo (ms)      =  714.580310999537  +/- 0.00068
# P'_topo (s/s)    =  -0                +/- 3.59e-10
# P''_topo (s/s^2) =  0                 +/- 1.58e-13
# P_bary (ms)      =  N/A
# P'_bary (s/s)    =  N/A
# P''_bary (s/s^2) =  N/A
# P_orb (s)        =  N/A
# asin(i)/c (s)    =  N/A
# eccentricity     =  N/A
# w (rad)          =  N/A
# T_peri           =  N/A
######################################################
   0  202.3377
   1  726.3547
   2  745.6841
   3  817.2932
   4  700.4307
   5  771.0948
   6  841.3668
   7  731.8949
   8  708.2778
   9  365.257
  10  693.8384
  11  787.7936
  12  1111.358
  13  668.8113
  14  478.2963
  15  694.5933
  16  589.5511
  17  500.5789
  18  474.6681
  19  515.1949
  20  625.3057
  21  944.6928
  22  762.9044
  23  780.8276
  24  700.0852
  25  518.8685
  26  321.1765
  27  671.6344
  28  854.5145
  29  907.2999
  30  782.1661
  31  643.8752
  32  655.3162
  33  548.6517
  34  735.0015
  35  749.5751
  36  896.348
  37  663.5158
  38  457.6989
  39  822.93
  40  708.2876
  41  437.3949
  42  499.6061
  43  799.4767
  44  798.683
  45  636.4578
  46  313.8547
  47  631.3839
  48  591.9532
  49  637.5053
  50  641.2927
  51  533.0616
  52  404.4335
  53  289.9583
  54  474.7799
  55  587.6865
  56  710.823
  57  509.7372
  58  73.45352
  59  279.6317
  60  283.272
  61  463.1882
  62  502.6845
  63  437.9262
  64  198.1174
  65  428.7102
  66  558.2831
  67  478.6913
  68  634.527
  69  340.384
  70  413.2493
  71  422.1022
  72  453.5953
  73  735.8758
  74  415.7149
  75  327.3105
  76  387.8649
  77  467.5614
  78  319.0256
  79  450.7746
  80  373.9685
  81  391.324
  82  753.1923
  83  671.2615
  84  400.0871
  85  373.6275
  86  519.6882
  87  93.85177
  88  184.8272
  89  511.7642
  90  311.7212
  91  334.2363
  92  355.5497
  93  595.914
  94  737.6091
  95  354.1238
  96  363.7448
  97  183.1383
  98  101.5024
  99  360.2877
 100  390.3831
 101  665.2289
 102  1095.461
 103  701.75
 104  925.8216
 105  940.9778
 106  718.1671
 107  574.2788
 108  256.8232
 109  282.6669
 110  469.7177
 111  625.5313
 112  788.8408
 113  633.7783
 114  714.8544
 115  427.6785
 116  269.3647
 117  282.1923
 118  517.7723
 119  779.2966
 120  652.6891
 121  507.7922
 122  532.7516
 123  370.8207
 124  109.1643
 125  291.0207
 126  429.3873
 127  513.5312
 128  737.6974
 129  629.5352
 130  388.147
 131  138.4984
 132  610.4935
 133  902.368
 134  587.7482
 135  280.4606
 136  397.3225
 137  95.81923
 138  87.43813
 139  223.8604
 140  267.3759
 141  567.3372
 142  459.5999
 143  674.3203
 144  813.5252
 145  685.5093
 146  516.7636
 147  732.8939
 148  867.8562
 149  955.231
 150  681.3388
 151  402.5385
 152  397.3698
 153  1034.759
 154  1149.446
 155  647.6669
 156  684.7511
 157  748.1949
 158  545.4111
 159  326.6981
 160  758.754
 161  862.2651
 162  586.8969
 163  547.9852
 164  448.9809
 165  756.6732
 166  686.2079
 167  648.2267
 168  576.462
 169  846.9774
 170  586.0993
 171  504.3589
 172  605.4661
 173  440.3073
 174  660.2763
 175  746.7716
 176  706.675
 177  608.6835
 178  550.5458
 179  562.385
 180  543.8389
 181  367.7758
 182  581.4565
 183  776.0284
 184  894.8027
 185  768.3725
 186  418.4172
 187  308.1096
 188  710.1292
 189  557.5845
 190  537.8697
 191  1019.995
 192  1097.698
 193  420.906
 194  199.7631
 195  555.8491
 196  689.1973
 197  343.4637
 198  532.5964
 199  741.7452
 200  659.1962
 201  763.5649
 202  857.9593
 203  548.8881
 204  398.9621
 205  321.8108
 206  506.8479
 207  523.2292
 208  525.2395
 209  660.2145
 210  669.7333
 211  813.6964
 212  870.1768
 213  859.6948
 214  727.4366
 215  265.8056
 216  488.6904
 217  369.2207
 218  400.3025
 219  321.0949
 220  279.3862
 221  467.7731
 222  429.0255
 223  347.3649
 224  308.9492
 225  88.29955
 226  66.08176
 227  85.73038
 228  257.1831
 229  378.0298
 230  649.8953
 231  617.8624
 232  554.8392
 233  692.4247
 234  821.9724
 235  818.2762
 236  644.1569
 237  835.7289
 238  725.7447
 239  519.3857
 240  645.7052
 241  565.3254
 242  431.1982
 243  839.1257
 244  825.2581
 245  734.0002
 246  900.3463
 247  695.7816
 248  535.6774
 249  520.7152
 250  468.6662
 251  721.6364
 252  813.2552
 253  710.5703
 254  481.3784
 255  261.0685
 256  521.374
 257  663.6694
 258  116.5801
 259  4.252923
 260  163.6052
 261  318.6353
 262  434.4804
 263  727.1998
 264  450.548
 265  316.9954
 266  328.631
 267  581.2469
 268  890.9841
 269  573.9109
 270  700.0318
 271  437.3119
 272  402.5069
 273  480.3498
 274  572.5438
 275  696.8593
 276  370.1977
 277  690.4918
 278  780.6123
 279  624.3791
 280  264.5042
 281  195.3882
 282  116.522
 283  582.5432
 284  962.4278
 285  962.8808
 286  660.6909
 287  546.8945
 288  284.4095
 289  369.1015
 290  536.2143
 291  619.0729
 292  486.3902
 293  670.2513
 294  730.2898
 295  277.7095
 296  278.2784
 297  265.9976
 298  425.5657
 299  363.2924
 300  271.9116
 301  378.2552
 302  244.5186
 303  335.7909
 304  379.3032
 305  377.154
 306  765.2543
 307  505.9751
 308  704.7495
 309  1004.542
 310  759.9683
 311  607.4371
 312  410.8448
 313  487.5324
 314  726.4302
 315  721.4595
 316  690.7661
 317  563.7651
 318  548.8492
 319  633.0701
 320  414.4955
 321  413.4093
 322  379.5072
 323  459.1256
 324  588.062
 325  421.1629
 326  503.9249
 327  223.5424
 328  359.2782
 329  508.8094
 330  705.0662
 331  832.7512
 332  303.6942
 333  420.9638
 334  641.9121
 335  813.2684
 336  920.2603
 337  1081.412
 338  979.1232
 339  846.9033
 340  732.1682
 341  609.9667
 342  348.2697
 343  317.0896
 344  561.5694
 345  681.2975
 346  835.2794
 347  739.6996
 348  561.1563
 349  606.7695
 350  632.0075
 351  628.9193
 352  541.2474
 353  198.0197
 354  364.9878
 355  557.3326
 356  615.2386
 357  736.0113
 358  744.5217
 359  825.8879
 360  533.2332
 361  686.0211
 362  597.4131
 363  521.5446
 364  643.6729
 365  780.0914
 366  677.5062
 367  443.5128
 368  400.0527
 369  576.0699
 370  411.403
 371  701.4612
 372  571.7285
 373  404.9852
 374  602.1429
 375  814.8212
 376  858.5527
 377  447.4201
 378  685.7169
 379  727.0793
 380  468.0137
 381  378.1342
 382  584.3239
 383  650.1193
 384  665.077
 385  596.2771
 386  595.7972
 387  809.9154
 388  690.7167
 389  514.0581
 390  689.5663
 391  987.9303
 392  763.9078
 393  574.9957
 394  730.429
 395  687.8103
 396  616.1225
 397  817.6773
 398  709.8203
 399  707.001
 400  684.8316
 401  539.0358
 402  480.7786
 403  500.943
 404  671.1082
 405  1067.002
 406  1253.128
 407  932.8048
 408  834.0011
 409  739.9084
 410  923.4896
 411  904.5324
 412  775.7448
 413  770.8329
 414  851.9903
 415  800.5526
 416  792.7687
 417  709.715
 418  839.4241
 419  678.1952
 420  496.3015
 421  627.3214
 422  699.8433
 423  323.7527
 424  534.3604
 425  707.1782
 426  987.5211
 427  905.1895
 428  1001.46
 429  862.8068
 430  477.9998
 431  422.2373
 432  561.8339
 433  740.7964
 434  780.6411
 435  763.2245
 436  689.4527
 437  823.7033
 438  666.6254
 439  749.9155
 440  970.8244
 441  1252.549
 442  1123.512
 443  1389.974
 444  2069.546
 445  2285.314
 446  2044.578
 447  1835.143
 448  1227.685
 449  957.0216
 450  1061.411
 451  1356.784
 452  1316.514
 453  781.087
 454  569.9033
 455  725.5449
 456  927.5345
 457  935.5595
 458  926.6563
 459  708.8106
 460  853.0672
 461  844.8165
 462  1001.144
 463  1160.997
 464  945.2236
 465  718.2882
 466  540.7576
 467  778.3915
 468  888.4691
 469  853.3524
 470  802.2545
 471  922.463
 472  939.8633
 473  1106.437
 474  1004.956
 475  841.4552
 476  800.7729
 477  684.5384
 478  528.0868
 479  757.4585
 480  243.1648
 481  86.7461
 482  480.0669
 483  686.2063
 484  485.6057
 485  628.4247
 486  819.3773
 487  376.5329
 488  583.1386
 489  662.3419
 490  644.9265
 491  700.0905
 492  709.1591
 493  864.5557
 494  713.6707
 495  456.2401
 496  454.8063
 497  488.1894
 498  627.8667
 499  597.6503
 500  814.686
 501  768.2524
 502  561.4777
 503  454.0592
 504  657.7718
 505  541.9832
 506  340.9523
 507  598.2582
 508  758.5756
 509  705.4673
 510  589.0549
 511  355.8577
