# Input file       =  1202395033.118852_cleaned.dat
# Candidate        =  PSR_0332+5434
# Telescope        =  AR
# Epoch_topo       =  58160.609399523746
# Epoch_bary       =  N/A
# T_sample         =  0.002
# Data Folded      =  7340032
# Data Avg         =  0.257868429280019
# Data StdDev      =  5.17396943398638 
# Profile Bins     =  1024
# Profile Avg      =  1848.47118010786 
# Profile StdDev   =  438.049165228083 
# Reduced chi-sqr  =  0.801
# Prob(Noise)      <  1   (~0.0 sigma)
# P_topo (ms)      =  714.579334308242  +/- 0.000146
# P'_topo (s/s)    =  -0                +/- 7.73e-11
# P''_topo (s/s^2) =  0                 +/- 3.41e-14
# P_bary (ms)      =  N/A
# P'_bary (s/s)    =  N/A
# P''_bary (s/s^2) =  N/A
# P_orb (s)        =  N/A
# asin(i)/c (s)    =  N/A
# eccentricity     =  N/A
# w (rad)          =  N/A
# T_peri           =  N/A
######################################################
   0  1957.942
   1  1850.344
   2  1844.179
   3  1916.184
   4  1945.082
   5  1905.345
   6  1823.563
   7  1827.795
   8  1805.64
   9  1849.438
  10  1940.691
  11  2071.064
  12  2190.502
  13  2181.335
  14  2058.457
  15  1955.625
  16  1987.621
  17  2031.458
  18  1998.513
  19  1947.361
  20  1861.116
  21  2022.226
  22  2266.579
  23  2324.867
  24  2330.202
  25  2233.369
  26  2168.909
  27  1863.367
  28  1856.078
  29  1790.171
  30  2010.79
  31  2037.268
  32  2268.516
  33  2180.564
  34  2188.505
  35  2171.298
  36  2047.363
  37  1868.952
  38  1745.747
  39  1874.515
  40  1997.72
  41  1947.213
  42  1790.221
  43  1738.657
  44  1764.184
  45  1745.713
  46  1769.089
  47  1785.385
  48  1800.592
  49  1813.239
  50  1862.647
  51  1977.615
  52  1992.041
  53  1982.251
  54  1909.032
  55  1932.531
  56  2034.273
  57  2029.848
  58  1941.828
  59  1905.198
  60  1949.461
  61  2050.312
  62  1993.212
  63  1953.838
  64  1958.445
  65  2029.288
  66  1944.083
  67  1986.793
  68  2052.889
  69  2155.86
  70  2037.871
  71  2120.563
  72  2033.671
  73  2016.185
  74  2006.607
  75  2145.078
  76  2125.968
  77  2021.89
  78  2038.198
  79  2265.109
  80  2351.918
  81  2382.853
  82  2426.543
  83  2404.808
  84  2220.059
  85  2197.096
  86  2038.061
  87  1870.869
  88  1869.613
  89  2119.339
  90  2337.263
  91  2381.286
  92  2407.399
  93  2348.954
  94  2265.178
  95  2228.069
  96  2191.522
  97  2196.78
  98  2166.039
  99  2182.921
 100  2266.917
 101  2244.219
 102  2042.646
 103  1952.873
 104  2016.844
 105  2121.7
 106  2025.191
 107  2138.165
 108  2118.29
 109  2150.095
 110  2046.091
 111  2005.547
 112  1949.538
 113  1932.233
 114  1906.836
 115  1915.46
 116  1983.724
 117  1956.823
 118  2019.479
 119  2009.808
 120  1872.24
 121  1871.452
 122  1797.967
 123  1896.314
 124  1809.385
 125  1819.767
 126  1789.458
 127  1757.118
 128  1718.234
 129  1849.167
 130  1867.7
 131  1817.283
 132  1689.429
 133  1766.06
 134  1719.737
 135  1787.217
 136  1891.856
 137  2001.692
 138  1749.972
 139  1657.704
 140  1702.511
 141  1762.899
 142  1791.556
 143  1861.375
 144  1919.831
 145  1876.859
 146  1849.975
 147  1987.071
 148  1926.303
 149  1907.628
 150  1783.384
 151  1765.579
 152  1762.985
 153  1825.663
 154  2026.206
 155  2087.189
 156  1820.463
 157  1796.627
 158  1878.416
 159  1810.866
 160  1681.164
 161  1596.087
 162  1677.022
 163  1698.436
 164  1839.412
 165  2058.056
 166  2058.144
 167  2064.17
 168  1966.712
 169  1924.016
 170  1834.222
 171  1794.98
 172  1794.542
 173  1897.308
 174  1903.484
 175  1874.511
 176  1932.299
 177  1840.224
 178  1933.74
 179  1919.191
 180  1918.119
 181  1634.498
 182  1632.433
 183  1854.012
 184  2012.066
 185  1813.871
 186  1730.255
 187  1726.342
 188  1847.846
 189  1868.175
 190  1846.117
 191  1945.803
 192  2024.002
 193  2157.658
 194  2202.118
 195  2068.294
 196  1938.346
 197  1859.889
 198  1892.147
 199  1850.362
 200  1801.875
 201  1749.325
 202  1783.785
 203  1808.867
 204  1953.566
 205  2026.556
 206  2073.429
 207  2080.576
 208  2140.865
 209  1960.163
 210  1767.5
 211  1668.111
 212  1776.128
 213  1718.704
 214  1737.816
 215  1863.616
 216  1949.059
 217  1887.022
 218  1877.594
 219  1931.908
 220  1908.165
 221  1857.041
 222  1848.275
 223  1830.794
 224  1615.966
 225  1527.265
 226  1513.852
 227  1537.233
 228  1617.61
 229  1717.404
 230  1799.44
 231  1789.104
 232  1835.664
 233  1852.959
 234  1891.547
 235  1956.042
 236  2098.468
 237  2108.336
 238  2156.665
 239  2135.01
 240  2214.611
 241  2101.359
 242  2017.391
 243  2064.582
 244  2060.424
 245  2025.27
 246  1965.559
 247  2015.128
 248  2077.825
 249  2143.786
 250  2133.216
 251  1951.045
 252  1881.995
 253  1820.774
 254  1898.779
 255  1886.81
 256  1854.314
 257  1872.224
 258  1955.693
 259  2066.123
 260  1971.086
 261  1900.802
 262  1919.429
 263  1911.537
 264  1990.124
 265  1905.853
 266  1809.718
 267  1705.371
 268  1735.352
 269  1804.28
 270  1801.485
 271  1680.391
 272  1730.18
 273  1789.769
 274  1815.326
 275  1901.667
 276  1844.617
 277  1892.123
 278  1679.148
 279  1870.538
 280  1852.629
 281  1758.811
 282  1662.162
 283  1640.711
 284  1586.795
 285  1574.214
 286  1662.354
 287  1722.574
 288  1734.62
 289  1768.987
 290  1770.757
 291  1767.78
 292  1678.978
 293  1656.399
 294  1624.92
 295  1749.956
 296  1611.707
 297  1472.167
 298  1444.168
 299  1452.487
 300  1542.826
 301  1579.18
 302  1645.347
 303  1669.523
 304  1628.37
 305  1648.367
 306  1603.237
 307  1734.691
 308  1669.178
 309  1713.85
 310  1689.948
 311  1799.842
 312  1824.093
 313  1704.941
 314  1581.248
 315  1501.074
 316  1507.351
 317  1546.095
 318  1582.291
 319  1675.704
 320  1691.03
 321  1769.328
 322  1821.988
 323  1745.493
 324  1664.03
 325  1769.047
 326  1801.672
 327  1803.57
 328  1747.908
 329  1806.683
 330  1816.845
 331  1789.149
 332  1849.625
 333  1924.132
 334  1906.221
 335  1759.339
 336  1857.42
 337  2043.079
 338  2150.542
 339  2246.38
 340  2332.494
 341  2331.612
 342  2235.582
 343  2253.384
 344  2212.562
 345  2116.847
 346  2106.227
 347  2148.216
 348  2242.135
 349  2029.241
 350  1965.689
 351  1973.244
 352  2057.01
 353  2074.165
 354  2093.811
 355  2236.065
 356  2089.336
 357  1967.039
 358  2002.228
 359  1951.583
 360  1970.56
 361  2046.957
 362  2106.24
 363  1959.187
 364  1739.732
 365  1824.02
 366  2001.042
 367  2131.455
 368  2151.031
 369  2110.969
 370  2005.295
 371  1937.367
 372  1791.32
 373  1877.384
 374  1842.857
 375  1938.169
 376  2072.062
 377  2091.95
 378  2050.521
 379  1927.397
 380  1904.415
 381  1826.891
 382  1886.006
 383  1967.832
 384  2069.609
 385  2087.135
 386  2045.017
 387  2041.439
 388  1938.352
 389  1896.517
 390  1792.044
 391  1822.469
 392  1810.917
 393  1771.038
 394  1727.331
 395  1754.079
 396  1609.698
 397  1728.457
 398  1733.151
 399  1840.949
 400  1899.464
 401  1952.839
 402  1865.856
 403  1682.75
 404  1752.224
 405  1741.975
 406  1739.692
 407  1807.402
 408  2005.549
 409  2076.299
 410  1971.771
 411  1868.519
 412  1882.787
 413  1946.195
 414  1866.294
 415  1821.108
 416  1671.783
 417  1498.975
 418  1532.041
 419  1606.271
 420  1636.077
 421  1627.532
 422  1818.898
 423  2009.216
 424  1955.502
 425  1998.546
 426  1979.798
 427  1963.619
 428  1879.68
 429  1826.244
 430  1772.573
 431  1834.241
 432  1858.548
 433  1933.044
 434  1885.447
 435  1901.022
 436  1876.281
 437  1967.469
 438  1911.641
 439  1861.619
 440  1784.564
 441  1820.209
 442  1835.987
 443  1807.368
 444  1860.181
 445  1899.18
 446  1847.072
 447  1706.797
 448  1625.771
 449  1657.614
 450  1655.771
 451  1702.736
 452  1769.189
 453  1776.687
 454  1779.436
 455  1922.509
 456  2022.03
 457  1841.55
 458  1771.284
 459  1746.622
 460  1825.418
 461  1913.762
 462  1981.678
 463  1815.621
 464  1758.701
 465  1779.995
 466  1813.845
 467  1753.349
 468  1723.881
 469  1914.375
 470  1999.124
 471  1936.693
 472  1799.503
 473  1884.802
 474  1907.35
 475  1715.79
 476  1640.566
 477  1618.266
 478  1705.731
 479  1837.167
 480  2008.238
 481  1938.099
 482  1807.004
 483  1769.168
 484  1789.223
 485  1671.055
 486  1695.324
 487  1701.725
 488  1714.535
 489  1501.593
 490  1541.628
 491  1707.541
 492  1800.266
 493  1851.103
 494  1946.091
 495  1840.09
 496  1659.677
 497  1597.08
 498  1695.049
 499  1766.253
 500  1648.663
 501  1718.744
 502  1676.598
 503  1658.111
 504  1581.09
 505  1551.409
 506  1613.337
 507  1657.639
 508  1839.048
 509  2060.395
 510  1979.88
 511  1888.567
 512  1930.412
 513  1965.925
 514  1778.437
 515  1557.15
 516  1633.545
 517  1653.555
 518  1709.74
 519  1755.273
 520  1880.298
 521  1851.237
 522  1748.482
 523  1834.042
 524  1816.932
 525  1870.226
 526  1766.996
 527  1820.051
 528  1694.387
 529  1598.953
 530  1802.186
 531  1966.362
 532  1931.797
 533  1620.455
 534  1353.836
 535  1227.497
 536  1278.916
 537  1416.233
 538  1529.632
 539  1515.877
 540  1678.214
 541  1832.368
 542  1823.267
 543  1726.873
 544  1599.5
 545  1509.036
 546  1423.174
 547  1413.073
 548  1549.721
 549  1601.542
 550  1521.193
 551  1554.503
 552  1626.705
 553  1664.42
 554  1700.225
 555  1734.519
 556  1686.43
 557  1535.977
 558  1492.324
 559  1632.619
 560  1639.504
 561  1638.605
 562  1501.64
 563  1439.176
 564  1337.023
 565  1422.676
 566  1562.008
 567  1690.727
 568  1703.547
 569  1843.076
 570  1856.358
 571  1745.407
 572  1599.146
 573  1646.473
 574  1677.176
 575  1686.168
 576  1750.526
 577  1824.227
 578  1778.996
 579  1727.879
 580  1700.18
 581  1735.323
 582  1782.514
 583  1745.885
 584  1626.232
 585  1666.599
 586  1762.052
 587  1986.657
 588  2002.401
 589  1966.983
 590  1923.315
 591  1990.058
 592  2013.201
 593  1979.743
 594  1847.11
 595  1917.659
 596  1849.31
 597  1970.932
 598  2006.642
 599  1988.105
 600  1957.181
 601  1955.884
 602  1880.269
 603  1827.49
 604  1872.484
 605  2003.541
 606  2264.891
 607  2231.024
 608  2326.352
 609  2347.934
 610  2365.579
 611  2450.074
 612  2582.673
 613  2703.408
 614  2572.128
 615  2457.883
 616  2549.141
 617  2520.896
 618  2341.273
 619  2220.144
 620  2145.738
 621  2132.861
 622  2010.415
 623  2067.817
 624  2226.899
 625  2191.025
 626  2301.874
 627  2245.587
 628  2166.907
 629  2023.719
 630  1962.583
 631  2034.063
 632  1996.042
 633  1952.855
 634  1880.188
 635  1987.936
 636  2044.355
 637  2071.492
 638  1931.01
 639  1850.671
 640  1802.669
 641  1930.324
 642  1964.7
 643  2056.188
 644  2004.139
 645  1950.064
 646  1796.81
 647  1787.163
 648  1694.977
 649  1616.379
 650  1613.479
 651  1608.903
 652  1700.321
 653  1716.344
 654  1810.75
 655  1932.66
 656  1877.846
 657  1694.684
 658  1510.331
 659  1412.721
 660  1429.461
 661  1420.709
 662  1486.716
 663  1536.714
 664  1514.765
 665  1645.561
 666  1749.349
 667  1657.283
 668  1593.649
 669  1573.795
 670  1738.819
 671  1840.193
 672  1773.604
 673  1896.383
 674  1876.764
 675  1842.411
 676  1734.138
 677  1690.132
 678  1611.287
 679  1549.171
 680  1707.119
 681  1847.541
 682  1832.195
 683  1830.573
 684  1812.865
 685  1703.252
 686  1650.867
 687  1649.687
 688  1727.751
 689  1592.308
 690  1583.351
 691  1692.256
 692  1676.154
 693  1610.686
 694  1574.953
 695  1718.651
 696  1859.587
 697  1885.596
 698  1833.122
 699  1848.937
 700  1869.146
 701  1967.889
 702  2011.978
 703  1957.753
 704  1963.896
 705  1942.779
 706  1853.539
 707  1756.297
 708  1689.031
 709  1749.922
 710  1846.53
 711  1797.905
 712  1880.907
 713  1804.565
 714  1814.788
 715  1944.942
 716  1966.628
 717  1936.671
 718  1749.978
 719  1773.009
 720  1785.472
 721  1709.062
 722  1584.567
 723  1523.29
 724  1434.055
 725  1336.453
 726  1286.961
 727  1429.915
 728  1463.457
 729  1430.784
 730  1531.292
 731  1678.989
 732  1631.111
 733  1570.584
 734  1597.347
 735  1579.899
 736  1548.417
 737  1474.833
 738  1452.505
 739  1508.326
 740  1459.826
 741  1468.472
 742  1456.551
 743  1563.781
 744  1546.666
 745  1444.755
 746  1438.624
 747  1400.245
 748  1534.837
 749  1587.33
 750  1592.338
 751  1635.77
 752  1643.006
 753  1617.25
 754  1653.465
 755  1681.052
 756  1783.482
 757  1727.373
 758  1770.018
 759  1922.949
 760  1995.02
 761  2030.305
 762  1972.573
 763  2050.159
 764  2060.319
 765  2069.694
 766  1995.28
 767  1944.89
 768  1888.062
 769  1893.782
 770  1976.091
 771  2003.476
 772  2137.972
 773  2148.753
 774  2104.327
 775  2236.358
 776  2367.267
 777  2473.399
 778  2383.349
 779  2347.655
 780  2383.651
 781  2359.154
 782  2319.732
 783  2261.322
 784  2318.004
 785  2379.196
 786  2333.026
 787  2312.572
 788  2234.102
 789  2265.475
 790  2302.613
 791  2308.156
 792  2229.822
 793  2271.611
 794  2279.36
 795  2246.386
 796  2288.413
 797  2232.811
 798  2310.751
 799  2196.97
 800  2211.786
 801  2160.809
 802  2243.759
 803  2155.94
 804  2077.767
 805  2075.539
 806  2135.804
 807  2068.12
 808  1880.947
 809  1886.331
 810  1733.587
 811  1693.097
 812  1709.451
 813  1853.751
 814  1837.662
 815  1676.271
 816  1820.435
 817  2045.027
 818  2122.777
 819  2200.527
 820  2315.036
 821  2107.315
 822  1924.949
 823  1860.373
 824  2037.209
 825  1995.479
 826  1853.814
 827  1943.204
 828  2020.496
 829  2080.155
 830  1995.535
 831  1955.136
 832  1803.932
 833  1813.946
 834  1865.932
 835  1931.087
 836  1832.184
 837  1788.397
 838  1727.142
 839  1634.267
 840  1421.995
 841  1473.033
 842  1438.006
 843  1610.323
 844  1724.497
 845  2061.7
 846  2111.681
 847  2050.603
 848  1863.655
 849  1892.865
 850  1903.083
 851  1915.373
 852  1818.656
 853  1829.519
 854  1786.656
 855  1845.266
 856  1885.677
 857  1831.68
 858  1807.496
 859  1659.548
 860  1611.986
 861  1624.492
 862  1780.259
 863  1878.897
 864  2011.189
 865  1857.964
 866  1832.737
 867  1834.353
 868  1920.965
 869  1897.164
 870  1874.911
 871  1879.223
 872  2003.512
 873  1967.508
 874  2034.798
 875  1922.894
 876  1859.508
 877  1732.161
 878  1677.485
 879  1609.358
 880  1618.214
 881  1613.633
 882  1620.404
 883  1657.138
 884  1840.83
 885  1947.32
 886  2020.687
 887  1921.254
 888  1784.86
 889  1711.306
 890  1636.13
 891  1809.884
 892  1946.583
 893  2001.492
 894  1885.296
 895  1789.405
 896  1704.068
 897  1706.906
 898  1792.088
 899  1968.268
 900  2070.274
 901  1992.056
 902  1834.132
 903  1808.955
 904  1672.37
 905  1748.276
 906  1773.782
 907  1692.591
 908  1596.903
 909  1543.254
 910  1653.408
 911  1613.358
 912  1688.205
 913  1787.822
 914  1633.987
 915  1491.71
 916  1466.216
 917  1536.7
 918  1557.478
 919  1524.106
 920  1578.49
 921  1718.192
 922  1758.686
 923  1725.127
 924  1565.289
 925  1457.095
 926  1347.044
 927  1462.061
 928  1589.625
 929  1482.195
 930  1545.933
 931  1694.521
 932  1693.182
 933  1579.785
 934  1572.901
 935  1682.558
 936  1721.105
 937  1642.792
 938  1727.36
 939  1741.276
 940  1640.178
 941  1552.196
 942  1609.47
 943  1598.815
 944  1538.163
 945  1521.642
 946  1618.3
 947  1615.327
 948  1617.465
 949  1788.996
 950  1915.336
 951  1864.674
 952  1852.437
 953  1790.766
 954  1765.176
 955  1711.751
 956  1663.311
 957  1625.436
 958  1635.457
 959  1688.195
 960  1772.107
 961  1815.99
 962  1876.869
 963  1907.672
 964  1971.035
 965  1827.492
 966  1703.316
 967  1587.742
 968  1626.186
 969  1613.775
 970  1841.82
 971  1827.032
 972  1887.386
 973  1695.097
 974  1650.995
 975  1552.469
 976  1629.247
 977  1694.547
 978  1777.653
 979  1763.966
 980  1710.03
 981  1667.549
 982  1708.571
 983  1693.82
 984  1697.849
 985  1612.824
 986  1705.153
 987  1734.615
 988  1853.623
 989  1763.641
 990  1705.112
 991  1775.474
 992  1827.559
 993  1757.21
 994  1582.441
 995  1439.709
 996  1550.291
 997  1683.363
 998  1799.007
 999  1852.022
1000  1822.352
1001  1785.172
1002  1741.24
1003  1667.269
1004  1646.28
1005  1660.133
1006  1838.19
1007  1889.285
1008  1730.203
1009  1751.486
1010  1668.063
1011  1722.445
1012  1517.969
1013  1495.223
1014  1565.639
1015  1652.584
1016  1757.596
1017  1846.551
1018  1893.548
1019  1796.761
1020  1754.818
1021  1845.534
1022  1934.601
1023  2012.666
