# Input file       =  1202050963.106889_cleaned.dat
# Candidate        =  PSR_0332+5434
# Telescope        =  AR
# Epoch_topo       =  58156.627107718625
# Epoch_bary       =  N/A
# T_sample         =  0.002
# Data Folded      =  7340032
# Data Avg         =  0.256155032037765
# Data StdDev      =  9.16102965965375 
# Profile Bins     =  256
# Profile Avg      =  7343.5015222119  
# Profile StdDev   =  1551.21959889475 
# Reduced chi-sqr  =  0.865
# Prob(Noise)      <  0.942   (~0.0 sigma)
# P_topo (ms)      =  714.578280647374  +/- 0.000647
# P'_topo (s/s)    =  -0                +/- 3.41e-10
# P''_topo (s/s^2) =  0                 +/- 1.51e-13
# P_bary (ms)      =  N/A
# P'_bary (s/s)    =  N/A
# P''_bary (s/s^2) =  N/A
# P_orb (s)        =  N/A
# asin(i)/c (s)    =  N/A
# eccentricity     =  N/A
# w (rad)          =  N/A
# T_peri           =  N/A
######################################################
   0  5695.521
   1  5332.757
   2  5425.468
   3  6604.427
   4  7789.51
   5  6173.675
   6  7006.547
   7  8263.158
   8  8323.56
   9  7511.723
  10  8208.186
  11  10092.49
  12  8902.46
  13  8915.965
  14  9477.393
  15  10430.99
  16  9122.349
  17  8088.288
  18  10212.9
  19  9395.06
  20  9621.078
  21  10031.9
  22  8779.406
  23  7890.229
  24  7159.391
  25  7899.55
  26  6877.44
  27  7279.998
  28  7438.209
  29  7467.987
  30  7411.808
  31  7287.746
  32  8326.009
  33  7803.982
  34  7379.638
  35  5657.644
  36  7727.109
  37  7940.523
  38  6516.171
  39  7609.109
  40  8720.52
  41  7677.276
  42  6856.505
  43  8268.426
  44  7903.792
  45  7599.831
  46  6364.917
  47  7361.936
  48  8296.12
  49  8199.392
  50  7701.253
  51  7359.522
  52  7120.604
  53  7101.085
  54  7298.965
  55  7661.865
  56  7129.113
  57  8360.108
  58  8137.171
  59  8690.381
  60  7326.646
  61  6760.453
  62  7376.369
  63  6020.461
  64  6578.361
  65  7151.371
  66  8633.366
  67  7604.796
  68  7681.559
  69  10267.2
  70  8882.045
  71  9170.751
  72  8847.849
  73  7572.197
  74  7975.665
  75  8159.525
  76  7460.78
  77  6692.912
  78  8180.548
  79  6983.855
  80  6067.37
  81  6823.295
  82  7249.088
  83  6415.925
  84  6377.595
  85  7331.304
  86  9088.996
  87  9385.173
  88  9120.981
  89  10423.36
  90  10695.68
  91  10682.7
  92  10155.47
  93  10611.02
  94  9209.234
  95  7474.692
  96  9131.652
  97  8146.554
  98  8064.118
  99  8370.887
 100  8036.472
 101  6494.723
 102  6713.261
 103  6211.017
 104  6460.826
 105  6360.471
 106  6654.003
 107  6210.964
 108  6077.469
 109  6627.358
 110  6848.713
 111  6341.44
 112  6305.189
 113  7521.912
 114  6090.894
 115  6690.492
 116  5998.498
 117  3701.192
 118  4350.192
 119  5841.737
 120  6115.357
 121  5413.643
 122  6528.664
 123  7139.346
 124  5714.524
 125  4962.788
 126  5544.569
 127  5770.75
 128  4906.108
 129  5382.068
 130  6430.904
 131  6524.025
 132  7469.225
 133  7613.932
 134  7239.847
 135  6200.48
 136  6497.149
 137  7762.445
 138  7941.923
 139  5967.407
 140  6273.08
 141  6143.941
 142  5800.566
 143  4763.696
 144  5808.683
 145  7056.139
 146  5838.862
 147  6922.47
 148  4822.091
 149  5342.561
 150  6444.421
 151  7569.285
 152  9713.988
 153  9571.136
 154  9288.759
 155  8569.676
 156  6899.02
 157  7308.022
 158  7659.914
 159  7540.983
 160  7196.528
 161  9269.521
 162  8026.203
 163  7901.447
 164  6251.526
 165  7988.296
 166  8620.712
 167  8654.595
 168  6905.449
 169  7444.326
 170  7479.997
 171  6370.427
 172  5777.958
 173  7206.593
 174  7610.07
 175  5936.558
 176  8521.799
 177  9014.422
 178  5712.633
 179  5155.284
 180  6419.197
 181  6713.116
 182  5422.934
 183  6386.451
 184  7356.998
 185  6957.274
 186  6116.252
 187  6435.939
 188  6998.218
 189  8524.338
 190  7840.496
 191  7361.505
 192  7403.167
 193  6205.419
 194  6199.204
 195  6671.35
 196  4938.223
 197  5032.781
 198  4911.879
 199  7016.847
 200  6141.247
 201  4555.731
 202  5564.249
 203  6721.059
 204  8241.535
 205  7012.223
 206  6383.453
 207  7520.462
 208  7621.163
 209  7151.771
 210  7708.183
 211  8655.988
 212  7648.615
 213  8272.154
 214  8502.433
 215  6847.542
 216  6228.231
 217  7462.178
 218  7545.501
 219  8655.568
 220  8862.554
 221  7496.461
 222  7905.36
 223  7025.803
 224  7962.669
 225  7377.402
 226  6997.441
 227  6943.268
 228  7082.78
 229  7082.165
 230  6893.243
 231  8685.771
 232  8530.73
 233  8131.692
 234  8997.101
 235  8279.706
 236  7231.386
 237  6118.555
 238  7805.808
 239  7290.157
 240  6444.12
 241  6939.802
 242  7120.178
 243  7560.649
 244  7456.682
 245  7267.855
 246  6951.829
 247  8406.921
 248  7939.516
 249  7262.603
 250  7447.42
 251  7784.425
 252  6830.859
 253  7266.57
 254  7840.619
 255  7283.867
