# Input file       =  1202466588.126555_cleaned.dat
# Candidate        =  PSR_0332+5434
# Telescope        =  AR
# Epoch_topo       =  58161.437582483275
# Epoch_bary       =  N/A
# T_sample         =  0.002
# Data Folded      =  7208960
# Data Avg         =  0.133384609913496
# Data StdDev      =  4.26534475440815 
# Profile Bins     =  1024
# Profile Avg      =  939.023391900131 
# Profile StdDev   =  357.882505513553 
# Reduced chi-sqr  =  1.777
# Prob(Noise)      <  2.61e-47   (~14.4 sigma)
# P_topo (ms)      =  714.579502543073  +/- 2.02e-05
# P'_topo (s/s)    =  -0                +/- 1.09e-11
# P''_topo (s/s^2) =  0                 +/- 4.89e-15
# P_bary (ms)      =  N/A
# P'_bary (s/s)    =  N/A
# P''_bary (s/s^2) =  N/A
# P_orb (s)        =  N/A
# asin(i)/c (s)    =  N/A
# eccentricity     =  N/A
# w (rad)          =  N/A
# T_peri           =  N/A
######################################################
   0  1044.739
   1  1136.942
   2  1214.923
   3  1299.065
   4  1112.087
   5  991.9565
   6  839.4607
   7  800.1762
   8  737.7212
   9  801.2038
  10  1016.292
  11  1170.604
  12  1085.8
  13  1106.277
  14  1021.203
  15  1026.688
  16  887.5066
  17  879.0665
  18  872.9825
  19  847.8942
  20  836.108
  21  810.2531
  22  523.1391
  23  457.8535
  24  402.9664
  25  578.3109
  26  690.5295
  27  887.3271
  28  1030.001
  29  939.9377
  30  1051.409
  31  1217.008
  32  1195.888
  33  1107.925
  34  1154.253
  35  1219.785
  36  1143.545
  37  911.5797
  38  808.0077
  39  771.9066
  40  718.6533
  41  697.2921
  42  689.182
  43  942.1585
  44  1076.213
  45  1132.124
  46  990.6599
  47  819.005
  48  790.8302
  49  935.3058
  50  1082.725
  51  1231.174
  52  1091.67
  53  864.4028
  54  653.91
  55  615.4668
  56  627.2784
  57  528.1674
  58  539.0126
  59  621.5682
  60  799.7433
  61  1003.214
  62  995.7754
  63  1120.594
  64  1142.115
  65  1180.326
  66  1202.54
  67  1192.811
  68  1253.385
  69  1109.108
  70  990.1934
  71  854.1396
  72  739.8014
  73  692.1646
  74  701.795
  75  844.0392
  76  957.8205
  77  1096.078
  78  1138.361
  79  1156.765
  80  1016.355
  81  940.7381
  82  745.8322
  83  786.8378
  84  888.2938
  85  969.361
  86  980.5471
  87  727.2951
  88  666.1061
  89  600.666
  90  679.7911
  91  578.2949
  92  624.7546
  93  716.6179
  94  910.591
  95  950.1682
  96  1054.02
  97  1051.627
  98  1205.819
  99  1295.77
 100  1403.849
 101  1385.789
 102  1330.369
 103  1211.187
 104  1036.815
 105  905.6086
 106  780.1028
 107  786.9328
 108  825.1243
 109  947.1389
 110  1090.977
 111  1110.947
 112  1056.697
 113  1057.654
 114  1120.318
 115  1110.52
 116  1144.567
 117  1115.141
 118  1084.083
 119  846.6201
 120  650.5847
 121  542.9766
 122  454.2012
 123  463.6208
 124  484.1528
 125  696.9725
 126  874.8579
 127  1129.975
 128  1245.512
 129  1263.417
 130  1171.036
 131  1275.205
 132  1330.5
 133  1364.763
 134  1281.516
 135  1219.76
 136  1137.053
 137  950.1725
 138  862.5115
 139  798.748
 140  922.1021
 141  855.6735
 142  1010.146
 143  1041.857
 144  1245.363
 145  1094.573
 146  1010.519
 147  885.291
 148  863.6404
 149  882.7711
 150  902.0613
 151  951.1538
 152  864.0668
 153  794.5892
 154  654.5079
 155  492.4732
 156  523.8705
 157  638.8204
 158  741.4563
 159  763.7123
 160  739.1583
 161  904.1296
 162  964.6812
 163  1099.834
 164  1118.266
 165  1168.419
 166  1211.541
 167  1155.146
 168  1187.34
 169  1183.802
 170  1124.508
 171  1021.294
 172  793.3017
 173  708.8527
 174  790.3187
 175  994.7759
 176  1094.485
 177  1122.213
 178  1154.591
 179  1112.961
 180  1014.122
 181  1113.052
 182  1260.999
 183  1302.088
 184  1239.09
 185  1053.668
 186  890.2527
 187  646.2768
 188  583.2458
 189  681.8369
 190  601.4335
 191  618.8323
 192  576.6248
 193  810.0332
 194  1001.082
 195  1168.981
 196  1196.818
 197  1218.234
 198  1378.781
 199  1560.955
 200  1539.82
 201  1428.391
 202  1261.626
 203  1222.166
 204  1147.566
 205  958.3648
 206  800.1236
 207  846.7815
 208  951.2234
 209  1078.005
 210  1104.444
 211  1198.355
 212  1150.321
 213  1185.167
 214  1076.005
 215  1050.914
 216  1145.102
 217  1206.32
 218  1095.23
 219  893.0157
 220  480.5329
 221  349.6949
 222  305.067
 223  476.4451
 224  620.8196
 225  771.9692
 226  879.2382
 227  881.5052
 228  1037.753
 229  1200.152
 230  1227.804
 231  1157.166
 232  1174.261
 233  1258.153
 234  1226.399
 235  1014.419
 236  799.283
 237  666.0165
 238  702.1448
 239  745.0348
 240  835.4613
 241  977.1951
 242  1144.13
 243  1341.529
 244  1181.724
 245  1065.384
 246  851.9486
 247  835.2496
 248  878.8159
 249  1065.187
 250  1128.781
 251  1079.911
 252  927.1669
 253  800.2653
 254  632.7282
 255  453.6423
 256  381.1811
 257  434.4988
 258  695.1904
 259  906.5465
 260  1077.857
 261  1325.139
 262  1457.18
 263  1447.447
 264  1296.852
 265  1146.071
 266  1090.973
 267  1111.37
 268  1130.476
 269  1082.726
 270  948.1894
 271  765.7471
 272  835.6512
 273  878.1759
 274  998.9321
 275  1033.4
 276  1254.239
 277  1389.292
 278  1430.565
 279  1188.413
 280  1015.699
 281  1057.078
 282  1066.513
 283  1016.183
 284  836.9496
 285  596.8896
 286  400.5639
 287  254.2459
 288  281.9577
 289  363.8927
 290  514.8427
 291  766.0031
 292  861.0983
 293  890.2027
 294  1006.909
 295  1112.875
 296  1449.197
 297  1453.507
 298  1527.997
 299  1355.628
 300  1294.437
 301  1209.373
 302  1111.166
 303  866.5549
 304  585.1169
 305  499.2189
 306  680.304
 307  833.132
 308  1067.416
 309  1151.699
 310  1106.366
 311  1035.321
 312  977.2247
 313  976.2254
 314  1044.359
 315  1182.539
 316  1151.425
 317  964.6175
 318  658.6964
 319  559.8068
 320  484.933
 321  466.5594
 322  378.2538
 323  409.7389
 324  511.8799
 325  693.0322
 326  863.6595
 327  1000.14
 328  1131.056
 329  1275.309
 330  1288.293
 331  1367.297
 332  1542.444
 333  1427.669
 334  1172.431
 335  865.2755
 336  841.4561
 337  761.1191
 338  634.8342
 339  562.3075
 340  675.2808
 341  855.5631
 342  952.7526
 343  1012.475
 344  1007.901
 345  1039.733
 346  1082.052
 347  998.1687
 348  938.7509
 349  822.7719
 350  724.306
 351  683.4716
 352  592.0469
 353  558.9055
 354  434.6981
 355  429.3753
 356  524.275
 357  638.1714
 358  721.842
 359  829.0204
 360  974.4927
 361  1173.461
 362  1150.083
 363  1165.333
 364  1093.176
 365  1159.285
 366  1146.205
 367  1019.666
 368  951.308
 369  835.0489
 370  691.405
 371  596.3934
 372  659.538
 373  826.5522
 374  961.3002
 375  973.4197
 376  1038.146
 377  1011.518
 378  1003.673
 379  1065.273
 380  1090.231
 381  1102.02
 382  1036.99
 383  925.278
 384  829.6806
 385  734.5509
 386  600.8395
 387  586.2207
 388  543.0012
 389  754.8209
 390  758.0244
 391  1035.164
 392  1153.684
 393  1351.918
 394  1215.661
 395  1205.074
 396  1241.526
 397  1399.409
 398  1388.339
 399  1316.535
 400  1118.894
 401  933.8948
 402  763.4135
 403  629.9192
 404  607.6
 405  674.1297
 406  832.4235
 407  844.6036
 408  906.0098
 409  953.7711
 410  1153.305
 411  1202.532
 412  1123.158
 413  884.0159
 414  771.1717
 415  765.8393
 416  867.9855
 417  668.9022
 418  422.4266
 419  268.7864
 420  272.0999
 421  393.0435
 422  481.6725
 423  691.0451
 424  897.5836
 425  1101.952
 426  1154.732
 427  1143.138
 428  1132.036
 429  1292.499
 430  1290.921
 431  1239.44
 432  1119.296
 433  1034.361
 434  904.1821
 435  732.6965
 436  697.8633
 437  738.0153
 438  851.738
 439  1004.18
 440  1197.209
 441  1287.858
 442  1192.149
 443  1225.41
 444  1052.583
 445  912.9911
 446  709.9124
 447  784.6134
 448  866.1152
 449  853.6194
 450  700.2603
 451  518.6107
 452  522.6676
 453  520.4074
 454  542.2295
 455  488.0638
 456  626.457
 457  784.8403
 458  975.2481
 459  1052.703
 460  1082.737
 461  1195.237
 462  1253.088
 463  1339.223
 464  1403.691
 465  1423.937
 466  1348.603
 467  1227.809
 468  915.8197
 469  754.526
 470  761.275
 471  850.3356
 472  843.5858
 473  864.5666
 474  951.8622
 475  1112.461
 476  1138.903
 477  1120.933
 478  992.1362
 479  968.5417
 480  882.1245
 481  955.2208
 482  908.9066
 483  931.8197
 484  812.6395
 485  660.748
 486  412.4564
 487  310.4963
 488  355.3603
 489  520.238
 490  703.7492
 491  880.0522
 492  1027.165
 493  1051.725
 494  1215.378
 495  1212.321
 496  1238.875
 497  1059.797
 498  1064.425
 499  1106.155
 500  1058.638
 501  911.855
 502  760.4381
 503  704.0159
 504  737.366
 505  831.9349
 506  937.3214
 507  1074.448
 508  1231.248
 509  1252.6
 510  942.3477
 511  862.7547
 512  866.8074
 513  1002.345
 514  1006.484
 515  814.9946
 516  605.3848
 517  455.959
 518  519.2247
 519  515.8254
 520  577.8713
 521  546.0143
 522  687.9178
 523  802.1213
 524  1007.747
 525  1203.672
 526  1390.316
 527  1401.845
 528  1330.918
 529  1371.752
 530  1343.923
 531  1232.587
 532  1126.607
 533  1062.979
 534  1005.229
 535  786.6492
 536  688.3406
 537  635.9462
 538  822.174
 539  1038.357
 540  1134.237
 541  1057.189
 542  1034.785
 543  1034.936
 544  1015.942
 545  915.3165
 546  995.3927
 547  1007.475
 548  987.0394
 549  895.6423
 550  741.1058
 551  522.3423
 552  426.1177
 553  520.8734
 554  578.452
 555  596.745
 556  737.2941
 557  872.2698
 558  1099.02
 559  1214.277
 560  1244.343
 561  1186.768
 562  1210.61
 563  1267.517
 564  1244.55
 565  1055.632
 566  893.602
 567  754.1124
 568  695.2242
 569  492.4904
 570  478.6178
 571  683.4861
 572  914.1171
 573  1013.124
 574  1060.373
 575  984.34
 576  982.2751
 577  985.7012
 578  1053.882
 579  1077.135
 580  1106.878
 581  1009.092
 582  816.9827
 583  620.6738
 584  407.764
 585  271.5115
 586  279.4869
 587  427.2856
 588  564.7948
 589  640.5947
 590  890.4145
 591  1165.723
 592  1180.074
 593  1130.157
 594  1283.595
 595  1443.358
 596  1428.016
 597  1218.479
 598  1160.761
 599  1064.484
 600  1026.192
 601  889.5063
 602  781.8327
 603  807.5576
 604  1026.998
 605  1252.329
 606  1429.347
 607  1566.697
 608  1579.651
 609  1577.059
 610  1430.059
 611  1505.151
 612  1574.057
 613  1669.856
 614  1604.235
 615  1433.392
 616  1244.764
 617  975.8237
 618  763.016
 619  623.5579
 620  619.3953
 621  695.338
 622  770.7433
 623  929.0329
 624  978.3417
 625  1023.308
 626  1063.321
 627  1246.376
 628  1238.177
 629  1289.197
 630  1067.555
 631  1041.696
 632  903.2058
 633  911.2465
 634  798.2442
 635  786.7481
 636  803.2004
 637  911.348
 638  1032.484
 639  1222.393
 640  1126.177
 641  994.2794
 642  859.1242
 643  887.4552
 644  958.314
 645  1037.031
 646  1131.104
 647  1151.763
 648  1037.993
 649  870.2056
 650  674.2555
 651  580.926
 652  598.7917
 653  490.6029
 654  555.8262
 655  585.5188
 656  980.0411
 657  1079.786
 658  1233.556
 659  1361.275
 660  1375.228
 661  1356.078
 662  1305.844
 663  1303.231
 664  1190.067
 665  1059.874
 666  999.5855
 667  895.519
 668  677.137
 669  767.4088
 670  824.2156
 671  1018.872
 672  1088.188
 673  1240.47
 674  1131.581
 675  995.6507
 676  1034.005
 677  1038.957
 678  992.4555
 679  953.4349
 680  1021.446
 681  894.1263
 682  593.6738
 683  466.3949
 684  419.5085
 685  436.3044
 686  421.8813
 687  495.5898
 688  555.7054
 689  678.3363
 690  761.1391
 691  877.8571
 692  953.7283
 693  991.7229
 694  1095.391
 695  1149.973
 696  1187.674
 697  1112.111
 698  1051.748
 699  914.506
 700  933.9537
 701  864.9675
 702  781.152
 703  743.3991
 704  907.928
 705  954.5076
 706  1005.606
 707  877.0921
 708  841.8522
 709  848.3185
 710  940.6959
 711  1113.971
 712  1088.417
 713  1016.665
 714  818.0579
 715  629.8704
 716  441.7283
 717  430.4349
 718  577.6537
 719  686.7827
 720  700.6328
 721  824.0982
 722  1056.155
 723  1171.359
 724  1237.229
 725  1291.37
 726  1395.717
 727  1386.525
 728  1254.983
 729  1116.898
 730  1017
 731  1051.179
 732  969.237
 733  848.3642
 734  728.4667
 735  805.4623
 736  954.5174
 737  1161.072
 738  1287.96
 739  1277.086
 740  1159.044
 741  1157.31
 742  1081.012
 743  933.1212
 744  830.244
 745  905.8249
 746  945.3516
 747  914.3267
 748  754.1972
 749  682.6408
 750  620.1865
 751  588.1829
 752  598.7446
 753  636.3059
 754  827.9672
 755  876.8195
 756  1082.912
 757  1264.198
 758  1236.283
 759  1234.938
 760  1171.296
 761  1308.687
 762  1332.399
 763  1176.927
 764  1079.075
 765  888.7289
 766  765.1404
 767  603.9897
 768  725.4173
 769  839.0145
 770  801.1614
 771  968.675
 772  1219.378
 773  1211.368
 774  1003.134
 775  865.6823
 776  944.9375
 777  977.2697
 778  903.887
 779  921.0609
 780  859.1414
 781  758.5739
 782  618.4178
 783  435.6505
 784  345.1397
 785  282.3835
 786  511.526
 787  691.922
 788  815.1219
 789  921.3342
 790  1039.375
 791  1134.778
 792  1356.725
 793  1408.324
 794  1428.966
 795  1181.205
 796  1097.158
 797  1075.515
 798  1026.141
 799  896.6868
 800  821.7577
 801  837.0695
 802  832.1501
 803  887.3517
 804  948.8513
 805  1077.157
 806  1137.307
 807  1160.917
 808  1052.726
 809  1015.487
 810  1102.585
 811  968.5839
 812  955.7651
 813  713.0466
 814  631.255
 815  451.4521
 816  454.7224
 817  434.6222
 818  600.4936
 819  719.6714
 820  754.4979
 821  764.9761
 822  957.5195
 823  993.5992
 824  1089.895
 825  1060.428
 826  1094.23
 827  1105.499
 828  1036.213
 829  1029.766
 830  937.858
 831  908.3998
 832  917.4078
 833  817.3591
 834  899.601
 835  889.7574
 836  1063.071
 837  1220.087
 838  1081.512
 839  982.7897
 840  833.9829
 841  875.6893
 842  826.3849
 843  950.8549
 844  986.0144
 845  991.4463
 846  836.0888
 847  700.7647
 848  508.0992
 849  476.9436
 850  524.2916
 851  570.6262
 852  725.6611
 853  805.71
 854  982.6104
 855  1142.546
 856  1234.978
 857  1271.987
 858  1189.209
 859  1269.234
 860  1270.174
 861  1307.304
 862  1175.247
 863  1013.117
 864  800.7511
 865  628.3139
 866  654.8931
 867  708.6919
 868  836.1246
 869  961.8358
 870  1021.737
 871  1121.314
 872  1143.693
 873  1105.778
 874  1080.392
 875  985.0992
 876  927.5248
 877  860.8833
 878  710.6203
 879  586.4598
 880  506.522
 881  624.0662
 882  707.5065
 883  705.9512
 884  702.3322
 885  704.1599
 886  853.8203
 887  996.9121
 888  1170.871
 889  1241.609
 890  1304.766
 891  1380.808
 892  1394.374
 893  1339.13
 894  1321.165
 895  1241.774
 896  1064.316
 897  780.7512
 898  618.2255
 899  670.9113
 900  781.6876
 901  937.0602
 902  927.928
 903  832.7029
 904  912.2658
 905  948.83
 906  1054.516
 907  942.8254
 908  856.9903
 909  802.4067
 910  878.1485
 911  900.4973
 912  847.137
 913  712.6371
 914  621.5394
 915  543.766
 916  418.2743
 917  535.5375
 918  613.3232
 919  817.3733
 920  1071.121
 921  1146.39
 922  1273.595
 923  1272.886
 924  1380.327
 925  1276.014
 926  1208.724
 927  1237.256
 928  1037.519
 929  721.9782
 930  560.5038
 931  547.5685
 932  657.6157
 933  573.4324
 934  714.3036
 935  955.416
 936  1098.253
 937  1136.927
 938  1106.557
 939  1199.911
 940  1268.888
 941  1031.979
 942  905.5977
 943  681.9498
 944  758.2377
 945  832.6812
 946  659.6377
 947  473.996
 948  219.7456
 949  321.9885
 950  476.931
 951  615.5161
 952  745.7161
 953  740.3353
 954  994.0226
 955  1017.476
 956  1159.935
 957  1307.994
 958  1487.956
 959  1466.148
 960  1348.053
 961  1217.42
 962  1143.578
 963  975.8942
 964  906.4888
 965  842.3941
 966  814.7416
 967  947.0496
 968  1070.492
 969  1227.142
 970  1246.281
 971  1113.598
 972  1076.207
 973  851.5122
 974  890.6785
 975  937.2778
 976  1010.182
 977  933.827
 978  745.0911
 979  655.4722
 980  575.8734
 981  560.3464
 982  522.3859
 983  576.8003
 984  708.6427
 985  932.5249
 986  967.8915
 987  999.999
 988  1051.531
 989  1250.014
 990  1349.552
 991  1372.322
 992  1374.916
 993  1349.73
 994  1287.351
 995  1292.382
 996  998.3672
 997  654.9669
 998  425.9576
 999  628.5366
1000  733.748
1001  758.7714
1002  855.1953
1003  1022.043
1004  1184.847
1005  1134.699
1006  1022.112
1007  1124.34
1008  1162.512
1009  1176.775
1010  1024.715
1011  786.4264
1012  589.2277
1013  485.0367
1014  497.41
1015  595.0582
1016  539.8832
1017  648.4641
1018  867.8024
1019  1035.837
1020  1123.674
1021  1129.739
1022  1179.841
1023  1084.647
