# Input file       =  1202582396.27699_cleaned.dat
# Candidate        =  PSR_0332+5434
# Telescope        =  AR
# Epoch_topo       =  58162.777954594792
# Epoch_bary       =  N/A
# T_sample         =  0.002
# Data Folded      =  7340032
# Data Avg         =  0.179984509169507
# Data StdDev      =  3.52854908861911 
# Profile Bins     =  1024
# Profile Avg      =  1290.0151332975  
# Profile StdDev   =  298.741228075833 
# Reduced chi-sqr  =  0.906
# Prob(Noise)      <  0.985   (~0.0 sigma)
# P_topo (ms)      =  714.58013024625   +/- 0.000623
# P'_topo (s/s)    =  -0                +/- 3.29e-10
# P''_topo (s/s^2) =  0                 +/- 1.45e-13
# P_bary (ms)      =  N/A
# P'_bary (s/s)    =  N/A
# P''_bary (s/s^2) =  N/A
# P_orb (s)        =  N/A
# asin(i)/c (s)    =  N/A
# eccentricity     =  N/A
# w (rad)          =  N/A
# T_peri           =  N/A
######################################################
   0  1217.975
   1  1212.197
   2  1233.998
   3  1326.319
   4  1391.502
   5  1419.977
   6  1370.265
   7  1326.216
   8  1360.745
   9  1409.77
  10  1437.174
  11  1353.535
  12  1349.492
  13  1355.336
  14  1281.545
  15  1224.344
  16  1292.296
  17  1336.367
  18  1419.313
  19  1343.834
  20  1341.498
  21  1328.484
  22  1341.184
  23  1373.883
  24  1356.675
  25  1358.857
  26  1354.497
  27  1241.442
  28  1171.426
  29  1253.867
  30  1252.857
  31  1166.458
  32  1116.898
  33  1219.639
  34  1315.903
  35  1244.473
  36  1214.182
  37  1246.515
  38  1343.525
  39  1285.758
  40  1319.972
  41  1369.718
  42  1447.732
  43  1375.45
  44  1324.977
  45  1319.664
  46  1240.687
  47  1293.189
  48  1339.602
  49  1408.937
  50  1275.31
  51  1222.794
  52  1138.737
  53  1079.737
  54  1030.295
  55  1088.486
  56  1145.898
  57  1225.474
  58  1253.803
  59  1295.563
  60  1285.53
  61  1248.255
  62  1252.232
  63  1341.598
  64  1298.054
  65  1275.9
  66  1169.782
  67  1215.198
  68  1315.959
  69  1409.303
  70  1348.782
  71  1251.102
  72  1216.904
  73  1177.088
  74  1233.235
  75  1282.94
  76  1299.939
  77  1225.008
  78  1203.312
  79  1259.195
  80  1216.752
  81  1193.854
  82  1119.512
  83  1152.505
  84  1175.445
  85  1006.094
  86  981.1111
  87  1093.83
  88  1287.048
  89  1305.909
  90  1220.911
  91  1188.992
  92  1167.308
  93  1189.251
  94  1173.782
  95  1194.305
  96  1159.69
  97  1202.776
  98  1265.453
  99  1409.356
 100  1354.578
 101  1361.391
 102  1314.594
 103  1269.645
 104  1135.098
 105  1143.263
 106  1235.348
 107  1358.869
 108  1351.452
 109  1285.573
 110  1270.123
 111  1378.629
 112  1404.575
 113  1330.634
 114  1163.644
 115  1170.822
 116  1151.539
 117  1232.117
 118  1261.939
 119  1352.042
 120  1336.449
 121  1283.848
 122  1212.029
 123  1189.027
 124  1144.304
 125  1304.118
 126  1438.169
 127  1579.224
 128  1388.381
 129  1246.688
 130  1204.686
 131  1228.178
 132  1313.906
 133  1300.828
 134  1363.83
 135  1403.503
 136  1429.923
 137  1418.151
 138  1385.014
 139  1489.486
 140  1473.258
 141  1427.688
 142  1332.221
 143  1322.617
 144  1306.304
 145  1322.651
 146  1251.367
 147  1262.68
 148  1248.047
 149  1277.853
 150  1265.549
 151  1294.166
 152  1222.498
 153  1169.194
 154  1248.197
 155  1274.665
 156  1231.722
 157  1163.393
 158  1124.412
 159  1188.686
 160  1148.856
 161  1144.06
 162  1060.828
 163  934.206
 164  906.6694
 165  893.636
 166  984.9976
 167  995.6934
 168  1013.88
 169  1077.987
 170  1126.291
 171  1148.405
 172  1134.918
 173  1066.25
 174  1069.049
 175  1034.545
 176  1119.826
 177  1138.001
 178  1193.486
 179  1161.145
 180  1164.539
 181  1250.873
 182  1212.596
 183  1126.216
 184  1141.154
 185  1246.668
 186  1308.468
 187  1218.571
 188  1193.066
 189  1284.626
 190  1331.509
 191  1219.876
 192  1182.511
 193  1153.606
 194  1169.359
 195  1222.972
 196  1309.372
 197  1327.147
 198  1291.01
 199  1267.202
 200  1202.169
 201  1154.484
 202  1019.304
 203  1010.679
 204  1018.057
 205  1077.129
 206  1138.195
 207  1164.827
 208  1111.753
 209  1128.813
 210  1172.429
 211  1194.498
 212  1233.504
 213  1137.799
 214  1127.584
 215  1087.715
 216  1192.573
 217  1231.331
 218  1254.031
 219  1327.232
 220  1277.229
 221  1213.772
 222  1264.587
 223  1319.489
 224  1202.811
 225  1019.496
 226  1075.443
 227  1150.061
 228  1233.013
 229  1221.179
 230  1238.881
 231  1201.827
 232  1138.128
 233  1102.459
 234  1029.613
 235  1182.266
 236  1198.36
 237  1227.464
 238  1108.07
 239  1172.208
 240  1193.35
 241  1099.53
 242  1063.603
 243  1122.958
 244  1274.435
 245  1337.971
 246  1343.247
 247  1268.136
 248  1255.02
 249  1207.664
 250  1169.149
 251  1146.767
 252  1295.959
 253  1470.608
 254  1542.228
 255  1464.421
 256  1312.413
 257  1194.35
 258  1225.188
 259  1133.373
 260  1184.626
 261  1154.562
 262  1245.086
 263  1205.1
 264  1313.364
 265  1396.296
 266  1428.511
 267  1389.396
 268  1272.911
 269  1160.561
 270  1135.277
 271  1218.015
 272  1370.581
 273  1450.818
 274  1429.763
 275  1327.199
 276  1351.858
 277  1381.647
 278  1356.232
 279  1284.735
 280  1235.516
 281  1345.959
 282  1288.097
 283  1127.998
 284  1063.038
 285  1101.636
 286  1152.594
 287  1226.796
 288  1273.014
 289  1295.873
 290  1234.756
 291  1237.907
 292  1369.167
 293  1419.37
 294  1391.453
 295  1366.766
 296  1298.674
 297  1361.907
 298  1247.725
 299  1278.765
 300  1115.254
 301  1147.599
 302  1240.572
 303  1223.674
 304  1149.718
 305  1210.041
 306  1362.635
 307  1356.201
 308  1245.861
 309  1172.678
 310  1045.188
 311  1051.565
 312  1105.464
 313  1158.453
 314  1176.693
 315  1105.58
 316  1116.727
 317  1118.121
 318  1206.076
 319  1240.606
 320  1348.503
 321  1266.299
 322  1209.804
 323  1233.468
 324  1274.506
 325  1198.783
 326  1140.865
 327  1198.924
 328  1291.432
 329  1276.508
 330  1208.207
 331  1175.538
 332  1320.762
 333  1379.584
 334  1353.886
 335  1294.226
 336  1368.505
 337  1400.089
 338  1444.062
 339  1483.87
 340  1463.552
 341  1446.981
 342  1413.118
 343  1388.882
 344  1417.32
 345  1355.339
 346  1411.637
 347  1491.653
 348  1538.983
 349  1547.469
 350  1476.88
 351  1416.208
 352  1372.558
 353  1390.835
 354  1452.098
 355  1493.684
 356  1596.331
 357  1656.128
 358  1539.928
 359  1544.979
 360  1553.713
 361  1545.557
 362  1443.644
 363  1383.892
 364  1423.009
 365  1420.036
 366  1318.573
 367  1337.005
 368  1430.863
 369  1560.062
 370  1614.36
 371  1606.93
 372  1590.189
 373  1416.675
 374  1330.286
 375  1356.6
 376  1543.604
 377  1554.701
 378  1535.835
 379  1476.139
 380  1519.518
 381  1465.191
 382  1424.989
 383  1349.071
 384  1273.264
 385  1236.036
 386  1348.378
 387  1406.219
 388  1424.567
 389  1395.893
 390  1344.296
 391  1229.251
 392  1268.396
 393  1365.642
 394  1491.354
 395  1529.412
 396  1539.372
 397  1463.549
 398  1312.4
 399  1141.989
 400  1060.266
 401  1123.837
 402  1253.761
 403  1397.717
 404  1525.903
 405  1611.964
 406  1758.25
 407  1656.205
 408  1583.243
 409  1325.173
 410  1186.846
 411  1124.085
 412  1253.312
 413  1283.274
 414  1298.385
 415  1279.481
 416  1406.506
 417  1486.736
 418  1464.681
 419  1450.167
 420  1522.306
 421  1508.677
 422  1456.077
 423  1424.756
 424  1378.02
 425  1393.55
 426  1379.522
 427  1405.688
 428  1333.178
 429  1316.684
 430  1333.929
 431  1402.628
 432  1471.84
 433  1345.299
 434  1177.349
 435  1120.506
 436  1173.276
 437  1265.115
 438  1298.709
 439  1262.983
 440  1267.45
 441  1280.706
 442  1332.625
 443  1372.774
 444  1349.82
 445  1382.465
 446  1313.715
 447  1270.059
 448  1242.907
 449  1193.364
 450  1239.803
 451  1149.294
 452  1077.98
 453  1181.431
 454  1294.364
 455  1284.62
 456  1144.234
 457  1135.21
 458  1189.355
 459  1182.351
 460  1144.1
 461  1143.649
 462  1190.374
 463  1229.885
 464  1263.562
 465  1329.438
 466  1322.668
 467  1373.759
 468  1361.333
 469  1381.591
 470  1342.177
 471  1218.436
 472  1185.614
 473  1194.028
 474  1338.129
 475  1302.363
 476  1211.241
 477  1165.61
 478  1238.631
 479  1390.295
 480  1448.102
 481  1327.68
 482  1196.507
 483  1158.808
 484  1309.751
 485  1440.817
 486  1344.287
 487  1237.217
 488  1063.796
 489  1178.984
 490  1183.359
 491  1119.496
 492  941.8184
 493  914.3661
 494  953.7563
 495  1033.467
 496  1027.619
 497  1059.927
 498  1082.095
 499  1143.156
 500  1184.995
 501  1113.913
 502  1013.026
 503  943.9677
 504  1054.843
 505  1148.267
 506  1093.88
 507  1045.775
 508  1018.022
 509  1065.857
 510  1051.548
 511  1031.239
 512  1094.617
 513  1201.903
 514  1298.844
 515  1282.042
 516  1187.149
 517  1050.919
 518  1069.052
 519  1146.085
 520  1283.62
 521  1261.61
 522  1167.331
 523  1094.432
 524  1161.311
 525  1108.144
 526  1267.191
 527  1235.142
 528  1267.111
 529  1125.824
 530  1166.255
 531  1165.214
 532  1152.097
 533  1125.176
 534  1218.668
 535  1360.971
 536  1315.244
 537  1209.118
 538  1089.763
 539  1052.658
 540  1124.206
 541  1223.147
 542  1229.243
 543  1146.269
 544  1118.628
 545  1171.875
 546  1185.03
 547  1262.312
 548  1290.063
 549  1317.818
 550  1276.937
 551  1217.318
 552  1113.692
 553  1205.822
 554  1272.195
 555  1224.307
 556  1150.361
 557  1276.635
 558  1511.438
 559  1578.814
 560  1506.042
 561  1393.781
 562  1241.915
 563  1210.231
 564  1143.553
 565  1265.12
 566  1279.276
 567  1292.63
 568  1191.145
 569  1134.244
 570  1080.501
 571  1188.897
 572  1338.074
 573  1395.629
 574  1380.1
 575  1194.133
 576  1106.855
 577  1076.308
 578  1150.169
 579  1142.435
 580  1196.265
 581  1187.412
 582  1306.846
 583  1342.825
 584  1366.493
 585  1304.079
 586  1326.967
 587  1392.226
 588  1381.614
 589  1306.483
 590  1223.503
 591  1277.279
 592  1321.137
 593  1425.837
 594  1385.237
 595  1413.753
 596  1415.696
 597  1455.696
 598  1460.635
 599  1434.806
 600  1343.077
 601  1411.645
 602  1546.458
 603  1634.919
 604  1638.908
 605  1579.803
 606  1677.348
 607  1803.589
 608  1894.759
 609  2001.246
 610  2093.585
 611  2305.593
 612  2278.323
 613  2258.389
 614  2148.807
 615  2163.561
 616  2095.703
 617  2007.435
 618  1898.314
 619  1732.235
 620  1684.338
 621  1642.348
 622  1543.474
 623  1403.942
 624  1248.438
 625  1437.131
 626  1528.327
 627  1588.531
 628  1437.071
 629  1345.303
 630  1319.979
 631  1362.294
 632  1326.022
 633  1328.152
 634  1363.073
 635  1425.502
 636  1423.424
 637  1526.222
 638  1538.151
 639  1521.178
 640  1375.903
 641  1432.328
 642  1443.859
 643  1491.346
 644  1459.401
 645  1315.622
 646  1358.668
 647  1424.556
 648  1525.23
 649  1372.447
 650  1361.337
 651  1328.322
 652  1420.234
 653  1363.287
 654  1382.235
 655  1423.062
 656  1617.48
 657  1616.093
 658  1628.584
 659  1427.557
 660  1439.14
 661  1327.914
 662  1324.711
 663  1347.578
 664  1368.001
 665  1383.149
 666  1403.022
 667  1460.064
 668  1403.277
 669  1280.452
 670  1240.24
 671  1265.465
 672  1343.474
 673  1279.178
 674  1306.932
 675  1383.812
 676  1505.396
 677  1572.845
 678  1504.407
 679  1478.422
 680  1394.951
 681  1383.174
 682  1445.002
 683  1483.552
 684  1451.218
 685  1388.706
 686  1385.867
 687  1390.036
 688  1328.287
 689  1163.636
 690  1203.153
 691  1294.334
 692  1351.584
 693  1267.66
 694  1204.391
 695  1124.487
 696  1145.51
 697  1236.494
 698  1220.943
 699  1198.973
 700  1117.639
 701  1194.561
 702  1257.018
 703  1264.342
 704  1247.323
 705  1274.131
 706  1353.865
 707  1336.062
 708  1199.738
 709  1147.818
 710  1114.706
 711  1144.133
 712  1263.882
 713  1413.772
 714  1377.358
 715  1190.291
 716  1106.111
 717  1131.403
 718  1168.123
 719  1231.911
 720  1326.016
 721  1463.902
 722  1405.508
 723  1308.881
 724  1319.908
 725  1243.638
 726  1260.654
 727  1262.959
 728  1279.977
 729  1185.412
 730  1051.614
 731  1090.788
 732  1177.839
 733  1181.062
 734  1119.864
 735  1128.711
 736  1148.292
 737  1168.969
 738  1256.578
 739  1197.088
 740  1184.806
 741  1175.651
 742  1203.097
 743  1270.638
 744  1246.613
 745  1282.31
 746  1264.83
 747  1295.713
 748  1342.095
 749  1313.907
 750  1243.453
 751  1250.549
 752  1299.547
 753  1335.49
 754  1290.887
 755  1156.761
 756  1004.768
 757  1041.322
 758  1124.352
 759  1188.36
 760  1216.993
 761  1174.752
 762  1309.504
 763  1272.69
 764  1285.28
 765  1270.785
 766  1354.367
 767  1322.635
 768  1270.828
 769  1193.516
 770  1200.298
 771  1214.334
 772  1261.326
 773  1244.276
 774  1159.557
 775  1114.11
 776  1082.44
 777  1098.259
 778  1131.66
 779  1209.842
 780  1193.133
 781  1160.6
 782  1194.01
 783  1260.146
 784  1291.578
 785  1276.875
 786  1385.872
 787  1410.051
 788  1322.687
 789  1239.067
 790  1264.424
 791  1335.79
 792  1294.707
 793  1275.31
 794  1157.873
 795  1197.878
 796  1125.446
 797  1157.459
 798  1197.2
 799  1246.552
 800  1312.847
 801  1281.173
 802  1223.102
 803  1264.801
 804  1357.937
 805  1427.513
 806  1374.426
 807  1334.827
 808  1285.387
 809  1252.311
 810  1363.978
 811  1443.36
 812  1487.783
 813  1347.406
 814  1429.239
 815  1408.109
 816  1349.531
 817  1194.906
 818  1209.745
 819  1184.303
 820  1203.639
 821  1166.531
 822  1173.699
 823  1222.137
 824  1207.538
 825  1258.431
 826  1191.349
 827  1177.21
 828  1125.79
 829  1186.425
 830  1224.587
 831  1236.791
 832  1266.943
 833  1413.344
 834  1493.561
 835  1619.713
 836  1443.268
 837  1335.756
 838  1264.392
 839  1392.282
 840  1412.586
 841  1421.862
 842  1419.185
 843  1430.857
 844  1494.218
 845  1487.074
 846  1521.224
 847  1427.28
 848  1344.536
 849  1298.635
 850  1187.577
 851  1201.483
 852  1261.08
 853  1249.233
 854  1223.41
 855  1175.319
 856  1269.344
 857  1353.676
 858  1362.432
 859  1318.794
 860  1302.501
 861  1304.857
 862  1328.219
 863  1223.312
 864  1090.309
 865  1100.835
 866  1174.41
 867  1375.96
 868  1424.963
 869  1444.652
 870  1494.328
 871  1458.778
 872  1489.696
 873  1372.467
 874  1374.443
 875  1362.778
 876  1409.832
 877  1376.805
 878  1447.617
 879  1450.326
 880  1336.806
 881  1213.392
 882  1295.338
 883  1402.65
 884  1456.511
 885  1567.832
 886  1537.055
 887  1374.672
 888  1201.969
 889  1255.727
 890  1336.67
 891  1387.472
 892  1248.095
 893  1251.848
 894  1212.162
 895  1248.539
 896  1181.278
 897  1042.564
 898  1149.444
 899  1263.361
 900  1351.022
 901  1319.738
 902  1249.588
 903  1236.286
 904  1147.303
 905  1163.777
 906  1215.776
 907  1184.926
 908  1163.14
 909  1152.985
 910  1136.336
 911  1063.687
 912  1063.121
 913  1132.203
 914  1183.622
 915  1276.661
 916  1310.965
 917  1379.578
 918  1317.645
 919  1285.683
 920  1337.544
 921  1340.235
 922  1239.404
 923  1206.682
 924  1117.276
 925  1145.15
 926  1067.556
 927  1150.418
 928  1205.341
 929  1230.276
 930  1241.687
 931  1218.412
 932  1210.402
 933  1140.532
 934  1232.822
 935  1288.307
 936  1377.462
 937  1381.704
 938  1287.769
 939  1255.486
 940  1202.546
 941  1196.819
 942  1234.628
 943  1266.77
 944  1257.053
 945  1175.628
 946  1130.473
 947  1199.571
 948  1181.685
 949  1137.333
 950  1222.893
 951  1121.302
 952  1088.507
 953  1020.937
 954  1211.283
 955  1297.91
 956  1307.046
 957  1292.618
 958  1296.736
 959  1255.911
 960  1213.425
 961  1292.43
 962  1429.565
 963  1447.657
 964  1346.536
 965  1241.338
 966  1265.923
 967  1288.142
 968  1344.911
 969  1384.649
 970  1423.394
 971  1505.524
 972  1548.879
 973  1505.607
 974  1319.21
 975  1193.982
 976  1237.209
 977  1272.33
 978  1353.561
 979  1354.529
 980  1382.553
 981  1361.03
 982  1397.394
 983  1409.859
 984  1367.76
 985  1329.171
 986  1285.125
 987  1270.526
 988  1214.342
 989  1186.038
 990  1171.421
 991  1258.238
 992  1389.356
 993  1483.296
 994  1405.465
 995  1280.893
 996  1200.542
 997  1292.015
 998  1311.988
 999  1315.161
1000  1472.255
1001  1495.578
1002  1503.467
1003  1363.302
1004  1432.352
1005  1430.102
1006  1297.457
1007  1307.951
1008  1275.893
1009  1296.249
1010  1162.764
1011  1176.053
1012  1227.221
1013  1247.567
1014  1237
1015  1286.308
1016  1350.425
1017  1360.596
1018  1302.133
1019  1275.504
1020  1263.487
1021  1269.381
1022  1210.148
1023  1270.854
