# Input file       =  1202639010.116768_cleaned.dat
# Candidate        =  PSR_0332+5434
# Telescope        =  AR
# Epoch_topo       =  58163.433207369999
# Epoch_bary       =  N/A
# T_sample         =  0.002
# Data Folded      =  7208960
# Data Avg         =  0.13785392415223 
# Data StdDev      =  5.66737822607911 
# Profile Bins     =  512
# Profile Avg      =  1941.67394640734 
# Profile StdDev   =  672.486429216749 
# Reduced chi-sqr  =  2.977
# Prob(Noise)      <  5.81e-101   (~21.3 sigma)
# P_topo (ms)      =  714.579894081289  +/- 2.16e-05
# P'_topo (s/s)    =  -0                +/- 1.16e-11
# P''_topo (s/s^2) =  0                 +/- 5.22e-15
# P_bary (ms)      =  N/A
# P'_bary (s/s)    =  N/A
# P''_bary (s/s^2) =  N/A
# P_orb (s)        =  N/A
# asin(i)/c (s)    =  N/A
# eccentricity     =  N/A
# w (rad)          =  N/A
# T_peri           =  N/A
######################################################
   0  2025.055
   1  1783.786
   2  1104.771
   3  921.8375
   4  1524.552
   5  2328.615
   6  1738.224
   7  1254.143
   8  729.3989
   9  779.395
  10  833.8732
  11  797.5669
  12  1836.906
  13  3053.892
  14  3567.997
  15  2809.454
  16  2230.063
  17  1999.38
  18  1794.135
  19  1068.985
  20  1205.159
  21  1764.837
  22  2083.87
  23  1996.336
  24  1475.698
  25  1098.894
  26  1460.878
  27  1209.816
  28  1464.514
  29  2425.406
  30  2707.898
  31  2503.747
  32  2314.771
  33  2214.266
  34  2376.548
  35  2047.395
  36  1298.111
  37  2088.57
  38  2493.949
  39  1932.368
  40  1032.089
  41  608.2806
  42  787.0254
  43  588.3542
  44  796.3234
  45  2026.793
  46  2944.163
  47  3115.308
  48  2747.781
  49  1773.651
  50  1937.049
  51  1520.348
  52  1030.173
  53  1392.087
  54  2215.329
  55  2842.231
  56  1427.34
  57  783.7425
  58  627.8927
  59  241.7104
  60  493.8394
  61  1457.945
  62  2970.279
  63  3697.703
  64  3392.58
  65  2816.601
  66  2261.966
  67  1786.566
  68  1461.182
  69  1042.689
  70  1697.832
  71  2010.743
  72  2018.49
  73  1715.13
  74  906.5185
  75  633.8504
  76  661.1127
  77  1283.244
  78  2197.424
  79  3347.531
  80  3691.736
  81  3259.313
  82  2108.821
  83  2105.923
  84  2035.135
  85  1319.394
  86  1068.991
  87  1958.186
  88  2352.857
  89  1842.97
  90  1257.789
  91  1371.852
  92  1059.786
  93  742.8818
  94  1445.419
  95  2741.509
  96  3582.474
  97  3165.825
  98  2593.868
  99  2255.451
 100  2249.931
 101  1944.688
 102  1451.843
 103  1968.579
 104  2398.164
 105  1911.024
 106  1579.52
 107  1674.747
 108  2032.508
 109  2423.978
 110  3028.234
 111  3941.377
 112  4339.121
 113  4038.027
 114  3479.542
 115  3094.065
 116  2377.412
 117  2507.584
 118  2103.113
 119  1652.713
 120  2485.466
 121  2638.803
 122  1683.493
 123  1099.326
 124  1155.693
 125  1126.992
 126  1311.54
 127  2173.044
 128  2842.729
 129  3460.464
 130  3445.596
 131  2833.17
 132  2708.751
 133  2494.944
 134  1835.699
 135  1561.944
 136  1865.726
 137  2445.058
 138  2477.287
 139  1643.131
 140  922.132
 141  1117.292
 142  890.1104
 143  1536.93
 144  2225.861
 145  3332.534
 146  3882.546
 147  3424.742
 148  2421.993
 149  2149.579
 150  2293.199
 151  1657.149
 152  1286.694
 153  2495.323
 154  2706.366
 155  2177.065
 156  1261.506
 157  669.5909
 158  772.0958
 159  1057.297
 160  1692.963
 161  3397.794
 162  3873.68
 163  3660.524
 164  3031.437
 165  2787.653
 166  2312.042
 167  1663.493
 168  1253.266
 169  1490.577
 170  2285.33
 171  2415.142
 172  1916.936
 173  1659.41
 174  1450.904
 175  1183.134
 176  744.7138
 177  1861.118
 178  2945.297
 179  3544.142
 180  3306.337
 181  2869.916
 182  2708.053
 183  2595.792
 184  1947.739
 185  1258.035
 186  1749.54
 187  2185.725
 188  1973.867
 189  1417.701
 190  1145.837
 191  1193.19
 192  1287.956
 193  1293.154
 194  2226.981
 195  3278.626
 196  2936.378
 197  2247.22
 198  2269.718
 199  2324.944
 200  1622.714
 201  1136.865
 202  1647.881
 203  2210.753
 204  2384.671
 205  1572.208
 206  1460.954
 207  1336.843
 208  1171.967
 209  1738.079
 210  2491.043
 211  3488.88
 212  3384.312
 213  2997.415
 214  2900.087
 215  2517.118
 216  2214.461
 217  1441.393
 218  1267.772
 219  2008.884
 220  2593.032
 221  2242.263
 222  1130.008
 223  952.2532
 224  1355.6
 225  1457.582
 226  1746.927
 227  2639.77
 228  3889.123
 229  4072.422
 230  2539.191
 231  1879.978
 232  2013.816
 233  1614.795
 234  946.9001
 235  1471.108
 236  2857.154
 237  2773.036
 238  2044.913
 239  1388.225
 240  1290.533
 241  887.462
 242  858.3035
 243  2256.481
 244  3275.891
 245  3687.2
 246  3204.609
 247  2901.136
 248  3054.818
 249  2356.303
 250  1586.051
 251  1235.661
 252  2314.228
 253  2460.121
 254  2299.248
 255  1482.083
 256  1470.521
 257  1364.972
 258  768.0157
 259  1223.86
 260  2455.293
 261  3411.693
 262  3725.85
 263  3460.24
 264  3005.996
 265  2617.278
 266  1968.807
 267  1519.92
 268  2018.519
 269  2684.44
 270  2420.19
 271  1941.02
 272  1395.771
 273  1267.082
 274  1209.477
 275  1131.928
 276  2015.481
 277  3190.039
 278  3638.048
 279  2961.384
 280  2601.953
 281  2162.055
 282  2268.818
 283  1595.517
 284  1560.101
 285  2219.567
 286  2354.755
 287  1830.331
 288  1375.173
 289  1114.434
 290  876.9815
 291  1077.27
 292  1848.782
 293  2269.41
 294  3721.312
 295  3549.957
 296  3143.783
 297  2580.768
 298  2262.865
 299  1895.902
 300  1021.438
 301  1321.232
 302  2154.552
 303  2306.832
 304  1345.067
 305  960.3527
 306  1026.595
 307  855.8862
 308  872.1172
 309  1572.461
 310  2900.732
 311  3476.809
 312  2922.797
 313  1962.543
 314  2111.086
 315  2152.074
 316  1407.979
 317  1135.626
 318  1465.126
 319  2319.382
 320  2053.621
 321  1197.275
 322  1196.044
 323  1060.764
 324  1048.92
 325  1260.993
 326  2485.838
 327  3135.273
 328  3140.797
 329  2865.305
 330  2332.73
 331  1932.262
 332  1541.96
 333  1333.378
 334  1771.672
 335  2527.51
 336  2565.967
 337  1570.817
 338  1449.922
 339  1595.165
 340  1312.063
 341  1131.847
 342  2213.518
 343  3195.373
 344  3699.582
 345  3602.984
 346  2768.262
 347  2531.004
 348  2110.05
 349  1447.889
 350  1303.392
 351  1668.758
 352  1900.598
 353  2165.829
 354  1634.649
 355  1157.428
 356  883.3056
 357  911.8315
 358  1414.933
 359  2049.932
 360  3024.006
 361  3132.544
 362  2995.483
 363  2374.042
 364  2196.842
 365  1876.637
 366  1087.849
 367  1491.237
 368  2085.439
 369  1677.934
 370  1364.575
 371  1092.376
 372  1082.803
 373  1071.853
 374  1001.672
 375  1562.489
 376  2755.231
 377  3516.803
 378  3551.23
 379  2974.487
 380  2612.281
 381  2333.671
 382  1362.877
 383  1130.427
 384  1932.721
 385  2400.4
 386  1911.476
 387  901.5713
 388  391.06
 389  705.4048
 390  1130.345
 391  1619.867
 392  2426.338
 393  3193.389
 394  3201.622
 395  2727.957
 396  2001.137
 397  2212.848
 398  1773.52
 399  1057.385
 400  1123.621
 401  1476.456
 402  1835.654
 403  1417.523
 404  761.8555
 405  943.3641
 406  905.1437
 407  723.3653
 408  1499.133
 409  3008.168
 410  3606.452
 411  3199.543
 412  2304.892
 413  1848.64
 414  1452.681
 415  1184.56
 416  1146.145
 417  1749.228
 418  2205.341
 419  2206.657
 420  1129.925
 421  825.8173
 422  720.0289
 423  310.4431
 424  870.9504
 425  2263.448
 426  2958.182
 427  3007.511
 428  2558.27
 429  2007.048
 430  1980.647
 431  1710.824
 432  1086.403
 433  1341.464
 434  1842.588
 435  2067.729
 436  1290.888
 437  918.7255
 438  863.346
 439  864.5706
 440  628.9593
 441  1305.464
 442  2407.799
 443  3239.122
 444  2940.293
 445  2484.506
 446  2018.642
 447  1508.79
 448  1140.823
 449  691.5276
 450  1356.518
 451  1989.876
 452  2088.6
 453  1176.281
 454  753.4633
 455  411.929
 456  119.9788
 457  629.6226
 458  1805.107
 459  2865.54
 460  2897.412
 461  2051.298
 462  1850.484
 463  2140.796
 464  1979.391
 465  1488.595
 466  1969.011
 467  1730.012
 468  1498.989
 469  1056.24
 470  452.8592
 471  158.7253
 472  640.4827
 473  1442.915
 474  1850.893
 475  2999.108
 476  3578.746
 477  2754.736
 478  1884.761
 479  1926.488
 480  1496.006
 481  1024.159
 482  1454.476
 483  2155.134
 484  2302.281
 485  1713.93
 486  1393.935
 487  570.444
 488  461.698
 489  644.2546
 490  1187.434
 491  2026.625
 492  2856.216
 493  3485.788
 494  3221.903
 495  2303.402
 496  2085.45
 497  1374.723
 498  1055.821
 499  1154.918
 500  1866.957
 501  2141.714
 502  1430.234
 503  889.0521
 504  928.2525
 505  770.8199
 506  513.548
 507  913.8607
 508  2656.159
 509  3380.29
 510  3153.168
 511  2314.92
