# Input file       =  1202065879.113442_cleaned.dat
# Candidate        =  PSR_0332+5434
# Telescope        =  AR
# Epoch_topo       =  58156.799746683355
# Epoch_bary       =  N/A
# T_sample         =  0.002
# Data Folded      =  7340032
# Data Avg         =  0.103469516099722
# Data StdDev      =  3.76984856596784 
# Profile Bins     =  512
# Profile Avg      =  1483.4467447721  
# Profile StdDev   =  451.375415483927 
# Reduced chi-sqr  =  0.701
# Prob(Noise)      <  1   (~0.0 sigma)
# P_topo (ms)      =  714.578675223612  +/- 0.000587
# P'_topo (s/s)    =  -0                +/- 3.1e-10
# P''_topo (s/s^2) =  0                 +/- 1.37e-13
# P_bary (ms)      =  N/A
# P'_bary (s/s)    =  N/A
# P''_bary (s/s^2) =  N/A
# P_orb (s)        =  N/A
# asin(i)/c (s)    =  N/A
# eccentricity     =  N/A
# w (rad)          =  N/A
# T_peri           =  N/A
######################################################
   0  1500.636
   1  1786.086
   2  1438.497
   3  1180.279
   4  1236.715
   5  1285.01
   6  1518.084
   7  1233.848
   8  1196.787
   9  1304.508
  10  857.61
  11  1062.648
  12  1295.016
  13  1364.375
  14  1200.691
  15  1408.42
  16  1732.388
  17  1782.92
  18  1272.499
  19  1298.307
  20  1436.811
  21  1431.001
  22  1662.357
  23  1787.744
  24  1288.194
  25  1473.2
  26  1765.871
  27  1501.854
  28  1527.357
  29  1513.839
  30  1608.818
  31  1349.181
  32  1205.532
  33  1460.676
  34  1311.498
  35  1067.513
  36  1534.413
  37  1161.458
  38  1046.378
  39  1134.106
  40  1224.867
  41  1140.176
  42  1365
  43  1346.218
  44  1376.122
  45  1282.395
  46  1352.021
  47  1210.466
  48  1201.645
  49  1490.755
  50  1469.446
  51  1417.176
  52  1205.651
  53  1187.606
  54  1240.482
  55  1624.063
  56  1691.368
  57  1257.467
  58  1397.101
  59  1345.569
  60  1583.55
  61  1750.864
  62  1431.807
  63  1431.411
  64  1541.44
  65  1600.972
  66  1647.674
  67  1555.194
  68  1241.137
  69  1327.062
  70  1296.468
  71  1156.908
  72  1305.397
  73  1219.319
  74  1405.213
  75  1472.195
  76  1547.732
  77  1377.284
  78  1482.255
  79  1457.861
  80  1548.574
  81  1609.872
  82  1161.185
  83  1440.259
  84  1881.86
  85  1539.932
  86  1395.967
  87  1196.052
  88  1401.597
  89  1527.534
  90  1395.19
  91  1654.73
  92  1318.245
  93  1404.657
  94  1603.964
  95  1550.782
  96  1551.541
  97  1496.8
  98  1471.091
  99  1383.953
 100  1484.505
 101  1436.38
 102  1391.737
 103  1733.026
 104  1861.65
 105  1603.746
 106  1579.731
 107  1457.151
 108  1759.917
 109  1636.415
 110  1400.794
 111  1062.899
 112  1141.214
 113  1301.348
 114  1212.132
 115  1589.384
 116  1611.535
 117  1358.014
 118  1484.482
 119  1573.619
 120  1501.4
 121  1456.072
 122  1329.814
 123  1365.562
 124  1325.204
 125  1355.322
 126  1549.659
 127  1564.064
 128  1520.002
 129  1462.531
 130  1369.006
 131  1229.468
 132  1164.304
 133  1359.191
 134  1511.808
 135  1359.886
 136  1295.156
 137  1407.465
 138  1455.468
 139  1368.377
 140  1372.273
 141  1640.189
 142  1563.721
 143  1376.535
 144  1425.837
 145  1325.578
 146  1468.176
 147  1571.115
 148  1531.299
 149  1319.182
 150  1298.808
 151  1134.778
 152  1267.798
 153  1410.966
 154  1193.932
 155  1512.702
 156  1528.358
 157  1346.951
 158  1179.668
 159  1209.554
 160  1473.176
 161  1478.031
 162  1442.129
 163  1383.094
 164  1343.409
 165  1276.611
 166  1307.927
 167  1295.978
 168  1515.345
 169  1386.678
 170  1041.32
 171  1395.618
 172  1285.411
 173  1050.083
 174  1223.903
 175  1499.225
 176  1294.077
 177  1149.772
 178  1202.368
 179  1399.63
 180  1385.328
 181  1068.886
 182  1027.907
 183  1161.785
 184  1180.011
 185  1426.078
 186  1546.003
 187  1292.339
 188  1315.602
 189  1694.904
 190  1536.139
 191  943.0025
 192  1249.933
 193  1656.874
 194  1252.579
 195  1072.347
 196  1257.898
 197  1286.909
 198  1147.188
 199  1458.99
 200  1193.917
 201  914.0847
 202  927.6699
 203  1224.461
 204  1369.979
 205  1747.446
 206  1673.035
 207  1768.825
 208  1313.144
 209  1481.583
 210  1524.993
 211  1490.902
 212  1522.279
 213  1623.31
 214  1615.569
 215  1347.253
 216  1341.428
 217  1675.266
 218  1815.858
 219  1741.946
 220  1543.701
 221  1681.547
 222  1618.762
 223  1675.676
 224  1588.879
 225  1472.019
 226  1826.549
 227  1393.168
 228  1486.361
 229  1883.019
 230  1619.773
 231  1815.399
 232  1362.163
 233  1191.899
 234  1010.261
 235  1139.316
 236  1473.08
 237  1523.133
 238  1494.914
 239  1475.634
 240  1332.338
 241  1112.97
 242  1252.026
 243  1546.729
 244  1472.401
 245  1389.196
 246  1532.466
 247  1532.596
 248  1419.541
 249  1307.022
 250  1785.177
 251  1727.478
 252  1370.488
 253  1254.33
 254  1430.65
 255  1617.237
 256  1508.213
 257  1152.848
 258  1249.085
 259  1309.327
 260  1457.406
 261  1829.329
 262  1889.775
 263  1848.667
 264  1628.251
 265  1534.569
 266  1720.564
 267  1942.634
 268  1734.921
 269  1946.13
 270  1447.418
 271  1573.004
 272  1598.759
 273  1916.423
 274  1623.573
 275  1507.766
 276  1779.406
 277  1574.313
 278  1525.903
 279  1461.594
 280  1318.793
 281  1559.962
 282  1449.678
 283  1473.788
 284  1616.821
 285  1392.808
 286  1476.689
 287  1902.648
 288  2243.102
 289  2112.26
 290  1890.213
 291  1935.518
 292  1796.712
 293  1623.219
 294  1822.997
 295  1829.335
 296  1455.746
 297  1805.288
 298  1849.86
 299  2009.857
 300  2297.139
 301  2134.755
 302  2225.39
 303  1983.821
 304  2382.581
 305  3146.063
 306  3245.781
 307  2977.829
 308  2836.33
 309  2525.11
 310  1781.137
 311  1825.402
 312  1598.187
 313  1533.476
 314  1539.916
 315  1513.706
 316  1392.197
 317  1570.177
 318  1956.073
 319  1656.398
 320  1526.591
 321  1742.982
 322  1616.689
 323  1516.278
 324  1534.506
 325  1790.314
 326  1692.345
 327  1683.326
 328  1675.368
 329  1511.308
 330  1613.059
 331  1479.641
 332  1105.31
 333  1480.136
 334  1592.201
 335  1470.047
 336  1360.836
 337  1174.084
 338  1316.204
 339  1177.07
 340  1323.855
 341  1336.218
 342  1341.765
 343  1432.991
 344  1108.502
 345  1325.81
 346  1407.667
 347  1335.009
 348  1545.319
 349  1440.84
 350  1466.246
 351  1366.229
 352  1327.655
 353  1294.481
 354  1623.562
 355  1202.535
 356  1094.563
 357  1646.382
 358  1519.628
 359  1156.502
 360  1167.907
 361  1093.725
 362  1149.642
 363  1404.7
 364  1494.626
 365  1422.683
 366  1267.338
 367  1395.096
 368  1505.235
 369  1312.17
 370  1261.697
 371  1252.922
 372  1526.246
 373  2025.172
 374  1800.938
 375  1800.684
 376  1709.868
 377  1734.066
 378  1706.63
 379  1769.028
 380  1554.615
 381  1283.394
 382  1803.584
 383  1737.194
 384  1905.909
 385  1502.881
 386  1290.718
 387  1351.583
 388  1241.54
 389  1168.89
 390  1154.692
 391  1240.944
 392  1486.467
 393  1611.639
 394  1174.131
 395  1180.386
 396  1205.138
 397  1370.773
 398  1206.023
 399  1501.928
 400  1385.738
 401  1044.417
 402  1385.121
 403  1420.058
 404  1441.061
 405  1406.832
 406  1239.384
 407  1240.391
 408  1372.34
 409  1531.83
 410  1446.74
 411  1529.32
 412  1570.645
 413  1572.831
 414  1686.479
 415  1842.07
 416  1830.602
 417  1891.442
 418  1636.845
 419  1911.394
 420  1872.299
 421  1806.338
 422  1653.499
 423  1363.031
 424  1636.097
 425  1824.582
 426  1574.688
 427  1434.085
 428  1491.043
 429  1533.529
 430  1652.344
 431  1624.138
 432  1504.244
 433  1635.194
 434  1400.444
 435  1282.697
 436  1715.266
 437  1683.731
 438  1642.894
 439  1636.566
 440  1326.554
 441  1377.922
 442  1347.108
 443  1695.91
 444  1695.318
 445  1342.622
 446  1564.537
 447  1686.202
 448  1676.938
 449  1700.593
 450  1604.833
 451  1623.154
 452  1619.085
 453  1452.393
 454  1290.257
 455  1228.584
 456  1711.533
 457  1623.573
 458  1765.991
 459  1788.132
 460  1691.463
 461  1592.644
 462  1293.124
 463  1489.704
 464  1881.411
 465  1790.219
 466  1351.744
 467  1333.785
 468  1518.731
 469  1628.64
 470  1632.382
 471  1500.463
 472  1376.324
 473  1146.895
 474  1438.88
 475  1660.359
 476  1169.835
 477  1009.205
 478  1214.925
 479  1173.542
 480  1367.148
 481  1275.488
 482  1267.267
 483  1154.439
 484  1183.028
 485  1399.552
 486  1400.734
 487  1445.65
 488  1616.728
 489  1364.282
 490  1027.15
 491  1399.036
 492  1784.331
 493  1823.637
 494  1618.856
 495  1485.391
 496  1264.176
 497  1491.312
 498  1778.637
 499  1887.23
 500  1881.837
 501  1568.253
 502  997.6386
 503  1123.138
 504  1483.966
 505  1119.1
 506  1102.671
 507  1380.962
 508  1863.861
 509  1472.503
 510  1256.369
 511  1502.666
