# Input file       =  1202151414.114845_cleaned.dat
# Candidate        =  PSR_0332+5434
# Telescope        =  AR
# Epoch_topo       =  58157.789735125523
# Epoch_bary       =  N/A
# T_sample         =  0.002
# Data Folded      =  7340032
# Data Avg         =  0.0570301898478646
# Data StdDev      =  3.63071265105965 
# Profile Bins     =  512
# Profile Avg      =  817.73864810032  
# Profile StdDev   =  434.71624992291  
# Reduced chi-sqr  =  0.887
# Prob(Noise)      <  0.969   (~0.0 sigma)
# P_topo (ms)      =  714.578946316085  +/- 0.00031
# P'_topo (s/s)    =  -0                +/- 1.64e-10
# P''_topo (s/s^2) =  0                 +/- 7.22e-14
# P_bary (ms)      =  N/A
# P'_bary (s/s)    =  N/A
# P''_bary (s/s^2) =  N/A
# P_orb (s)        =  N/A
# asin(i)/c (s)    =  N/A
# eccentricity     =  N/A
# w (rad)          =  N/A
# T_peri           =  N/A
######################################################
   0  684.6477
   1  781.1246
   2  652.8362
   3  523.3763
   4  730.8492
   5  694.787
   6  660.9182
   7  879.1151
   8  862.4511
   9  740.8425
  10  1124.553
  11  1008.316
  12  729.4141
  13  851.8868
  14  719.1929
  15  797.7092
  16  966.9583
  17  1044.491
  18  1058.415
  19  898.2628
  20  810.8534
  21  346.916
  22  425.0733
  23  1169.124
  24  895.8269
  25  397.4338
  26  587.9725
  27  328.5104
  28  678.8733
  29  845.5362
  30  866.5893
  31  808.9214
  32  748.1834
  33  668.5167
  34  177.6249
  35  98.84161
  36  835.4641
  37  802.0449
  38  795.5673
  39  860.7579
  40  386.8127
  41  437.358
  42  523.3634
  43  796.1248
  44  776.389
  45  683.71
  46  845.3915
  47  738.4804
  48  1007.683
  49  939.695
  50  1162.441
  51  1068.192
  52  897.3219
  53  857.2905
  54  468.9853
  55  578.4469
  56  953.6207
  57  836.6631
  58  665.3894
  59  837.5577
  60  898.3676
  61  708.9296
  62  631.8856
  63  831.8359
  64  985.6682
  65  842.8013
  66  883.5816
  67  715.4573
  68  657.8918
  69  682.4767
  70  995.1138
  71  749.4446
  72  740.298
  73  789.4771
  74  768.5963
  75  487.1761
  76  643.784
  77  1120.685
  78  1306.278
  79  1214.922
  80  1078.056
  81  832.1793
  82  293.4978
  83  582.5327
  84  678.009
  85  562.8787
  86  504.8886
  87  828.9827
  88  819.1809
  89  838.2681
  90  885.4573
  91  932.9803
  92  749.2824
  93  566.4142
  94  615.9818
  95  704.1619
  96  663.2731
  97  624.7977
  98  750.7126
  99  872.8162
 100  987.7032
 101  827.3
 102  588.3339
 103  476.6332
 104  422.2344
 105  531.9643
 106  533.2725
 107  542.7454
 108  362.0321
 109  477.4604
 110  741.204
 111  1282.282
 112  962.8036
 113  914.7491
 114  637.9183
 115  588.4271
 116  893.2444
 117  1038.052
 118  1068.588
 119  882.2098
 120  1058.659
 121  1225.64
 122  1034.61
 123  1045.742
 124  1043.944
 125  892.738
 126  856.9697
 127  772.1091
 128  757.5355
 129  880.1271
 130  711.8868
 131  829.0217
 132  676.5248
 133  435.6371
 134  490.7916
 135  456.0412
 136  639.4651
 137  800.3838
 138  794.0629
 139  645.071
 140  710.8554
 141  713.4224
 142  798.9218
 143  660.9389
 144  602.6945
 145  801.8719
 146  911.6421
 147  844.2814
 148  723.4058
 149  788.1788
 150  710.2906
 151  750.4732
 152  792.9431
 153  676.1262
 154  733.2357
 155  760.0673
 156  933.723
 157  516.121
 158  812.9962
 159  999.8276
 160  693.3132
 161  468.8404
 162  604.9522
 163  461.0229
 164  489.9087
 165  1021.326
 166  1123.773
 167  275.5522
 168  321.4056
 169  217.6994
 170  273.3321
 171  405.5961
 172  827.8318
 173  875.2699
 174  572.8047
 175  534.6873
 176  871.278
 177  578.8649
 178  437.4208
 179  190.7559
 180  634.1238
 181  487.3623
 182  610.782
 183  655.5106
 184  895.8898
 185  1099.234
 186  1086.241
 187  1087.483
 188  742.0269
 189  668.4128
 190  771.5793
 191  945.5937
 192  858.935
 193  782.801
 194  954.6131
 195  791.1387
 196  1041.479
 197  916.8512
 198  669.783
 199  469.3605
 200  449.7457
 201  638.2601
 202  860.5389
 203  639.8835
 204  429.0891
 205  634.1937
 206  764.8837
 207  678.0692
 208  468.0824
 209  327.93
 210  515.4996
 211  405.3637
 212  651.253
 213  558.2834
 214  755.9525
 215  842.2127
 216  466.5297
 217  465.1047
 218  501.5253
 219  346.4503
 220  392.0803
 221  667.473
 222  925.0549
 223  966.042
 224  1067.431
 225  555.0886
 226  626.676
 227  863.6133
 228  847.1964
 229  613.8157
 230  814.7363
 231  600.9218
 232  534.6099
 233  762.5626
 234  865.9673
 235  864.7677
 236  754.817
 237  471.6052
 238  493.8412
 239  373.3312
 240  447.1369
 241  440.3507
 242  565.2633
 243  540.2292
 244  432.3971
 245  761.956
 246  984.2892
 247  732.6841
 248  680.6458
 249  688.623
 250  561.4042
 251  511.3934
 252  719.7477
 253  912.0641
 254  1153.298
 255  1081.04
 256  1089.926
 257  1021.36
 258  779.3714
 259  572.9213
 260  545.3904
 261  811.9858
 262  832.7273
 263  857.5755
 264  322.7936
 265  385.5443
 266  517.1913
 267  647.1391
 268  1087.271
 269  988.5067
 270  892.983
 271  1006.65
 272  690.4404
 273  786.1192
 274  605.0165
 275  987.311
 276  847
 277  623.1215
 278  730.5765
 279  571.1464
 280  709.1121
 281  524.5424
 282  590.9362
 283  560.9432
 284  726.4415
 285  846.1541
 286  445.2823
 287  812.2536
 288  1005.764
 289  821.4554
 290  568.5829
 291  684.8732
 292  813.0942
 293  751.486
 294  741.5599
 295  639.7938
 296  356.9285
 297  468.3504
 298  465.3153
 299  393.6154
 300  184.8121
 301  584.2379
 302  667.1758
 303  554.3594
 304  790.4227
 305  755.2131
 306  473.5922
 307  630.8541
 308  907.9717
 309  842.8948
 310  1065.621
 311  852.9398
 312  1115.096
 313  846.2502
 314  989.0277
 315  1024.449
 316  1177.011
 317  1032.792
 318  1088.725
 319  968.3364
 320  925.6213
 321  1108.059
 322  1077.453
 323  609.0888
 324  975.1651
 325  1096.805
 326  1129.559
 327  1176.784
 328  923.4935
 329  696.566
 330  969.1389
 331  957.0549
 332  1072.364
 333  931.7266
 334  815.2382
 335  949.9203
 336  870.1976
 337  731.5289
 338  973.0979
 339  557.5512
 340  340.003
 341  362.4651
 342  682.4101
 343  921.903
 344  1047.644
 345  684.7257
 346  724.5204
 347  603.165
 348  810.9717
 349  707.9083
 350  671.9781
 351  1202.181
 352  954.6976
 353  702.2689
 354  511.1267
 355  400.2776
 356  807.7626
 357  814.3571
 358  1078.38
 359  1098.442
 360  958.312
 361  880.0778
 362  479.4651
 363  500.1019
 364  867.6265
 365  943.7689
 366  528.5668
 367  627.537
 368  1083.605
 369  981.5374
 370  935.1641
 371  872.4916
 372  1129.515
 373  1067.906
 374  860.3658
 375  1006.078
 376  1034.286
 377  1033.841
 378  988.8277
 379  1023.816
 380  983.4832
 381  706.7897
 382  908.1357
 383  958.9762
 384  1023.189
 385  851.1314
 386  864.1901
 387  800.7595
 388  685.1039
 389  830.748
 390  925.9277
 391  757.6058
 392  1222.715
 393  1240.792
 394  1267.26
 395  1337.459
 396  865.0616
 397  830.6164
 398  874.1734
 399  817.901
 400  657.0659
 401  995.5449
 402  1503.916
 403  1078.478
 404  1089.369
 405  879.587
 406  833.8591
 407  583.1119
 408  722.2222
 409  746.2056
 410  925.4189
 411  1062.555
 412  923.1493
 413  1009.713
 414  1613.37
 415  1250.496
 416  1269.448
 417  1259.758
 418  1289.38
 419  1258.32
 420  1425.684
 421  1503.882
 422  1275.327
 423  1130.294
 424  1604.624
 425  1400.348
 426  1380.46
 427  1495.92
 428  1401.76
 429  1566.17
 430  1544.465
 431  1618.272
 432  1961.627
 433  2583.266
 434  2795.267
 435  2422.294
 436  1648.644
 437  1237.556
 438  676.2787
 439  465.7785
 440  666.2668
 441  1082.318
 442  1191.276
 443  857.8182
 444  1130.047
 445  1260.722
 446  1003.721
 447  1135.271
 448  1025.888
 449  1169.06
 450  1314.402
 451  1633.347
 452  1338.82
 453  1347.904
 454  1070.274
 455  1003.516
 456  857.6102
 457  820.6208
 458  969.1481
 459  1001.695
 460  774.6657
 461  592.6073
 462  807.0646
 463  852.218
 464  718.8387
 465  840.6553
 466  1092.62
 467  945.298
 468  1056.499
 469  1211.993
 470  1101.403
 471  776.7708
 472  616.0624
 473  875.2177
 474  793.8555
 475  829.379
 476  751.9688
 477  737.8584
 478  843.2991
 479  998.0647
 480  987.4192
 481  1055.09
 482  748.5331
 483  939.5438
 484  707.032
 485  990.5233
 486  1020.32
 487  829.9818
 488  600.7057
 489  438.3957
 490  544.2681
 491  479.1494
 492  417.9203
 493  655.0331
 494  522.7424
 495  605.8786
 496  646.4109
 497  797.4476
 498  791.5395
 499  670.791
 500  734.7252
 501  869.0016
 502  736.2809
 503  857.1257
 504  700.0677
 505  620.1564
 506  514.4219
 507  735.0714
 508  611.7074
 509  793.1281
 510  956.3453
 511  818.9457
