# Input file       =  1202208038.118441_cleaned.dat
# Candidate        =  PSR_0332+5434
# Telescope        =  AR
# Epoch_topo       =  58158.445105537510
# Epoch_bary       =  N/A
# T_sample         =  0.002
# Data Folded      =  7208960
# Data Avg         =  0.106182544557801
# Data StdDev      =  3.68592684043158 
# Profile Bins     =  512
# Profile Avg      =  1495.00331739986 
# Profile StdDev   =  437.369040920863 
# Reduced chi-sqr  =  2.275
# Prob(Noise)      <  9.94e-53   (~15.2 sigma)
# P_topo (ms)      =  714.578776444015  +/- 2.04e-05
# P'_topo (s/s)    =  -0                +/- 1.1e-11
# P''_topo (s/s^2) =  0                 +/- 4.93e-15
# P_bary (ms)      =  N/A
# P'_bary (s/s)    =  N/A
# P''_bary (s/s^2) =  N/A
# P_orb (s)        =  N/A
# asin(i)/c (s)    =  N/A
# eccentricity     =  N/A
# w (rad)          =  N/A
# T_peri           =  N/A
######################################################
   0  1765.69
   1  1495.011
   2  1342.744
   3  1345.145
   4  1192.816
   5  1427.861
   6  1715.944
   7  1912.576
   8  1684.11
   9  1079.917
  10  1204.348
  11  1251.355
  12  1274.118
  13  1863.857
  14  2190.962
  15  2338.241
  16  1815.93
  17  1195.457
  18  1026.049
  19  1586.409
  20  1537.3
  21  1287.853
  22  1917.53
  23  2313.417
  24  1361.817
  25  551.2601
  26  595.2146
  27  782.6001
  28  1098.2
  29  1620.234
  30  2443.723
  31  2461.403
  32  1803.903
  33  1354.517
  34  1056.298
  35  1006.697
  36  1167.831
  37  1239.012
  38  1314.114
  39  1863.044
  40  1932.763
  41  1546.796
  42  922.4222
  43  623.6077
  44  1145.577
  45  1235.417
  46  1293.084
  47  1940.198
  48  2318.452
  49  1950.451
  50  1601.812
  51  1418.222
  52  1302.489
  53  1173.911
  54  1535.173
  55  1738.322
  56  1741.389
  57  1442.696
  58  905.6324
  59  483.3803
  60  972.3531
  61  1194.121
  62  1676.891
  63  2142.819
  64  2485.043
  65  2266.143
  66  1600.103
  67  1392.131
  68  1198.907
  69  1444.186
  70  1393.981
  71  1236.024
  72  1604.337
  73  2052.987
  74  1505.434
  75  994.7327
  76  1183.501
  77  958.9772
  78  634.7241
  79  1443.608
  80  2118.465
  81  2358.825
  82  2276.47
  83  1710.568
  84  1652.477
  85  1513.555
  86  1245.517
  87  1071.393
  88  1807.013
  89  1919.885
  90  1509.606
  91  955.6166
  92  1067.795
  93  959.4395
  94  912.1334
  95  1396.661
  96  1868.255
  97  2558.696
  98  2167.833
  99  1495.062
 100  1128.407
 101  883.8229
 102  1307.275
 103  1446.005
 104  1531.317
 105  2075.496
 106  1984.62
 107  1401.136
 108  682.0942
 109  700.0692
 110  949.2868
 111  1155.211
 112  1688.646
 113  2102.175
 114  2256.65
 115  2196.264
 116  1552.861
 117  1645.535
 118  1868.645
 119  1255.473
 120  1051.844
 121  1297.891
 122  1619.962
 123  1555.997
 124  1199.153
 125  931.5369
 126  885.2805
 127  1241.429
 128  1116.594
 129  1569.828
 130  2377.63
 131  2376.239
 132  1541.911
 133  1284.107
 134  1415.156
 135  1414.892
 136  1260.827
 137  1558.131
 138  2186.937
 139  2470.207
 140  1854.697
 141  1313.254
 142  866.8835
 143  771.431
 144  905.6098
 145  1369.441
 146  2100.616
 147  2288.893
 148  2054.295
 149  1574.584
 150  1684.371
 151  977.342
 152  1157.296
 153  1018.706
 154  1550.965
 155  1981.426
 156  1696.78
 157  1110.119
 158  903.3416
 159  880.2994
 160  1161.257
 161  1058.911
 162  1510.412
 163  2054.269
 164  1915.662
 165  1394.234
 166  1414.064
 167  1634.431
 168  1859.136
 169  1553.921
 170  1377.02
 171  1882.369
 172  1861.811
 173  1495.461
 174  1038.67
 175  794.1274
 176  832.5153
 177  1234.95
 178  1505.455
 179  2441.458
 180  2302.873
 181  1721.995
 182  1553.981
 183  1337.255
 184  1147.091
 185  978.8793
 186  815.1677
 187  1165.106
 188  1578.826
 189  1949.569
 190  1478.251
 191  1060.16
 192  819.9955
 193  1118.292
 194  1397.52
 195  1820.972
 196  2123.87
 197  1945.952
 198  1602.154
 199  1107.993
 200  1272.472
 201  1628.896
 202  1435.499
 203  1487.983
 204  1821.209
 205  1876.402
 206  1210.747
 207  798.9294
 208  767.6124
 209  560.707
 210  687.3455
 211  1464.154
 212  2003.061
 213  2325.805
 214  1879.845
 215  1618.868
 216  1569.825
 217  1433.797
 218  1239.492
 219  982.7361
 220  1148.167
 221  1989.927
 222  1999.121
 223  1635.323
 224  1254.359
 225  1170.637
 226  756.0153
 227  858.7309
 228  1300.151
 229  2056.823
 230  2230.769
 231  1809.799
 232  1202.743
 233  1186.647
 234  1367.909
 235  981.5073
 236  717.4096
 237  1524.179
 238  1630.139
 239  1304.985
 240  1017.692
 241  812.3079
 242  1077.58
 243  1318.793
 244  1398.08
 245  1977.594
 246  2378.022
 247  1969.602
 248  1240.35
 249  751.8875
 250  1139.513
 251  1212.579
 252  989.0548
 253  1330.961
 254  1899.836
 255  2086.902
 256  1365.922
 257  1121.109
 258  964.877
 259  677.726
 260  1005.483
 261  1440.587
 262  1843.716
 263  2084.28
 264  1917.956
 265  1790.516
 266  1859.583
 267  1387.691
 268  1120.023
 269  1069.604
 270  1303.958
 271  1619.152
 272  1382.536
 273  817.8149
 274  851.0274
 275  738.0862
 276  1236.179
 277  1812.665
 278  2309.08
 279  2368.314
 280  2139.426
 281  1842.165
 282  1062.764
 283  1167.188
 284  1349.055
 285  1300.996
 286  1447.026
 287  1758.309
 288  1885.881
 289  1063.887
 290  758.9031
 291  709.8003
 292  1197.031
 293  1195.212
 294  1689.087
 295  2313.024
 296  2483.196
 297  2014.604
 298  1489.69
 299  1879.627
 300  1603.854
 301  1079.686
 302  1355.478
 303  2257.519
 304  2792.96
 305  2984.884
 306  2798.31
 307  2801.878
 308  2558.102
 309  2193.231
 310  2285.301
 311  2366.337
 312  2528.87
 313  2001.852
 314  1510.417
 315  1531.854
 316  1281.251
 317  1436.941
 318  1829.442
 319  2029.501
 320  2110.225
 321  1753.294
 322  1165.339
 323  532.63
 324  772.3392
 325  801.5192
 326  904.0218
 327  1817.404
 328  2073.337
 329  2370.983
 330  2080.096
 331  1629.635
 332  1492.682
 333  1212.708
 334  949.605
 335  1252.318
 336  1933.799
 337  2147.135
 338  1464.838
 339  1033.903
 340  1013.114
 341  978.9253
 342  1232.043
 343  1261.131
 344  1865.592
 345  2299.615
 346  1919.921
 347  1386.822
 348  1232.391
 349  1258.045
 350  1432.464
 351  1304.633
 352  1504.978
 353  1668.317
 354  1401.224
 355  683.7093
 356  432.0659
 357  829.1745
 358  1255.426
 359  1372.419
 360  1604.094
 361  2185.158
 362  2405.346
 363  2012
 364  1421.035
 365  1195.652
 366  1293.903
 367  820.5474
 368  635.2973
 369  1681.775
 370  1981.483
 371  1796.924
 372  1379.542
 373  965.0885
 374  1245.461
 375  1242.814
 376  1689.378
 377  2124.927
 378  2361.899
 379  2327.126
 380  1877.093
 381  1467.397
 382  1510.559
 383  1702.615
 384  1602.034
 385  1817.163
 386  2302.221
 387  2071.746
 388  1462.712
 389  1024.415
 390  1025.969
 391  1147.074
 392  1210.417
 393  1768.671
 394  2475.782
 395  2386.835
 396  1752.525
 397  1267.446
 398  1286.52
 399  1199.341
 400  956.5367
 401  1106.127
 402  1556.834
 403  1996.945
 404  1727.234
 405  1104.766
 406  1138.894
 407  1088.624
 408  990.4498
 409  1381.714
 410  1973.238
 411  2315.947
 412  2143.492
 413  1849.219
 414  1722.963
 415  1608.416
 416  1633.145
 417  1480.27
 418  1503.533
 419  1625.125
 420  1458.319
 421  928.0099
 422  975.1361
 423  1109.142
 424  1297.547
 425  1291.839
 426  1453.712
 427  2084.71
 428  2241.013
 429  1761.511
 430  1450.42
 431  1173.584
 432  1217.583
 433  1441.409
 434  1093.706
 435  1727.851
 436  2203.272
 437  1743.352
 438  967.9106
 439  789.3855
 440  1014.46
 441  1216.147
 442  1255.718
 443  1682.63
 444  2163.346
 445  2109.792
 446  1665.913
 447  814.0488
 448  1057.736
 449  996.8344
 450  988.0818
 451  1435.525
 452  1572.534
 453  1519.773
 454  1062.398
 455  651.862
 456  448.1121
 457  1084.428
 458  1275.817
 459  1694.585
 460  1941.034
 461  1843.388
 462  1715.502
 463  1263.805
 464  1197.81
 465  1135.042
 466  1180.198
 467  1331.625
 468  2010.477
 469  1993.892
 470  1384.735
 471  803.3207
 472  928.0571
 473  1086.689
 474  953.109
 475  1360.086
 476  2051.928
 477  2309.931
 478  2036.702
 479  1691.205
 480  1416.131
 481  1523.298
 482  1537.843
 483  1200.854
 484  1077.591
 485  1381.536
 486  1232.956
 487  1229.221
 488  1082.841
 489  1066.046
 490  1393.833
 491  1508.479
 492  1769.274
 493  2208.97
 494  2401.488
 495  1828.609
 496  1527.91
 497  1703.203
 498  1781.962
 499  1382.75
 500  1446.059
 501  1683.37
 502  1719.232
 503  1606.969
 504  1099.813
 505  787.6738
 506  568.4438
 507  910.558
 508  1418.289
 509  1945.095
 510  2342.093
 511  2050.936
