# Input file       =  1202567454.139856_cleaned.dat
# Candidate        =  PSR_0332+5434
# Telescope        =  AR
# Epoch_topo       =  58162.605013192777
# Epoch_bary       =  N/A
# T_sample         =  0.002
# Data Folded      =  7340032
# Data Avg         =  0.378070769024944
# Data StdDev      =  6.88074436180385 
# Profile Bins     =  512
# Profile Avg      =  5420.09737854274 
# Profile StdDev   =  823.852414971089 
# Reduced chi-sqr  =  0.576
# Prob(Noise)      <  1   (~0.0 sigma)
# P_topo (ms)      =  714.579759098422  +/- 0.000817
# P'_topo (s/s)    =  -0                +/- 4.31e-10
# P''_topo (s/s^2) =  0                 +/- 1.9e-13
# P_bary (ms)      =  N/A
# P'_bary (s/s)    =  N/A
# P''_bary (s/s^2) =  N/A
# P_orb (s)        =  N/A
# asin(i)/c (s)    =  N/A
# eccentricity     =  N/A
# w (rad)          =  N/A
# T_peri           =  N/A
######################################################
   0  5656.022
   1  5467.405
   2  5208.939
   3  5146.872
   4  4905.329
   5  5284.076
   6  5468.072
   7  5320.55
   8  5643.861
   9  5387.751
  10  5220.421
  11  5092.757
  12  5178.875
  13  5307.036
  14  5237.73
  15  5513.502
  16  5353.865
  17  5181.241
  18  5182.645
  19  5139.061
  20  5199.118
  21  5275.479
  22  4995.602
  23  4854.442
  24  4877.254
  25  5095.274
  26  5097.31
  27  4941.488
  28  4757.614
  29  4884.097
  30  4944.083
  31  4977.07
  32  5073.117
  33  4963.077
  34  5069.334
  35  5383.153
  36  5222.694
  37  5224.943
  38  5189.584
  39  5029.614
  40  4849.015
  41  4966.781
  42  4989.875
  43  4623.083
  44  4593.995
  45  4518.945
  46  4489.302
  47  4749.729
  48  4697.022
  49  4748.368
  50  4865.688
  51  5100.104
  52  5242.653
  53  4868.342
  54  5124.528
  55  5172.144
  56  5223.116
  57  5189.659
  58  5418.408
  59  5524.519
  60  5728.929
  61  5803.009
  62  5578.763
  63  5406.138
  64  5340.509
  65  5295.935
  66  5348.876
  67  5344.278
  68  5395.489
  69  5413.539
  70  5237.616
  71  5053.018
  72  5026.741
  73  5031.713
  74  5454.552
  75  5441.829
  76  5492.964
  77  5544.063
  78  5521.731
  79  5504.299
  80  5753.311
  81  5632.211
  82  5399.355
  83  5266.397
  84  5626.526
  85  6167.788
  86  6223.61
  87  6169.056
  88  6228.449
  89  5999.114
  90  5825.888
  91  5710.748
  92  5684.813
  93  5787.206
  94  5867.201
  95  6328.422
  96  6187.609
  97  5964.79
  98  5463.934
  99  5686.938
 100  5703.251
 101  5677.181
 102  5720.48
 103  5732.593
 104  5661.266
 105  5337.609
 106  5295.065
 107  5481.722
 108  5432.796
 109  5611.11
 110  5422.05
 111  4997.391
 112  5230.942
 113  4855.637
 114  4933.548
 115  5366.277
 116  5527.481
 117  5563.93
 118  5569.65
 119  5381.866
 120  4874.174
 121  5077.828
 122  5200.07
 123  5134.428
 124  5243.238
 125  5186.492
 126  5141.686
 127  5155.955
 128  5240.362
 129  5056.208
 130  4640.734
 131  4929.973
 132  5001.883
 133  4929.702
 134  5340.831
 135  4881.788
 136  5233.29
 137  5205.297
 138  5436.042
 139  5511.019
 140  5375.031
 141  5212.037
 142  5218.27
 143  5174.824
 144  5336.562
 145  5189.867
 146  5438.004
 147  5330.725
 148  5401.753
 149  5844.092
 150  5971.604
 151  5727.236
 152  5450.123
 153  5520.14
 154  5764.556
 155  5819.145
 156  5932.986
 157  6104.336
 158  5991.15
 159  5962.968
 160  5789.507
 161  5763.949
 162  5941.789
 163  5756.881
 164  5807.493
 165  5888.817
 166  6134.27
 167  6450.92
 168  6015.302
 169  5802.33
 170  6270.436
 171  6303.322
 172  6247.148
 173  6362.421
 174  5917.21
 175  5865.522
 176  5961.927
 177  6175.303
 178  6129.066
 179  6111.266
 180  6212.058
 181  6404.703
 182  6078.99
 183  6021.323
 184  5898.15
 185  6111.18
 186  6384.414
 187  6120.095
 188  6013.695
 189  6108.417
 190  6219.28
 191  6093.115
 192  6295.553
 193  6324.93
 194  6317.913
 195  6450.974
 196  6524.158
 197  6192.067
 198  6012.444
 199  5842.166
 200  5975.987
 201  6311.655
 202  6419.947
 203  6322.538
 204  5595.947
 205  5300.399
 206  5631.731
 207  6127.237
 208  6158.844
 209  5800.512
 210  5561.22
 211  5516.906
 212  5612.352
 213  5658.586
 214  5343.246
 215  5156.399
 216  5133.494
 217  4878.366
 218  4921.107
 219  5291.943
 220  5505.087
 221  5317.047
 222  5442.948
 223  5427.316
 224  5360.431
 225  5496.857
 226  5156.945
 227  5046.724
 228  5149.534
 229  4960.07
 230  4873.903
 231  4979.666
 232  5033.217
 233  4991.229
 234  5199.875
 235  5480.155
 236  5260.541
 237  4906.718
 238  4981.19
 239  5181.827
 240  5187.972
 241  5128.692
 242  4832.843
 243  5276.113
 244  5276.628
 245  4919.705
 246  5027.779
 247  5030.1
 248  5057.601
 249  4975.802
 250  5069.159
 251  4997.307
 252  5225.095
 253  5089.789
 254  5110.958
 255  4837.943
 256  4829.757
 257  4727.6
 258  4844.482
 259  4735.098
 260  4542.159
 261  4963.951
 262  4881.498
 263  4663.636
 264  4488.875
 265  4572.31
 266  4640.008
 267  4904.447
 268  4929.509
 269  4624.613
 270  4918.628
 271  4973.922
 272  4911.38
 273  4907.696
 274  4922.069
 275  5257.955
 276  4831.372
 277  4933.479
 278  5008.841
 279  4892.05
 280  4779.467
 281  4694.571
 282  4995
 283  4725.399
 284  4794.98
 285  5110.571
 286  5343.013
 287  5275.442
 288  5507.809
 289  5533
 290  5327.837
 291  5289.76
 292  5545.854
 293  4920.847
 294  4811.697
 295  5217.19
 296  5375.849
 297  5139.542
 298  5325.516
 299  5200.36
 300  5242.56
 301  5277.881
 302  5518.279
 303  5924.178
 304  5903.082
 305  6420.641
 306  6204.668
 307  6357.472
 308  6405.949
 309  5786.832
 310  4879.125
 311  5040.354
 312  5058.956
 313  4941.192
 314  5178.771
 315  5334.614
 316  5212.008
 317  5062.652
 318  5193.771
 319  5059.411
 320  5172.993
 321  5052.747
 322  4987.949
 323  4936.443
 324  4962.624
 325  4955.737
 326  5070.066
 327  5157.524
 328  4388.183
 329  4335.598
 330  4319.863
 331  4794.436
 332  4950.566
 333  4957.204
 334  5170.949
 335  4945.317
 336  4531.903
 337  4370.766
 338  4483.239
 339  4245.936
 340  4670.903
 341  4692.402
 342  4454.286
 343  4528.75
 344  4715.031
 345  4583.807
 346  4523.581
 347  4920.013
 348  5166.899
 349  5273.732
 350  5146.396
 351  5123.438
 352  5237.878
 353  5026.689
 354  5025.104
 355  5094.651
 356  5424.754
 357  5589.658
 358  5574.187
 359  5205.887
 360  5194.48
 361  5541.602
 362  5139.118
 363  5426.295
 364  5547.175
 365  5351.146
 366  5362.909
 367  5772.614
 368  5679.232
 369  5541.397
 370  5632.03
 371  5594.952
 372  5609.205
 373  5591.158
 374  5382.458
 375  5059.188
 376  5206.12
 377  5371.427
 378  5588.428
 379  5659.511
 380  5498.426
 381  5566.519
 382  5512.903
 383  5693.647
 384  5697.443
 385  5771.934
 386  5484.767
 387  5128.118
 388  5181.235
 389  5314.019
 390  5290.357
 391  5532.371
 392  5325.754
 393  5227.733
 394  5230.63
 395  5253.598
 396  5237.338
 397  5640.873
 398  5572.578
 399  5853.209
 400  6159.574
 401  6228.352
 402  6043.004
 403  5471.765
 404  5880.656
 405  5887.321
 406  6009.643
 407  6054.73
 408  6165.104
 409  6206.826
 410  5928.491
 411  5982.181
 412  6030.917
 413  6129.588
 414  5964.376
 415  5627.698
 416  5707.322
 417  6066.064
 418  5830.122
 419  5591.557
 420  5728.822
 421  5692.342
 422  5770.551
 423  5755.994
 424  6021.837
 425  6064.217
 426  5685.171
 427  5720.839
 428  6046.289
 429  6250.511
 430  5976.219
 431  5860.791
 432  5878.673
 433  5965.886
 434  6127.954
 435  6163.992
 436  5868.034
 437  5725.854
 438  5757.776
 439  5606.536
 440  5650.144
 441  5703.06
 442  5685.692
 443  5582.525
 444  5549.236
 445  5691.653
 446  5753.774
 447  5646.439
 448  5375.402
 449  5394.743
 450  5593.398
 451  5590.625
 452  5398.794
 453  5470.779
 454  5494.788
 455  5602.166
 456  5327.625
 457  4966.226
 458  5146.666
 459  5471.693
 460  5567.688
 461  5169.601
 462  5555.849
 463  5728.022
 464  5398.893
 465  5700.778
 466  5677.741
 467  5685.647
 468  5603.521
 469  5574.485
 470  5386.85
 471  5480.981
 472  5642.897
 473  5267.112
 474  5183.587
 475  5204.652
 476  5143.401
 477  5108.979
 478  5216.294
 479  5170.74
 480  4911.483
 481  4972.334
 482  5160.718
 483  5418.086
 484  5376.543
 485  5534.651
 486  5407.317
 487  5284.9
 488  5555.648
 489  5355.837
 490  5740.139
 491  5752.586
 492  5778.489
 493  5668.261
 494  5905.328
 495  5776.042
 496  5728.427
 497  5750.19
 498  5592.033
 499  6099.34
 500  6080.88
 501  5930.522
 502  6007.86
 503  6137.068
 504  6073.221
 505  5893.506
 506  5860.483
 507  5605.406
 508  5737.321
 509  5787.734
 510  5897.543
 511  5894.889
