# Input file       =  1202308865.112091_cleaned.dat
# Candidate        =  PSR_0332+5434
# Telescope        =  AR
# Epoch_topo       =  58159.612084630680
# Epoch_bary       =  N/A
# T_sample         =  0.002
# Data Folded      =  7340032
# Data Avg         =  0.241688586090666
# Data StdDev      =  5.65685008139194 
# Profile Bins     =  256
# Profile Avg      =  6930.12159213104 
# Profile StdDev   =  957.863585237668 
# Reduced chi-sqr  =  1.605
# Prob(Noise)      <  2.87e-09   (~5.8 sigma)
# P_topo (ms)      =  714.579095171305  +/- 0.000693
# P'_topo (s/s)    =  -0                +/- 3.66e-10
# P''_topo (s/s^2) =  0                 +/- 1.61e-13
# P_bary (ms)      =  N/A
# P'_bary (s/s)    =  N/A
# P''_bary (s/s^2) =  N/A
# P_orb (s)        =  N/A
# asin(i)/c (s)    =  N/A
# eccentricity     =  N/A
# w (rad)          =  N/A
# T_peri           =  N/A
######################################################
   0  6501.276
   1  4308.823
   2  5152.927
   3  5754.535
   4  6183.449
   5  5899.956
   6  5577.07
   7  5890.156
   8  5550.305
   9  6016.048
  10  6311.041
  11  6479.051
  12  7014.813
  13  6783.798
  14  5922.219
  15  5869.032
  16  6115.537
  17  5669.982
  18  5128.64
  19  5321.454
  20  4976.784
  21  5497.398
  22  4661.115
  23  4792.495
  24  5047.113
  25  4991.917
  26  4627.833
  27  5243.209
  28  5300.44
  29  5858.545
  30  5749.522
  31  5271.688
  32  5698.489
  33  4728.844
  34  5687.309
  35  6309.496
  36  6513.004
  37  6119.265
  38  6650.672
  39  6336.949
  40  7069.44
  41  6859.442
  42  6576.743
  43  6604.543
  44  6087.066
  45  6206.821
  46  6037.365
  47  6602.829
  48  5804.647
  49  6413.617
  50  6858.917
  51  7082.313
  52  7456.561
  53  7243.707
  54  7323.709
  55  7289.582
  56  7562.676
  57  7375.468
  58  7314.612
  59  7429.99
  60  7165.529
  61  6797.414
  62  7065.769
  63  6774.354
  64  7054.187
  65  6704.444
  66  7521.85
  67  7954.248
  68  7692.062
  69  7737.003
  70  7597.116
  71  7699.359
  72  8345.521
  73  8152.895
  74  7093.736
  75  7381.479
  76  6978.305
  77  7162.587
  78  6756.266
  79  6956.734
  80  7201.239
  81  7945.967
  82  7749.779
  83  7003.72
  84  6770.489
  85  6860.303
  86  7357.635
  87  7375.757
  88  6513.799
  89  6101.931
  90  7223.737
  91  6608.477
  92  6621.419
  93  6951.016
  94  7084.664
  95  7903.792
  96  7651.385
  97  8060.847
  98  7682.347
  99  8525.54
 100  8350.158
 101  8571.294
 102  8534.432
 103  7724.259
 104  7593.983
 105  7964.785
 106  7975.094
 107  7822.348
 108  7769.664
 109  7979.806
 110  7952.312
 111  8211.539
 112  7742.425
 113  7776.878
 114  7848.616
 115  7626.941
 116  6824.192
 117  5678.27
 118  6145.873
 119  5441.523
 120  5592.534
 121  6290.236
 122  6507.881
 123  7573.406
 124  7435.165
 125  6700.515
 126  5709.708
 127  6433.632
 128  7417.373
 129  6850.483
 130  7293.95
 131  7225.686
 132  6603.752
 133  7307.914
 134  6609.852
 135  6903.676
 136  6781.003
 137  7140.952
 138  6583.706
 139  6529.971
 140  6099.372
 141  6681.391
 142  6626.103
 143  7032.146
 144  7160.987
 145  6877.996
 146  7079.688
 147  7442.943
 148  7028.049
 149  8265.572
 150  7910.811
 151  8599.963
 152  10219.92
 153  11425.52
 154  10754.4
 155  10193.02
 156  9493.794
 157  9564.221
 158  8876.609
 159  8514.495
 160  7380.902
 161  7976.027
 162  7952.913
 163  7036.045
 164  7146.064
 165  7801.69
 166  7991.927
 167  7740.122
 168  8265.757
 169  7808.419
 170  7857.841
 171  7357.981
 172  7419.545
 173  7452.969
 174  7322.886
 175  6613.136
 176  7692.156
 177  7218.023
 178  7085.106
 179  6414.908
 180  7175.661
 181  6736.412
 182  7068.297
 183  7141.38
 184  7245.133
 185  6983.044
 186  7996.954
 187  8713.232
 188  7210.066
 189  7409.532
 190  8476.248
 191  7963.918
 192  7699.376
 193  8731.655
 194  8000.192
 195  7585.848
 196  8194.903
 197  7874.085
 198  8645.576
 199  7492.986
 200  7488.596
 201  7998.842
 202  7513.406
 203  6926.456
 204  6893.469
 205  7195.844
 206  6855.999
 207  7025.955
 208  7871.481
 209  7293.764
 210  6642.536
 211  6297.245
 212  7375.598
 213  7517.057
 214  6269.785
 215  6805.701
 216  6636.507
 217  6025.826
 218  6155.828
 219  6103.012
 220  6798.198
 221  5637.977
 222  5760.864
 223  5624.056
 224  6262.583
 225  6060.844
 226  6232.407
 227  7577.866
 228  7703.036
 229  6978.077
 230  7471.207
 231  7110.853
 232  6701.825
 233  6791.437
 234  5813.417
 235  5721.895
 236  6202.012
 237  5715.965
 238  6558.571
 239  6091.391
 240  5737.781
 241  5797.433
 242  5722.475
 243  5912.559
 244  5968.237
 245  6013.728
 246  6012.425
 247  5872.515
 248  6011.328
 249  5607.897
 250  6159.042
 251  5951.448
 252  5560.853
 253  5207.676
 254  5424.604
 255  6195.093
