# Input file       =  1202323790.104277_cleaned.dat
# Candidate        =  PSR_0332+5434
# Telescope        =  AR
# Epoch_topo       =  58159.784827595795
# Epoch_bary       =  N/A
# T_sample         =  0.002
# Data Folded      =  7340032
# Data Avg         =  0.104289138814368
# Data StdDev      =  3.67834671638058 
# Profile Bins     =  512
# Profile Avg      =  1495.22467839345 
# Profile StdDev   =  440.419621198754 
# Reduced chi-sqr  =  0.634
# Prob(Noise)      <  1   (~0.0 sigma)
# P_topo (ms)      =  714.579474006163  +/- 0.000464
# P'_topo (s/s)    =  -0                +/- 2.45e-10
# P''_topo (s/s^2) =  0                 +/- 1.08e-13
# P_bary (ms)      =  N/A
# P'_bary (s/s)    =  N/A
# P''_bary (s/s^2) =  N/A
# P_orb (s)        =  N/A
# asin(i)/c (s)    =  N/A
# eccentricity     =  N/A
# w (rad)          =  N/A
# T_peri           =  N/A
######################################################
   0  920.0882
   1  1360.673
   2  1523.792
   3  1349.645
   4  1455.174
   5  1287.71
   6  1321.301
   7  1529.18
   8  1625.689
   9  1427.662
  10  1315.894
  11  1240.24
  12  1611.026
  13  1544.616
  14  1699.047
  15  1652.611
  16  1149.608
  17  1197.583
  18  1633.392
  19  1544.209
  20  1401.192
  21  1789.338
  22  1847.216
  23  1818.996
  24  1738.616
  25  1927.048
  26  1733.78
  27  1343.203
  28  1408.141
  29  1677.631
  30  1588.051
  31  1691.173
  32  1156.394
  33  1265.062
  34  1483.347
  35  1588.329
  36  1869.831
  37  1663.606
  38  1714.723
  39  1733.009
  40  1533.719
  41  1537.701
  42  1532.313
  43  1957.478
  44  1940.703
  45  1828.112
  46  1677.682
  47  1363.173
  48  1317.094
  49  1449.542
  50  1654.271
  51  1729.022
  52  1730.51
  53  1663.26
  54  1625.964
  55  1484.502
  56  1212.032
  57  1642.031
  58  1531.667
  59  1368.679
  60  1451.661
  61  1962.093
  62  2157.364
  63  1949.177
  64  1628.809
  65  1328.802
  66  1104.441
  67  1394.9
  68  1445.757
  69  1417.309
  70  1690.31
  71  1713.045
  72  1383.53
  73  1733.707
  74  1571.585
  75  1432.941
  76  1357.485
  77  1375.025
  78  1678.174
  79  1666.097
  80  1470.034
  81  1569.414
  82  1512.453
  83  1402.855
  84  1299.335
  85  1375.637
  86  1569.654
  87  1327.417
  88  1506.823
  89  1571.464
  90  1479.579
  91  1363.392
  92  1534.871
  93  1640.658
  94  1456.641
  95  1463.798
  96  1650.607
  97  1497.877
  98  1189.575
  99  1399.341
 100  1493.932
 101  1502.188
 102  1050.631
 103  1248.645
 104  1135.894
 105  1083.109
 106  1477.568
 107  1634.876
 108  1677.488
 109  1408.845
 110  1447.468
 111  1584.112
 112  1505.886
 113  1460.856
 114  1339.564
 115  1606.445
 116  1690.336
 117  1773.975
 118  1623.155
 119  1900.675
 120  1668.955
 121  1583.387
 122  1527.198
 123  1583.302
 124  1630.378
 125  1569.56
 126  1797.016
 127  1685.352
 128  1806.402
 129  1780.447
 130  1457.076
 131  1098.327
 132  1364.213
 133  1374.195
 134  1487.503
 135  1399.922
 136  1570.999
 137  1065.163
 138  1247.801
 139  1531.627
 140  1540.163
 141  1778.449
 142  1638.547
 143  1673.712
 144  1479.762
 145  1250.856
 146  1188.842
 147  1156.976
 148  1309.459
 149  1548.113
 150  1690.317
 151  1634.688
 152  1434.903
 153  1515.573
 154  1408.319
 155  1113.716
 156  1357.738
 157  1479.919
 158  1433.336
 159  1600.72
 160  1475.828
 161  1389.889
 162  1298.608
 163  1466.983
 164  1338.243
 165  1130.763
 166  1323.421
 167  1769.494
 168  1866.084
 169  1597.007
 170  1441.117
 171  1592.067
 172  1447.555
 173  1559.038
 174  1337.916
 175  1260.095
 176  1097.806
 177  1537.869
 178  1579.515
 179  1535.524
 180  1684.56
 181  1593.626
 182  1429.156
 183  1560.669
 184  1537.083
 185  1739.125
 186  1727.281
 187  1624.105
 188  1516.408
 189  1665.353
 190  1499.611
 191  1623.524
 192  1480.374
 193  1463.423
 194  1791.479
 195  1633.59
 196  1872.89
 197  1413.421
 198  1373.009
 199  1561.992
 200  1273.725
 201  1418.797
 202  1444.044
 203  1566.528
 204  1280.251
 205  1287.983
 206  1457.85
 207  1429.798
 208  1016.386
 209  1561.345
 210  2020.852
 211  1462.997
 212  1436.95
 213  1489.469
 214  1373.957
 215  1527.696
 216  1666.026
 217  1807.074
 218  1456.774
 219  1412.658
 220  1330.663
 221  1447
 222  1414.933
 223  1576.956
 224  1306.686
 225  1273.922
 226  1295.878
 227  1448.523
 228  1524.647
 229  1368.227
 230  1423.052
 231  1536.427
 232  1613.818
 233  1592.038
 234  1425.245
 235  1561.938
 236  1837.756
 237  1814.836
 238  1648.975
 239  1855.138
 240  1905.881
 241  1629.792
 242  1849.546
 243  1650.36
 244  1642.521
 245  1636.998
 246  1606.028
 247  1685.582
 248  1836.728
 249  1830.696
 250  1832.78
 251  1513.544
 252  1607.776
 253  1304.801
 254  1510.956
 255  1747.86
 256  1737.341
 257  1872.216
 258  1639.558
 259  1633.433
 260  1672.533
 261  1526.392
 262  1811.219
 263  1737.974
 264  1728.734
 265  1906.057
 266  1605.963
 267  1542.316
 268  1538.834
 269  1447.523
 270  1303.294
 271  1244.192
 272  1590.339
 273  1229.376
 274  1291.225
 275  1214.004
 276  1369.465
 277  1689.807
 278  1792.36
 279  1675.255
 280  1450.238
 281  1331.6
 282  1329.406
 283  1305.265
 284  1268.616
 285  1272.637
 286  1309.068
 287  1446.125
 288  1341.272
 289  1214.032
 290  1520.674
 291  1261.981
 292  1287.138
 293  1254.894
 294  742.9302
 295  1149.833
 296  1364.087
 297  1307.892
 298  1702.358
 299  1605.259
 300  1786.212
 301  1561.116
 302  1640.449
 303  1908.531
 304  2372.858
 305  2793.977
 306  2879.847
 307  2941.823
 308  2798.189
 309  1985.496
 310  1770.805
 311  1406.766
 312  1476.841
 313  1792.801
 314  1444.975
 315  1377.61
 316  1471.945
 317  1444.276
 318  1464.781
 319  1429.005
 320  1428.408
 321  1384.528
 322  1335.104
 323  1285.4
 324  1229.502
 325  1141.299
 326  1564.301
 327  1418.357
 328  1320.981
 329  1431.656
 330  1526.45
 331  1247.43
 332  1123.094
 333  1129.535
 334  1374.029
 335  1249.217
 336  856.7367
 337  923.7059
 338  1215.387
 339  1466.808
 340  1496.96
 341  1227.611
 342  1288.467
 343  1224.02
 344  1473.282
 345  1566.185
 346  1350.497
 347  1416.134
 348  1700.747
 349  1709.575
 350  1682.904
 351  1498.34
 352  947.2596
 353  1244.777
 354  1726.793
 355  1681.026
 356  1641.835
 357  1671.625
 358  1624.694
 359  1370.485
 360  1327.654
 361  1256.591
 362  1514.142
 363  1520.18
 364  1043.119
 365  1047.169
 366  1178.906
 367  1554.065
 368  1367.865
 369  1399.072
 370  1499.758
 371  1331.481
 372  1512.042
 373  1662.231
 374  1550.263
 375  1275.123
 376  1320.449
 377  1307.448
 378  1626.711
 379  1394.286
 380  1423.252
 381  1531.121
 382  1506.367
 383  1373.384
 384  1356.387
 385  1451.481
 386  1516.481
 387  1083.928
 388  1231.727
 389  1339.193
 390  1589.983
 391  1600.257
 392  1449.324
 393  1492.716
 394  1394.081
 395  1705.006
 396  1657.016
 397  1594.141
 398  1322.037
 399  1297.477
 400  1620.455
 401  1218.073
 402  1509.486
 403  1318.49
 404  1145.197
 405  1188.603
 406  1298.398
 407  1730.932
 408  1196.453
 409  1407.255
 410  1600.742
 411  1568.916
 412  1751.801
 413  1388.905
 414  1384.494
 415  1585.534
 416  1516.125
 417  1326.195
 418  1807.916
 419  1837.547
 420  2040.866
 421  2120.596
 422  1774.842
 423  1575.614
 424  1711.834
 425  2058.359
 426  1732.141
 427  1298.674
 428  1732.373
 429  1526.868
 430  1869.727
 431  1499.735
 432  1357.493
 433  1367.896
 434  1292.217
 435  1364.453
 436  1381.833
 437  1361.494
 438  1506.635
 439  1110.232
 440  1084.63
 441  1202.012
 442  1535.292
 443  1562.781
 444  1570.164
 445  1750.6
 446  1830.73
 447  1936.675
 448  1785.893
 449  1696.891
 450  1570.261
 451  1769.185
 452  1449.828
 453  1551.95
 454  1483.706
 455  1631.808
 456  1669.215
 457  1673.467
 458  1879.416
 459  1466.857
 460  1024.569
 461  1196.869
 462  1250.095
 463  1265.88
 464  1334.555
 465  1006.155
 466  921.4044
 467  1081.018
 468  1767.469
 469  1688.25
 470  1293.029
 471  1311.687
 472  975.5485
 473  1092.303
 474  1347.729
 475  1187.709
 476  1336.542
 477  1228.324
 478  1309.065
 479  1172.191
 480  1156.841
 481  1179.589
 482  1184.616
 483  1359.68
 484  1284.582
 485  1440.82
 486  1137.503
 487  1115.257
 488  1492.306
 489  1425.434
 490  1598.641
 491  1647.513
 492  1389.429
 493  1155.152
 494  1200.417
 495  1374.095
 496  1266.868
 497  1418.565
 498  1779.529
 499  1877.721
 500  1724.186
 501  1399.04
 502  1442.238
 503  1614.296
 504  1428.162
 505  1297.672
 506  1483.362
 507  1579.554
 508  1243.154
 509  1067.095
 510  1238.435
 511  1009.397
