# Input file       =  1202050963.106889_cleaned.dat
# Candidate        =  PSR_0332+5434
# Telescope        =  AR
# Epoch_topo       =  58156.627107718625
# Epoch_bary       =  N/A
# T_sample         =  0.002
# Data Folded      =  7340032
# Data Avg         =  0.256155032037765
# Data StdDev      =  9.16102965965375 
# Profile Bins     =  1024
# Profile Avg      =  1835.87538055597 
# Profile StdDev   =  775.609799447377 
# Reduced chi-sqr  =  0.623
# Prob(Noise)      <  1   (~0.0 sigma)
# P_topo (ms)      =  714.578280623514  +/- 0.000645
# P'_topo (s/s)    =  -0                +/- 3.4e-10
# P''_topo (s/s^2) =  0                 +/- 1.5e-13
# P_bary (ms)      =  N/A
# P'_bary (s/s)    =  N/A
# P''_bary (s/s^2) =  N/A
# P_orb (s)        =  N/A
# asin(i)/c (s)    =  N/A
# eccentricity     =  N/A
# w (rad)          =  N/A
# T_peri           =  N/A
######################################################
   0  1489.435
   1  1528.601
   2  1282.756
   3  1218.628
   4  1195.431
   5  1331.546
   6  1498.023
   7  1395.363
   8  1524.459
   9  1292.091
  10  1267.198
  11  1374.462
  12  1498.653
  13  1684.779
  14  1755.141
  15  1954.258
  16  2158.728
  17  2104.464
  18  1752.861
  19  1488.707
  20  1465.541
  21  1626.41
  22  1556.385
  23  1537.867
  24  1700.953
  25  1850.658
  26  1796.715
  27  1814.796
  28  1767.108
  29  2171.463
  30  2255.522
  31  2310.308
  32  2260.1
  33  1894.074
  34  1926.549
  35  2057.882
  36  1926.45
  37  1918.771
  38  1699.3
  39  1957.463
  40  2022.015
  41  1941.338
  42  2177.865
  43  2218.992
  44  2412.683
  45  2589.898
  46  2656.747
  47  2468.502
  48  2240.644
  49  2097.771
  50  2261.485
  51  2213.197
  52  2145.744
  53  2460.506
  54  2162.837
  55  2031.629
  56  2044.958
  57  2311.807
  58  2792.51
  59  2740.474
  60  2743.137
  61  2701.763
  62  2364.011
  63  2567.426
  64  2463.805
  65  2382.567
  66  2096.619
  67  1810.11
  68  1664.114
  69  1966.012
  70  2246.483
  71  2613.515
  72  2406.106
  73  2542.838
  74  2610.801
  75  2710.583
  76  2436.064
  77  2253.828
  78  2199.042
  79  2263.281
  80  2396.269
  81  2405.675
  82  2543.227
  83  2266.725
  84  2450.07
  85  2527.196
  86  2580.272
  87  2629.595
  88  2368.078
  89  2186.032
  90  1944.259
  91  1954.426
  92  2050.147
  93  1851.408
  94  1969.809
  95  2013.415
  96  2051.78
  97  1771.164
  98  1558.799
  99  1631.014
 100  1903.701
 101  2127.331
 102  2061.305
 103  1753.342
 104  1509.262
 105  1737.221
 106  1866.113
 107  1988.995
 108  1880.925
 109  1770.046
 110  1736.85
 111  1685.985
 112  1905.531
 113  1992.54
 114  1828.068
 115  1929.142
 116  1927.951
 117  1948.52
 118  1765.949
 119  1644.789
 120  1919.507
 121  1878.403
 122  1856.761
 123  1991.62
 124  1968.226
 125  1780.815
 126  1672.814
 127  1660.046
 128  1995.644
 129  2117.327
 130  2248.158
 131  2275.43
 132  1928.809
 133  1921.924
 134  1890.209
 135  1813.627
 136  1795.848
 137  1838.818
 138  1841.013
 139  1868.859
 140  1344.906
 141  1398.231
 142  1326.454
 143  1491.361
 144  1848.27
 145  1975.625
 146  2062.634
 147  2100.613
 148  1978.74
 149  2142.473
 150  1871.296
 151  1734.858
 152  1631.884
 153  1604.562
 154  1576.333
 155  1685.222
 156  1745.526
 157  1982.278
 158  1991.996
 159  2139.154
 160  2186.248
 161  2087.627
 162  2195.945
 163  2275.257
 164  2138.681
 165  1967.589
 166  1658.394
 167  1648.986
 168  1758.393
 169  1736.836
 170  1690.889
 171  1724.352
 172  1926.87
 173  2190.531
 174  2191.74
 175  2177.313
 176  2055.118
 177  1920.286
 178  1963.14
 179  1770.595
 180  1877.552
 181  1990.487
 182  1921.218
 183  1845.57
 184  1540.628
 185  1472.939
 186  1590.153
 187  1736.6
 188  1867.366
 189  1837.771
 190  1843.359
 191  1849.689
 192  1948.769
 193  2149.341
 194  2228.01
 195  2096.963
 196  2188.405
 197  1943.988
 198  1945.912
 199  2050.562
 200  1954.226
 201  2003.78
 202  1826.492
 203  1812.636
 204  1844.562
 205  1706.226
 206  1924.607
 207  1830.789
 208  1790.389
 209  1826.114
 210  1746.851
 211  1697.552
 212  1710.78
 213  1718.783
 214  1914.766
 215  1809.063
 216  1596.663
 217  1767.671
 218  2057.161
 219  2044.923
 220  1911.643
 221  1734.338
 222  1992.722
 223  1918.524
 224  1794.289
 225  1869.096
 226  1669.355
 227  1843.19
 228  2007.922
 229  2071.036
 230  2300.172
 231  2097.448
 232  2112.192
 233  1985.604
 234  1911.739
 235  2178.785
 236  2279.078
 237  2318.817
 238  2095.323
 239  1804.392
 240  1770.405
 241  1855.689
 242  1863.764
 243  1792.401
 244  1670.426
 245  1543.5
 246  1820.79
 247  1768.399
 248  1872.006
 249  1799.874
 250  1844.24
 251  1861.888
 252  1469.517
 253  1346.101
 254  1479.744
 255  1646.819
 256  1704.561
 257  1676.523
 258  1478.539
 259  1693.286
 260  1616.999
 261  1827.698
 262  1886.891
 263  2032.271
 264  2195.776
 265  2117.597
 266  2218.531
 267  1969.515
 268  1887.97
 269  1824.457
 270  1959.521
 271  2053.08
 272  1884.679
 273  1718.933
 274  1830.448
 275  2460.058
 276  2554.581
 277  2596.351
 278  2543.109
 279  2691.801
 280  2587.812
 281  2057.154
 282  1945.417
 283  1860.993
 284  2301.107
 285  2434.013
 286  2336.097
 287  2391.456
 288  2164.946
 289  2184.764
 290  2234.505
 291  2114.125
 292  2003.028
 293  1765.022
 294  1846.462
 295  1901.734
 296  1954.397
 297  2054.155
 298  2055.844
 299  1804.469
 300  1891.959
 301  2126.185
 302  2247.992
 303  2045.965
 304  1912.974
 305  1898.849
 306  1804.441
 307  1578.921
 308  1663.804
 309  1608.843
 310  1638.755
 311  2045.328
 312  2028.241
 313  2139.741
 314  2041.442
 315  1812.551
 316  1772.766
 317  1477.082
 318  1838.517
 319  1899.389
 320  1722.019
 321  1450.82
 322  1234.393
 323  1546.464
 324  1697.624
 325  1777.459
 326  1663.641
 327  1734.712
 328  1716.712
 329  2109.128
 330  1702.563
 331  1661.82
 332  1597.586
 333  1550.7
 334  1671.69
 335  1476.131
 336  1333.346
 337  1691.181
 338  1763.966
 339  1815.67
 340  1665.698
 341  1767.134
 342  2066.858
 343  1937.281
 344  2225.749
 345  2495.192
 346  2312.844
 347  2144.416
 348  2128.141
 349  2492.244
 350  2557.227
 351  2360.745
 352  2376.128
 353  2284.685
 354  2237.281
 355  2154.555
 356  2578.967
 357  2876.848
 358  2624.987
 359  2441.512
 360  2483.036
 361  2866.915
 362  2771.706
 363  2825.174
 364  2835.165
 365  2653.366
 366  2529.872
 367  2392.978
 368  2613.465
 369  2444.232
 370  2535.231
 371  2558.11
 372  2441.504
 373  2648.085
 374  2829.105
 375  2863.356
 376  2663.321
 377  2036.279
 378  2099.579
 379  1937.463
 380  2016.172
 381  1866.906
 382  1739.926
 383  1804.692
 384  2123.776
 385  2353.391
 386  2520.488
 387  2353.587
 388  2098.318
 389  1872.785
 390  1993.271
 391  2084.143
 392  2057.796
 393  1927.846
 394  1960.34
 395  2091.565
 396  1959.48
 397  2192.349
 398  2133.091
 399  2199.284
 400  2090.386
 401  2006.093
 402  1987.226
 403  1566.41
 404  1547.19
 405  1602.879
 406  1680.239
 407  1927.76
 408  1681.646
 409  1759.4
 410  1593.098
 411  1446.607
 412  1426.486
 413  1565.401
 414  1644.071
 415  1674.285
 416  1542.6
 417  1544.567
 418  1690.675
 419  1723.671
 420  1708.706
 421  1478.502
 422  1468.345
 423  1722.31
 424  1641.547
 425  1683.85
 426  1658.615
 427  1612.4
 428  1617.024
 429  1443.215
 430  1500.643
 431  1564.391
 432  1564.251
 433  1524.22
 434  1526.452
 435  1468.159
 436  1567.361
 437  1484.558
 438  1845.568
 439  1838.545
 440  1875.824
 441  1706.573
 442  1629.835
 443  1500.243
 444  1485.408
 445  1568.962
 446  1622.589
 447  1750.658
 448  1707.678
 449  1602.477
 450  1437.567
 451  1452.22
 452  1849.663
 453  1987.412
 454  2022.909
 455  1778.406
 456  1608.086
 457  1567.094
 458  1364.955
 459  1595.909
 460  1755.494
 461  1625.442
 462  1671.108
 463  1520.606
 464  1705.801
 465  1555.533
 466  1405.622
 467  1249.413
 468  1069.969
 469  962.8212
 470  760.0929
 471  532.011
 472  740.4593
 473  1131.967
 474  1415.001
 475  1629.832
 476  1397.118
 477  1381.742
 478  1483.484
 479  1504.899
 480  1609.001
 481  1435.279
 482  1502.374
 483  1527.373
 484  1278.425
 485  1398.658
 486  1314.315
 487  1362.99
 488  1527.896
 489  1568.965
 490  1800.111
 491  1742.235
 492  1710.81
 493  1883.464
 494  1808.939
 495  1828.073
 496  1764.957
 497  1447.452
 498  1061.01
 499  1033.34
 500  1071.928
 501  1313.301
 502  1358.053
 503  1413.129
 504  1463.259
 505  1317.088
 506  1380.859
 507  1339.802
 508  1456.034
 509  1605.163
 510  1373.315
 511  1391.282
 512  1355.047
 513  1271.528
 514  1103.113
 515  996.4366
 516  1313.86
 517  1392.343
 518  1466.584
 519  1436.59
 520  1465.165
 521  1714.595
 522  1754.726
 523  1589.183
 524  1547.836
 525  1666.156
 526  1683.455
 527  1683.416
 528  1609.918
 529  1859.318
 530  2137.261
 531  1979.127
 532  1965.172
 533  1844.821
 534  1793.626
 535  2053.584
 536  2027.463
 537  1986.27
 538  1545.837
 539  1350.38
 540  1473.106
 541  1537.367
 542  1634.577
 543  1618.8
 544  1519.931
 545  1573.876
 546  1670.326
 547  1910.172
 548  2010.988
 549  1799.874
 550  1971.253
 551  1997.016
 552  2124.294
 553  2099.889
 554  1860.439
 555  1576.187
 556  1593.886
 557  1380.798
 558  1514.143
 559  1496.049
 560  1595.475
 561  1702.215
 562  1482.609
 563  1551.594
 564  1476.018
 565  1535.448
 566  1571.166
 567  1527.852
 568  1621.788
 569  1563.761
 570  1247.599
 571  1269.702
 572  1271.503
 573  1183.321
 574  1141.945
 575  1158.181
 576  1324.795
 577  1421.332
 578  1565.606
 579  1828.186
 580  1865.253
 581  1800.589
 582  1726.522
 583  1492.763
 584  1328.917
 585  1303.424
 586  1485.951
 587  1985.976
 588  1909.256
 589  1809.645
 590  1557.274
 591  1188.687
 592  1138.54
 593  1191.719
 594  1257.521
 595  1266.898
 596  1024.191
 597  1269.917
 598  1604.933
 599  1660.825
 600  1735.907
 601  1523.414
 602  1499.088
 603  1670.386
 604  1767.423
 605  2008.317
 606  1920.377
 607  2204.427
 608  2455.191
 609  2418.896
 610  2424.309
 611  2440.824
 612  2480.624
 613  2385.354
 614  2319.76
 615  2324.041
 616  2377.691
 617  2302.992
 618  2341.75
 619  2194.009
 620  2078.964
 621  2181.619
 622  2152.86
 623  2134.351
 624  1895.87
 625  1541.371
 626  1659.234
 627  1501.174
 628  1807.722
 629  1885.419
 630  1922.216
 631  1970.708
 632  1869.847
 633  1907.639
 634  1973.168
 635  1861.554
 636  2045.498
 637  1904.912
 638  1859.688
 639  1587.844
 640  1570.212
 641  1740.923
 642  2061.946
 643  2128.124
 644  2342.42
 645  2302.851
 646  2393.831
 647  2274.941
 648  1872.08
 649  1948.79
 650  2062.218
 651  1963.171
 652  2017.089
 653  1998.51
 654  2030.766
 655  1655.469
 656  1513.621
 657  1561.136
 658  1564.972
 659  1696.246
 660  1950.988
 661  2123.562
 662  2005.375
 663  1949.042
 664  2037.036
 665  2374.145
 666  2158.219
 667  2263.84
 668  2461.979
 669  2216.12
 670  1923.117
 671  1762.509
 672  1841.272
 673  1775.881
 674  1632.606
 675  1672.791
 676  1955.885
 677  1883.607
 678  1841.646
 679  1754.697
 680  1807.536
 681  2035.297
 682  1889.239
 683  1855.443
 684  1568.108
 685  1444.807
 686  1665.201
 687  1473.894
 688  1406.323
 689  1439.257
 690  1466.119
 691  1543.502
 692  1420.566
 693  1780.724
 694  2160.206
 695  2133.259
 696  2042.042
 697  1802.104
 698  1855.05
 699  1619.604
 700  1489.251
 701  1244.557
 702  1598.7
 703  1759.053
 704  2029.021
 705  2225.187
 706  2212.884
 707  2229.548
 708  2261.036
 709  2428.102
 710  2262.877
 711  1872.007
 712  1649.556
 713  1349.304
 714  1199.788
 715  1130.249
 716  1153.072
 717  1238.98
 718  1455.764
 719  1489.219
 720  1610.067
 721  1453.13
 722  1697.29
 723  1760.391
 724  1793.038
 725  1815.416
 726  1498.85
 727  1406.916
 728  1302.808
 729  1260.314
 730  1469.301
 731  1493.087
 732  1638.564
 733  1628.271
 734  1585.719
 735  1538.529
 736  1641.166
 737  1834.724
 738  2066.241
 739  2097.616
 740  2014.147
 741  1861.39
 742  1362.646
 743  1462.149
 744  1433.789
 745  1554.059
 746  1588.912
 747  1580.446
 748  1568.1
 749  1579.073
 750  1659.998
 751  1663.773
 752  1581.347
 753  1739.414
 754  1875.878
 755  1992.4
 756  2026.579
 757  2192.479
 758  2229.712
 759  2095.296
 760  1992.157
 761  1844.509
 762  2033.425
 763  1857.149
 764  1825.188
 765  1805.983
 766  1765.047
 767  1983.349
 768  1840.172
 769  1940.159
 770  1850.448
 771  1644.23
 772  1556.83
 773  1440.365
 774  1505.287
 775  1559.738
 776  1525.365
 777  1686.455
 778  1525.432
 779  1503.896
 780  1567.059
 781  1717.175
 782  1721.69
 783  1612.621
 784  1405.004
 785  1202.965
 786  1055.574
 787  1156.697
 788  1298.704
 789  1269.397
 790  1215.37
 791  1248.869
 792  1174.702
 793  1275.508
 794  1199.395
 795  1490.624
 796  1622.752
 797  1614.516
 798  2045.863
 799  1753.572
 800  1765.568
 801  1497.448
 802  1378.738
 803  1309.687
 804  958.2842
 805  1148.285
 806  1239.473
 807  1195.609
 808  1360.598
 809  1424.748
 810  1444.615
 811  1557.988
 812  1489.95
 813  1681.12
 814  1782.53
 815  1914.92
 816  2186.474
 817  2144.402
 818  1989.975
 819  1939.742
 820  1753.55
 821  1676.196
 822  1727.433
 823  1711.523
 824  1752.664
 825  1461.771
 826  1535.634
 827  1572.198
 828  1609.499
 829  1918.994
 830  2076.652
 831  2253.553
 832  2091.07
 833  1784.74
 834  1730.457
 835  1666.087
 836  1666.968
 837  1758.614
 838  1911.158
 839  1938.41
 840  1996.962
 841  1960.095
 842  1850.67
 843  1909.279
 844  2135.55
 845  2384.49
 846  2153.212
 847  2045.436
 848  2091.954
 849  1842.998
 850  1828.54
 851  1797.841
 852  1965.274
 853  2286.153
 854  2104.988
 855  2116.329
 856  2149.589
 857  2097.628
 858  2253.075
 859  1886.998
 860  1938.435
 861  1643.832
 862  1563.823
 863  1534.05
 864  1495.387
 865  1490.619
 866  1533.405
 867  1867.753
 868  1942.895
 869  1969.585
 870  1701.052
 871  1905.37
 872  1989.147
 873  1884.161
 874  1770.567
 875  1823.268
 876  2103.285
 877  2266.889
 878  2218.276
 879  2278.176
 880  2189.122
 881  2234.554
 882  2217.035
 883  2104.096
 884  1974.325
 885  1594.549
 886  1816.24
 887  2065.204
 888  2000.037
 889  2001.051
 890  1884.978
 891  1986.315
 892  1863.256
 893  1582.506
 894  1696.23
 895  1854.057
 896  2137.365
 897  2085.24
 898  1914.357
 899  1699.254
 900  1773.422
 901  1895.061
 902  1891.48
 903  1935.031
 904  1728.676
 905  1869
 906  1630.957
 907  1649.357
 908  1632.727
 909  1632.478
 910  1874.194
 911  1963.203
 912  1875.886
 913  1871.45
 914  1535.259
 915  1684.622
 916  1651.039
 917  1874.351
 918  1906.665
 919  1650.543
 920  1684.294
 921  1647.946
 922  1786.479
 923  1894.509
 924  1998.8
 925  2232.405
 926  2359.538
 927  2309.347
 928  2155.139
 929  2196.856
 930  2018.772
 931  1987.164
 932  1814.078
 933  1930.125
 934  2251.464
 935  2353.39
 936  2288.365
 937  2193.015
 938  2127.654
 939  2346.129
 940  2143.727
 941  2101.031
 942  1995.435
 943  1710.334
 944  1867.007
 945  1739.766
 946  1872.907
 947  1694.835
 948  1531.227
 949  1452.87
 950  1535.062
 951  1695.17
 952  2012.317
 953  1973.537
 954  1936.823
 955  1956.662
 956  2007.865
 957  1932.748
 958  1565.045
 959  1504.692
 960  1569.21
 961  1483.957
 962  1804.301
 963  1715.545
 964  1812.341
 965  1689.361
 966  1777.112
 967  1708.764
 968  1698.732
 969  1712.593
 970  1887.94
 971  1864.682
 972  1880.944
 973  1970.671
 974  1884.171
 975  1920.751
 976  1763.993
 977  1809.783
 978  1946.511
 979  1906.628
 980  1860.049
 981  1746.671
 982  1792.262
 983  1810.271
 984  1694.873
 985  1641.714
 986  1826.302
 987  1804.438
 988  2044.904
 989  2167.88
 990  2170.684
 991  2208.538
 992  1937.778
 993  1949.326
 994  2000.919
 995  1856.261
 996  1945.581
 997  1686.816
 998  1757.134
 999  1818.956
1000  1799.724
1001  1933.22
1002  1901.345
1003  1891.224
1004  2015.216
1005  1867.656
1006  1909.883
1007  1964.37
1008  1727.936
1009  1754.418
1010  1565.245
1011  1649.226
1012  1763.688
1013  1751.71
1014  1919.209
1015  1980.101
1016  2033.868
1017  1979.589
1018  1941.701
1019  1891.442
1020  1936.814
1021  1788.505
1022  1764.453
1023  1658.062
