# Input file       =  1202466588.126555_cleaned.dat
# Candidate        =  PSR_0332+5434
# Telescope        =  AR
# Epoch_topo       =  58161.437582483275
# Epoch_bary       =  N/A
# T_sample         =  0.002
# Data Folded      =  7208960
# Data Avg         =  0.133384609913496
# Data StdDev      =  4.26534475440815 
# Profile Bins     =  512
# Profile Avg      =  1878.0467836502  
# Profile StdDev   =  506.12229303333  
# Reduced chi-sqr  =  1.975
# Prob(Noise)      <  5.34e-35   (~12.3 sigma)
# P_topo (ms)      =  714.579502551905  +/- 2.06e-05
# P'_topo (s/s)    =  -0                +/- 1.11e-11
# P''_topo (s/s^2) =  0                 +/- 4.98e-15
# P_bary (ms)      =  N/A
# P'_bary (s/s)    =  N/A
# P''_bary (s/s^2) =  N/A
# P_orb (s)        =  N/A
# asin(i)/c (s)    =  N/A
# eccentricity     =  N/A
# w (rad)          =  N/A
# T_peri           =  N/A
######################################################
   0  2132.109
   1  2418.127
   2  2280.892
   3  1722.949
   4  1520.139
   5  1988.391
   6  2242.112
   7  2118.13
   8  1798.124
   9  1755.717
  10  1684.721
  11  1145.512
  12  918.1304
  13  1409.474
  14  1952.907
  15  2112.845
  16  2400.47
  17  2286.874
  18  2242.522
  19  1667.753
  20  1434.974
  21  1461.526
  22  2143.958
  23  1973.001
  24  1614.811
  25  2211.535
  26  2156.755
  27  1352.753
  28  1232.485
  29  1073.816
  30  1605.426
  31  2078.137
  32  2319.82
  33  2366.14
  34  2429.21
  35  1962.507
  36  1487.028
  37  1480.342
  38  1933.187
  39  2275.696
  40  2063.539
  41  1616.971
  42  1753.434
  43  1818.845
  44  1333.488
  45  1261.163
  46  1264.24
  47  1764.499
  48  2060.436
  49  2344.541
  50  2760.884
  51  2664.827
  52  2067.384
  53  1632.607
  54  1652.873
  55  2150.974
  56  2134.156
  57  2242.594
  58  2252.654
  59  2054.383
  60  1342.332
  61  921.0432
  62  1062.718
  63  1778.477
  64  2490.84
  65  2401.01
  66  2684.252
  67  2617.746
  68  2187.481
  69  1734.947
  70  1719.982
  71  1954.967
  72  2351.611
  73  2020.595
  74  1709.869
  75  1811.367
  76  1784.469
  77  1266.818
  78  1060.255
  79  1435.078
  80  1594.007
  81  1950.08
  82  2258.711
  83  2400.321
  84  2328.675
  85  2264.766
  86  1635.215
  87  1634.975
  88  2132.247
  89  2303.854
  90  2098.001
  91  2470.841
  92  2483.074
  93  1721.626
  94  1235.725
  95  1247.431
  96  1261.314
  97  1990.304
  98  2393.462
  99  2776.005
 100  3041.377
 101  2619.656
 102  2242.482
 103  1676.543
 104  1878.637
 105  2250.594
 106  2352.82
 107  2185.938
 108  2309.366
 109  2166.683
 110  1080.737
 111  689.0565
 112  1245.129
 113  1709.897
 114  2081.758
 115  2443.249
 116  2334.672
 117  2428.098
 118  1594.83
 119  1402.871
 120  1664.039
 121  2343.76
 122  2411.523
 123  1749.665
 124  1827.488
 125  2212.044
 126  1906.307
 127  1258.59
 128  794.6813
 129  1330.169
 130  2205.524
 131  2906.285
 132  2568.056
 133  2206.332
 134  2220.85
 135  1881.176
 136  1656.565
 137  1966.751
 138  2435.149
 139  2750.725
 140  2130.851
 141  2114.896
 142  1667.379
 143  800.3359
 144  554.4959
 145  1064.648
 146  1720.904
 147  2005.51
 148  2737.083
 149  2958.377
 150  2581.471
 151  2179.49
 152  1225.626
 153  1320.348
 154  2076.171
 155  2209.194
 156  1991.131
 157  2079.778
 158  2279.97
 159  1406.201
 160  984.928
 161  810.2047
 162  1045.565
 163  1692.983
 164  2272.884
 165  2637.139
 166  2994.189
 167  2293.814
 168  1659.108
 169  1253.67
 170  1382.261
 171  1919.74
 172  2033.049
 173  2081.532
 174  1847.801
 175  1514.957
 176  1192.651
 177  927.1097
 178  1023.435
 179  1451.591
 180  1972.833
 181  2361.864
 182  2242.281
 183  2228.114
 184  1913.714
 185  1388.686
 186  1358.725
 187  1875.979
 188  2023.963
 189  2003.318
 190  2216.227
 191  2075.173
 192  1628.443
 193  1275.67
 194  1194.978
 195  1635.275
 196  2370.623
 197  2501.012
 198  2518.11
 199  2760.991
 200  2284.246
 201  1504.268
 202  1261.228
 203  1580.857
 204  1807.554
 205  2255.492
 206  2199.252
 207  1558.233
 208  1587.155
 209  901.4608
 210  576.4059
 211  1037.881
 212  1773.753
 213  2315.843
 214  2329.687
 215  2568.879
 216  2280.996
 217  1734.271
 218  1429.892
 219  1685.459
 220  2410.155
 221  2444.205
 222  2145.79
 223  1497.42
 224  1697.279
 225  1421.035
 226  1019.071
 227  1048.304
 228  1207.95
 229  1938.889
 230  2221.129
 231  2505.02
 232  2830.812
 233  2673.747
 234  1893.307
 235  1521.094
 236  1733.469
 237  1924.132
 238  2273.846
 239  2050.185
 240  1796.856
 241  1895.926
 242  1612.443
 243  862.5746
 244  739.672
 245  1440.668
 246  1988.401
 247  2341.135
 248  2415.033
 249  2088.174
 250  2131.002
 251  1542.763
 252  1489.081
 253  1853.263
 254  2463.506
 255  2007.995
 256  1762.487
 257  1957.511
 258  1202.222
 259  1001.578
 260  1125.853
 261  1334.795
 262  2012.061
 263  2703.529
 264  2750.416
 265  2638.608
 266  2286.664
 267  1937.212
 268  1345.142
 269  1657.741
 270  2236.544
 271  2051.825
 272  1988.319
 273  1965.686
 274  1935.918
 275  1469.81
 276  910.2956
 277  1138.329
 278  1435.102
 279  2163.805
 280  2485.762
 281  2402.516
 282  2432.966
 283  1804.292
 284  1319.382
 285  1022.688
 286  1790.185
 287  2053.325
 288  1931.532
 289  2132.16
 290  2180.968
 291  1615.634
 292  858.6902
 293  591.3042
 294  1079.589
 295  1809.6
 296  2337.507
 297  2551.739
 298  2786.201
 299  2321.118
 300  2000.688
 301  1606.121
 302  2039.336
 303  2849.679
 304  3139.482
 305  3002.375
 306  3142.451
 307  3184.228
 308  2482.473
 309  1507.432
 310  1274.868
 311  1587.511
 312  1961.465
 313  2155.876
 314  2547.893
 315  2267.032
 316  1842.767
 317  1673.252
 318  1597.372
 319  2130.403
 320  2256.128
 321  1792.464
 322  1883.838
 323  2235.635
 324  2111.202
 325  1347.504
 326  1153.395
 327  1049.758
 328  1817.059
 329  2459.484
 330  2774.495
 331  2642.655
 332  2334.228
 333  2019.411
 334  1460.085
 335  1751.717
 336  2198.319
 337  2269.838
 338  2038.066
 339  1976.913
 340  1991.866
 341  1229.585
 342  883.4672
 343  860.2043
 344  1179.756
 345  1519.141
 346  1874.075
 347  2183.303
 348  2309.02
 349  2089.402
 350  1808.688
 351  1606.907
 352  1726.469
 353  1950.907
 354  1659.307
 355  1908.487
 356  2222.061
 357  1603.97
 358  951.6258
 359  1155.224
 360  1454.516
 361  2043.47
 362  2471.122
 363  2778.866
 364  2476.978
 365  2114.616
 366  1930.681
 367  1534.874
 368  1922.651
 369  2532.432
 370  2382.114
 371  2125.015
 372  1747.095
 373  1849.208
 374  1558.721
 375  1251.914
 376  1190.903
 377  1566.918
 378  2167.489
 379  2523.781
 380  2373.942
 381  2642.653
 382  2105.411
 383  1483.315
 384  1445.628
 385  1699.205
 386  2349.271
 387  2003.078
 388  1884.322
 389  1847.836
 390  1732.913
 391  1211.469
 392  659.4138
 393  974.5089
 394  1651.248
 395  2080.999
 396  2608.282
 397  2770.245
 398  2205.425
 399  2025.835
 400  1667.088
 401  1712.245
 402  1903.244
 403  2240.374
 404  2158.275
 405  2106.6
 406  1812.453
 407  1228.703
 408  852.6023
 409  1180.059
 410  1507.598
 411  1832.737
 412  2103.231
 413  2189.394
 414  2116.246
 415  1905.364
 416  1789.762
 417  1734.552
 418  2118.513
 419  2205.077
 420  1769.344
 421  1682.502
 422  1988.152
 423  1721.231
 424  1059.278
 425  1046.756
 426  1404.136
 427  1945.883
 428  2470.941
 429  2473.996
 430  2561.2
 431  2328.96
 432  1641.765
 433  1255.998
 434  1684.458
 435  2059.591
 436  2282.861
 437  2110.742
 438  1894.356
 439  1437.408
 440  1040.509
 441  1419.667
 442  1367.891
 443  1708.609
 444  2309.243
 445  2605.178
 446  2768.14
 447  2604.042
 448  2142.392
 449  1248.233
 450  1632.458
 451  1805.373
 452  1814.134
 453  1998.818
 454  1701.725
 455  1763.981
 456  1646.402
 457  1279.965
 458  891.3025
 459  1284.583
 460  2055.309
 461  2507.807
 462  2684.949
 463  2419.628
 464  2095.007
 465  1120.054
 466  1246.254
 467  1413.272
 468  2217.01
 469  2253.932
 470  2416.429
 471  1765.063
 472  1475.941
 473  1379.682
 474  549.4148
 475  954.4826
 476  1397.62
 477  1891.282
 478  2309.766
 479  2901.55
 480  2711.659
 481  2217.16
 482  1824.894
 483  1675.954
 484  2204.685
 485  2413.154
 486  2048.066
 487  1760.929
 488  1949.51
 489  1569.419
 490  1162.073
 491  1070.557
 492  1429.596
 493  1980.532
 494  2160.258
 495  2681.417
 496  2752.955
 497  2594.6
 498  2017.673
 499  975.1204
 500  1493.566
 501  1690.485
 502  2299.15
 503  2130.288
 504  2333.945
 505  2043.866
 506  1183.41
 507  1036.474
 508  1129.772
 509  1762.923
 510  2201.878
 511  2309.213
