# Input file       =  1203256882.095392_cleaned.dat
# Candidate        =  PSR_0332+5434
# Telescope        =  AR
# Epoch_topo       =  58170.584503418890
# Epoch_bary       =  N/A
# T_sample         =  0.002
# Data Folded      =  7340032
# Data Avg         =  1.37278508970381 
# Data StdDev      =  10.1384743842732 
# Profile Bins     =  1024
# Profile Avg      =  9840.33472193272 
# Profile StdDev   =  858.364220620342 
# Reduced chi-sqr  =  0.747
# Prob(Noise)      <  1   (~0.0 sigma)
# P_topo (ms)      =  714.580697922718  +/- 2.28e-05
# P'_topo (s/s)    =  -0                +/- 1.2e-11
# P''_topo (s/s^2) =  0                 +/- 5.3e-15
# P_bary (ms)      =  N/A
# P'_bary (s/s)    =  N/A
# P''_bary (s/s^2) =  N/A
# P_orb (s)        =  N/A
# asin(i)/c (s)    =  N/A
# eccentricity     =  N/A
# w (rad)          =  N/A
# T_peri           =  N/A
######################################################
   0  9489.272
   1  9788.752
   2  10116.58
   3  9646.08
   4  9566.308
   5  9225.118
   6  9265.321
   7  9790.164
   8  9735.01
   9  9760.997
  10  9406.269
  11  9571.339
  12  9629.291
  13  9459.622
  14  9594.791
  15  9457.339
  16  9681.969
  17  9647.177
  18  9820.354
  19  10046.33
  20  9851.364
  21  10258.92
  22  10118.47
  23  10219.4
  24  9779.397
  25  9703.204
  26  9792.119
  27  9580.062
  28  9806.769
  29  9743.485
  30  9894.297
  31  10165.54
  32  10077.26
  33  10229.44
  34  10165.18
  35  10330.45
  36  10311.82
  37  10195.01
  38  10221.43
  39  10097.14
  40  10246.06
  41  10046.46
  42  9989.567
  43  9999.087
  44  10238.56
  45  10706.44
  46  10362.21
  47  10268.09
  48  9985.446
  49  10101.94
  50  10134.42
  51  9956.262
  52  10024.97
  53  9987.889
  54  10112.04
  55  10121.29
  56  9891.876
  57  10006.6
  58  10151.93
  59  10693.44
  60  10528.2
  61  10061.88
  62  9758.543
  63  9633.556
  64  10018.03
  65  9709.089
  66  9862.799
  67  9616.951
  68  9570.587
  69  9660.456
  70  9607.534
  71  9863.756
  72  9922.547
  73  10218.33
  74  10371.76
  75  9974.918
  76  10020.59
  77  9756.863
  78  9860.57
  79  9771.083
  80  9763.278
  81  9880.857
  82  9756.954
  83  10001.07
  84  9855.268
  85  10017.05
  86  10031.95
  87  10173.79
  88  10499.92
  89  10166.6
  90  10399.94
  91  10234.21
  92  10305.99
  93  10193.97
  94  9964.218
  95  10112.61
  96  10062.52
  97  10108.58
  98  10158.2
  99  9885.133
 100  9933.075
 101  9693.453
 102  9714.181
 103  9384.998
 104  9463.188
 105  9467.205
 106  9446.268
 107  9827.171
 108  9634.237
 109  9779.146
 110  9383.133
 111  9507.662
 112  9894.334
 113  9982.082
 114  10161.63
 115  9956.404
 116  9963.14
 117  10000.83
 118  9891.541
 119  10084.18
 120  9840.538
 121  9815.344
 122  9475.821
 123  9324.865
 124  9237.578
 125  9167.648
 126  9525.973
 127  9676.366
 128  10039.06
 129  10102.09
 130  10056.7
 131  10175.93
 132  9780.096
 133  9933.994
 134  9743.867
 135  9824.839
 136  9715.88
 137  9399.545
 138  9441.87
 139  9462.393
 140  9606.24
 141  9624.225
 142  9682.708
 143  9983.243
 144  9775.466
 145  9777.614
 146  9552.172
 147  9752.665
 148  9400.634
 149  9303.662
 150  9413.021
 151  9161.291
 152  9212.361
 153  9109.139
 154  9153.719
 155  9227.42
 156  9199.766
 157  9573.408
 158  9789.934
 159  9795.009
 160  9916.139
 161  9696.577
 162  9640.088
 163  9395.06
 164  9506.422
 165  9333.919
 166  9264.557
 167  9168.15
 168  9159.017
 169  9410.188
 170  9182.031
 171  9292.608
 172  9235.499
 173  9694.944
 174  10151.7
 175  9768.648
 176  9574.512
 177  9395.623
 178  9413.984
 179  9310.662
 180  9180.582
 181  9501.387
 182  9363.808
 183  9159.746
 184  9055.027
 185  9058.246
 186  9261.314
 187  9249.626
 188  9677.877
 189  9764.133
 190  10031.64
 191  10102.96
 192  9935.005
 193  9902.68
 194  9564.35
 195  9714.122
 196  9473.035
 197  9373.868
 198  9643.85
 199  9514.092
 200  9813.224
 201  9324.171
 202  9388.831
 203  9377.591
 204  9424.359
 205  9598.846
 206  9476.363
 207  9882.754
 208  9719.063
 209  9694.357
 210  9368.786
 211  9174.953
 212  9346.953
 213  9148.623
 214  9305.254
 215  9040.53
 216  8911.197
 217  9127.694
 218  8840.063
 219  8992.825
 220  8797.6
 221  9102.609
 222  9094.523
 223  8987.953
 224  9134.173
 225  8963.173
 226  9152.607
 227  9089.977
 228  9027.754
 229  8817.425
 230  8566.373
 231  8926.055
 232  8958.944
 233  9007.455
 234  8777.344
 235  8612.531
 236  8938.414
 237  8860.406
 238  9251.257
 239  9310.236
 240  9375.877
 241  9622.918
 242  9559.061
 243  9740.343
 244  9643.965
 245  9806.809
 246  9764.377
 247  9392.848
 248  9421.947
 249  9385.668
 250  9661.481
 251  9449.032
 252  9614.871
 253  9619.445
 254  9617.541
 255  9778.925
 256  9623.854
 257  9957.885
 258  9874.248
 259  9796.11
 260  9888.547
 261  9585.705
 262  9741.384
 263  9531.806
 264  9734.573
 265  9926.52
 266  9748.327
 267  9943.775
 268  9784.071
 269  9771.344
 270  9642.812
 271  9739.963
 272  9887.381
 273  9795.28
 274  10183.77
 275  10083.64
 276  9992.016
 277  9511.317
 278  9385.383
 279  9455.753
 280  9131.016
 281  9441.438
 282  9325.454
 283  9603.686
 284  9915.253
 285  9809.472
 286  9807.199
 287  9699.653
 288  10165.11
 289  10624.84
 290  10532.1
 291  10254.86
 292  9898.412
 293  10069.86
 294  9905.506
 295  10071.28
 296  10021.05
 297  9933.706
 298  9974.02
 299  10024.55
 300  10202.17
 301  10183.33
 302  9976.992
 303  10171.05
 304  9867.978
 305  9900.661
 306  9524.401
 307  9648.829
 308  9635.437
 309  9686.294
 310  9973.63
 311  10115.26
 312  10156.66
 313  9927.444
 314  9755.805
 315  9666.715
 316  9461.109
 317  9506.54
 318  9456.703
 319  9688.678
 320  9552.937
 321  9557.375
 322  9623.692
 323  9470.857
 324  9597.341
 325  9628.676
 326  9882.423
 327  9858.419
 328  9580.375
 329  9748.667
 330  9630.694
 331  9973.724
 332  9886.646
 333  9686.986
 334  9552.534
 335  9480.379
 336  9790.188
 337  9746.673
 338  9763.712
 339  9805.262
 340  9886.292
 341  10026.39
 342  9997.604
 343  10294.8
 344  10111.44
 345  10097.9
 346  10305.26
 347  10029.59
 348  10068.16
 349  9714.396
 350  9890.442
 351  9928.329
 352  9895.459
 353  10074.06
 354  10162.88
 355  10611.55
 356  10440.17
 357  10340.47
 358  10184.35
 359  9950.453
 360  10184.21
 361  10021.2
 362  10304.91
 363  10286.86
 364  10357.09
 365  10584.08
 366  10219.43
 367  10343.58
 368  9922.83
 369  10121.33
 370  10211.34
 371  10065.22
 372  10091.64
 373  9902.465
 374  10039.37
 375  10015.86
 376  10079.71
 377  10172.19
 378  10098.04
 379  10422.45
 380  10190.25
 381  10157.97
 382  10132.05
 383  10162.3
 384  10232.31
 385  10023.22
 386  10386.51
 387  10232.81
 388  10264.35
 389  10201.83
 390  10214.18
 391  10326.21
 392  10020.91
 393  10081.37
 394  10125.72
 395  10163.78
 396  10300.84
 397  10198.15
 398  10455.63
 399  10356.04
 400  10518.97
 401  10486.64
 402  10430.48
 403  10501.53
 404  10203.38
 405  10314.59
 406  10020.04
 407  9988.684
 408  10194.38
 409  9992.622
 410  10241.02
 411  10213.96
 412  10473.77
 413  10411.4
 414  10247.5
 415  10435.88
 416  10540.79
 417  10867.26
 418  10918.25
 419  10739
 420  10378.78
 421  10009.77
 422  10111.19
 423  10009.45
 424  10253.97
 425  10351.76
 426  10389.24
 427  10771.86
 428  10668.96
 429  10825.45
 430  10483.19
 431  10427.63
 432  10528.25
 433  10217.24
 434  10179.81
 435  9955.208
 436  10101.69
 437  10119.18
 438  10248.94
 439  10548.03
 440  10242.05
 441  10321.42
 442  10143.07
 443  10286.81
 444  10186.28
 445  10103.27
 446  10565
 447  10559.47
 448  10762.68
 449  10252.39
 450  10042.41
 451  10248.97
 452  10116.61
 453  10271.7
 454  9942.004
 455  10064.39
 456  10162.3
 457  10137.5
 458  10284.31
 459  10360.19
 460  10679.4
 461  10710.44
 462  10385.3
 463  10274.14
 464  10097.03
 465  10412.83
 466  10377.08
 467  10483.81
 468  10272.01
 469  10343.15
 470  10454.42
 471  10314.96
 472  10572.3
 473  10659.67
 474  10653.43
 475  10889.67
 476  10456.97
 477  10593.81
 478  9982.835
 479  10151.48
 480  10078.13
 481  10237.94
 482  10322.5
 483  10289.92
 484  10672.62
 485  10637.93
 486  10838.65
 487  10926.35
 488  10773.91
 489  10840.21
 490  10497.36
 491  10591.4
 492  10039.32
 493  10046.81
 494  10320.95
 495  10509.87
 496  10563.88
 497  10369.23
 498  10557.56
 499  10705.72
 500  10725.18
 501  10761.27
 502  10365.57
 503  10552.38
 504  10672.43
 505  10863.89
 506  10749.83
 507  10393.65
 508  10591.82
 509  10607.5
 510  10909.01
 511  10666.39
 512  10528.13
 513  10726.81
 514  10593.38
 515  10870.46
 516  10762.27
 517  10747.67
 518  10667.05
 519  10403.92
 520  10653.26
 521  10238.63
 522  10396.9
 523  10347.13
 524  10525.27
 525  10548.43
 526  10258.62
 527  10210.9
 528  10113.57
 529  10055.88
 530  10022.88
 531  9977.796
 532  10372.72
 533  10084.25
 534  10146.21
 535  9855.81
 536  9969.97
 537  10129.65
 538  9895.224
 539  10315.79
 540  10136.53
 541  10241.72
 542  10000.85
 543  9812.12
 544  9905.258
 545  9669.966
 546  10049.99
 547  10036
 548  9865.294
 549  9729.792
 550  9555.698
 551  9835.083
 552  9751.744
 553  9727.983
 554  9458.466
 555  9399.222
 556  9576.057
 557  9501.477
 558  9890.127
 559  9702.589
 560  10040.39
 561  10036.35
 562  9659.531
 563  9568.68
 564  9231.137
 565  9509.906
 566  9677.604
 567  9562.315
 568  9495.05
 569  9270.796
 570  9482.81
 571  9593.716
 572  9849.544
 573  9901.734
 574  9832.625
 575  9964.087
 576  9767.654
 577  9917.578
 578  9618.965
 579  9731.875
 580  9898.113
 581  9774.501
 582  9868.897
 583  9418.624
 584  9478.13
 585  9659.769
 586  9935.738
 587  10092.64
 588  9728.789
 589  9762.395
 590  9834.271
 591  9850.553
 592  9730.451
 593  9693.643
 594  10165.7
 595  10143.99
 596  10117.18
 597  9865.592
 598  9747.844
 599  9775.257
 600  9635.998
 601  10015.83
 602  9780.273
 603  9938.023
 604  9988.496
 605  10074.89
 606  10153.7
 607  9886.919
 608  9998.094
 609  10062.93
 610  10043.73
 611  10104.45
 612  10055.06
 613  10266.93
 614  10176.19
 615  10427.53
 616  10236.44
 617  9943.883
 618  9915.688
 619  9655
 620  9796.021
 621  9504.438
 622  9709.846
 623  9563.625
 624  9458.583
 625  9845.669
 626  9704.418
 627  9983.455
 628  9948.441
 629  10049.15
 630  10155.13
 631  10043.08
 632  10075.44
 633  9983.525
 634  10264.32
 635  10221.04
 636  10019.74
 637  9875.396
 638  9792.589
 639  10324.32
 640  10248.12
 641  10463.86
 642  10386.33
 643  10244.88
 644  10446.79
 645  10379.53
 646  10596.31
 647  10412.77
 648  10161.7
 649  10163.2
 650  9876.853
 651  10143.55
 652  10211.35
 653  10415.97
 654  10293.56
 655  10186.51
 656  10120.91
 657  10219.29
 658  10593.25
 659  10705.25
 660  10663.61
 661  10795.12
 662  10491.31
 663  10639.87
 664  10136.52
 665  10027.46
 666  10033.99
 667  10081.9
 668  10331.72
 669  10210.64
 670  10599.26
 671  10788.54
 672  10544.96
 673  10598.79
 674  10214.02
 675  10305.94
 676  10136.43
 677  10201.81
 678  10058.86
 679  9935.396
 680  10048.45
 681  9829.688
 682  9985.128
 683  9707.153
 684  9842.788
 685  10325.19
 686  10375.43
 687  10607.5
 688  10163.7
 689  10331.05
 690  10299.73
 691  10036.32
 692  9916.155
 693  9528.479
 694  9618.509
 695  9459.384
 696  9471.555
 697  9615.023
 698  9651.97
 699  9945.375
 700  9922.433
 701  10133.23
 702  9807.667
 703  9608.95
 704  9740.413
 705  9587.403
 706  9658.348
 707  9203.996
 708  9232.028
 709  9222.482
 710  9260.608
 711  9510.614
 712  9559.324
 713  9868.137
 714  9879.479
 715  9965.96
 716  9759.363
 717  9394.08
 718  9256.676
 719  9397.134
 720  9620.902
 721  9533.676
 722  9359.431
 723  9440.464
 724  9443.604
 725  9649.999
 726  9626.716
 727  9771.766
 728  9783.959
 729  9724.896
 730  9834.25
 731  9690.529
 732  9628.405
 733  9711.407
 734  9841.173
 735  9955.83
 736  9577.977
 737  9741.196
 738  9695.494
 739  9767.288
 740  9739.505
 741  9824.623
 742  9936.359
 743  9917.456
 744  9979.584
 745  9690.131
 746  9354.088
 747  9386.36
 748  9284.635
 749  9403.054
 750  9176.568
 751  9523.19
 752  9676.613
 753  9544.346
 754  9559.05
 755  9521.63
 756  9662.807
 757  9418.15
 758  9457.313
 759  9717.615
 760  9617.63
 761  9799.134
 762  9545.965
 763  9720.787
 764  9482.215
 765  9486.238
 766  9731.184
 767  9650.79
 768  10043.54
 769  9793.645
 770  9894.987
 771  9995.664
 772  9959.749
 773  10180.96
 774  9915.632
 775  10160.43
 776  10228.27
 777  10127.91
 778  9941.234
 779  9681.832
 780  9749.611
 781  9545.819
 782  9754.941
 783  9784.17
 784  9900.185
 785  9870.079
 786  9828.232
 787  9958.71
 788  10040.92
 789  9974.342
 790  10159.54
 791  9916.451
 792  10115.44
 793  9647.857
 794  9836.861
 795  9805.119
 796  9836.61
 797  10041.28
 798  9985.821
 799  10093.67
 800  9804.28
 801  9828.537
 802  9714.379
 803  9653.436
 804  9786.065
 805  9797.824
 806  9912.374
 807  9815.943
 808  9837.456
 809  9902.533
 810  9639.811
 811  9969.898
 812  9702.296
 813  9734.242
 814  9670.789
 815  9751.066
 816  10062.78
 817  9797.935
 818  10042.9
 819  9851.02
 820  9872.171
 821  9715.887
 822  9511.698
 823  9716.812
 824  9641.744
 825  9819.315
 826  9541.496
 827  9389.408
 828  9548.637
 829  9492.441
 830  9727.342
 831  9612.608
 832  9853.799
 833  9984.756
 834  9911.309
 835  10323.91
 836  10248.69
 837  10257.8
 838  9987.865
 839  9850.675
 840  9913.165
 841  9633.665
 842  10050.62
 843  10209.04
 844  10303.75
 845  10032.69
 846  9729.483
 847  9791.164
 848  9646.719
 849  9842.771
 850  9945.242
 851  10002.75
 852  9943.974
 853  9550.431
 854  9736.712
 855  9446.977
 856  9716.832
 857  9713.679
 858  9484.773
 859  9426.261
 860  9241.437
 861  9584.562
 862  9628.443
 863  9767.31
 864  10074.57
 865  9831.155
 866  9819.202
 867  9537.854
 868  9392.126
 869  9382.211
 870  9140.878
 871  9584.661
 872  9489.525
 873  9746.771
 874  9593.674
 875  9682.974
 876  9466.126
 877  9253.653
 878  9574.736
 879  9475.998
 880  9685.2
 881  9551.86
 882  9535.122
 883  9574.904
 884  9238.062
 885  9537.731
 886  9496.658
 887  9667.159
 888  9468.644
 889  9253.14
 890  9551.061
 891  9635.891
 892  9806.036
 893  9471.308
 894  9181.787
 895  9278.921
 896  9383.553
 897  9664.258
 898  9364.1
 899  9499.345
 900  9541.499
 901  9594.447
 902  9838.109
 903  9482.384
 904  9926.847
 905  9748.741
 906  9797.101
 907  9569.404
 908  9364.701
 909  9446.472
 910  9317.049
 911  9732.327
 912  9785.673
 913  9647.839
 914  9570.219
 915  9351.178
 916  9748.432
 917  9725.289
 918  9882.654
 919  9985.109
 920  9822.352
 921  9841.737
 922  9320.754
 923  9485.8
 924  9521.011
 925  9574.005
 926  9770.192
 927  9483.006
 928  9451.168
 929  9181.731
 930  9247.979
 931  9283.952
 932  9222.616
 933  9366.482
 934  9303.89
 935  9612.433
 936  9686.619
 937  9659.571
 938  9573.903
 939  9576.235
 940  9801.882
 941  9369.174
 942  9239.729
 943  9005.295
 944  8993.233
 945  9192.032
 946  9242.006
 947  9371.182
 948  9026.706
 949  8846.617
 950  8978.946
 951  8842.023
 952  9174.191
 953  9230.827
 954  9454.236
 955  9321.772
 956  9296.492
 957  9398.354
 958  9167.814
 959  9146.239
 960  9045.515
 961  9178.053
 962  9240.538
 963  9234.875
 964  9391.799
 965  8882.037
 966  8832.857
 967  9174.858
 968  9534.88
 969  9740.274
 970  9537.528
 971  9757.589
 972  9503.11
 973  9489.194
 974  9546.659
 975  9653.745
 976  9645.253
 977  9330.925
 978  9465.233
 979  9303.072
 980  9503.22
 981  9686.162
 982  9659.351
 983  9848.103
 984  9317.128
 985  9426.034
 986  9315.006
 987  9326.977
 988  9654.383
 989  9596.473
 990  9693.612
 991  9356.899
 992  9378.466
 993  9525.286
 994  9448.366
 995  9577.325
 996  9532.326
 997  9914.022
 998  9947.994
 999  9808.155
1000  9623.76
1001  9418.864
1002  9791.992
1003  9650.039
1004  9563.935
1005  9343.896
1006  9377.547
1007  9648.163
1008  9249.715
1009  9450.836
1010  9671.707
1011  9947.869
1012  9988.289
1013  9696.431
1014  9675.824
1015  9585.955
1016  9760.381
1017  9772.673
1018  9715.961
1019  9627.888
1020  9306.581
1021  9480.521
1022  9149.228
1023  9313.275
