# Input file       =  1203271799.102448_cleaned.dat
# Candidate        =  PSR_0332+5434
# Telescope        =  AR
# Epoch_topo       =  58170.757153963517
# Epoch_bary       =  N/A
# T_sample         =  0.002
# Data Folded      =  7340032
# Data Avg         =  0.144394874318096
# Data StdDev      =  3.59130498693837 
# Profile Bins     =  512
# Profile Avg      =  2070.13180367087 
# Profile StdDev   =  429.997850641153 
# Reduced chi-sqr  =  0.973
# Prob(Noise)      <  0.661   (~0.0 sigma)
# P_topo (ms)      =  714.581043262803  +/- 0.000295
# P'_topo (s/s)    =  -0                +/- 1.56e-10
# P''_topo (s/s^2) =  0                 +/- 6.88e-14
# P_bary (ms)      =  N/A
# P'_bary (s/s)    =  N/A
# P''_bary (s/s^2) =  N/A
# P_orb (s)        =  N/A
# asin(i)/c (s)    =  N/A
# eccentricity     =  N/A
# w (rad)          =  N/A
# T_peri           =  N/A
######################################################
   0  2256.01
   1  2425.635
   2  2278.225
   3  2506.245
   4  2410.461
   5  2671.959
   6  2464.218
   7  1931.567
   8  2004.429
   9  2205.116
  10  2009.535
  11  2234.508
  12  2417.464
  13  2267.225
  14  1968.455
  15  1886.974
  16  2172.77
  17  2062.839
  18  1932.388
  19  1939.015
  20  1994.411
  21  2018.377
  22  1995.892
  23  1801.629
  24  2056.781
  25  2074.487
  26  1930.303
  27  1999.274
  28  1824.814
  29  1525.787
  30  1654.161
  31  1934.099
  32  1782.752
  33  1737.912
  34  1822.902
  35  1743.277
  36  1862.601
  37  2022.749
  38  1982.432
  39  1440.634
  40  1294.127
  41  1850.969
  42  1912.169
  43  1608.724
  44  2222.394
  45  2039.234
  46  2164.644
  47  1922.448
  48  1890.101
  49  2072.248
  50  1929.786
  51  1802.44
  52  1715.818
  53  1891.052
  54  1861.662
  55  1300.569
  56  1462.596
  57  1901.646
  58  1701.057
  59  1554.478
  60  1563.618
  61  1698.073
  62  1820.069
  63  1645.5
  64  1656.161
  65  1696.583
  66  2065.542
  67  2075.179
  68  1924.63
  69  2038.323
  70  1932.307
  71  1786.661
  72  1606.221
  73  1805.432
  74  1830.472
  75  2008.476
  76  2090.64
  77  2178.305
  78  2026.874
  79  1924.42
  80  1827.295
  81  1760.227
  82  2103.498
  83  2113.969
  84  1991.497
  85  1707.819
  86  1817.39
  87  2149.292
  88  1845.683
  89  1901.562
  90  1831.45
  91  1980.935
  92  2053.92
  93  2081.469
  94  2384.6
  95  2377.881
  96  2259.087
  97  2162.435
  98  2299.939
  99  2522.978
 100  2651.713
 101  2191.342
 102  2428.675
 103  2598.92
 104  2152.181
 105  2283.53
 106  2248.634
 107  2246.604
 108  2167.586
 109  2007.076
 110  1923.726
 111  2112.529
 112  2374.911
 113  2002.276
 114  2061.639
 115  2141.351
 116  2120.072
 117  1877.281
 118  1512.626
 119  2138.443
 120  2248.887
 121  2264.735
 122  2198.491
 123  2082.173
 124  2077.222
 125  2098.388
 126  1887.212
 127  1702.396
 128  1784.531
 129  2049.07
 130  1912.122
 131  2013.652
 132  2112.245
 133  2076.823
 134  1908.202
 135  2160.037
 136  2019.871
 137  2265.408
 138  2464.978
 139  2239.427
 140  2382.916
 141  2158.114
 142  1752.033
 143  1634.927
 144  1770.543
 145  1750.914
 146  2265.249
 147  2430.388
 148  2393.028
 149  2017.204
 150  2246.453
 151  2314.224
 152  2261.111
 153  2127.287
 154  2318.101
 155  2305.299
 156  2194.441
 157  2218.761
 158  2247.255
 159  2063.641
 160  2232.124
 161  2524.239
 162  2524.42
 163  2574.902
 164  2596.624
 165  2995.194
 166  3546.433
 167  3711.747
 168  3400.947
 169  2688.68
 170  2318.084
 171  1890.926
 172  1763.373
 173  1602.301
 174  1786.077
 175  2018.278
 176  1682.467
 177  1903.821
 178  1944.929
 179  1770.451
 180  1738.781
 181  1788.638
 182  1990.176
 183  2533.118
 184  2521.803
 185  2028.529
 186  1853.844
 187  1693.213
 188  2078.705
 189  2780.937
 190  2121.034
 191  1878.056
 192  1812.056
 193  1697.562
 194  1809.797
 195  1842.603
 196  1755.62
 197  1723.899
 198  1807.714
 199  1761.616
 200  1542.76
 201  1687.72
 202  1659.655
 203  1532.794
 204  1503.757
 205  1517.337
 206  1752.745
 207  2006.583
 208  2224.654
 209  1948.273
 210  1903.844
 211  1747.247
 212  1502.794
 213  1885.279
 214  2015.392
 215  1766.025
 216  1776.085
 217  1816.936
 218  1726.867
 219  2008.583
 220  1996.743
 221  1633.315
 222  1963.396
 223  2137.781
 224  1767.191
 225  1651.396
 226  1634.541
 227  1526.094
 228  1738.87
 229  1958.24
 230  1852.861
 231  1942.606
 232  1641.997
 233  1606.243
 234  1433.878
 235  1778.418
 236  1976.955
 237  1714.213
 238  1779.368
 239  1926.495
 240  2000.643
 241  1986.789
 242  1726.862
 243  2062.098
 244  2113.505
 245  2505.778
 246  2108.649
 247  1757.832
 248  1530.037
 249  1557.653
 250  2079.647
 251  2248.203
 252  2159.757
 253  2218.601
 254  1783.858
 255  1995.719
 256  2144.795
 257  2074.413
 258  1885.508
 259  2149.939
 260  2312.907
 261  2124.353
 262  1896.007
 263  1955.926
 264  1953.723
 265  2111.806
 266  1716.969
 267  1726.866
 268  1710.452
 269  1683.923
 270  2061.787
 271  2328.242
 272  2604.487
 273  2456.656
 274  2159.271
 275  1951.963
 276  2063.346
 277  1805.895
 278  2181.092
 279  2398.111
 280  1914.015
 281  1884.009
 282  1724.792
 283  1500.823
 284  1892.569
 285  2233.618
 286  2289.697
 287  2415.68
 288  2281.319
 289  2128.269
 290  2074.601
 291  2183.358
 292  2350.207
 293  2340.817
 294  2227.897
 295  2109.31
 296  2203.495
 297  2372.414
 298  2419.601
 299  2200.793
 300  2137.237
 301  2033.65
 302  1918.774
 303  2422.745
 304  2504.133
 305  2354.135
 306  1975.728
 307  1813.378
 308  1883.088
 309  2044.013
 310  2351.316
 311  2588.359
 312  2397.8
 313  2441.623
 314  2645.457
 315  2476.816
 316  2490.424
 317  2399.59
 318  2414.013
 319  2474.179
 320  2496.318
 321  2566.898
 322  2835.15
 323  2638.598
 324  2382.288
 325  2191.632
 326  2242.538
 327  2334.515
 328  2312.771
 329  2571.567
 330  2712.519
 331  2211.674
 332  2265.421
 333  2407.98
 334  1969.647
 335  1952.711
 336  2341.844
 337  2463.714
 338  2490.736
 339  2146.667
 340  2042.439
 341  1931.399
 342  2082.592
 343  2234.052
 344  2452.846
 345  2260.716
 346  2264.418
 347  2188.971
 348  2107.229
 349  2265.877
 350  2009.555
 351  1816.709
 352  2127.91
 353  2252.657
 354  2133.6
 355  2044.364
 356  2410.356
 357  2511.369
 358  2414.149
 359  2519.051
 360  2343.7
 361  2280.716
 362  2491.452
 363  2411.615
 364  2330.844
 365  2001.162
 366  2109.461
 367  2599.72
 368  2533.688
 369  2132.893
 370  2169.359
 371  2614.237
 372  2258.758
 373  1862.74
 374  2180.064
 375  2172.842
 376  2203.075
 377  2394.178
 378  1740.658
 379  1764.201
 380  2338.857
 381  2561.532
 382  2548.629
 383  2490.432
 384  2044.367
 385  2061.661
 386  2188.179
 387  2216.01
 388  2031.004
 389  1703.76
 390  1524.54
 391  1993.347
 392  2003.918
 393  2242.308
 394  2025.624
 395  1883.531
 396  1911.941
 397  1636.111
 398  1601.231
 399  1919.079
 400  2139.395
 401  2342.652
 402  2147.072
 403  2433.787
 404  2269.332
 405  2100.937
 406  2476.51
 407  2747.676
 408  1993.264
 409  1923.895
 410  1955.293
 411  1807.822
 412  1717.12
 413  2030.372
 414  2053.197
 415  1850.901
 416  1868.099
 417  2036.199
 418  1958.567
 419  1762.795
 420  1957.691
 421  1908.627
 422  1692.654
 423  1628.18
 424  1790.99
 425  2386.314
 426  2020.483
 427  2086.246
 428  1995.777
 429  1752.375
 430  1788.915
 431  2213.579
 432  2042.247
 433  1935.773
 434  1879.159
 435  2230.158
 436  2301.415
 437  1784.3
 438  1975.994
 439  1935.638
 440  1996.889
 441  1632.512
 442  1899.457
 443  2106.506
 444  2256.226
 445  2015.489
 446  1928.291
 447  1865.269
 448  1598.294
 449  1645.392
 450  1756.852
 451  2052.484
 452  1817.755
 453  1374.995
 454  1648.74
 455  1917.14
 456  2106.666
 457  1834.411
 458  2134.941
 459  2627.705
 460  2460.802
 461  2016.208
 462  1916.5
 463  1720.679
 464  1635.04
 465  1932.832
 466  2234.741
 467  2315.163
 468  2361.82
 469  2072.627
 470  1840.405
 471  2050.5
 472  2258.373
 473  2011.827
 474  2140.151
 475  2159.344
 476  2202.69
 477  2183.838
 478  2166.383
 479  2242.929
 480  2291.896
 481  2285.862
 482  2137.738
 483  1815.675
 484  2382.728
 485  2466.193
 486  2377.076
 487  2695.315
 488  2256.653
 489  2060.278
 490  1887.271
 491  1873.816
 492  2168.28
 493  1990.484
 494  1875.618
 495  2148.986
 496  2404.357
 497  2605.359
 498  2636.157
 499  2403.393
 500  2660.601
 501  2606.767
 502  2113.267
 503  2072.966
 504  2180.253
 505  2267.778
 506  2223.74
 507  2030.997
 508  1765.298
 509  2012.674
 510  1835.116
 511  1946.54
