# Input file       =  1203414632.110324_cleaned.dat
# Candidate        =  PSR_0332+5434
# Telescope        =  AR
# Epoch_topo       =  58172.410313776898
# Epoch_bary       =  N/A
# T_sample         =  0.002
# Data Folded      =  7208960
# Data Avg         =  0.0936037208944619
# Data StdDev      =  1.0001588998527  
# Profile Bins     =  512
# Profile Avg      =  1317.86102029459 
# Profile StdDev   =  118.678030719085 
# Reduced chi-sqr  =  1.111
# Prob(Noise)      <  0.0418   (~1.7 sigma)
# P_topo (ms)      =  714.580718749093  +/- 0.000266
# P'_topo (s/s)    =  -0                +/- 1.43e-10
# P''_topo (s/s^2) =  0                 +/- 6.43e-14
# P_bary (ms)      =  N/A
# P'_bary (s/s)    =  N/A
# P''_bary (s/s^2) =  N/A
# P_orb (s)        =  N/A
# asin(i)/c (s)    =  N/A
# eccentricity     =  N/A
# w (rad)          =  N/A
# T_peri           =  N/A
######################################################
   0  1765.455
   1  1692.628
   2  1590.677
   3  1447.413
   4  1308.86
   5  1268.398
   6  1265.898
   7  1258.344
   8  1332.881
   9  1331.759
  10  1389.094
  11  1295.125
  12  1292.571
  13  1248.556
  14  1211.814
  15  1200.454
  16  1211.984
  17  1274.54
  18  1277.53
  19  1335.97
  20  1317.658
  21  1304.33
  22  1331.179
  23  1277.053
  24  1321.652
  25  1264.833
  26  1155.303
  27  1173.138
  28  1274.599
  29  1354.838
  30  1217.178
  31  1317.388
  32  1415.083
  33  1447.828
  34  1393.75
  35  1350.214
  36  1206.714
  37  1294.59
  38  1315.12
  39  1293.052
  40  1324.477
  41  1275.33
  42  1342
  43  1228.391
  44  1200.693
  45  1136.069
  46  1243.459
  47  1329.433
  48  1383.45
  49  1435.51
  50  1345.168
  51  1272.802
  52  1345.488
  53  1332.053
  54  1322.964
  55  1354.061
  56  1275.965
  57  1272.464
  58  1319.819
  59  1244.072
  60  1188.666
  61  1266.351
  62  1254.335
  63  1275.83
  64  1189.024
  65  1265.236
  66  1287.243
  67  1346.214
  68  1243.018
  69  1299.874
  70  1362.821
  71  1278.728
  72  1157.558
  73  1277.009
  74  1278.276
  75  1318.147
  76  1364.313
  77  1379.084
  78  1267.598
  79  1223.807
  80  1254.199
  81  1194.274
  82  1260.911
  83  1285.773
  84  1349.039
  85  1295.655
  86  1353.8
  87  1373.746
  88  1427.486
  89  1343.431
  90  1248.698
  91  1223.104
  92  1156.111
  93  1245.867
  94  1256.1
  95  1240.108
  96  1260.414
  97  1266.995
  98  1304.206
  99  1244.176
 100  1101.766
 101  1167.688
 102  1141.984
 103  1191.551
 104  1290.481
 105  1321.98
 106  1305.503
 107  1368.98
 108  1241.873
 109  1286.375
 110  1285.126
 111  1264.464
 112  1359.704
 113  1276.199
 114  1327.009
 115  1385.963
 116  1387.364
 117  1367.559
 118  1376.822
 119  1311.002
 120  1450.289
 121  1458.294
 122  1354.109
 123  1304.072
 124  1301.674
 125  1358.398
 126  1399.997
 127  1332.087
 128  1290.261
 129  1319.932
 130  1345.832
 131  1276.571
 132  1344.276
 133  1258.266
 134  1381.326
 135  1439.216
 136  1390.051
 137  1375.345
 138  1360.694
 139  1402.054
 140  1381.251
 141  1308.144
 142  1287.208
 143  1155.98
 144  1165.813
 145  1235.626
 146  1329.963
 147  1272.759
 148  1275.699
 149  1306.312
 150  1338.39
 151  1312.123
 152  1304.718
 153  1364.632
 154  1415.78
 155  1254.012
 156  1373.368
 157  1417.998
 158  1363.155
 159  1284.963
 160  1371.347
 161  1397.224
 162  1257.83
 163  1253.963
 164  1316.218
 165  1389.181
 166  1453.65
 167  1386.674
 168  1299.218
 169  1335.151
 170  1415.344
 171  1345.152
 172  1329.821
 173  1337.738
 174  1234.646
 175  1224.792
 176  1275.807
 177  1292.694
 178  1250.087
 179  1301.287
 180  1272.375
 181  1338.95
 182  1253.142
 183  1215.262
 184  1241.102
 185  1221.353
 186  1277.898
 187  1287.945
 188  1290.899
 189  1405.721
 190  1431.846
 191  1217.977
 192  1110.79
 193  1193.983
 194  1228.184
 195  1152.604
 196  1219.085
 197  1242.905
 198  1261.485
 199  1236.484
 200  1225.412
 201  1195.492
 202  1233.848
 203  1204.224
 204  1211.374
 205  1273.91
 206  1178.271
 207  1157.649
 208  1123.003
 209  1093.308
 210  1164.665
 211  1236.394
 212  1191.695
 213  1148.908
 214  1221.251
 215  1189.909
 216  1293.645
 217  1311.086
 218  1204.89
 219  1229.751
 220  1169.223
 221  1167.453
 222  1184.313
 223  1380.306
 224  1381.741
 225  1336.172
 226  1322.844
 227  1323.065
 228  1293.257
 229  1362.934
 230  1275.074
 231  1254.493
 232  1186.849
 233  1155.666
 234  1114.465
 235  1187.695
 236  1176.138
 237  1250.427
 238  1273.341
 239  1250.36
 240  1332.572
 241  1352.529
 242  1279.396
 243  1238.505
 244  1310.762
 245  1436.341
 246  1323.548
 247  1305.082
 248  1241.401
 249  1165.998
 250  1237.437
 251  1276.033
 252  1314.321
 253  1231.5
 254  1314.931
 255  1340.206
 256  1379.259
 257  1308.08
 258  1292.182
 259  1315.906
 260  1297.131
 261  1372.637
 262  1386.321
 263  1385.549
 264  1317.819
 265  1287.68
 266  1340.781
 267  1427.186
 268  1463.67
 269  1435.124
 270  1328.654
 271  1338.184
 272  1309.756
 273  1236.97
 274  1325.589
 275  1278.796
 276  1291.668
 277  1383.92
 278  1336.661
 279  1306.281
 280  1408.448
 281  1416.729
 282  1322.518
 283  1295.474
 284  1376.594
 285  1384.45
 286  1378.176
 287  1355.944
 288  1407.563
 289  1382.016
 290  1311.026
 291  1219.425
 292  1169.523
 293  1216.62
 294  1297.116
 295  1338.31
 296  1316.731
 297  1363.587
 298  1367.521
 299  1359.056
 300  1370.93
 301  1346.636
 302  1317.1
 303  1317.223
 304  1245.385
 305  1226.029
 306  1347.187
 307  1323.36
 308  1266.07
 309  1311.388
 310  1187.227
 311  1244.101
 312  1264.796
 313  1288.585
 314  1293.358
 315  1322.666
 316  1332.363
 317  1200.962
 318  1107.686
 319  1157.141
 320  1346.343
 321  1428.068
 322  1291.04
 323  1240.342
 324  1223.344
 325  1295.494
 326  1311.385
 327  1371.374
 328  1383.113
 329  1380.281
 330  1429.449
 331  1378.878
 332  1271.864
 333  1337.327
 334  1308.924
 335  1270.055
 336  1325.681
 337  1206.654
 338  1244.028
 339  1311.887
 340  1240.286
 341  1278.159
 342  1213.99
 343  1263.539
 344  1188.738
 345  1207.186
 346  1285.165
 347  1216.495
 348  1195.031
 349  1249.972
 350  1234.436
 351  1208.302
 352  1266.792
 353  1319.796
 354  1307.33
 355  1291.714
 356  1256.865
 357  1269.455
 358  1248.61
 359  1301.398
 360  1273.358
 361  1274.392
 362  1298.611
 363  1350.565
 364  1277.21
 365  1266.433
 366  1396.687
 367  1388.369
 368  1262.28
 369  1215.131
 370  1245.129
 371  1266.381
 372  1368.863
 373  1431.99
 374  1372.557
 375  1345.806
 376  1436.543
 377  1320.929
 378  1286.6
 379  1308.443
 380  1423.561
 381  1319.262
 382  1313.095
 383  1363.403
 384  1374.657
 385  1333.554
 386  1329.769
 387  1364.777
 388  1385.088
 389  1362.559
 390  1364.75
 391  1344.002
 392  1357.654
 393  1416.757
 394  1403.354
 395  1399.232
 396  1400.393
 397  1492.515
 398  1510.121
 399  1390.753
 400  1357.999
 401  1471.389
 402  1418.389
 403  1417.128
 404  1511.027
 405  1480.697
 406  1397.516
 407  1460.048
 408  1454.468
 409  1492.805
 410  1516.794
 411  1492.048
 412  1502.181
 413  1524.248
 414  1487.596
 415  1479.855
 416  1485.259
 417  1450.477
 418  1426.539
 419  1385.234
 420  1413.969
 421  1463.439
 422  1500.186
 423  1398.539
 424  1337.351
 425  1407.204
 426  1364.943
 427  1392.232
 428  1490.649
 429  1455.229
 430  1386.322
 431  1322.912
 432  1275.669
 433  1238.907
 434  1330.673
 435  1416.074
 436  1397.191
 437  1347.724
 438  1411.895
 439  1348.136
 440  1393.872
 441  1315.374
 442  1294.513
 443  1334.506
 444  1311.63
 445  1338.235
 446  1435.11
 447  1423.46
 448  1393.98
 449  1362.082
 450  1306.413
 451  1319.422
 452  1282.73
 453  1274.875
 454  1205.743
 455  1142.718
 456  1227.363
 457  1351.069
 458  1307.132
 459  1324.316
 460  1461.197
 461  1349.69
 462  1295.824
 463  1375.311
 464  1387.554
 465  1400.312
 466  1380.412
 467  1372.239
 468  1372.44
 469  1414.433
 470  1411.512
 471  1263.639
 472  1296.79
 473  1262.01
 474  1226.798
 475  1159.37
 476  1289.657
 477  1310.04
 478  1436.68
 479  1404.9
 480  1336.305
 481  1275.275
 482  1367.718
 483  1479.895
 484  1407.028
 485  1220.438
 486  1275.856
 487  1317.61
 488  1290.233
 489  1224.285
 490  1326.767
 491  1281.246
 492  1282.236
 493  1299.979
 494  1331.057
 495  1410.268
 496  1421.478
 497  1483.117
 498  1379.454
 499  1313.845
 500  1291.332
 501  1278.333
 502  1412.698
 503  1414.434
 504  1452.372
 505  1475.574
 506  1420.58
 507  1409.254
 508  1477.917
 509  1516.725
 510  1708.458
 511  1730.381
