# Input file       =  1203956956.133537_cleaned.dat
# Candidate        =  PSR_0332+5434
# Telescope        =  AR
# Epoch_topo       =  58178.687212193719
# Epoch_bary       =  N/A
# T_sample         =  0.002
# Data Folded      =  7340032
# Data Avg         =  0.0451998987152658
# Data StdDev      =  1.00019112797929 
# Profile Bins     =  512
# Profile Avg      =  647.967896594913 
# Profile StdDev   =  119.755920710063 
# Reduced chi-sqr  =  0.764
# Prob(Noise)      <  1   (~0.0 sigma)
# P_topo (ms)      =  714.580673077915  +/- 0.000535
# P'_topo (s/s)    =  -0                +/- 2.82e-10
# P''_topo (s/s^2) =  0                 +/- 1.25e-13
# P_bary (ms)      =  N/A
# P'_bary (s/s)    =  N/A
# P''_bary (s/s^2) =  N/A
# P_orb (s)        =  N/A
# asin(i)/c (s)    =  N/A
# eccentricity     =  N/A
# w (rad)          =  N/A
# T_peri           =  N/A
######################################################
   0  933.2591
   1  919.1979
   2  766.3027
   3  736.2637
   4  721.887
   5  748.3601
   6  851.1254
   7  745.5038
   8  685.3085
   9  680.7052
  10  721.3426
  11  676.3781
  12  647.1459
  13  717.5702
  14  831.3445
  15  662.8951
  16  634.6361
  17  687.834
  18  735.8726
  19  644.8989
  20  650.0329
  21  767.0869
  22  708.4176
  23  745.6731
  24  790.9527
  25  723.862
  26  646.1429
  27  559.408
  28  621.771
  29  635.4957
  30  656.3193
  31  624.1823
  32  600.0411
  33  689.5464
  34  611.666
  35  525.2847
  36  546.6285
  37  532.7703
  38  582.7358
  39  610.8953
  40  635.7228
  41  588.1398
  42  597.8314
  43  648.7208
  44  579.1397
  45  683.4209
  46  699.1633
  47  481.1857
  48  473.5115
  49  595.2684
  50  553.3374
  51  557.3273
  52  666.8389
  53  662.9465
  54  566.0906
  55  531.5497
  56  581.5989
  57  585.0134
  58  624.881
  59  728.6498
  60  741.4316
  61  651.9753
  62  627.9788
  63  658.4885
  64  663.0468
  65  748.8464
  66  742.9757
  67  754.9153
  68  872.7073
  69  867.4738
  70  863.58
  71  725.1321
  72  666.4808
  73  674.5145
  74  759.1817
  75  736.1838
  76  757.2491
  77  685.6237
  78  658.1663
  79  648.3417
  80  583.0447
  81  622.2451
  82  675.1006
  83  610.8157
  84  580.2365
  85  591.4215
  86  621.3975
  87  620.1905
  88  589.3496
  89  671.399
  90  622.4586
  91  622.4297
  92  757.0913
  93  701.5383
  94  670.2187
  95  658.2741
  96  774.7613
  97  829.8971
  98  822.3143
  99  649.9197
 100  666.1681
 101  728.7747
 102  821.8629
 103  830.7586
 104  684.6419
 105  697.4647
 106  725.9205
 107  730.5376
 108  733.9966
 109  704.3383
 110  624.7917
 111  661.6652
 112  752.3363
 113  738.4725
 114  701.6819
 115  662.6672
 116  712.8068
 117  647.9933
 118  574.0414
 119  589.4023
 120  657.3786
 121  559.1539
 122  565.5174
 123  560.2062
 124  528.653
 125  519.9366
 126  602.0356
 127  583.1316
 128  603.6907
 129  648.3649
 130  633.4732
 131  627.1581
 132  552.9705
 133  567.47
 134  528.595
 135  515.3372
 136  619.9698
 137  639.8406
 138  679.5697
 139  603.5053
 140  567.021
 141  474.4078
 142  574.5244
 143  638.7016
 144  619.7999
 145  614.0955
 146  753.3426
 147  772.0657
 148  711.5743
 149  663.2992
 150  570.9049
 151  578.0798
 152  624.5128
 153  677.7739
 154  568.8105
 155  512.3688
 156  611.6558
 157  638.691
 158  605.0236
 159  639.412
 160  641.9523
 161  609.3476
 162  567.3636
 163  564.2634
 164  621.1813
 165  704.895
 166  696.6058
 167  655.1273
 168  632.7436
 169  580.6211
 170  601.2736
 171  653.3535
 172  676.9496
 173  701.7167
 174  720.051
 175  700.2244
 176  669.4903
 177  662.0021
 178  722.469
 179  587.9381
 180  598.1519
 181  738.1003
 182  656.7994
 183  616.8436
 184  708.4304
 185  691.4252
 186  639.7103
 187  676.7971
 188  618.7012
 189  624.2289
 190  625.1384
 191  645.7534
 192  577.4919
 193  576.8804
 194  635.0581
 195  676.5223
 196  631.1638
 197  617.6297
 198  577.6013
 199  515.4652
 200  557.113
 201  527.9152
 202  695.5253
 203  581.5588
 204  596.759
 205  709.5953
 206  645.4305
 207  641.0319
 208  586.1035
 209  638.013
 210  631.3705
 211  667.2842
 212  606.3453
 213  623.7037
 214  730.2831
 215  698.7757
 216  576.1266
 217  547.6895
 218  584.0248
 219  622.3045
 220  616.5968
 221  636.8811
 222  613.9139
 223  597.9552
 224  659.9473
 225  743.9352
 226  709.6153
 227  600.7055
 228  595.0306
 229  586.6589
 230  656.712
 231  637.9435
 232  558.2896
 233  692.3793
 234  700.8597
 235  661.6872
 236  633.1602
 237  660.7156
 238  604.8207
 239  695.6242
 240  701.3658
 241  653.7686
 242  687.8129
 243  631.7126
 244  595.6954
 245  592.377
 246  638.8938
 247  624.6852
 248  661.8401
 249  666.384
 250  540.2709
 251  571.9133
 252  684.4551
 253  690.6437
 254  731.6943
 255  748.0543
 256  834.0402
 257  791.6658
 258  692.6497
 259  767.1777
 260  792.1474
 261  755.3483
 262  685.8839
 263  717.4811
 264  777.5037
 265  715.7087
 266  665.9185
 267  707.3154
 268  648.4352
 269  658.7906
 270  653.8478
 271  631.9884
 272  671.7448
 273  691.8453
 274  571.9488
 275  646.2992
 276  635.4874
 277  615.2219
 278  683.9802
 279  641.4853
 280  559.27
 281  579.609
 282  615.1868
 283  588.3837
 284  559.3701
 285  547.7355
 286  655.3627
 287  575.8315
 288  538.2437
 289  509.9028
 290  550.447
 291  608.0988
 292  643.6829
 293  683.3682
 294  652.2568
 295  618.8857
 296  635.7068
 297  690.6023
 298  634.108
 299  526.9199
 300  687.7393
 301  683.2367
 302  558.0016
 303  558.3646
 304  609.0887
 305  573.905
 306  540.1791
 307  522.3487
 308  590.8323
 309  541.9879
 310  484.1035
 311  531.2748
 312  575.2141
 313  638.9738
 314  555.4601
 315  410.9389
 316  517.7809
 317  608.4193
 318  694.1876
 319  652.9843
 320  656.0249
 321  643.5192
 322  554.6257
 323  611.6607
 324  649.5048
 325  705.0027
 326  736.1558
 327  721.5246
 328  617.9555
 329  588.7854
 330  640.7654
 331  636.6777
 332  635.9182
 333  691.0461
 334  710.3066
 335  623.8292
 336  566.8043
 337  632.3868
 338  635.9789
 339  653.9429
 340  635.6674
 341  667.5342
 342  669.2913
 343  667.4298
 344  656.7751
 345  623.3462
 346  527.2221
 347  538.1763
 348  610.7568
 349  608.0786
 350  639.8043
 351  707.5006
 352  643.0242
 353  642.575
 354  665.5065
 355  688.9259
 356  796.9631
 357  806.1331
 358  685.2665
 359  732.7671
 360  641.9341
 361  665.5411
 362  688.1891
 363  766.2567
 364  646.6805
 365  608.7802
 366  666.7729
 367  693.6613
 368  622.118
 369  674.3707
 370  667.6971
 371  611.1979
 372  611.1926
 373  730.1761
 374  794.6882
 375  779.2192
 376  689.8555
 377  740.2629
 378  641.3795
 379  622.5319
 380  647.6393
 381  629.4325
 382  611.7856
 383  636.5016
 384  607.5004
 385  609.7911
 386  559.2122
 387  659.2362
 388  643.1459
 389  603.9915
 390  607.4498
 391  598.3011
 392  605.9626
 393  647.337
 394  693.7525
 395  667.1763
 396  651.6856
 397  659.8061
 398  659.7543
 399  598.7626
 400  547.9785
 401  530.9184
 402  573.0175
 403  665.4736
 404  621.1864
 405  536.072
 406  565.212
 407  651.7818
 408  652.3118
 409  646.7167
 410  580.6089
 411  609.3891
 412  624.6393
 413  592.0535
 414  689.9542
 415  568.142
 416  596.392
 417  565.1553
 418  667.433
 419  747.9719
 420  720.9101
 421  701.5936
 422  598.803
 423  544.7632
 424  648.4947
 425  651.5905
 426  565.2639
 427  740.9314
 428  817.1167
 429  738.3418
 430  723.343
 431  693.3507
 432  570.8488
 433  635.548
 434  661.8852
 435  658.4586
 436  700.9729
 437  698.4785
 438  617.362
 439  540.1817
 440  646.9683
 441  557.053
 442  638.7916
 443  690.7332
 444  681.6641
 445  624.0549
 446  605.9749
 447  600.2744
 448  636.4363
 449  632.3174
 450  636.6478
 451  621.1664
 452  625.944
 453  743.206
 454  743.5563
 455  699.5391
 456  631.346
 457  539.9469
 458  641.5793
 459  692.7258
 460  696.6413
 461  698.272
 462  743.2209
 463  572.8558
 464  668.0449
 465  640.1014
 466  671.6331
 467  655.4352
 468  692.1767
 469  707.9025
 470  688.9896
 471  651.7568
 472  599.8785
 473  535.6146
 474  603.4193
 475  704.0352
 476  671.6278
 477  552.9941
 478  533.8408
 479  595.1708
 480  636.0342
 481  572.5953
 482  555.7547
 483  640.5475
 484  609.1677
 485  488.7469
 486  586.6472
 487  494.0729
 488  470.5572
 489  530.8259
 490  621.6852
 491  665.6429
 492  612.7291
 493  589.1787
 494  620.0369
 495  717.777
 496  657.2998
 497  672.6646
 498  632.6804
 499  591.316
 500  710.0336
 501  739.9775
 502  669.1701
 503  665.7715
 504  694.8628
 505  718.813
 506  703.6445
 507  699.605
 508  742.566
 509  778.0345
 510  990.2758
 511  1031.63
