# Input file       =  1203429282.104877_cleaned.dat
# Candidate        =  PSR_0332+5434
# Telescope        =  AR
# Epoch_topo       =  58172.579873899042
# Epoch_bary       =  N/A
# T_sample         =  0.002
# Data Folded      =  7340032
# Data Avg         =  0.0626097067773338
# Data StdDev      =  1.00016921340443 
# Profile Bins     =  512
# Profile Avg      =  897.549829568679 
# Profile StdDev   =  119.753296811474 
# Reduced chi-sqr  =  1.554
# Prob(Noise)      <  1.26e-14   (~7.6 sigma)
# P_topo (ms)      =  714.580743981209  +/- 0.000836
# P'_topo (s/s)    =  -0                +/- 4.41e-10
# P''_topo (s/s^2) =  0                 +/- 1.95e-13
# P_bary (ms)      =  N/A
# P'_bary (s/s)    =  N/A
# P''_bary (s/s^2) =  N/A
# P_orb (s)        =  N/A
# asin(i)/c (s)    =  N/A
# eccentricity     =  N/A
# w (rad)          =  N/A
# T_peri           =  N/A
######################################################
   0  1014.461
   1  1016.375
   2  1013.737
   3  986.9976
   4  859.5921
   5  873.8466
   6  816.2723
   7  849.2165
   8  849.5046
   9  831.241
  10  766.1348
  11  765.4767
  12  882.9968
  13  892.0994
  14  826.4369
  15  883.0275
  16  918.1287
  17  842.4109
  18  901.5305
  19  869.4058
  20  843.2921
  21  908.9963
  22  916.6168
  23  813.3057
  24  715.8748
  25  734.6199
  26  813.179
  27  813.7471
  28  842.4243
  29  804.4894
  30  813.3019
  31  818.1908
  32  761.8956
  33  744.9474
  34  777.4239
  35  834.7259
  36  923.1161
  37  921.2169
  38  840.5375
  39  877.9244
  40  831.1747
  41  848.4435
  42  948.1158
  43  944.3289
  44  968.1891
  45  864.0137
  46  788.2491
  47  726.4185
  48  779.5274
  49  848.3842
  50  917.4902
  51  901.4316
  52  923.0242
  53  930.8449
  54  896.0637
  55  938.0783
  56  954.9593
  57  891.2444
  58  880.9615
  59  908.6277
  60  961.3044
  61  892.1839
  62  936.6015
  63  955.6801
  64  991.0189
  65  970.961
  66  937.9216
  67  1030.146
  68  1020.855
  69  1004.533
  70  935.7776
  71  1031.551
  72  1106.704
  73  1048.373
  74  978.611
  75  941.1753
  76  955.4117
  77  960.0286
  78  1021.116
  79  1057.706
  80  1000.788
  81  933.9213
  82  920.7878
  83  828.927
  84  919.0477
  85  995.6824
  86  1034.791
  87  1037.721
  88  1028.199
  89  1053.179
  90  1000.421
  91  1043.839
  92  1000.948
  93  969.9514
  94  1002.334
  95  1030.005
  96  1055.066
  97  1129.242
  98  1102.718
  99  1054.737
 100  1086.474
 101  1057.352
 102  1047.008
 103  968.0773
 104  979.8823
 105  1105.082
 106  1092.251
 107  1064.781
 108  1051.337
 109  1006.712
 110  1006.27
 111  1068.502
 112  1042.191
 113  1084.439
 114  1112.315
 115  1122.828
 116  1082.355
 117  1067.909
 118  1097.741
 119  1125.301
 120  1237.225
 121  1262.581
 122  1260.85
 123  1316.03
 124  1429.132
 125  1337.541
 126  1290.549
 127  1233.994
 128  1166.697
 129  1048.952
 130  1053.195
 131  1056.883
 132  1098.841
 133  1117.094
 134  1087.739
 135  1092.237
 136  956.4609
 137  968.387
 138  961.8084
 139  957.8168
 140  971.2823
 141  980.5911
 142  996.8731
 143  1046.698
 144  1104.256
 145  1063.161
 146  961.5551
 147  996.8042
 148  1042.001
 149  1018.973
 150  970.1615
 151  1007.394
 152  963.3732
 153  909.1819
 154  1003.635
 155  1016.767
 156  1000.036
 157  982.2234
 158  935.785
 159  986.4344
 160  948.5721
 161  932.9941
 162  1002.029
 163  997.8033
 164  994.3215
 165  955.9649
 166  944.3648
 167  919.5251
 168  953.1953
 169  877.4406
 170  867.0469
 171  943.1536
 172  1014.56
 173  1032.307
 174  901.2729
 175  847.7627
 176  881.4006
 177  991.0435
 178  1005.806
 179  1064.214
 180  1002.95
 181  968.3417
 182  983.7489
 183  945.9095
 184  936.6105
 185  966.1675
 186  1069.71
 187  1069.648
 188  1079.261
 189  1017.022
 190  1043.272
 191  1083.579
 192  1013.386
 193  1041.499
 194  1076.151
 195  1063.037
 196  993.7003
 197  922.4221
 198  923.156
 199  988.5851
 200  1033.843
 201  1009.007
 202  922.692
 203  920.5195
 204  913.8761
 205  998.7527
 206  965.0295
 207  940.6158
 208  865.7893
 209  918.9174
 210  875.3653
 211  868.2507
 212  857.8745
 213  878.3862
 214  879.7549
 215  911.6516
 216  863.6937
 217  877.7003
 218  899.3185
 219  899.0947
 220  879.046
 221  918.0934
 222  946.1606
 223  833.9877
 224  866.7582
 225  870.4424
 226  881.3809
 227  911.4186
 228  916.7775
 229  925.8066
 230  908.1875
 231  884.8423
 232  869.902
 233  850.4326
 234  897.2383
 235  920.9306
 236  954.7805
 237  895.0399
 238  941.7307
 239  912.706
 240  909.1223
 241  879.8215
 242  843.0159
 243  865.8074
 244  927.5402
 245  881.7339
 246  871.0315
 247  856.3861
 248  818.6028
 249  849.0821
 250  897.4329
 251  893.9637
 252  874.3225
 253  875.0409
 254  868.356
 255  865.0925
 256  858.4288
 257  927.2343
 258  960.5112
 259  957.1665
 260  908.0842
 261  982.2994
 262  978.2377
 263  968.6209
 264  974.0245
 265  936.6533
 266  891.8472
 267  828.1198
 268  793.6548
 269  895.6968
 270  851.6029
 271  860.5845
 272  826.787
 273  854.9515
 274  836.9681
 275  864.4984
 276  898.8179
 277  879.1514
 278  857.2554
 279  853.784
 280  838.462
 281  811.0729
 282  788.918
 283  798.0388
 284  827.002
 285  829.4472
 286  863.8939
 287  869.0597
 288  855.7711
 289  831.222
 290  793.775
 291  835.3592
 292  886.6724
 293  922.1695
 294  870.5233
 295  919.7874
 296  902.5382
 297  837.8799
 298  811.9774
 299  877.6785
 300  894.0034
 301  876.7188
 302  892.8536
 303  850.6584
 304  796.6772
 305  790.4815
 306  834.6822
 307  870.5055
 308  879.7155
 309  894.8913
 310  872.6505
 311  906.1271
 312  833.6185
 313  860.3132
 314  898.6216
 315  867.0657
 316  808.5066
 317  845.551
 318  824.3354
 319  806.1759
 320  858.3398
 321  911.0689
 322  897.2435
 323  832.0494
 324  785.8332
 325  758.9031
 326  718.9125
 327  753.2093
 328  760.6999
 329  792.416
 330  794.5533
 331  722.7485
 332  698.1401
 333  735.3328
 334  757.0016
 335  727.1149
 336  738.8719
 337  715.2692
 338  722.7252
 339  768.6992
 340  775.8152
 341  712.4764
 342  733.4094
 343  752.7953
 344  812.9717
 345  839.038
 346  821.7086
 347  856.103
 348  841.1226
 349  840.8134
 350  863.4763
 351  844.6464
 352  826.4116
 353  765.4702
 354  750.1215
 355  794.9824
 356  846.6036
 357  839.4885
 358  819.7491
 359  764.9642
 360  740.0663
 361  759.8163
 362  741.0602
 363  792.2507
 364  865.226
 365  826.921
 366  877.3027
 367  880.8246
 368  818.2621
 369  841.3786
 370  848.3107
 371  893.9613
 372  928.2467
 373  858.3641
 374  890.2945
 375  878.1668
 376  959.5975
 377  922.2073
 378  920.9349
 379  881.8553
 380  888.8438
 381  874.6501
 382  812.3342
 383  840.8033
 384  878.301
 385  844.2372
 386  891.5646
 387  850.1072
 388  906.7681
 389  906.4158
 390  910.0581
 391  921.9242
 392  886.7165
 393  930.818
 394  917.4778
 395  919.087
 396  963.8659
 397  971.145
 398  1001.407
 399  960.481
 400  950.6295
 401  862.7499
 402  811.7912
 403  762.2985
 404  738.1214
 405  759.6775
 406  795.1874
 407  794.1497
 408  798.8464
 409  814.2971
 410  782.7227
 411  735.2589
 412  692.1043
 413  739.5013
 414  760.7318
 415  797.6096
 416  796.8206
 417  749.3624
 418  772.8248
 419  721.3138
 420  725.4168
 421  783.82
 422  750.7184
 423  766.7262
 424  737.7427
 425  727.0765
 426  719.2102
 427  699.3792
 428  801.5552
 429  759.8948
 430  811.2302
 431  752.1962
 432  763.6655
 433  827.0271
 434  839.8306
 435  888.4844
 436  829.4326
 437  797.5457
 438  809.7328
 439  813.2594
 440  814.1185
 441  780.9758
 442  835.6342
 443  897.043
 444  862.5136
 445  798.9731
 446  799.6444
 447  758.9777
 448  750.4377
 449  774.2058
 450  800.0624
 451  746.3068
 452  725.5433
 453  801.2693
 454  880.9416
 455  898.3455
 456  890.3428
 457  805.8572
 458  783.3643
 459  844.8464
 460  871.6689
 461  895.3651
 462  923.0339
 463  872.7841
 464  871.1001
 465  931.9176
 466  916.5532
 467  881.3643
 468  761.2439
 469  780.8275
 470  768.6038
 471  797.371
 472  856.9666
 473  881.0401
 474  934.5446
 475  828.9335
 476  687.1729
 477  719.7887
 478  736.0739
 479  757.4695
 480  748.3599
 481  736.0494
 482  834.1084
 483  793.3795
 484  731.3033
 485  772.7311
 486  853.6243
 487  841.1979
 488  830.354
 489  904.204
 490  882.7742
 491  897.9132
 492  905.1212
 493  863.1635
 494  912.1227
 495  940.4435
 496  938.9605
 497  896.4053
 498  795.5391
 499  796.2315
 500  841.6896
 501  824.8202
 502  851.173
 503  909.5681
 504  927.1057
 505  916.502
 506  944.2061
 507  907.8805
 508  918.1511
 509  990.7463
 510  903.5355
 511  865.9056
