# Input file       =  1203105821.111271_cleaned.dat
# Candidate        =  PSR_0332+5434
# Telescope        =  AR
# Epoch_topo       =  58168.836112398967
# Epoch_bary       =  N/A
# T_sample         =  0.002
# Data Folded      =  7340032
# Data Avg         =  0.0458038375924973
# Data StdDev      =  2.45372093221852 
# Profile Bins     =  512
# Profile Avg      =  655.806325260622 
# Profile StdDev   =  293.791457635753 
# Reduced chi-sqr  =  1.106
# Prob(Noise)      <  0.0492   (~1.7 sigma)
# P_topo (ms)      =  714.581091279726  +/- 0.000203
# P'_topo (s/s)    =  -0                +/- 1.07e-10
# P''_topo (s/s^2) =  0                 +/- 4.72e-14
# P_bary (ms)      =  N/A
# P'_bary (s/s)    =  N/A
# P''_bary (s/s^2) =  N/A
# P_orb (s)        =  N/A
# asin(i)/c (s)    =  N/A
# eccentricity     =  N/A
# w (rad)          =  N/A
# T_peri           =  N/A
######################################################
   0  591.5972
   1  661.4094
   2  516.131
   3  519.2546
   4  488.0666
   5  739.6681
   6  508.3883
   7  345.0902
   8  244.8067
   9  597.067
  10  756.0404
  11  665.118
  12  512.7935
  13  501.3928
  14  716.6863
  15  889.1591
  16  811.4693
  17  492.2683
  18  494.5107
  19  583.9912
  20  645.5899
  21  612.0935
  22  435.7812
  23  381.0157
  24  458.9596
  25  765.0173
  26  289.5815
  27  404.0009
  28  367.4492
  29  370.7076
  30  446.3249
  31  699.173
  32  790.5731
  33  503.2982
  34  585.2028
  35  855.9935
  36  825.9515
  37  590.631
  38  466.3453
  39  581.1949
  40  553.0255
  41  519.1655
  42  490.184
  43  737.9676
  44  608.8026
  45  381.3154
  46  912.6331
  47  916.3939
  48  579.4193
  49  639.3066
  50  574.8414
  51  546.8797
  52  708.0654
  53  818.2549
  54  392.8794
  55  577.8331
  56  839.053
  57  732.42
  58  434.9087
  59  637.2286
  60  582.4272
  61  406.7481
  62  421.4441
  63  272.3975
  64  385.5126
  65  511.3601
  66  546.7408
  67  668.8323
  68  594.7004
  69  556.2489
  70  519.3893
  71  737.0145
  72  286.2225
  73  466.2267
  74  648.0916
  75  611.4138
  76  674.7086
  77  879.0187
  78  962.0814
  79  479.6535
  80  313.1517
  81  576.9873
  82  739.7769
  83  673.4045
  84  518.6526
  85  506.7712
  86  751.1944
  87  842.4923
  88  1093.524
  89  1073.982
  90  737.5347
  91  689.7511
  92  697.1786
  93  681.979
  94  547.2407
  95  821.4648
  96  767.3588
  97  335.2997
  98  650.1807
  99  868.6201
 100  635.7116
 101  1002.62
 102  1054.412
 103  590.5135
 104  500.3408
 105  656.5632
 106  1084.882
 107  990.6873
 108  895.1149
 109  726.7129
 110  440.7437
 111  750.7704
 112  802.1426
 113  501.814
 114  539.6602
 115  746.2086
 116  582.0934
 117  691.0981
 118  717.6847
 119  690.1142
 120  606.6096
 121  392.7665
 122  542.4808
 123  746.7819
 124  750.01
 125  415.872
 126  387.3496
 127  602.1542
 128  668.5543
 129  489.9947
 130  499.1311
 131  410.8476
 132  497.7143
 133  895.8045
 134  710.9885
 135  592.0273
 136  552.4167
 137  898.1694
 138  702.7125
 139  958.1633
 140  1148.525
 141  822.4092
 142  742.6609
 143  810.9838
 144  798.1868
 145  809.147
 146  514.7551
 147  552.2518
 148  919.5539
 149  728.2925
 150  699.5994
 151  488.4414
 152  366.1429
 153  397.4858
 154  1112.808
 155  1151.365
 156  856.0035
 157  859.535
 158  550.0983
 159  583.9512
 160  742.0668
 161  708.6348
 162  619.5096
 163  656.7475
 164  619.3938
 165  395.4761
 166  576.9473
 167  553.5741
 168  757.4805
 169  789.0235
 170  639.9677
 171  532.0287
 172  568.293
 173  486.4638
 174  466.4969
 175  461.7528
 176  919.2572
 177  622.1619
 178  579.6162
 179  700.1486
 180  685.7652
 181  775.0049
 182  939.2238
 183  947.9742
 184  690.0555
 185  884.8127
 186  776.0904
 187  414.8737
 188  745.4407
 189  953.9973
 190  767.4475
 191  748.6699
 192  714.7704
 193  544.4654
 194  411.8354
 195  414.1188
 196  558.4745
 197  981.7043
 198  650.2679
 199  554.9266
 200  354.5317
 201  821.2858
 202  857.6501
 203  158.8598
 204  347.7312
 205  372.6074
 206  597.6028
 207  633.916
 208  314.6559
 209  461.0019
 210  725.5558
 211  518.3
 212  803.0506
 213  998.5099
 214  732.8907
 215  571.3248
 216  714.7986
 217  697.8414
 218  813.5204
 219  684.5541
 220  955.0508
 221  961.0973
 222  903.5493
 223  693.2048
 224  908.7109
 225  839.6425
 226  834.8829
 227  858.0848
 228  846.449
 229  817.9987
 230  802.3101
 231  1022.448
 232  676.1548
 233  490.9058
 234  577.1479
 235  592.7651
 236  148.5302
 237  195.8076
 238  639.9076
 239  884.6272
 240  395.2084
 241  211.7016
 242  738.3566
 243  979.1797
 244  918.5056
 245  648.3324
 246  898.7696
 247  702.8055
 248  685.181
 249  525.738
 250  518.5036
 251  729.9048
 252  746.6783
 253  741.6825
 254  419.0067
 255  434.4855
 256  502.0241
 257  669.1855
 258  1051.239
 259  949.64
 260  510.5767
 261  559.0331
 262  797.0761
 263  629.1738
 264  904.1024
 265  573.825
 266  571.0331
 267  765.7202
 268  936.4171
 269  983.2264
 270  844.9987
 271  728.5233
 272  851.5413
 273  632.814
 274  355.5119
 275  664.1613
 276  764.0585
 277  694.2873
 278  496.077
 279  657.309
 280  673.4847
 281  438.6345
 282  785.5867
 283  864.905
 284  1009.409
 285  960.9468
 286  773.8366
 287  565.0065
 288  1040.746
 289  1227.908
 290  663.4092
 291  753.408
 292  935.7103
 293  687.5082
 294  269.2118
 295  209.6173
 296  591.0803
 297  794.9656
 298  993.9031
 299  716.1785
 300  790.0499
 301  797.2528
 302  1127.747
 303  1560.24
 304  1654.964
 305  1845.777
 306  1751.746
 307  1576.244
 308  1272.791
 309  770.5905
 310  571.6649
 311  364.8327
 312  806.1318
 313  869.1017
 314  727.192
 315  626.9147
 316  735.6154
 317  540.879
 318  352.0998
 319  372.1639
 320  853.0942
 321  710.2639
 322  573.9438
 323  748.4527
 324  663.9565
 325  1054.311
 326  922.029
 327  657.7104
 328  678.0546
 329  866.5087
 330  736.358
 331  554.3055
 332  744.4282
 333  1062.255
 334  913.8988
 335  929.7229
 336  818.3848
 337  505.7411
 338  430.3287
 339  404.1796
 340  499.1514
 341  432.7048
 342  347.9034
 343  544.8564
 344  470.4796
 345  260.9893
 346  382.4768
 347  666.4205
 348  525.8198
 349  701.2252
 350  939.7101
 351  777.4881
 352  311.2152
 353  172.9216
 354  234.4767
 355  469.7433
 356  350.9085
 357  591.3193
 358  783.7112
 359  690.3645
 360  750.0833
 361  618.7238
 362  558.0638
 363  308.0875
 364  131.0145
 365  283.7247
 366  394.3257
 367  541.8035
 368  642.739
 369  346.913
 370  508.2818
 371  566.4938
 372  446.6121
 373  378.7416
 374  391.2055
 375  313.4811
 376  329.4907
 377  522.9423
 378  535.271
 379  758.4398
 380  740.2848
 381  493.3835
 382  483.6829
 383  730.2619
 384  530.6035
 385  667.2723
 386  698.7532
 387  502.723
 388  498.8423
 389  191.7958
 390  354.8867
 391  820.0998
 392  1061.176
 393  678.6041
 394  639.3448
 395  651.8071
 396  461.0556
 397  349.679
 398  701.0795
 399  380.9154
 400  444.9073
 401  664.4938
 402  798.1793
 403  578.3439
 404  581.916
 405  731.0944
 406  964.1588
 407  609.3549
 408  585.2673
 409  545.7607
 410  472.4743
 411  723.5031
 412  722.5454
 413  611.6551
 414  390.9252
 415  391.558
 416  495.5448
 417  638.0538
 418  358.3242
 419  442.4029
 420  477.1924
 421  761.5636
 422  887.9205
 423  700.5506
 424  521.0392
 425  602.665
 426  946.0054
 427  766.4709
 428  600.0513
 429  300.7595
 430  527.1907
 431  576.7742
 432  643.0466
 433  640.2755
 434  790.4102
 435  1040.399
 436  840.0483
 437  660.5095
 438  630.9232
 439  877.1323
 440  764.6989
 441  967.1154
 442  797.3011
 443  643.5845
 444  599.5183
 445  467.1609
 446  442.8288
 447  612.0961
 448  491.7063
 449  721.4901
 450  327.3982
 451  376.1957
 452  488.6514
 453  422.2117
 454  429.4608
 455  605.9095
 456  660.8489
 457  606.7596
 458  755.6882
 459  454.7907
 460  611.0739
 461  737.3926
 462  523.0696
 463  715.6185
 464  1114.39
 465  751.5209
 466  531.1269
 467  712.6453
 468  842.2927
 469  881.8331
 470  690.5413
 471  490.3794
 472  259.1152
 473  375.3654
 474  611.0046
 475  617.4274
 476  663.1589
 477  850.156
 478  1000.075
 479  836.9978
 480  761.3265
 481  741.6292
 482  847.1602
 483  683.0037
 484  539.6052
 485  513.649
 486  679.6899
 487  674.8268
 488  697.1209
 489  622.9619
 490  670.2641
 491  688.2839
 492  521.4336
 493  463.4487
 494  628.5011
 495  558.3272
 496  107.315
 497  633.9171
 498  862.4963
 499  945.8925
 500  647.3582
 501  838.3974
 502  970.2028
 503  734.6326
 504  853.0721
 505  758.843
 506  751.8234
 507  628.0276
 508  848.9402
 509  853.0326
 510  577.4133
 511  454.4925
