# Input file       =  1203105821.111271_cleaned.dat
# Candidate        =  PSR_0332+5434
# Telescope        =  AR
# Epoch_topo       =  58168.836112398967
# Epoch_bary       =  N/A
# T_sample         =  0.002
# Data Folded      =  7340032
# Data Avg         =  0.0458038375924973
# Data StdDev      =  2.45372093221852 
# Profile Bins     =  512
# Profile Avg      =  655.806325273493 
# Profile StdDev   =  293.791457635753 
# Reduced chi-sqr  =  1.112
# Prob(Noise)      <  0.0403   (~1.7 sigma)
# P_topo (ms)      =  714.581091381856  +/- 0.000205
# P'_topo (s/s)    =  -0                +/- 1.08e-10
# P''_topo (s/s^2) =  0                 +/- 4.78e-14
# P_bary (ms)      =  N/A
# P'_bary (s/s)    =  N/A
# P''_bary (s/s^2) =  N/A
# P_orb (s)        =  N/A
# asin(i)/c (s)    =  N/A
# eccentricity     =  N/A
# w (rad)          =  N/A
# T_peri           =  N/A
######################################################
   0  1010.602
   1  794.8881
   2  579.5784
   3  631.933
   4  569.637
   5  529.0867
   6  807.7853
   7  726.4393
   8  381.6618
   9  664.1505
  10  824.8395
  11  691.7934
  12  408.2824
  13  718.5413
  14  468.5328
  15  432.822
  16  385.6729
  17  262.9405
  18  452.571
  19  506.4367
  20  581.3832
  21  652.1568
  22  581.9338
  23  535.2651
  24  580.4721
  25  695.903
  26  205.0146
  27  596.9053
  28  622.3794
  29  634.1049
  30  667.3139
  31  927.9161
  32  913.8914
  33  389.6747
  34  345.8191
  35  610.1335
  36  776.9684
  37  626.1623
  38  498.9981
  39  543.5988
  40  817.5132
  41  854.095
  42  1156.109
  43  929.2332
  44  743.712
  45  670.0773
  46  743.251
  47  630.0437
  48  577.9392
  49  880.1139
  50  655.2402
  51  350.9049
  52  727.1331
  53  825.447
  54  640.6304
  55  1134.188
  56  933.8842
  57  558.6902
  58  489.5435
  59  779.4073
  60  1072.635
  61  962.6044
  62  889.54
  63  632.6441
  64  474.4998
  65  779.6511
  66  759.0868
  67  442.243
  68  663.5742
  69  703.0153
  70  563.6338
  71  730.8419
  72  698.9915
  73  685.3708
  74  579.9653
  75  355.5334
  76  622.7996
  77  752.9197
  78  690.974
  79  367.8438
  80  442.3875
  81  612.4603
  82  679.8994
  83  444.1469
  84  528.3322
  85  359.1031
  86  603.655
  87  924.0184
  88  629.4639
  89  595.5898
  90  602.7823
  91  922.4343
  92  691.0489
  93  1052.589
  94  1093.131
  95  757.7829
  96  760.7736
  97  797.5692
  98  826.77
  99  768.4355
 100  467.4616
 101  643.0347
 102  918.2536
 103  708.5435
 104  648.8854
 105  438.814
 106  335.4197
 107  523.7372
 108  1225.788
 109  1044.358
 110  892.1855
 111  768.2065
 112  545.3266
 113  627.2783
 114  758.319
 115  672.4926
 116  619.6321
 117  662.4512
 118  591.8932
 119  384.3116
 120  596.5085
 121  578.2923
 122  790.8712
 123  777.8685
 124  590.6803
 125  534.1623
 126  521.085
 127  531.7771
 128  397.4429
 129  595.475
 130  893.348
 131  590.7454
 132  625.3112
 133  696.5167
 134  688.0129
 135  831.2686
 136  917.6809
 137  895.2634
 138  690.0356
 139  954.5903
 140  647.0405
 141  435.1594
 142  835.0112
 143  932.0353
 144  747.3287
 145  754.3046
 146  689.1288
 147  505.6755
 148  398.0057
 149  436.7335
 150  632.4611
 151  1003.874
 152  571.2802
 153  533.0562
 154  357.3743
 155  951.0073
 156  671.7161
 157  156.3082
 158  394.7985
 159  371.0441
 160  643.3796
 161  568.6873
 162  293.8579
 163  582.0771
 164  680.3248
 165  527.0261
 166  889.3708
 167  966.2621
 168  635.4724
 169  634.4294
 170  669.1474
 171  790.9736
 172  745.3771
 173  758.2691
 174  954.5107
 175  969.872
 176  824.6449
 177  737.2125
 178  908.6035
 179  830.3936
 180  836.4877
 181  883.306
 182  824.4864
 183  821.2419
 184  824.3475
 185  1019.943
 186  554.1251
 187  532.0616
 188  600.6771
 189  527.2543
 190  56.75622
 191  295.8955
 192  753.9626
 193  813.1241
 194  311.4847
 195  253.7894
 196  871.8492
 197  955.9186
 198  888.1439
 199  678.4066
 200  880.4536
 201  671.1342
 202  636.746
 203  527.5251
 204  543.6385
 205  782.387
 206  721.5522
 207  720.4642
 208  339.3174
 209  484.2347
 210  526.058
 211  737.7478
 212  1079.639
 213  874.3452
 214  442.1492
 215  682.9481
 216  723.394
 217  705.4816
 218  850.8875
 219  519.586
 220  614.8644
 221  836.4343
 222  949.1979
 223  984.8746
 224  785.478
 225  747.3743
 226  850.0934
 227  542.7276
 228  381.7401
 229  706.2649
 230  761.822
 231  637.5706
 232  493.5612
 233  723.0051
 234  602.7599
 235  495.1376
 236  811.9286
 237  896.454
 238  983.9611
 239  1007.135
 240  634.7518
 241  668.5076
 242  1111.004
 243  1165.685
 244  570.5479
 245  839.8362
 246  914.9887
 247  561.6356
 248  263.4802
 249  233.8635
 250  695.5975
 251  822.5056
 252  975.6688
 253  686.1468
 254  811.4684
 255  848.2814
 256  1229.065
 257  1592.961
 258  1671.729
 259  1883.49
 260  1687.267
 261  1563.438
 262  1105.237
 263  784.5027
 264  469.1705
 265  435.5562
 266  881.0281
 267  802.8796
 268  688.1141
 269  648.3163
 270  723.7632
 271  505.9508
 272  278.5982
 273  479.6265
 274  896.8843
 275  645.3433
 276  609.8739
 277  768.4337
 278  673.4092
 279  1109.128
 280  830.3601
 281  681.811
 282  717.9381
 283  874.0688
 284  626.3567
 285  596.3201
 286  820.8373
 287  1067
 288  913.7382
 289  910.5174
 290  757.1635
 291  457.5445
 292  433.8558
 293  409.2727
 294  524.8336
 295  348.0829
 296  405.4196
 297  538.7812
 298  448.5465
 299  217.9426
 300  480.627
 301  646.1607
 302  542.6736
 303  755.8054
 304  978.6723
 305  623.6891
 306  277.9252
 307  149.154
 308  298.5509
 309  494.7054
 310  349.3935
 311  670.1478
 312  791.7625
 313  643.1025
 314  782.1445
 315  524.6641
 316  584.9194
 317  213.4306
 318  186.1475
 319  287.2165
 320  404.8379
 321  609.233
 322  611.5135
 323  320.2091
 324  564.6042
 325  515.3038
 326  462.1239
 327  379.8881
 328  340.4154
 329  325.278
 330  337.7861
 331  558.2837
 332  593.0588
 333  786.1467
 334  699.7717
 335  423.5981
 336  528.5189
 337  723.6989
 338  525.0771
 339  726.6958
 340  654.1766
 341  497.476
 342  425.5752
 343  174.5943
 344  441.1854
 345  958.0675
 346  973.2171
 347  638.2252
 348  622.2386
 349  693.1581
 350  328.7133
 351  471.4905
 352  665.282
 353  350.3103
 354  473.2013
 355  745.6276
 356  752.621
 357  531.4327
 358  624.573
 359  816.2645
 360  903.7105
 361  550.5497
 362  602.2263
 363  506.5365
 364  520.4932
 365  760.1928
 366  715.4473
 367  562.8213
 368  345.6707
 369  418.7161
 370  515.7554
 371  628.1461
 372  304.7009
 373  511.0032
 374  483.4021
 375  865.0717
 376  811.0642
 377  681.4494
 378  478.0933
 379  696.5611
 380  957.2346
 381  693.4847
 382  552.4513
 383  278.8586
 384  603.2993
 385  572.2628
 386  679.5896
 387  640.9673
 388  857.1715
 389  1007.134
 390  805.6395
 391  601.4327
 392  731.7577
 393  856.2775
 394  788.1638
 395  954.4835
 396  748.0699
 397  640.5917
 398  586.4152
 399  454.615
 400  465.4496
 401  604.7542
 402  495.1727
 403  682.6924
 404  249.6342
 405  462.5013
 406  448.0829
 407  455.0785
 408  442.0692
 409  663.7248
 410  630.5799
 411  624.5107
 412  714.3376
 413  414.3156
 414  708.8359
 415  680.0696
 416  543.0535
 417  815.1802
 418  1069.331
 419  673.2245
 420  547.6042
 421  788.0972
 422  815.3119
 423  860.4525
 424  662.525
 425  434.5227
 426  258.1697
 427  430.6269
 428  610.4083
 429  651.5861
 430  661.1174
 431  912.8541
 432  984.3671
 433  810.6853
 434  763.4509
 435  745.4318
 436  846.9144
 437  614.9644
 438  530.2249
 439  519.0083
 440  724.4715
 441  669.5671
 442  724.8065
 443  580.7295
 444  726.2635
 445  627.8246
 446  523.3832
 447  419.1221
 448  697.6741
 449  424.1174
 450  168.5302
 451  709.8404
 452  913.8354
 453  888.8683
 454  639.1898
 455  921.818
 456  889.5663
 457  768.1047
 458  828.535
 459  764.2469
 460  708.0649
 461  678.2087
 462  866.9767
 463  846.0447
 464  479.6129
 465  467.7413
 466  628.944
 467  646.3572
 468  525.2465
 469  502.5627
 470  530.3339
 471  730.7625
 472  469.1177
 473  279.8104
 474  314.2762
 475  647.8224
 476  767.7437
 477  609.8915
 478  499.1511
 479  529.6068
 480  793.3147
 481  872.6481
 482  766.5808
 483  434.7784
 484  520.7463
 485  599.8326
 486  666.9412
 487  573.1357
 488  405.5682
 489  387.6075
 490  516.9214
 491  731.6957
 492  220.2349
 493  472.1768
 494  312.0891
 495  433.9795
 496  436.6316
 497  817.6229
 498  683.6412
 499  511.4287
 500  623.3412
 501  897.6221
 502  756.9125
 503  536.9695
 504  502.4795
 505  586.6223
 506  533.2785
 507  509.0826
 508  501.0883
 509  790.8907
 510  522.871
 511  456.4273
