# Input file       =  1203328409.099087_cleaned.dat
# Candidate        =  PSR_0332+5434
# Telescope        =  AR
# Epoch_topo       =  58171.412362257950
# Epoch_bary       =  N/A
# T_sample         =  0.002
# Data Folded      =  7208960
# Data Avg         =  0.500752479406286
# Data StdDev      =  5.59201747997119 
# Profile Bins     =  512
# Profile Avg      =  7050.84536917288 
# Profile StdDev   =  663.544185196398 
# Reduced chi-sqr  =  3.519
# Prob(Noise)      <  1.21e-142   (~25.4 sigma)
# P_topo (ms)      =  714.580703872953  +/- 1.63e-05
# P'_topo (s/s)    =  -0                +/- 8.74e-12
# P''_topo (s/s^2) =  0                 +/- 3.93e-15
# P_bary (ms)      =  N/A
# P'_bary (s/s)    =  N/A
# P''_bary (s/s^2) =  N/A
# P_orb (s)        =  N/A
# asin(i)/c (s)    =  N/A
# eccentricity     =  N/A
# w (rad)          =  N/A
# T_peri           =  N/A
######################################################
   0  6195.342
   1  5863.7
   2  6195.072
   3  6709.222
   4  7372.496
   5  8573.962
   6  9119.679
   7  8464.621
   8  7164.03
   9  6507.581
  10  6486.49
  11  6215.25
  12  6534.806
  13  6697.062
  14  7087.889
  15  7307.479
  16  6430.439
  17  5684.091
  18  5537.514
  19  5905.208
  20  6703.645
  21  7520.855
  22  8478.333
  23  8310.355
  24  7467.727
  25  6239.206
  26  5814.968
  27  5925.93
  28  6029.821
  29  6094.286
  30  6547.354
  31  6882.458
  32  6456.027
  33  5655.794
  34  5413.917
  35  5124.663
  36  5601.974
  37  6595.227
  38  7686.271
  39  8338.423
  40  7740.23
  41  6711.443
  42  5882.366
  43  5734.408
  44  5814.169
  45  5754.414
  46  6211.528
  47  6751.154
  48  6601.02
  49  6022.207
  50  5123.21
  51  5054.291
  52  5737.477
  53  6140.23
  54  6668.079
  55  7850.79
  56  7942.227
  57  6975.861
  58  6300.124
  59  5687.174
  60  5741.269
  61  5735.771
  62  6142.623
  63  6382.256
  64  6802.664
  65  6438.551
  66  5300.797
  67  5157.695
  68  5653.914
  69  6118.309
  70  6925.646
  71  8025.538
  72  8382.499
  73  8257.66
  74  6978.554
  75  6202.121
  76  5928.289
  77  5845.398
  78  6200.128
  79  6657.454
  80  7320.68
  81  7362.357
  82  6505.024
  83  5896.782
  84  5936.217
  85  6207.929
  86  7060.223
  87  7797.021
  88  8569.754
  89  8882.906
  90  8513.079
  91  7025.518
  92  6626.419
  93  6541.046
  94  6533.138
  95  6677.247
  96  7163.203
  97  7793.176
  98  7519.366
  99  6611.668
 100  5905.745
 101  6596.543
 102  7190.847
 103  7490.364
 104  8840.683
 105  9018.203
 106  8959.604
 107  7951.334
 108  7385.792
 109  7272.623
 110  7141.232
 111  7178.546
 112  7143.379
 113  7738.099
 114  7499.511
 115  6769.051
 116  6030.53
 117  6256.92
 118  7002.937
 119  7476.018
 120  8226.781
 121  8947.5
 122  9012.544
 123  8515.237
 124  7351.48
 125  7021.888
 126  6945.725
 127  7166.953
 128  7288.997
 129  7727.138
 130  7895.049
 131  7629.257
 132  6471.761
 133  6060.144
 134  6423.804
 135  6779.063
 136  7236.758
 137  8250.087
 138  9358.691
 139  9062.248
 140  8078.359
 141  6991.259
 142  6551.125
 143  6864.398
 144  6846.456
 145  6872.33
 146  7423.07
 147  7949.77
 148  7095.2
 149  6000.436
 150  5525.791
 151  6110.633
 152  6961.636
 153  8006.973
 154  8909.962
 155  9220.373
 156  8184.604
 157  6897.267
 158  6032.026
 159  6213.027
 160  6588.357
 161  6776.483
 162  7355.522
 163  7629.702
 164  6919.744
 165  5876.125
 166  5862.318
 167  6470.661
 168  6828.683
 169  7363.54
 170  8001.368
 171  8560.602
 172  8765.836
 173  7947.309
 174  6901.181
 175  6555.243
 176  6750.515
 177  6712.251
 178  6984.359
 179  7064.535
 180  7142.48
 181  6765.522
 182  6312.094
 183  6123.985
 184  6207.683
 185  6421.031
 186  7327.623
 187  8175.196
 188  8382.38
 189  8005.736
 190  6932.109
 191  6581.605
 192  6479.231
 193  6516.965
 194  6505.875
 195  6965.824
 196  7164.187
 197  6550.144
 198  6302.277
 199  6136.183
 200  6162.064
 201  6850.376
 202  7373.335
 203  8344.796
 204  8761.913
 205  8432.958
 206  7789.244
 207  6897.189
 208  6716.01
 209  6432.04
 210  6935.767
 211  7188.605
 212  7746.563
 213  7668.333
 214  6899.625
 215  6262.695
 216  5899.865
 217  6598.41
 218  7335.673
 219  7696.894
 220  8751.248
 221  9117.094
 222  8567.861
 223  7675.49
 224  6567.917
 225  6531.239
 226  6480.11
 227  6822.352
 228  7455.274
 229  7749.28
 230  7244.615
 231  6304.535
 232  5581.983
 233  6173.19
 234  6554.629
 235  7434.755
 236  8505.706
 237  8850.211
 238  8617.41
 239  7694.936
 240  7180.05
 241  6605.812
 242  6507.117
 243  6754.171
 244  6979.538
 245  7132.591
 246  7324.893
 247  7050.154
 248  6437
 249  6410.1
 250  6639.289
 251  7095.692
 252  7692.494
 253  8511.412
 254  8805.879
 255  8033.413
 256  7076.238
 257  6832.961
 258  6920.873
 259  6878.509
 260  6919.001
 261  7220.526
 262  7445.223
 263  7106.178
 264  6310.242
 265  5984.926
 266  6179.918
 267  6399.193
 268  7023.725
 269  7965.289
 270  8508.158
 271  7766.921
 272  7536.336
 273  6956.581
 274  6312.877
 275  6338.374
 276  6632.209
 277  6822.267
 278  7011.676
 279  7115.447
 280  6593.145
 281  6164.786
 282  5716.276
 283  6081.59
 284  7049.497
 285  7762.069
 286  8295.717
 287  8799.595
 288  8384.682
 289  7637.557
 290  6983.505
 291  6569.216
 292  6729.073
 293  6609.421
 294  6890.773
 295  7417.298
 296  7141.298
 297  6429.09
 298  5971.116
 299  6015.425
 300  6570.092
 301  7515.238
 302  8855.844
 303  9841.582
 304  10027.48
 305  9096.847
 306  8372.854
 307  7480.137
 308  7113.679
 309  6877.888
 310  7144.835
 311  7777.224
 312  7234.049
 313  6475.017
 314  5941.197
 315  5655.908
 316  6457.499
 317  6842.542
 318  7425.382
 319  8521.716
 320  8837.011
 321  8332.834
 322  7447.452
 323  6933.716
 324  6583.054
 325  6543.625
 326  6741.542
 327  6651.617
 328  7035.864
 329  6630.328
 330  5812.928
 331  5434.11
 332  5315.437
 333  5930.376
 334  6823.114
 335  7732.92
 336  8406.169
 337  8206.165
 338  7438.789
 339  6502.501
 340  5982.944
 341  6271.278
 342  6518.167
 343  6748.936
 344  7384.124
 345  7470.948
 346  6499.34
 347  5530.077
 348  5606.464
 349  6033.248
 350  6614.374
 351  7049.766
 352  8079.632
 353  8144.416
 354  7321.618
 355  7234.401
 356  6714.371
 357  6410.533
 358  6109.359
 359  6168.427
 360  6721.62
 361  7000.699
 362  7206.117
 363  6718.431
 364  5822.491
 365  5848.77
 366  6449.608
 367  6932.646
 368  7580.347
 369  8642.006
 370  8681.047
 371  7816.875
 372  6759.958
 373  6815.224
 374  6896.426
 375  6831.04
 376  6661.462
 377  7036.643
 378  7427.521
 379  6599.328
 380  6046.313
 381  6039.625
 382  6441.689
 383  6764.649
 384  7429.642
 385  8320.05
 386  8928.514
 387  8474.502
 388  7416.171
 389  7069.279
 390  6512.148
 391  6827.42
 392  6645.808
 393  6996.417
 394  7479
 395  7090.943
 396  6509.164
 397  6068.441
 398  6157.924
 399  6909.573
 400  7285.337
 401  7996.918
 402  8420.249
 403  8259.951
 404  7295.302
 405  6295.541
 406  6398.406
 407  6482.82
 408  6433.885
 409  6652.873
 410  7286.276
 411  7188.127
 412  6188.221
 413  5848.144
 414  5694.261
 415  6156.748
 416  6561.14
 417  7616.849
 418  8841.976
 419  9071.957
 420  8053.691
 421  6988.946
 422  6194.09
 423  6462.945
 424  6584.119
 425  6550.214
 426  7419.783
 427  7598.965
 428  7433.742
 429  6592.503
 430  5662.808
 431  5957.84
 432  6353.475
 433  7511.664
 434  7787.291
 435  8363.522
 436  8955.416
 437  7989.283
 438  6970.489
 439  6462.261
 440  6837.876
 441  6737.817
 442  6591.945
 443  7326.422
 444  7373.723
 445  6623.424
 446  5941.567
 447  5740.824
 448  5806.939
 449  6314.925
 450  7458.919
 451  8322.554
 452  8676.728
 453  8016.119
 454  7347.682
 455  6559.493
 456  6451.156
 457  6036.637
 458  6701.348
 459  7437.543
 460  7740.573
 461  7352.703
 462  6642.428
 463  6118.544
 464  6106.975
 465  6650.449
 466  6867.833
 467  8026.177
 468  8668.842
 469  8796.357
 470  8118.357
 471  7126.698
 472  6749.147
 473  6881.561
 474  6692.782
 475  6875.888
 476  7236.565
 477  7435.162
 478  6925
 479  6334.431
 480  6289.898
 481  6514.646
 482  7072.831
 483  7522.112
 484  8283.079
 485  8727.271
 486  8637.718
 487  7733.899
 488  7039.925
 489  6738.122
 490  6854.907
 491  7059.438
 492  7286.091
 493  7469.031
 494  7412.741
 495  6359.023
 496  5798.222
 497  6630.601
 498  7285.423
 499  7537.562
 500  8644.814
 501  9179.925
 502  9028.08
 503  7914.211
 504  7343.669
 505  6662.047
 506  6493.688
 507  6849.408
 508  7159.857
 509  7820.978
 510  7888.417
 511  6978.263
