# Input file       =  1203444197.101021_cleaned.dat
# Candidate        =  PSR_0332+5434
# Telescope        =  AR
# Epoch_topo       =  58172.752501169227
# Epoch_bary       =  N/A
# T_sample         =  0.002
# Data Folded      =  7340032
# Data Avg         =  0.0322900818971616
# Data StdDev      =  1.00006043921019 
# Profile Bins     =  512
# Profile Avg      =  462.976721895642 
# Profile StdDev   =  119.740272946918 
# Reduced chi-sqr  =  1.007
# Prob(Noise)      <  0.448   (~0.1 sigma)
# P_topo (ms)      =  714.581082875167  +/- 0.000775
# P'_topo (s/s)    =  -0                +/- 4.09e-10
# P''_topo (s/s^2) =  0                 +/- 1.81e-13
# P_bary (ms)      =  N/A
# P'_bary (s/s)    =  N/A
# P''_bary (s/s^2) =  N/A
# P_orb (s)        =  N/A
# asin(i)/c (s)    =  N/A
# eccentricity     =  N/A
# w (rad)          =  N/A
# T_peri           =  N/A
######################################################
   0  984.0043
   1  894.6629
   2  694.3489
   3  615.2693
   4  524.3818
   5  466.3962
   6  472.5875
   7  623.6478
   8  637.7119
   9  495.4281
  10  429.5115
  11  531.7126
  12  616.9033
  13  566.0313
  14  576.0829
  15  535.2418
  16  557.5153
  17  488.5607
  18  466.889
  19  641.7077
  20  526.0879
  21  518.1766
  22  509.6154
  23  523.2038
  24  565.3359
  25  568.2002
  26  427.7693
  27  386.0419
  28  483.3561
  29  371.2162
  30  327.7617
  31  420.4809
  32  498.8554
  33  453.7826
  34  363.0488
  35  454.9575
  36  399.4903
  37  450.5443
  38  578.491
  39  581.6161
  40  404.9987
  41  400.2787
  42  571.7906
  43  576.2818
  44  525.3767
  45  487.3194
  46  568.0178
  47  604.455
  48  443.8732
  49  398.1762
  50  370.552
  51  417.5159
  52  487.4297
  53  575.3067
  54  495.4883
  55  522.3041
  56  366.2207
  57  366.8658
  58  383.7507
  59  560.4163
  60  613.3908
  61  424.9277
  62  311.4914
  63  358.1137
  64  488.9746
  65  522.405
  66  505.1257
  67  380.1746
  68  456.5181
  69  455.9341
  70  386.6993
  71  416.0039
  72  476.899
  73  435.0706
  74  447.5972
  75  461.2076
  76  463.8979
  77  496.5802
  78  463.8747
  79  463.3541
  80  531.3151
  81  502.7525
  82  511.9521
  83  594.6899
  84  641.8859
  85  479.2521
  86  489.7527
  87  473.1586
  88  386.1046
  89  523.1203
  90  567.162
  91  382.6717
  92  385.6152
  93  455.5174
  94  555.5178
  95  565.6005
  96  482.2208
  97  414.3266
  98  414.1496
  99  468.3623
 100  553.8616
 101  581.3611
 102  575.712
 103  470.9189
 104  466.1457
 105  458.0043
 106  523.7469
 107  533.3687
 108  413.2
 109  447.6073
 110  499.9286
 111  422.4934
 112  406.4991
 113  457.2243
 114  541.7918
 115  556.3858
 116  528.1655
 117  512.9323
 118  468.6553
 119  434.8764
 120  503.7805
 121  416.8148
 122  352.3882
 123  435.1296
 124  497.5294
 125  548.6579
 126  490.0688
 127  492.7091
 128  399.1552
 129  355.7104
 130  403.9972
 131  496.5045
 132  383.454
 133  404.055
 134  449.2446
 135  447.6848
 136  456.3792
 137  390.5512
 138  273.9418
 139  339.0344
 140  507.6108
 141  427.3217
 142  401.6957
 143  452.0375
 144  493.4435
 145  446.8824
 146  433.5279
 147  521.4114
 148  488.4425
 149  434.0778
 150  394.6639
 151  469.1314
 152  428.1653
 153  375.0329
 154  390.91
 155  463.3234
 156  529.0679
 157  509.1418
 158  455.2578
 159  364.6359
 160  407.6696
 161  394.1441
 162  275.1481
 163  304.0172
 164  288.4654
 165  399.9447
 166  272.0667
 167  327.2191
 168  290.6458
 169  235.381
 170  301.7667
 171  433.4319
 172  355.735
 173  401.1583
 174  375.1754
 175  336.3968
 176  468.4386
 177  443.2222
 178  450.1315
 179  367.3942
 180  427.2479
 181  374.8335
 182  396.5015
 183  365.3997
 184  276.8474
 185  333.8882
 186  387.4915
 187  435.1595
 188  407.1769
 189  301.6221
 190  370.9125
 191  206.3452
 192  370.5357
 193  431.6052
 194  461.0772
 195  502.1776
 196  474.2663
 197  598.9133
 198  502.6459
 199  427.2708
 200  496.7473
 201  481.4452
 202  429.4949
 203  399.6305
 204  461.331
 205  396.0467
 206  368.6585
 207  493.2802
 208  466.2042
 209  447.0202
 210  473.2811
 211  491.9583
 212  503.4313
 213  496.4969
 214  493.5692
 215  463.6697
 216  532.8252
 217  481.1594
 218  511.1904
 219  569.562
 220  598.9569
 221  566.6848
 222  534.1898
 223  475.3909
 224  527.2084
 225  540.1423
 226  657.1908
 227  558.6187
 228  471.5896
 229  425.8811
 230  600.7464
 231  584.0786
 232  437.112
 233  406.49
 234  480.5889
 235  534.7725
 236  462.0578
 237  463.2642
 238  435.2114
 239  411.9489
 240  369.3203
 241  504.0352
 242  502.8698
 243  470.8829
 244  408.3241
 245  434.7217
 246  477.9398
 247  533.8997
 248  529.0637
 249  405.0366
 250  288.1021
 251  359.803
 252  561.1716
 253  480.0076
 254  378.8867
 255  356.0253
 256  348.7094
 257  405.5726
 258  492.6873
 259  613.0974
 260  450.1935
 261  308.8053
 262  306.2372
 263  439.5515
 264  531.9081
 265  625.0585
 266  660.9526
 267  601.3804
 268  533.4168
 269  562.6376
 270  539.4802
 271  475.8916
 272  595.4929
 273  650.3217
 274  419.6724
 275  354.768
 276  507.8823
 277  503.1747
 278  530.0291
 279  462.2463
 280  470.0684
 281  423.7193
 282  458.2499
 283  479.3678
 284  508.8296
 285  480.4255
 286  440.1983
 287  428.7092
 288  330.3157
 289  377.9348
 290  423.9505
 291  374.1253
 292  340.2928
 293  332.0938
 294  427.0575
 295  454.5263
 296  425.1606
 297  359.6287
 298  403.8162
 299  535.5644
 300  510.9572
 301  496.7151
 302  493.929
 303  585.3569
 304  422.4099
 305  424.3178
 306  458.3427
 307  529.9736
 308  439.6989
 309  482.8639
 310  451.2512
 311  558.4847
 312  467.235
 313  414.5691
 314  407.8303
 315  423.562
 316  549.3721
 317  487.6466
 318  381.5489
 319  380.4709
 320  517.0572
 321  527.9442
 322  363.6358
 323  412.9837
 324  418.2342
 325  446.9552
 326  585.1921
 327  534.9752
 328  451.2513
 329  387.3503
 330  408.3349
 331  379.0203
 332  480.8994
 333  555.7792
 334  531.2573
 335  501.5599
 336  538.3897
 337  481.6236
 338  498.5224
 339  578.3034
 340  456.421
 341  387.4391
 342  417.2494
 343  489.0075
 344  490.1485
 345  479.5122
 346  467.2877
 347  458.3722
 348  388.6774
 349  530.8049
 350  477.4298
 351  452.2603
 352  454.9757
 353  392.9528
 354  453.554
 355  415.0881
 356  440.6115
 357  521.5687
 358  436.3079
 359  457.3972
 360  543.3383
 361  528.1747
 362  537.1581
 363  394.5582
 364  427.3365
 365  460.2924
 366  534.1382
 367  418.1485
 368  464.2369
 369  483.09
 370  509.792
 371  463.9951
 372  453.8802
 373  404.3236
 374  362.3441
 375  367.0658
 376  358.7848
 377  381.9256
 378  479.1067
 379  532.1677
 380  378.3984
 381  432.2952
 382  419.2866
 383  372.2796
 384  316.8699
 385  374.8231
 386  545.7457
 387  482.7478
 388  523.1731
 389  485.9171
 390  432.6954
 391  481.2935
 392  566.924
 393  473.2437
 394  382.7857
 395  368.5552
 396  443.6807
 397  439.0664
 398  320.7023
 399  362.0966
 400  391.7846
 401  419.7399
 402  347.2929
 403  400.9415
 404  441.3358
 405  520.2103
 406  612.782
 407  516.2814
 408  458.6869
 409  487.27
 410  481.9388
 411  327.6863
 412  347.7163
 413  435.7334
 414  449.3666
 415  382.5271
 416  449.7065
 417  454.1235
 418  379.494
 419  392.2589
 420  415.5612
 421  456.137
 422  489.6388
 423  463.5143
 424  485.3219
 425  563.0612
 426  659.2372
 427  460.5032
 428  352.1842
 429  437.3316
 430  350.4503
 431  460.8251
 432  510.0311
 433  604.4438
 434  548.7801
 435  442.9721
 436  518.3443
 437  524.814
 438  431.8404
 439  522.7112
 440  417.3114
 441  410.0676
 442  346.8764
 443  424.6995
 444  308.7552
 445  379.4045
 446  441.4803
 447  458.184
 448  394.9472
 449  411.3266
 450  460.1461
 451  458.7042
 452  427.795
 453  381.0257
 454  450.4974
 455  428.1876
 456  448.8268
 457  433.5252
 458  336.8963
 459  514.8021
 460  468.507
 461  380.9021
 462  423.1813
 463  435.2238
 464  415.7923
 465  416.5572
 466  418.8772
 467  456.7795
 468  411.7993
 469  355.8795
 470  367.0803
 471  466.6405
 472  441.7611
 473  409.7037
 474  421.7771
 475  489.2589
 476  422.2285
 477  269.5967
 478  351.1552
 479  534.8403
 480  524.3783
 481  455.2106
 482  481.8344
 483  363.7262
 484  351.7365
 485  478.2305
 486  548.8142
 487  440.2553
 488  466.7555
 489  507.1197
 490  425.5052
 491  394.1473
 492  436.2333
 493  480.4874
 494  529.3022
 495  539.5172
 496  539.006
 497  493.691
 498  369.6982
 499  440.2137
 500  585.5419
 501  543.7018
 502  546.4925
 503  577.6866
 504  600.4672
 505  627.129
 506  637.2494
 507  669.5963
 508  578.598
 509  708.7877
 510  799.44
 511  834.8871
