# Input file       =  1203343110.089843_cleaned.dat
# Candidate        =  PSR_0332+5434
# Telescope        =  AR
# Epoch_topo       =  58171.582512613924
# Epoch_bary       =  N/A
# T_sample         =  0.002
# Data Folded      =  7340032
# Data Avg         =  0.0792051091027943
# Data StdDev      =  1.00041328825954 
# Profile Bins     =  512
# Profile Avg      =  1135.57093323988 
# Profile StdDev   =  119.78252063498  
# Reduced chi-sqr  =  1.523
# Prob(Noise)      <  2.04e-13   (~7.3 sigma)
# P_topo (ms)      =  714.580730703343  +/- 0.000861
# P'_topo (s/s)    =  -0                +/- 4.54e-10
# P''_topo (s/s^2) =  0                 +/- 2.01e-13
# P_bary (ms)      =  N/A
# P'_bary (s/s)    =  N/A
# P''_bary (s/s^2) =  N/A
# P_orb (s)        =  N/A
# asin(i)/c (s)    =  N/A
# eccentricity     =  N/A
# w (rad)          =  N/A
# T_peri           =  N/A
######################################################
   0  1170.481
   1  1103.212
   2  1171.673
   3  1263.29
   4  1260.42
   5  1225.888
   6  1149.06
   7  1158.115
   8  1107.991
   9  1093.073
  10  1101.987
  11  1220.818
  12  1227.388
  13  1187.46
  14  1117.313
  15  1117.975
  16  1063.572
  17  1080.33
  18  1105.387
  19  1096.507
  20  1100.347
  21  1092.736
  22  1110.143
  23  1102.411
  24  1092.736
  25  1067.961
  26  1004.462
  27  966.6578
  28  1035.882
  29  1123.465
  30  1141.628
  31  1031.664
  32  1004.779
  33  1010.218
  34  1099.928
  35  1089.716
  36  1067.239
  37  1148.566
  38  1149.44
  39  1130.829
  40  1042.545
  41  1009.979
  42  1077.05
  43  1114.096
  44  1108.432
  45  1178.559
  46  1202.847
  47  1174.921
  48  1177.009
  49  1128.518
  50  1154.932
  51  1154.432
  52  1210.51
  53  1247.392
  54  1253.101
  55  1234.14
  56  1200.514
  57  1175.372
  58  1133.689
  59  1208.797
  60  1203.327
  61  1131.388
  62  1194.444
  63  1128.117
  64  1172.296
  65  1172.502
  66  1146.123
  67  1190.197
  68  1220.435
  69  1219.341
  70  1219.493
  71  1164.338
  72  1258.041
  73  1323.381
  74  1361.845
  75  1413.862
  76  1434.056
  77  1397.556
  78  1403.124
  79  1343.439
  80  1376.381
  81  1313.27
  82  1349.89
  83  1419.153
  84  1466.419
  85  1470.498
  86  1429.719
  87  1360.363
  88  1359.153
  89  1411.917
  90  1370.263
  91  1281.134
  92  1270.73
  93  1236.252
  94  1260.942
  95  1341.438
  96  1389.193
  97  1411.239
  98  1443.596
  99  1361.784
 100  1323.017
 101  1373.965
 102  1519.163
 103  1604.142
 104  1562.473
 105  1572.43
 106  1540.752
 107  1485.461
 108  1469.562
 109  1277.272
 110  1281.005
 111  1339.207
 112  1337.838
 113  1313.78
 114  1238.967
 115  1171.659
 116  1223.614
 117  1206.953
 118  1257.035
 119  1329.237
 120  1260.873
 121  1253.184
 122  1307.924
 123  1279.931
 124  1230.812
 125  1214.371
 126  1201.289
 127  1148.89
 128  1227.868
 129  1173.198
 130  1197.79
 131  1118.289
 132  1142.266
 133  1093.766
 134  1126.471
 135  1180.422
 136  1174.714
 137  1112.659
 138  1192.499
 139  1166.278
 140  1116.872
 141  1190.655
 142  1187.816
 143  1131.227
 144  1189.244
 145  1170.69
 146  1148.946
 147  1129.046
 148  1156.634
 149  1150.28
 150  1108.601
 151  1090.218
 152  1120.481
 153  1095.143
 154  1052.296
 155  1139.875
 156  1161.096
 157  1170.38
 158  1154.269
 159  1149.425
 160  1220.119
 161  1220.237
 162  1171.113
 163  1162.149
 164  1256.266
 165  1286.221
 166  1258.2
 167  1165.813
 168  1284.121
 169  1264.137
 170  1203.999
 171  1185.786
 172  1245.746
 173  1233.411
 174  1179.921
 175  1196.138
 176  1197.943
 177  1202.789
 178  1164.108
 179  1173.38
 180  1108.743
 181  1088.13
 182  1098.973
 183  1102.803
 184  1112.324
 185  1096.449
 186  1046.897
 187  941.8126
 188  1051.108
 189  1115.168
 190  1078.233
 191  1009.614
 192  987.2796
 193  994.2581
 194  1016.38
 195  980.8626
 196  1010.743
 197  1071.888
 198  1070.012
 199  1031.102
 200  981.6398
 201  1003.66
 202  1034.678
 203  1009.601
 204  1041.496
 205  1064.011
 206  1077.428
 207  1072.807
 208  1074.116
 209  1091.929
 210  1072.653
 211  1084.396
 212  1144.34
 213  1091.525
 214  1086.859
 215  1078.529
 216  1128.94
 217  1142.946
 218  1089.836
 219  1024.667
 220  1026.26
 221  1028.909
 222  1114.968
 223  1042.785
 224  986.4153
 225  1069.858
 226  1101.644
 227  1052.302
 228  986.3558
 229  945.4516
 230  951.3968
 231  1000.236
 232  1081.517
 233  1132.938
 234  1102.56
 235  1080.499
 236  1005.827
 237  1017.924
 238  1094.538
 239  1116.691
 240  1102.426
 241  1108.497
 242  1005.997
 243  1008.912
 244  1074.296
 245  1097.096
 246  1081.667
 247  1059.174
 248  1031.726
 249  1027.419
 250  1034.915
 251  1054.589
 252  987.1122
 253  1021.712
 254  1079.929
 255  1026.463
 256  1021.456
 257  999.2904
 258  1003.988
 259  1011.521
 260  1030.906
 261  1080.624
 262  1055.679
 263  901.7153
 264  988.8868
 265  1068.444
 266  1046.629
 267  1068.536
 268  1087.956
 269  1013.895
 270  1076.217
 271  1125.162
 272  1132.85
 273  1098.443
 274  1046.504
 275  1153.107
 276  1180.35
 277  1126.838
 278  1119.461
 279  1106.705
 280  1131.234
 281  1122.108
 282  1129.115
 283  1106.681
 284  1057.101
 285  1098.759
 286  1111.877
 287  1148.331
 288  1085.397
 289  1018.739
 290  1010.99
 291  1032.693
 292  1158.072
 293  1150.04
 294  1115.963
 295  1182.433
 296  1124.113
 297  1089.581
 298  1062.92
 299  1039.602
 300  1076.148
 301  1049.385
 302  1034.734
 303  1019.027
 304  1006.716
 305  1002.599
 306  1007.222
 307  1047.111
 308  1149.072
 309  1090.41
 310  1096.98
 311  1051.459
 312  1174.792
 313  1194.76
 314  1151.812
 315  1161.083
 316  1175.936
 317  1132.855
 318  1091.023
 319  1060.17
 320  1020.255
 321  1071.477
 322  932.0019
 323  954.4618
 324  1024.499
 325  1072.356
 326  999.223
 327  1059.823
 328  1089.65
 329  1119.442
 330  1037.196
 331  1065.471
 332  1050.558
 333  963.4416
 334  984.0872
 335  1070.849
 336  1063.284
 337  1014.488
 338  935.5851
 339  996.9697
 340  1022.455
 341  1037.665
 342  1074.114
 343  998.512
 344  1043.422
 345  1062.094
 346  1035.441
 347  1078.896
 348  1121.362
 349  1067.199
 350  1016.805
 351  1061.485
 352  1016.136
 353  973.0905
 354  971.415
 355  1020.54
 356  1075.692
 357  1108.722
 358  1080.202
 359  998.4981
 360  972.4398
 361  1054.535
 362  1018.611
 363  1056.64
 364  1003.042
 365  1077.17
 366  1077.142
 367  1070.03
 368  1098.44
 369  1099.609
 370  1134.308
 371  1094.629
 372  1173.34
 373  1147.053
 374  1164.482
 375  1121.629
 376  1099.558
 377  1056.502
 378  1107.985
 379  1148.761
 380  1114.097
 381  1089.882
 382  1118.608
 383  1088.058
 384  1112.444
 385  1063.391
 386  1066.809
 387  1140.831
 388  1143.812
 389  1110.491
 390  1124.313
 391  1101.83
 392  1085.679
 393  1086.663
 394  1019.894
 395  1091.632
 396  1161.288
 397  1228.676
 398  1139.943
 399  1078.504
 400  1080.619
 401  1163.292
 402  1139.327
 403  1095.707
 404  1091.123
 405  1099.484
 406  1055.667
 407  1075.177
 408  1109.364
 409  1131.117
 410  1253.686
 411  1250.348
 412  1236.869
 413  1213.365
 414  1210.505
 415  1155.759
 416  1172.075
 417  1263.225
 418  1256.532
 419  1231.063
 420  1241.066
 421  1148.848
 422  1178.998
 423  1204.606
 424  1172.163
 425  1103.413
 426  1107.835
 427  1129.412
 428  1140.338
 429  1216.135
 430  1190.917
 431  1223.073
 432  1144.458
 433  1070.382
 434  1146.813
 435  1117.569
 436  1072.064
 437  1065.012
 438  1126.952
 439  1066.608
 440  1063.451
 441  1054.764
 442  985.9881
 443  953.9719
 444  988.92
 445  1136.138
 446  1126.035
 447  1093.733
 448  1090.233
 449  1074.09
 450  1033.154
 451  1091.945
 452  1102.029
 453  1122.313
 454  1214.088
 455  1154.253
 456  1114.133
 457  989.0938
 458  1034.411
 459  1148.027
 460  1101.951
 461  1050.794
 462  1096.547
 463  1082.6
 464  1130.763
 465  1053.163
 466  1097.048
 467  1103.798
 468  1149.739
 469  1160.074
 470  1166.918
 471  1155.497
 472  1086.749
 473  1143.657
 474  1170.382
 475  1133.442
 476  1035.497
 477  1116.744
 478  1238.584
 479  1192.729
 480  1171.59
 481  1219.088
 482  1228.051
 483  1211.17
 484  1153.394
 485  1123.164
 486  1185.561
 487  1154.541
 488  1182.749
 489  1148.113
 490  1174.511
 491  1168.358
 492  1138.794
 493  1147.078
 494  1130.156
 495  1091.373
 496  1110.759
 497  1236.659
 498  1241.068
 499  1244.325
 500  1248.789
 501  1191.88
 502  1183.294
 503  1232.863
 504  1249.492
 505  1174.253
 506  1206.084
 507  1287.639
 508  1237.277
 509  1122.815
 510  1148.705
 511  1188.61
