# Input file       =  1203090916.122294_cleaned.dat
# Candidate        =  PSR_0332+5434
# Telescope        =  AR
# Epoch_topo       =  58168.663600952474
# Epoch_bary       =  N/A
# T_sample         =  0.002
# Data Folded      =  7340032
# Data Avg         =  0.326154452958561
# Data StdDev      =  5.32634595220811 
# Profile Bins     =  256
# Profile Avg      =  9352.43819432006 
# Profile StdDev   =  901.899954319243 
# Reduced chi-sqr  =  1.354
# Prob(Noise)      <  0.00014   (~3.6 sigma)
# P_topo (ms)      =  714.580705570421  +/- 0.000512
# P'_topo (s/s)    =  -0                +/- 2.7e-10
# P''_topo (s/s^2) =  0                 +/- 1.19e-13
# P_bary (ms)      =  N/A
# P'_bary (s/s)    =  N/A
# P''_bary (s/s^2) =  N/A
# P_orb (s)        =  N/A
# asin(i)/c (s)    =  N/A
# eccentricity     =  N/A
# w (rad)          =  N/A
# T_peri           =  N/A
######################################################
   0  9678.096
   1  8918.012
   2  9544.81
   3  9429.615
   4  9128.343
   5  10260.9
   6  9432.168
   7  9265.213
   8  10033.73
   9  10598.98
  10  10754.28
  11  10760.38
  12  10569.06
  13  10950.25
  14  11166.46
  15  10662.88
  16  10430.07
  17  9845.707
  18  9728.111
  19  9387.819
  20  8847.519
  21  10123.18
  22  10051.21
  23  9518.844
  24  9327.905
  25  8837.291
  26  9280.524
  27  9457.562
  28  9749.757
  29  8932.738
  30  9519.723
  31  9669.555
  32  9261.767
  33  9279.412
  34  9268.703
  35  9688.637
  36  9357.881
  37  8943.982
  38  9839.358
  39  10052.01
  40  9219.579
  41  9455.427
  42  9347.089
  43  9401.893
  44  9026.399
  45  9870.013
  46  9346.259
  47  9380.523
  48  9229.782
  49  8472.451
  50  7857.116
  51  8324.588
  52  8621.786
  53  7247.842
  54  8466.293
  55  8980.548
  56  7843.71
  57  8651.561
  58  8719.615
  59  8336.133
  60  8790.558
  61  8898.739
  62  8679.848
  63  9030.412
  64  9078.075
  65  9599.896
  66  9444.569
  67  9233.481
  68  9067.344
  69  8339.062
  70  8327.585
  71  8971.859
  72  8857.301
  73  9308.899
  74  8321.657
  75  9749.15
  76  10543.25
  77  9955.798
  78  9359.281
  79  8847.404
  80  9499.902
  81  9412.345
  82  8472.326
  83  8729.801
  84  8902.812
  85  9396.237
  86  8861.317
  87  8056.067
  88  8720.324
  89  9049.623
  90  9118.079
  91  9466.779
  92  9974.983
  93  8934.868
  94  9134.651
  95  9036.909
  96  9125.455
  97  8509.182
  98  8047.156
  99  8229.27
 100  8668.854
 101  8329.727
 102  9047.25
 103  8827.644
 104  9549.876
 105  9151.794
 106  9789.582
 107  9067.773
 108  8907.162
 109  8372.365
 110  8161.01
 111  8274.926
 112  7572.056
 113  8258.429
 114  7799.408
 115  8580.731
 116  9195.323
 117  9343.396
 118  9671.208
 119  10027.84
 120  9602.837
 121  9536.963
 122  9275.534
 123  9524.815
 124  9479.82
 125  9210.91
 126  8560.699
 127  8796.791
 128  9422.875
 129  10525.91
 130  9984.977
 131  10077.56
 132  10665.51
 133  10828.39
 134  10483.52
 135  10226.24
 136  9785.782
 137  8881.352
 138  9018.389
 139  8444.812
 140  8358.12
 141  8519.834
 142  9029.47
 143  9279.11
 144  9672.839
 145  9740.33
 146  9782.674
 147  9674.995
 148  10522.95
 149  10868.81
 150  11444.51
 151  11579.77
 152  12798.6
 153  12441.52
 154  10910.97
 155  9660.984
 156  9604.639
 157  9766.06
 158  9915.366
 159  10302.41
 160  10907.78
 161  10490.52
 162  9394.244
 163  9704.862
 164  9908.777
 165  9914.603
 166  9333.409
 167  9972.104
 168  10056.88
 169  10586.65
 170  10983.41
 171  11632.02
 172  11958.17
 173  11098.62
 174  11194.52
 175  11545.74
 176  10940.25
 177  10790.8
 178  10795.9
 179  10728.15
 180  10764.18
 181  10811.79
 182  10385.28
 183  11027.92
 184  10596.53
 185  10578.32
 186  9858.919
 187  10331.32
 188  9838.206
 189  8565.595
 190  9436.85
 191  8913.353
 192  8386.384
 193  8685.522
 194  8846.104
 195  8846.372
 196  9203.759
 197  9469.085
 198  9421.622
 199  8836.481
 200  9161.446
 201  8890.173
 202  8006.504
 203  8494.491
 204  8792.149
 205  8196.425
 206  8652.103
 207  9157.208
 208  9170.045
 209  8996.47
 210  9040.271
 211  9855.065
 212  10220.39
 213  10352.25
 214  10372.36
 215  9825.675
 216  8845.297
 217  9435.789
 218  9518.586
 219  8795.33
 220  8463.657
 221  8260.944
 222  8466.725
 223  8219.021
 224  8331.964
 225  8604.031
 226  8358.476
 227  8254.485
 228  8250.196
 229  8392.334
 230  7669.931
 231  8643.457
 232  8577.872
 233  8882.203
 234  8163.12
 235  8255.861
 236  8507.371
 237  8128.859
 238  8387.937
 239  9170.335
 240  9011.838
 241  8757.022
 242  8833.579
 243  9023.505
 244  8736.061
 245  8730.415
 246  8394.058
 247  8362.056
 248  8336.325
 249  8627.504
 250  8378.875
 251  7913.224
 252  9266.979
 253  8316.377
 254  8923.092
 255  8868.158
