# Input file       =  1203170730.198393_cleaned.dat
# Candidate        =  PSR_0332+5434
# Telescope        =  AR
# Epoch_topo       =  58169.587374981398
# Epoch_bary       =  N/A
# T_sample         =  0.002
# Data Folded      =  7340032
# Data Avg         =  -0.076989762985395
# Data StdDev      =  1.00027862546736 
# Profile Bins     =  512
# Profile Avg      =  -1103.7002617448 
# Profile StdDev   =  119.766397049985 
# Reduced chi-sqr  =  0.517
# Prob(Noise)      <  1   (~0.0 sigma)
# P_topo (ms)      =  714.580647650038  +/- 0.000864
# P'_topo (s/s)    =  -0                +/- 4.56e-10
# P''_topo (s/s^2) =  0                 +/- 2.01e-13
# P_bary (ms)      =  N/A
# P'_bary (s/s)    =  N/A
# P''_bary (s/s^2) =  N/A
# P_orb (s)        =  N/A
# asin(i)/c (s)    =  N/A
# eccentricity     =  N/A
# w (rad)          =  N/A
# T_peri           =  N/A
######################################################
   0  -1102.2
   1  -1148.04
   2  -1122.583
   3  -1199.078
   4  -1192.371
   5  -1204.35
   6  -1169.2
   7  -1113.24
   8  -1093.978
   9  -1145.477
  10  -1177.16
  11  -1154.284
  12  -1140.08
  13  -1135.821
  14  -1145.63
  15  -1131.414
  16  -1186.885
  17  -1136.025
  18  -1095.126
  19  -1060.634
  20  -1134.737
  21  -1127.878
  22  -1096.283
  23  -1143.073
  24  -1082.187
  25  -1131.331
  26  -1174.087
  27  -1170.585
  28  -1175.098
  29  -1061.018
  30  -1088.77
  31  -1100.063
  32  -1144.248
  33  -1113.727
  34  -1140.714
  35  -1108.122
  36  -1146.181
  37  -1180.113
  38  -1175.23
  39  -1220.171
  40  -1161.767
  41  -1091.493
  42  -1079.256
  43  -1043.475
  44  -1022.528
  45  -988.8328
  46  -1059.162
  47  -1060.252
  48  -1069.041
  49  -1089.798
  50  -991.2457
  51  -1004.29
  52  -1001.342
  53  -1009.905
  54  -1075.035
  55  -1055.095
  56  -1004.906
  57  -1070.288
  58  -1086.64
  59  -1070.094
  60  -1115.21
  61  -1136.34
  62  -1108.363
  63  -1041.933
  64  -1041.21
  65  -1089.427
  66  -1050.163
  67  -1015.116
  68  -996.8518
  69  -1083.365
  70  -1103.655
  71  -1125.651
  72  -1112.081
  73  -1077.195
  74  -1061.94
  75  -1148.42
  76  -1136.161
  77  -1136.447
  78  -1063.785
  79  -1106.922
  80  -1145.235
  81  -1183.72
  82  -1207.971
  83  -1204.271
  84  -1177.759
  85  -1121.807
  86  -1155.042
  87  -1171.614
  88  -1188.269
  89  -1163.223
  90  -1102.84
  91  -1152.661
  92  -1134.491
  93  -1047.38
  94  -1108.146
  95  -1174.608
  96  -1157.631
  97  -1098.908
  98  -1134.331
  99  -1188.293
 100  -1133.349
 101  -1121.073
 102  -1106.037
 103  -1175.208
 104  -1132.174
 105  -1154.55
 106  -1120.365
 107  -1104.72
 108  -1183.556
 109  -1202.511
 110  -1173.818
 111  -1189.427
 112  -1169.595
 113  -1109.653
 114  -1131.396
 115  -1100.823
 116  -1180.364
 117  -1177.259
 118  -1158.98
 119  -1163.229
 120  -1209.447
 121  -1229.815
 122  -1270.07
 123  -1123.949
 124  -1217.626
 125  -1253.363
 126  -1156.376
 127  -1184.439
 128  -1161.447
 129  -1145.381
 130  -1133.877
 131  -1085.469
 132  -1043.959
 133  -1098.039
 134  -1058.846
 135  -1056.72
 136  -1055.274
 137  -1116.679
 138  -1095.982
 139  -1035.119
 140  -1030.459
 141  -1050.036
 142  -999.4836
 143  -1036.388
 144  -1150.704
 145  -1091.758
 146  -1068.828
 147  -1054.816
 148  -971.3183
 149  -1051.957
 150  -1107.963
 151  -1096.731
 152  -1124.986
 153  -1150.033
 154  -1134.844
 155  -1140.006
 156  -1122.777
 157  -1118.678
 158  -1108.05
 159  -1030.265
 160  -1049.713
 161  -1102.863
 162  -992.3396
 163  -1030.076
 164  -1096.709
 165  -1104.345
 166  -1066.381
 167  -945.289
 168  -867.1826
 169  -843.053
 170  -916.6286
 171  -948.8611
 172  -1022.4
 173  -1112.892
 174  -1058.67
 175  -999.9703
 176  -1028.937
 177  -1007.939
 178  -985.2375
 179  -1027.896
 180  -1020.251
 181  -1002.575
 182  -1081.565
 183  -1046.684
 184  -1004.386
 185  -986.6455
 186  -1034.111
 187  -1121.38
 188  -1143.536
 189  -1196.69
 190  -1163.417
 191  -1159.532
 192  -1147.103
 193  -1087.502
 194  -1154.769
 195  -1150.674
 196  -1126.641
 197  -1156.232
 198  -1161.757
 199  -1133.954
 200  -1116.922
 201  -1161.947
 202  -1160.455
 203  -1158.316
 204  -1117.81
 205  -1121.323
 206  -1143.32
 207  -1150.383
 208  -1143.915
 209  -1178.053
 210  -1145.234
 211  -1104.261
 212  -1130.158
 213  -1136.414
 214  -1100.375
 215  -1106.701
 216  -1131.858
 217  -1146.055
 218  -1206.832
 219  -1272.188
 220  -1246.465
 221  -1221.638
 222  -1215.798
 223  -1201.143
 224  -1150.411
 225  -1192.901
 226  -1261.01
 227  -1211.934
 228  -1209.532
 229  -1223.065
 230  -1199.724
 231  -1236.597
 232  -1187.183
 233  -1144.007
 234  -1090.065
 235  -1173.435
 236  -1252.554
 237  -1203.258
 238  -1173.934
 239  -1137.116
 240  -1149.398
 241  -1147.915
 242  -1128.705
 243  -1159.836
 244  -1079.181
 245  -1094.666
 246  -1116.08
 247  -1099.875
 248  -1080.096
 249  -1051.971
 250  -1106.74
 251  -1124.667
 252  -1062.607
 253  -1045.126
 254  -1056.234
 255  -1117.415
 256  -1048.145
 257  -990.6379
 258  -1014.46
 259  -1065.29
 260  -1047.63
 261  -1053.035
 262  -1059.829
 263  -1060.205
 264  -1181.973
 265  -1164.14
 266  -1086.692
 267  -1047.685
 268  -1042.892
 269  -1057.165
 270  -1086.449
 271  -1115.123
 272  -1115.829
 273  -1137.406
 274  -1111.447
 275  -1104.46
 276  -996.3287
 277  -978.9321
 278  -1098.419
 279  -1122.214
 280  -1112.624
 281  -1078.842
 282  -1076.757
 283  -1064.383
 284  -1068.054
 285  -1035.791
 286  -1070.829
 287  -1160.41
 288  -1116.248
 289  -1107.072
 290  -1115.184
 291  -1097.483
 292  -1091.589
 293  -1121.286
 294  -1121.817
 295  -1042.37
 296  -1076.453
 297  -1116.094
 298  -963.4603
 299  -968.2499
 300  -981.7988
 301  -976.004
 302  -947.1608
 303  -977.2097
 304  -1015.704
 305  -1007.001
 306  -1032.083
 307  -1038.446
 308  -939.7998
 309  -925.3412
 310  -977.8691
 311  -978.793
 312  -969.1265
 313  -1023.157
 314  -1095.046
 315  -1060.031
 316  -1082.72
 317  -1022.225
 318  -973.3908
 319  -1028.37
 320  -1142.831
 321  -1093.404
 322  -1125.281
 323  -1145.386
 324  -1093.168
 325  -1069.838
 326  -1022.155
 327  -1095.137
 328  -1054.546
 329  -1032.871
 330  -1089.188
 331  -1125.62
 332  -1100.003
 333  -1041.82
 334  -1030.15
 335  -1134.318
 336  -1189.968
 337  -1111.631
 338  -1057.688
 339  -1075.304
 340  -1125.456
 341  -1056.393
 342  -1040.933
 343  -1170.412
 344  -1125.871
 345  -1091.586
 346  -1114.469
 347  -1114.891
 348  -1115.988
 349  -1070.844
 350  -1050.963
 351  -1049.26
 352  -1114.916
 353  -1125.228
 354  -1099.886
 355  -1083.43
 356  -1077.743
 357  -1052.615
 358  -1057.323
 359  -1029.113
 360  -1016.554
 361  -1064.208
 362  -1136.308
 363  -1181.374
 364  -1133.929
 365  -1131.539
 366  -1166.575
 367  -1134.601
 368  -1054.155
 369  -1057.563
 370  -1170.284
 371  -1199.382
 372  -1098.912
 373  -1046.074
 374  -1128.084
 375  -1115.548
 376  -1097.59
 377  -1108.48
 378  -1157.06
 379  -1201.505
 380  -1118.352
 381  -1126.162
 382  -1126.12
 383  -1148.472
 384  -1132.712
 385  -1118.931
 386  -1180.891
 387  -1182.302
 388  -1107.996
 389  -1105.766
 390  -1104.181
 391  -1077.359
 392  -1098.228
 393  -1097.515
 394  -1043.483
 395  -1045.158
 396  -1090.656
 397  -1069.609
 398  -1087.727
 399  -1114.133
 400  -1162.893
 401  -1137.085
 402  -1157.024
 403  -1139.403
 404  -1115.173
 405  -1111.812
 406  -1181.605
 407  -1134.394
 408  -1135.242
 409  -1140.776
 410  -1120.922
 411  -1140.517
 412  -1135.842
 413  -1137.366
 414  -1114.284
 415  -1118.393
 416  -1111.193
 417  -1162.198
 418  -1154.058
 419  -1132.188
 420  -1099.3
 421  -1016.657
 422  -1000.985
 423  -1012.375
 424  -1072.907
 425  -1152.987
 426  -1121.289
 427  -1069.247
 428  -1038.911
 429  -1037.772
 430  -1030.542
 431  -1038.106
 432  -1066.53
 433  -1043.675
 434  -1060.643
 435  -1017.295
 436  -1083.338
 437  -1080.486
 438  -1114.986
 439  -1145.173
 440  -1104.961
 441  -1009.024
 442  -1016.55
 443  -1045.044
 444  -1058.999
 445  -1111.424
 446  -1118.213
 447  -1051.839
 448  -1031.608
 449  -1051.725
 450  -1051.899
 451  -1144.814
 452  -1219.4
 453  -1147.487
 454  -1176.276
 455  -1143.507
 456  -1119.863
 457  -1053.704
 458  -1083.681
 459  -1059.997
 460  -1052.414
 461  -1056.192
 462  -1078.263
 463  -1110.4
 464  -1080.162
 465  -1083.863
 466  -1106.388
 467  -1128.324
 468  -1098.723
 469  -1085.088
 470  -1187.197
 471  -1160.669
 472  -1155.94
 473  -1155.557
 474  -1131.807
 475  -1147.086
 476  -1106.967
 477  -1066.073
 478  -1050.737
 479  -1117.331
 480  -1180.436
 481  -1164.481
 482  -1106.823
 483  -1122.122
 484  -1132.797
 485  -1143.411
 486  -1133.513
 487  -1152.419
 488  -1148.128
 489  -1193.039
 490  -1130.835
 491  -1136.199
 492  -1094.591
 493  -1085.471
 494  -1121.382
 495  -1099.473
 496  -1130.407
 497  -1149.167
 498  -1175.158
 499  -1138.355
 500  -1126.182
 501  -1170.869
 502  -1121.001
 503  -1080.276
 504  -1023.503
 505  -1059.791
 506  -1077.279
 507  -1039.607
 508  -1090.318
 509  -1148.655
 510  -1188.643
 511  -1107.956
