# Input file       =  1203698822.10975_cleaned.dat
# Candidate        =  PSR_0332+5434
# Telescope        =  AR
# Epoch_topo       =  58175.699549881363
# Epoch_bary       =  N/A
# T_sample         =  0.002
# Data Folded      =  7340032
# Data Avg         =  0.420952941578955
# Data StdDev      =  8.29710585442649 
# Profile Bins     =  512
# Profile Avg      =  6034.89891257805 
# Profile StdDev   =  993.437677089926 
# Reduced chi-sqr  =  1.619
# Prob(Noise)      <  2.45e-17   (~8.4 sigma)
# P_topo (ms)      =  714.580908678077  +/- 0.00019
# P'_topo (s/s)    =  -0                +/- 1e-10
# P''_topo (s/s^2) =  0                 +/- 4.42e-14
# P_bary (ms)      =  N/A
# P'_bary (s/s)    =  N/A
# P''_bary (s/s^2) =  N/A
# P_orb (s)        =  N/A
# asin(i)/c (s)    =  N/A
# eccentricity     =  N/A
# w (rad)          =  N/A
# T_peri           =  N/A
######################################################
   0  4966.758
   1  4681.549
   2  5252.346
   3  5395.933
   4  5590.032
   5  5860.529
   6  6445.139
   7  6545.375
   8  6188.835
   9  6112.863
  10  6122.62
  11  6210.888
  12  5989.764
  13  5923.427
  14  6068.463
  15  6171.031
  16  5943.859
  17  5898.334
  18  5835.583
  19  5626.174
  20  5771.206
  21  6059.128
  22  5426.548
  23  5553.311
  24  5813.408
  25  5648.171
  26  5672.725
  27  5586.869
  28  5740.244
  29  5494.954
  30  5279.279
  31  6030.04
  32  6441.681
  33  6217.63
  34  6090.765
  35  5705.638
  36  5196.547
  37  4926.047
  38  5096.308
  39  5236.041
  40  5272.813
  41  5069.341
  42  5203.651
  43  5093.652
  44  4977.348
  45  5200.473
  46  5253.556
  47  4837.614
  48  5006.33
  49  5414.923
  50  5098.924
  51  5178.779
  52  5707.223
  53  5919.801
  54  5251.271
  55  5206.836
  56  5381.429
  57  5315.719
  58  5295.312
  59  5285.015
  60  5214.425
  61  5309.879
  62  5506.685
  63  6004.975
  64  5837.97
  65  5981.877
  66  6013.799
  67  6285.096
  68  6769.541
  69  7021.102
  70  6705.182
  71  6744.87
  72  6847.07
  73  6966.286
  74  6883.8
  75  7116.174
  76  7222.951
  77  7070.935
  78  7420.61
  79  8107.48
  80  8037.177
  81  8240.135
  82  7633.41
  83  7507.493
  84  7815.76
  85  8364.669
  86  8648.16
  87  8765.607
  88  9696.892
  89  9810.596
  90  9299.002
  91  8361.231
  92  7817.855
  93  7006.367
  94  6927.301
  95  6962.441
  96  6837.019
  97  6733.567
  98  6460.297
  99  6178.871
 100  5861.242
 101  5987.171
 102  5816.407
 103  5699.501
 104  6043.238
 105  6067.308
 106  5723.527
 107  5411.112
 108  5354.684
 109  5291.245
 110  5466.054
 111  5521.72
 112  5635.685
 113  5501.49
 114  5552.635
 115  5623.738
 116  5659.118
 117  5243.749
 118  5231.133
 119  5400.808
 120  5634.118
 121  5580.41
 122  5729.3
 123  5280.689
 124  4617.403
 125  4605.722
 126  4861.096
 127  5017.414
 128  5206.787
 129  5302.652
 130  5265.819
 131  4731.614
 132  4596.975
 133  4657.076
 134  4752.957
 135  4748.945
 136  5142.048
 137  4865.145
 138  5520.024
 139  5427.901
 140  5101.802
 141  4987.157
 142  4801.917
 143  5364.118
 144  5148.833
 145  5527.727
 146  5899.755
 147  5841.906
 148  5852.388
 149  6350.447
 150  6529.684
 151  6356.489
 152  6485.85
 153  7068.175
 154  7502.442
 155  7251.168
 156  7669.384
 157  7893.183
 158  7493.215
 159  7856.808
 160  7705.635
 161  7183.971
 162  6748.059
 163  7119.357
 164  7632.724
 165  7220.66
 166  7276.156
 167  6832.592
 168  6642.127
 169  6592.436
 170  6342.517
 171  6435.279
 172  6148.998
 173  5547.026
 174  5455.996
 175  5752.698
 176  5617.621
 177  5662.579
 178  5710.862
 179  6021.073
 180  6076.089
 181  5669.888
 182  5631.253
 183  5603.417
 184  5512.248
 185  6059.018
 186  6145.066
 187  6205.718
 188  5943.98
 189  6066.371
 190  5931.816
 191  5685.021
 192  5781.506
 193  5567.921
 194  5681.152
 195  5662.351
 196  6122.628
 197  5694.122
 198  5358.893
 199  5038.793
 200  5245.05
 201  5682.398
 202  6176.893
 203  6043.913
 204  5725.927
 205  5474.152
 206  5521.662
 207  5627.039
 208  5927.662
 209  6021.063
 210  5461.729
 211  5286.129
 212  5635.973
 213  5348.255
 214  5305.879
 215  5248.553
 216  5714.316
 217  5963.73
 218  5560.081
 219  5402.733
 220  5361.889
 221  5704.273
 222  6078.704
 223  5952.512
 224  6173.237
 225  6472.191
 226  6677.322
 227  6413.339
 228  6407.705
 229  6331.059
 230  6714.678
 231  7316.691
 232  7349.109
 233  7260.752
 234  7202.925
 235  7243.243
 236  7053.108
 237  6916.044
 238  7222.269
 239  7222.236
 240  7038.392
 241  6809.934
 242  6394.835
 243  6410.701
 244  6283.162
 245  6476.807
 246  6634.449
 247  6660.799
 248  6283.618
 249  6222.464
 250  6416.333
 251  6670.96
 252  6534.491
 253  6103.557
 254  6281.505
 255  6231.409
 256  6433.792
 257  6300.43
 258  5839.552
 259  5735.674
 260  5910.172
 261  5670.678
 262  5885.789
 263  5420.041
 264  5580.407
 265  5422.296
 266  4874.037
 267  4910.541
 268  4502.36
 269  4519.718
 270  5000.896
 271  5414.994
 272  5364.891
 273  4822.595
 274  4869.112
 275  5006.137
 276  4924.123
 277  4933.891
 278  4903.723
 279  4645.824
 280  5252.755
 281  5031.857
 282  5271.07
 283  5260.673
 284  5036.311
 285  4941.177
 286  5502.623
 287  5765.396
 288  5909.812
 289  6115.982
 290  5894.967
 291  5965.304
 292  6234.612
 293  6797.626
 294  7033.668
 295  6605.93
 296  7038.568
 297  7477.111
 298  7299.168
 299  7146.771
 300  7265.044
 301  7114.277
 302  6674.56
 303  6484.307
 304  6895.273
 305  6866.61
 306  6910.84
 307  7359.33
 308  7031.705
 309  6696.243
 310  6735.528
 311  6979.648
 312  7412.317
 313  6955.879
 314  6849.607
 315  6576.914
 316  6278.657
 317  5935.574
 318  5708.56
 319  6271.495
 320  6778.536
 321  6865.751
 322  6735.515
 323  6561.458
 324  6820
 325  6563.039
 326  6580.806
 327  6737.557
 328  6763.352
 329  6407.754
 330  6268.552
 331  6237.821
 332  6350.585
 333  6679.702
 334  6624.581
 335  6740.292
 336  6779.834
 337  6918.12
 338  6342.797
 339  6145.05
 340  6313.669
 341  5876.137
 342  6063.017
 343  5939.744
 344  5881.909
 345  5563.502
 346  5534.84
 347  6048.59
 348  5908.093
 349  5467.477
 350  5508.136
 351  5569.911
 352  5655.713
 353  5426.015
 354  5711.693
 355  5730.882
 356  5642.419
 357  5178.323
 358  5932.191
 359  6168.297
 360  6133.173
 361  6600.683
 362  6809.237
 363  6861.227
 364  6584.161
 365  6978.667
 366  7196.014
 367  7103.191
 368  7250.062
 369  7626.194
 370  7642.975
 371  7930.52
 372  8051.361
 373  7772.068
 374  7494.519
 375  7489.523
 376  7448.675
 377  8040.462
 378  8183.913
 379  8081.595
 380  7842.795
 381  7576.331
 382  7549.067
 383  7050.966
 384  6876.042
 385  7293.637
 386  7160.621
 387  7343.061
 388  7419.583
 389  7008.031
 390  6813.382
 391  6555.54
 392  6199.152
 393  6057.683
 394  6162.858
 395  6312.964
 396  5967.544
 397  5697.355
 398  5573.153
 399  5784.647
 400  5659.281
 401  5527.079
 402  5773.807
 403  5463.428
 404  5504.554
 405  5445.02
 406  5335.771
 407  5487.191
 408  4971.481
 409  4941.941
 410  4862.5
 411  5155.183
 412  4955.714
 413  5268.618
 414  5534.934
 415  5202.773
 416  5016.837
 417  4808.738
 418  4684.106
 419  4730.296
 420  4565.841
 421  4827.227
 422  4971.528
 423  4996.19
 424  4891.104
 425  4628.988
 426  4851.209
 427  4982.079
 428  4615.188
 429  4997.76
 430  4894.457
 431  4919.197
 432  5490.958
 433  5401.547
 434  5652.498
 435  5556.438
 436  5414.874
 437  6187.728
 438  5604.452
 439  5677.08
 440  5641.881
 441  5699.17
 442  5648.607
 443  5725.229
 444  5812.658
 445  6467.644
 446  6686.693
 447  6758.306
 448  6862.728
 449  6657.686
 450  6633.684
 451  7232.422
 452  7259.272
 453  6924.615
 454  7705.146
 455  8058.272
 456  7723.447
 457  7409.514
 458  6932.87
 459  7053.065
 460  6903.014
 461  6819.255
 462  6504.543
 463  6597.526
 464  6186.874
 465  6095.856
 466  6341.926
 467  6503.952
 468  6249.811
 469  5823.396
 470  5751.623
 471  5663.27
 472  5690.18
 473  5629.123
 474  5537.556
 475  5418.095
 476  5268.342
 477  4950.449
 478  5177.232
 479  5152.315
 480  4784.817
 481  5151.005
 482  5055.238
 483  5078.301
 484  5400.447
 485  5399.684
 486  5274.36
 487  5111.732
 488  5071.31
 489  5071.686
 490  4744.667
 491  4415.104
 492  4459.355
 493  4501.35
 494  4592.32
 495  4912.088
 496  4946.06
 497  4727.118
 498  4877.029
 499  4633.864
 500  4807.22
 501  4902.957
 502  5294.975
 503  5415.361
 504  5204.009
 505  4728.872
 506  4656.601
 507  5180.742
 508  5352.924
 509  5414.627
 510  5234.294
 511  5311.398
