# Input file       =  1203956956.133537_cleaned.dat
# Candidate        =  PSR_0332+5434
# Telescope        =  AR
# Epoch_topo       =  58178.687212193719
# Epoch_bary       =  N/A
# T_sample         =  0.002
# Data Folded      =  7340032
# Data Avg         =  0.0451998987152658
# Data StdDev      =  1.00019112797929 
# Profile Bins     =  512
# Profile Avg      =  647.96791520716  
# Profile StdDev   =  119.755920710063 
# Reduced chi-sqr  =  0.765
# Prob(Noise)      <  1   (~0.0 sigma)
# P_topo (ms)      =  714.58067394411   +/- 0.000535
# P'_topo (s/s)    =  -0                +/- 2.82e-10
# P''_topo (s/s^2) =  0                 +/- 1.25e-13
# P_bary (ms)      =  N/A
# P'_bary (s/s)    =  N/A
# P''_bary (s/s^2) =  N/A
# P_orb (s)        =  N/A
# asin(i)/c (s)    =  N/A
# eccentricity     =  N/A
# w (rad)          =  N/A
# T_peri           =  N/A
######################################################
   0  829.1085
   1  832.0521
   2  676.5771
   3  646.4356
   4  724.3875
   5  805.6699
   6  841.4064
   7  703.0883
   8  684.8065
   9  732.4679
  10  722.1174
  11  740.534
  12  704.0143
  13  642.0012
  14  641.9453
  15  752.9062
  16  743.2651
  17  700.6534
  18  665.0645
  19  704.8624
  20  668.7197
  21  579.0863
  22  583.579
  23  658.4316
  24  571.3532
  25  557.5331
  26  571.5582
  27  526.6677
  28  516.038
  29  591.8967
  30  591.3054
  31  592.6673
  32  652.2028
  33  628.6606
  34  633.7833
  35  560.0057
  36  571.3619
  37  532.6927
  38  507.1043
  39  606.2225
  40  636.5291
  41  683.1599
  42  607.5389
  43  580.6823
  44  472.1638
  45  563.0474
  46  633.8085
  47  626.7554
  48  607.3238
  49  733.6116
  50  776.3962
  51  713.9389
  52  679.3505
  53  579.173
  54  581.8378
  55  608.0222
  56  679.1234
  57  593.8315
  58  499.4722
  59  592.0046
  60  647.7364
  61  607.0209
  62  638.9751
  63  636.8804
  64  623.3134
  65  570.3154
  66  564.6963
  67  600.3543
  68  698.241
  69  710.5396
  70  645.9604
  71  650.7512
  72  579.9739
  73  595.5082
  74  648.1581
  75  671.1514
  76  698.6973
  77  715.5488
  78  710.3984
  79  671.165
  80  655.7094
  81  723.2953
  82  608.537
  83  580.3284
  84  729.353
  85  677.8951
  86  607.3356
  87  695.6597
  88  703.5176
  89  640.9183
  90  672.9521
  91  632.4384
  92  614.06
  93  626.8648
  94  644.6341
  95  594.8182
  96  572.5644
  97  622.4491
  98  678.6646
  99  634.8886
 100  616.48
 101  600.745
 102  502.5683
 103  571.7917
 104  510.9516
 105  677.5561
 106  600.2738
 107  582.3903
 108  708.4913
 109  647.9969
 110  651.0355
 111  583.7789
 112  632.183
 113  628.1021
 114  672.9851
 115  618.1553
 116  602.6854
 117  717.4741
 118  716.4064
 119  596.2425
 120  537.7095
 121  583.3495
 122  611.0732
 123  622.1208
 124  626.799
 125  630.1517
 126  588.3334
 127  654.882
 128  733.3911
 129  728.4272
 130  612.8815
 131  589.8222
 132  581.3377
 133  643.0846
 134  653.2748
 135  558.6887
 136  669.71
 137  709.8156
 138  672.194
 139  624.8626
 140  669.1818
 141  601.8319
 142  681.734
 143  711.3981
 144  651.8816
 145  685.7592
 146  641.1161
 147  602.8443
 148  585.3273
 149  634.4869
 150  626.025
 151  655.4979
 152  675.106
 153  563.7289
 154  544.9253
 155  681.1069
 156  683.1563
 157  733.2228
 158  741.0546
 159  823.1014
 160  806.4175
 161  692.2924
 162  751.8414
 163  800.2025
 164  761.0505
 165  695.1901
 166  705.2815
 167  771.4681
 168  743.8502
 169  657.4703
 170  710.5338
 171  649.9091
 172  657.5784
 173  654.7572
 174  639.7122
 175  652.5204
 176  708.8867
 177  574.3115
 178  635.5151
 179  643.0045
 180  606.7227
 181  681.1996
 182  653.3025
 183  571.757
 184  563.4595
 185  626.3258
 186  587.0563
 187  563.6929
 188  538.196
 189  648.2917
 190  596.6381
 191  542.6613
 192  504.7234
 193  545.4044
 194  598.6699
 195  639.2488
 196  677.1266
 197  662.1381
 198  619.7536
 199  629.3873
 200  687.0483
 201  650.3645
 202  530.8139
 203  656.1193
 204  705.5604
 205  570.264
 206  547.8817
 207  611.6425
 208  577.4529
 209  547.9367
 210  517.2291
 211  583.402
 212  558.9519
 213  488.4598
 214  519.5209
 215  570.9971
 216  626.5906
 217  578.8632
 218  422.445
 219  496.1479
 220  596.8858
 221  684.8558
 222  661.2791
 223  654.1925
 224  649.4453
 225  562.2742
 226  598.4023
 227  642.0789
 228  703.3638
 229  725.586
 230  747.5331
 231  621.401
 232  597.0508
 233  615.6685
 234  653.0063
 235  623.1246
 236  691.1739
 237  705.6746
 238  636.7522
 239  573.8313
 240  621.9877
 241  637.3514
 242  654.6184
 243  634.1852
 244  660.4699
 245  672.8125
 246  664.8973
 247  659.575
 248  634.1451
 249  540.3956
 250  525.7955
 251  601.4409
 252  609.9506
 253  630.8373
 254  706.5674
 255  659.2191
 256  632.7265
 257  669.6949
 258  673.9374
 259  780.1224
 260  822.0325
 261  691.1066
 262  733.5959
 263  657.1235
 264  654.1542
 265  680.1035
 266  762.3987
 267  667.092
 268  599.7445
 269  657.9521
 270  699.3453
 271  635.0511
 272  661.7457
 273  672.7515
 274  619.6308
 275  602.1001
 276  708.5323
 277  796.215
 278  792.9291
 279  685.5979
 280  741.4362
 281  658.9092
 282  621.7971
 283  644.7383
 284  631.4307
 285  611.5709
 286  630.4912
 287  620.1408
 288  602.312
 289  566.0375
 290  640.5151
 291  657.1978
 292  610.6679
 293  597.0736
 294  604.5046
 295  601.3997
 296  640.5342
 297  691.6349
 298  670.9396
 299  648.8269
 300  659.1981
 301  668.6947
 302  610.0998
 303  555.7015
 304  521.9733
 305  563.3215
 306  649.402
 307  646.0845
 308  538.4109
 309  560.6016
 310  635.2485
 311  652.6897
 312  655.0077
 313  590.518
 314  598.2865
 315  630.2396
 316  586.5952
 317  681.8292
 318  584.9785
 319  597.5343
 320  556.9287
 321  656.8877
 322  736.7799
 323  735.3805
 324  697.7128
 325  625.1265
 326  539.3942
 327  626.2045
 328  664.2354
 329  565.3682
 330  709.2587
 331  825.2396
 332  745.511
 333  722.3621
 334  712.4951
 335  581.1321
 336  614.426
 337  657.4049
 338  663.8173
 339  689.5296
 340  709.2212
 341  632.817
 342  536.8995
 343  644.84
 344  558.721
 345  630.8083
 346  681.3339
 347  690.9813
 348  630.0984
 349  606.4351
 350  600.1448
 351  630.5976
 352  638.4241
 353  631.3375
 354  626.3854
 355  618.0419
 356  721.2491
 357  762.7221
 358  691.5974
 359  655.9039
 360  534.4698
 361  627.1803
 362  689.2321
 363  696.1472
 364  690.2133
 365  754.0696
 366  595.5432
 367  643.7557
 368  658.0483
 369  658.1242
 370  659.27
 371  682.9691
 372  711.1136
 373  694.8141
 374  656.7036
 375  612.6691
 376  531.4806
 377  595.3954
 378  688.8564
 379  691.3799
 380  568.8233
 381  522.9218
 382  589.411
 383  624.5768
 384  598.369
 385  542.553
 386  629.4763
 387  635.9464
 388  481.3668
 389  579.1941
 390  518.7204
 391  456.1935
 392  531.1
 393  594.6132
 394  670.3033
 395  620.6118
 396  594.2699
 397  607.4451
 398  712.2111
 399  664.2947
 400  664.3275
 401  652.9056
 402  574.6257
 403  699.5822
 404  750.0684
 405  676.0201
 406  660.8612
 407  694.6768
 408  707.9983
 409  712.9499
 410  686.0723
 411  747.427
 412  754.1179
 413  969.1354
 414  1035.61
 415  946.618
 416  923.5817
 417  793.416
 418  728.837
 419  734.3861
 420  732.8
 421  845.2134
 422  767.2367
 423  686.1074
 424  677.4708
 425  718.9327
 426  686.2606
 427  644.2075
 428  695.9651
 429  824.3717
 430  700.6542
 431  622.3022
 432  684.209
 433  736.6132
 434  664.9161
 435  627.528
 436  762.4207
 437  715.2027
 438  735.963
 439  790.5538
 440  736.2727
 441  661.3338
 442  564.541
 443  609.8181
 444  631.0598
 445  658.8461
 446  631.5104
 447  608.4199
 448  666.3677
 449  636.159
 450  521.7363
 451  556.8522
 452  523.8294
 453  579.7809
 454  610.176
 455  626.807
 456  601.3148
 457  581.6251
 458  658.5748
 459  584.2769
 460  658.7117
 461  717.7209
 462  511.2802
 463  456.7867
 464  582.2135
 465  567.9132
 466  543.217
 467  653.7502
 468  674.7246
 469  581.3514
 470  525.6978
 471  580.5648
 472  580.6336
 473  610.1252
 474  713.1649
 475  754.4742
 476  662.877
 477  621.4031
 478  663.9641
 479  650.3513
 480  740.1163
 481  743.4395
 482  750.2196
 483  858.3349
 484  873.7126
 485  860.4727
 486  757.3993
 487  666.6267
 488  668.1118
 489  747.4797
 490  734.8634
 491  760.8417
 492  703.9886
 493  656.8535
 494  654.836
 495  583.9944
 496  611.3959
 497  671.6891
 498  632.825
 499  576.0954
 500  591.9894
 501  615.9188
 502  622.3098
 503  578.9136
 504  668.1309
 505  634.7958
 506  616.9366
 507  738.7015
 508  712.5582
 509  667.9844
 510  657.8931
 511  755.8911
