# Input file       =  1203785124.167161_cleaned.dat
# Candidate        =  PSR_0332+5434
# Telescope        =  AR
# Epoch_topo       =  58176.698416286585
# Epoch_bary       =  N/A
# T_sample         =  0.002
# Data Folded      =  7340032
# Data Avg         =  0.412989375059884
# Data StdDev      =  9.62929766807526 
# Profile Bins     =  512
# Profile Avg      =  5920.62254890462 
# Profile StdDev   =  1152.94504797436 
# Reduced chi-sqr  =  0.476
# Prob(Noise)      <  1   (~0.0 sigma)
# P_topo (ms)      =  714.580853527844  +/- 0.000547
# P'_topo (s/s)    =  -0                +/- 2.89e-10
# P''_topo (s/s^2) =  0                 +/- 1.27e-13
# P_bary (ms)      =  N/A
# P'_bary (s/s)    =  N/A
# P''_bary (s/s^2) =  N/A
# P_orb (s)        =  N/A
# asin(i)/c (s)    =  N/A
# eccentricity     =  N/A
# w (rad)          =  N/A
# T_peri           =  N/A
######################################################
   0  5863.771
   1  6035.383
   2  5481.037
   3  6043.158
   4  6077.205
   5  5782.584
   6  5513.512
   7  6203.687
   8  6067.612
   9  5442.404
  10  5434.227
  11  5558.406
  12  5784.631
  13  5915.173
  14  5963.088
  15  5651.416
  16  5145.313
  17  5137.854
  18  5697.583
  19  5711.076
  20  5408.192
  21  5749.429
  22  5799.605
  23  5703.171
  24  5564.09
  25  5318.927
  26  5227.001
  27  5316.263
  28  5507.241
  29  6029.024
  30  6330.269
  31  6114.104
  32  6419.081
  33  6259.199
  34  6070.439
  35  5835.924
  36  5932.274
  37  6180.104
  38  6604.444
  39  7088.207
  40  6299.281
  41  5849.152
  42  5732.827
  43  5911.031
  44  6304.625
  45  6312.944
  46  6072.533
  47  5540.657
  48  5759.689
  49  5788.763
  50  6054.413
  51  5938.65
  52  5841.416
  53  5701.71
  54  5728.355
  55  5819.002
  56  5810.769
  57  5985.26
  58  6308.237
  59  5865.875
  60  5323.864
  61  4939.299
  62  5209.247
  63  5742.54
  64  5676.409
  65  5673.969
  66  5669.901
  67  5501.098
  68  5691
  69  5711.079
  70  6161.508
  71  6772.593
  72  6981.653
  73  6675.374
  74  6142.898
  75  6451.165
  76  6177.341
  77  5863.435
  78  5755.47
  79  6014.33
  80  6028.915
  81  6053.872
  82  5499.708
  83  4817.535
  84  5180.922
  85  4960.62
  86  5208.942
  87  5077.116
  88  5321.253
  89  5332.073
  90  5399.3
  91  5238.031
  92  4703.373
  93  4533.446
  94  5130.6
  95  5308.627
  96  5245.522
  97  4593.143
  98  4751.177
  99  5210.097
 100  4883.156
 101  4598.474
 102  4865.936
 103  4972.749
 104  5413.515
 105  5377.81
 106  6080.607
 107  6466.955
 108  6719.407
 109  7101.203
 110  6824.399
 111  6403.37
 112  6279.74
 113  6101.809
 114  6012.221
 115  5788.319
 116  6170.296
 117  6052.329
 118  6343.365
 119  6301.949
 120  6738.821
 121  7008.286
 122  6890.258
 123  6638.684
 124  6128.758
 125  6575.123
 126  6027.294
 127  6591.951
 128  6334.998
 129  6278.681
 130  6837.67
 131  6838.916
 132  6377.463
 133  6208.176
 134  5836.603
 135  5759.406
 136  5886.402
 137  5922.028
 138  6067.094
 139  6146.929
 140  5826.809
 141  6016.319
 142  5642.457
 143  5506.063
 144  6028.084
 145  5824.355
 146  5834.666
 147  5491.759
 148  4951.654
 149  5104.776
 150  5075.291
 151  5041.295
 152  5117.367
 153  5317.329
 154  5916.527
 155  5651.561
 156  5066.243
 157  5594.184
 158  5353.343
 159  5510.058
 160  5426.768
 161  5651.138
 162  5682.002
 163  5596.911
 164  5373.416
 165  5175.743
 166  5414.516
 167  5767.159
 168  5656.355
 169  5295.371
 170  5525.5
 171  5170.75
 172  5364.116
 173  5319.153
 174  5191.261
 175  5869.123
 176  6411.146
 177  6383.64
 178  6463.395
 179  6413.281
 180  6259.624
 181  6086.065
 182  6094.175
 183  6489.017
 184  6421.396
 185  6582.73
 186  6590.308
 187  6436.506
 188  6271.206
 189  6252.906
 190  6771.897
 191  6608.017
 192  6350.754
 193  6396.735
 194  6638.393
 195  6892.928
 196  6489.59
 197  6962.024
 198  6629.465
 199  6462.902
 200  6511.935
 201  6141.034
 202  6700.642
 203  7062.839
 204  7102.511
 205  7213.794
 206  7096.751
 207  7055.604
 208  6810.759
 209  6876.241
 210  7117.66
 211  6825.104
 212  7187.602
 213  6822.702
 214  6395.617
 215  6552.532
 216  6361.838
 217  6248.401
 218  5982.551
 219  6173.949
 220  6345.303
 221  6122.643
 222  5967.608
 223  5409.421
 224  5838.723
 225  6362.611
 226  6114.458
 227  6210.573
 228  6005.824
 229  5970.176
 230  5887.597
 231  6005.146
 232  5776.094
 233  5617.368
 234  5372.103
 235  5396.465
 236  5599.385
 237  5350.873
 238  5002.193
 239  5224.763
 240  5483.771
 241  5354.392
 242  5347.696
 243  5430.777
 244  5308.661
 245  5194.606
 246  5007.473
 247  5632.783
 248  5569.835
 249  5883.482
 250  5769.023
 251  5613.211
 252  6334.578
 253  7036.431
 254  6778.011
 255  6425.682
 256  6398.228
 257  6226.122
 258  6268.214
 259  6759.354
 260  6933.134
 261  6609.594
 262  6685.471
 263  6694.262
 264  6509.518
 265  6410.746
 266  6297.005
 267  6445.084
 268  6125.53
 269  6090.312
 270  6279.232
 271  6335.937
 272  6220.327
 273  5962.199
 274  5988.239
 275  5658.193
 276  5657.945
 277  6061.173
 278  6111.557
 279  5921.529
 280  5606.699
 281  5296.629
 282  4758.895
 283  4918.582
 284  4988.496
 285  5171.384
 286  5564.014
 287  5734.536
 288  5439.303
 289  5403.827
 290  5344.188
 291  5235.028
 292  5250.624
 293  5977.693
 294  6125.126
 295  5971.938
 296  5152.112
 297  5261.152
 298  5401.836
 299  5328.175
 300  5620.706
 301  5085.542
 302  5019.479
 303  4790.151
 304  5335.158
 305  5610.542
 306  5586.906
 307  5706.536
 308  5545.979
 309  5834.491
 310  5988.194
 311  6211.116
 312  6179.656
 313  6220.05
 314  6278.604
 315  6262.557
 316  6041.629
 317  5788.32
 318  5680.265
 319  5705.992
 320  5609.25
 321  5369.27
 322  5436.111
 323  5325.906
 324  5243.13
 325  5225.839
 326  5593.885
 327  5705.686
 328  5721.167
 329  5775.428
 330  6041.118
 331  6310.365
 332  6412.076
 333  6432.557
 334  6495.899
 335  6422.793
 336  6594.3
 337  6710.85
 338  6352.005
 339  6658.887
 340  6539.17
 341  6629.883
 342  6414.919
 343  6229.678
 344  5958.688
 345  5827.493
 346  6289.137
 347  5707.079
 348  5893.607
 349  6134.676
 350  6096.402
 351  5771.109
 352  5437.809
 353  5512.501
 354  5165.932
 355  5824.416
 356  5853.113
 357  5872.81
 358  5520.719
 359  5000.511
 360  5774.045
 361  6144.692
 362  5318.542
 363  4667.904
 364  4604.471
 365  4727.15
 366  4742.253
 367  5060.407
 368  5143.604
 369  4946.786
 370  5064.279
 371  5127.982
 372  5168.319
 373  4935.745
 374  5163.045
 375  5366.686
 376  5512.016
 377  5485.102
 378  5016.44
 379  5405.367
 380  5272.792
 381  5189.434
 382  5050.398
 383  4964.147
 384  5171.594
 385  4986.42
 386  4838.595
 387  5274.682
 388  5455.159
 389  5459.621
 390  5736.481
 391  5850.134
 392  5789.525
 393  5274.566
 394  5379.5
 395  5915.573
 396  6034.912
 397  5851.702
 398  5797.961
 399  6333.218
 400  6647.698
 401  6656.527
 402  6372.483
 403  6431.226
 404  6082.399
 405  5774.691
 406  5998.274
 407  6261.93
 408  6645.608
 409  6954.648
 410  6434.527
 411  6088.447
 412  6178.054
 413  6513.813
 414  6646.521
 415  6639.296
 416  6563.806
 417  5944.229
 418  5682.468
 419  6090.789
 420  5792.476
 421  5863.37
 422  6047.769
 423  5854.526
 424  5953.509
 425  5943.207
 426  5930.224
 427  6158.692
 428  6245.726
 429  6185.417
 430  6229.059
 431  6274.758
 432  5997.639
 433  6181.196
 434  6738.585
 435  6744.455
 436  6761.686
 437  6704.705
 438  6481.912
 439  6078.421
 440  5665.366
 441  5765.668
 442  5713.288
 443  5631.558
 444  5870.595
 445  5771.919
 446  5764.998
 447  5793.669
 448  5828.168
 449  6228.46
 450  6534.225
 451  6595.724
 452  6364.405
 453  6806.727
 454  6428.861
 455  6112.589
 456  6160.429
 457  6233.053
 458  6188.264
 459  6300.442
 460  6321.028
 461  6844.252
 462  6565.8
 463  6577.964
 464  6432.786
 465  6199.468
 466  5877.834
 467  6631.431
 468  7174.244
 469  7450.728
 470  7107.551
 471  7180.984
 472  6337.228
 473  5797.184
 474  6373.899
 475  6569.666
 476  7101.812
 477  6899.536
 478  7262.283
 479  6896.587
 480  6532.709
 481  6575.399
 482  6363.715
 483  6758.745
 484  6659.665
 485  6512.47
 486  6558.879
 487  6242.124
 488  6225.365
 489  6219.414
 490  6367.286
 491  6278.743
 492  6358.122
 493  6035.911
 494  6291.846
 495  6150.078
 496  6119.361
 497  6109.898
 498  5832.65
 499  5421.385
 500  5317.016
 501  5199.489
 502  5292.978
 503  5374.937
 504  5125.882
 505  5611.536
 506  5375.733
 507  4708.512
 508  4876.601
 509  5289.91
 510  5121.388
 511  5258.892
