# Input file       =  1203525206.118787_cleaned.dat
# Candidate        =  PSR_0332+5434
# Telescope        =  AR
# Epoch_topo       =  58173.690105541515
# Epoch_bary       =  N/A
# T_sample         =  0.002
# Data Folded      =  7340032
# Data Avg         =  0.520909686641451
# Data StdDev      =  8.88271756368994 
# Profile Bins     =  512
# Profile Avg      =  7467.71339407119 
# Profile StdDev   =  1063.55474517783 
# Reduced chi-sqr  =  0.561
# Prob(Noise)      <  1   (~0.0 sigma)
# P_topo (ms)      =  714.580942577004  +/- 0.000498
# P'_topo (s/s)    =  -0                +/- 2.63e-10
# P''_topo (s/s^2) =  0                 +/- 1.16e-13
# P_bary (ms)      =  N/A
# P'_bary (s/s)    =  N/A
# P''_bary (s/s^2) =  N/A
# P_orb (s)        =  N/A
# asin(i)/c (s)    =  N/A
# eccentricity     =  N/A
# w (rad)          =  N/A
# T_peri           =  N/A
######################################################
   0  8360.026
   1  8239.562
   2  7814.458
   3  7932.72
   4  7709.096
   5  7791.411
   6  8066.138
   7  8381.576
   8  8330.734
   9  7933.712
  10  8244.832
  11  8489.251
  12  8663.634
  13  8581.032
  14  8480.622
  15  8359.16
  16  8562.651
  17  8480.062
  18  8263.913
  19  8395.918
  20  8613.343
  21  8350.26
  22  8111.188
  23  7994.431
  24  8539.882
  25  8559.52
  26  8438.926
  27  8075.55
  28  7603.596
  29  7455.089
  30  8063.275
  31  7670.372
  32  7524.528
  33  7670.258
  34  7480.744
  35  7846.307
  36  7573.513
  37  7387.007
  38  7291.25
  39  7542.299
  40  7439.703
  41  7308.338
  42  7577.625
  43  7654.661
  44  7904.332
  45  7980.194
  46  8322.886
  47  8566.974
  48  8189.329
  49  8280.425
  50  8281.401
  51  8323.94
  52  8388.733
  53  8144.804
  54  8549.382
  55  8663.284
  56  8677.28
  57  8422.143
  58  8068.005
  59  8660.865
  60  9165.753
  61  9209.67
  62  9782.594
  63  8709.443
  64  7896.845
  65  7509.02
  66  7424.901
  67  7651.844
  68  7735.666
  69  7571.532
  70  7389.833
  71  6949.744
  72  6783.183
  73  6882.38
  74  7661.463
  75  7174.133
  76  6823.366
  77  6961.11
  78  6703.408
  79  6588.661
  80  6714.714
  81  6855.801
  82  6905.902
  83  7181.363
  84  7661.253
  85  7622.052
  86  7238.43
  87  7753.379
  88  7680.927
  89  7300.313
  90  7583.868
  91  7888.761
  92  7852.191
  93  7755.657
  94  7494.413
  95  7617.433
  96  7708.845
  97  7373.918
  98  7167.946
  99  7066.803
 100  6842.081
 101  6584.707
 102  6526.089
 103  6674.714
 104  6399.458
 105  6262.898
 106  6265.602
 107  6462.141
 108  6126.833
 109  6280.143
 110  6869.074
 111  7255.876
 112  6952.203
 113  6406.32
 114  6953.368
 115  7276.378
 116  7063.229
 117  7192.312
 118  7815.273
 119  7382.723
 120  7108.395
 121  6824.558
 122  7002.707
 123  7314.058
 124  7390.887
 125  7234.826
 126  7088.925
 127  6880.02
 128  7413.591
 129  7820.012
 130  7738.912
 131  7829.511
 132  7832.11
 133  7757.953
 134  7207.247
 135  7059.818
 136  7316.305
 137  7231.947
 138  7265.693
 139  6907.045
 140  7024.363
 141  6928.912
 142  6940.449
 143  7123.67
 144  7456.701
 145  7069.585
 146  6752.523
 147  7003.43
 148  6999.139
 149  7043.646
 150  6932.991
 151  7136.486
 152  7042.963
 153  7088.855
 154  7243.842
 155  7238.923
 156  7477.756
 157  7166.579
 158  7289.458
 159  7347.326
 160  7762.831
 161  7416.27
 162  7690.697
 163  7494.039
 164  7371.907
 165  7650.925
 166  7328.604
 167  7471.507
 168  7986.437
 169  7884.155
 170  8052.798
 171  7482
 172  7396.064
 173  7129.545
 174  7283.9
 175  7571.604
 176  7242.834
 177  7164.204
 178  7099.144
 179  6705.431
 180  6870.753
 181  7202.406
 182  6881.133
 183  6990.788
 184  7417.126
 185  7552.426
 186  7540.113
 187  6924.2
 188  7392.868
 189  7657.588
 190  7540.938
 191  7610.238
 192  7469.025
 193  7419.218
 194  7256.33
 195  6940.634
 196  6825.07
 197  6670.379
 198  6998.046
 199  7304.143
 200  7443.526
 201  7778.217
 202  7502.144
 203  7617.142
 204  7736.375
 205  7431.833
 206  7515.782
 207  7749.75
 208  7849.076
 209  7583.37
 210  7494.456
 211  7158.375
 212  7279.546
 213  7192.742
 214  7321.55
 215  7481.103
 216  6911.874
 217  7267.288
 218  7361.874
 219  6909.691
 220  6966.466
 221  6823.969
 222  7056.891
 223  7125.582
 224  7787.851
 225  7772.608
 226  7652.657
 227  7880.389
 228  7906.08
 229  7712.301
 230  8050.031
 231  8194.812
 232  8226.513
 233  8303.157
 234  8308.311
 235  8080.86
 236  7915.448
 237  7825.469
 238  7563.353
 239  7715.833
 240  7874.392
 241  7636.916
 242  7542.21
 243  7199.025
 244  7042
 245  6832.828
 246  7202.164
 247  7267.658
 248  7064.301
 249  7122.224
 250  7213.07
 251  6702.515
 252  6887.308
 253  7134.108
 254  6661.128
 255  6728.087
 256  6992.996
 257  6901.058
 258  6966.898
 259  7216.667
 260  6856.888
 261  6311.649
 262  6615.489
 263  6707.967
 264  7035.969
 265  7218.118
 266  7248.197
 267  6819.584
 268  6464.689
 269  6647.602
 270  6758.437
 271  6709.785
 272  6783.529
 273  6745.482
 274  6741.643
 275  6782.467
 276  6763.407
 277  6831.505
 278  6781.752
 279  6778.014
 280  6591.273
 281  6912.668
 282  6588.597
 283  6376.642
 284  6333.614
 285  6468.937
 286  6457.609
 287  6632.865
 288  7105.515
 289  7168.125
 290  7115.967
 291  6794.938
 292  6747.872
 293  6898.842
 294  6630.693
 295  6488.132
 296  6917.586
 297  6960.827
 298  7231.958
 299  7150.972
 300  7126.39
 301  7438.265
 302  7359.883
 303  7333.968
 304  7485.444
 305  7682.038
 306  7870.038
 307  7707.337
 308  7737.82
 309  7911.384
 310  7956.055
 311  8029.482
 312  7785.18
 313  8140.119
 314  7912.952
 315  7502.784
 316  7265.187
 317  7204.684
 318  7533.42
 319  7185.419
 320  7342.472
 321  7187.482
 322  7311.344
 323  7521.833
 324  8031.337
 325  7923.7
 326  7998.379
 327  7398.228
 328  6909.632
 329  6711.259
 330  6751.501
 331  6931.313
 332  6834.634
 333  6921.306
 334  6611.373
 335  6557.596
 336  6347.793
 337  6547.934
 338  6702.907
 339  6762.832
 340  6971.884
 341  6777.54
 342  7053.527
 343  7254.795
 344  7165.836
 345  6605.418
 346  6828.796
 347  7093.001
 348  7121.311
 349  6987.333
 350  7106.592
 351  6696.483
 352  6462.647
 353  6658.857
 354  6676.93
 355  6889.299
 356  7063.11
 357  7344.494
 358  7056.257
 359  7172.645
 360  7443.588
 361  7242.536
 362  7121.961
 363  7483.755
 364  7597.664
 365  7546.991
 366  7802.197
 367  7987.615
 368  7852.344
 369  7560.804
 370  7726.395
 371  7708.378
 372  7919.988
 373  8142.835
 374  7918.149
 375  7989.983
 376  8348.274
 377  8504.567
 378  8688.271
 379  8314.84
 380  7784.452
 381  7551.144
 382  8197.354
 383  8389.494
 384  8132.61
 385  7949.62
 386  7810.718
 387  7810.04
 388  7564.465
 389  7661.906
 390  7873.401
 391  7723.29
 392  8036.441
 393  8348.953
 394  8363.078
 395  8073.172
 396  7996.153
 397  7769.391
 398  7520.542
 399  7724.021
 400  8271.879
 401  8169.893
 402  8061.729
 403  8112.604
 404  8026.578
 405  7730.636
 406  8050.226
 407  8184.241
 408  8103.94
 409  8044.869
 410  7532.384
 411  7446.189
 412  7859.792
 413  8112.161
 414  8168.682
 415  8438.208
 416  8148.089
 417  8181.948
 418  7744.731
 419  7681.528
 420  7875.896
 421  7533.319
 422  7875.816
 423  7558.05
 424  7578.514
 425  7644.982
 426  7356.982
 427  7303.16
 428  6961.346
 429  6863.723
 430  7126.895
 431  7184.802
 432  6954.674
 433  7155.339
 434  7184.587
 435  7180.365
 436  7368.883
 437  7591.52
 438  7469.405
 439  7109.894
 440  6871.684
 441  6995.157
 442  7186.817
 443  7166.1
 444  6746.709
 445  6895.284
 446  6578.032
 447  7090.861
 448  6931.155
 449  7000.746
 450  7164.627
 451  7210.99
 452  7341.272
 453  7169.32
 454  7287.809
 455  7581.495
 456  7859.354
 457  7748.681
 458  7616.643
 459  7600.361
 460  7368.605
 461  7456.668
 462  7154.963
 463  7068.089
 464  7407.156
 465  7437.857
 466  7302.833
 467  7329.052
 468  7305.352
 469  7039.695
 470  7426.918
 471  7280.638
 472  6849.322
 473  7153.363
 474  7342.071
 475  7468.822
 476  7339.693
 477  7366.528
 478  7458.074
 479  7103.165
 480  6780.609
 481  6720.691
 482  7044.959
 483  7548.644
 484  7367.236
 485  7596.062
 486  7810.309
 487  8233.291
 488  8133.454
 489  8465.766
 490  8879.058
 491  8526.726
 492  9143.605
 493  9190.039
 494  8411.999
 495  7933.916
 496  8451.721
 497  8540.131
 498  8403.561
 499  8198.094
 500  8148.166
 501  8352.051
 502  8155.342
 503  8001.145
 504  7764.046
 505  7840.845
 506  7818.74
 507  8315.934
 508  8224.741
 509  7933.065
 510  7693.979
 511  7685.898
