# Input file       =  1203414632.110324_cleaned.dat
# Candidate        =  PSR_0332+5434
# Telescope        =  AR
# Epoch_topo       =  58172.410313776898
# Epoch_bary       =  N/A
# T_sample         =  0.002
# Data Folded      =  7208960
# Data Avg         =  0.479135544990738
# Data StdDev      =  5.72910939577847 
# Profile Bins     =  512
# Profile Avg      =  6745.86413356137 
# Profile StdDev   =  679.811398934045 
# Reduced chi-sqr  =  1.045
# Prob(Noise)      <  0.234   (~0.7 sigma)
# P_topo (ms)      =  714.580719835708  +/- 5.71e-05
# P'_topo (s/s)    =  -0                +/- 3.07e-11
# P''_topo (s/s^2) =  0                 +/- 1.38e-14
# P_bary (ms)      =  N/A
# P'_bary (s/s)    =  N/A
# P''_bary (s/s^2) =  N/A
# P_orb (s)        =  N/A
# asin(i)/c (s)    =  N/A
# eccentricity     =  N/A
# w (rad)          =  N/A
# T_peri           =  N/A
######################################################
   0  6255.329
   1  5912.359
   2  5363.204
   3  5434.726
   4  5847.948
   5  6318.713
   6  6292.186
   7  6488.431
   8  6902.306
   9  6340.475
  10  6598.72
  11  6037.785
  12  5937.853
  13  6180.011
  14  6166.916
  15  6122.903
  16  6507.443
  17  6888.25
  18  6544.89
  19  6217.115
  20  6369.219
  21  6223.137
  22  6549.55
  23  6803.497
  24  6711.229
  25  6670.038
  26  6225.097
  27  5782.331
  28  6057.331
  29  6190.03
  30  6421.876
  31  6627.234
  32  6753.881
  33  6439.373
  34  6638.422
  35  6312.606
  36  6100.339
  37  6565.182
  38  6967.071
  39  7145.871
  40  6965.026
  41  7224.15
  42  6677.604
  43  6030.753
  44  6011.975
  45  6216.554
  46  6143.872
  47  6028.535
  48  6579.304
  49  7027.013
  50  7127.582
  51  6625.988
  52  6372.152
  53  6325.386
  54  6345.426
  55  6801.025
  56  6882.811
  57  7382.22
  58  6987.699
  59  6897.921
  60  7061.637
  61  7216.578
  62  7078.173
  63  6788.738
  64  6341.73
  65  6320.306
  66  6245.048
  67  6142.598
  68  6268.437
  69  6367.188
  70  6407.51
  71  6607.006
  72  6381.858
  73  6469.644
  74  7214.063
  75  7044.454
  76  6500.625
  77  6347.487
  78  6726.803
  79  6691.504
  80  6574.255
  81  6816.956
  82  7229.155
  83  6991.356
  84  6579.361
  85  6055.303
  86  5791.366
  87  5890.986
  88  6339.271
  89  6840.881
  90  6989.588
  91  7160.204
  92  6858.589
  93  6718.221
  94  6666.111
  95  6895.057
  96  6753.232
  97  6473.466
  98  6023.047
  99  6260.21
 100  6375.489
 101  6250.4
 102  6180.611
 103  6556.236
 104  6307.681
 105  6471.518
 106  6627.119
 107  6963.797
 108  6933.149
 109  6809.688
 110  6440.355
 111  5957.304
 112  5781.121
 113  6508.874
 114  7282.653
 115  7678.97
 116  6983.886
 117  6287.695
 118  5761.751
 119  5797.227
 120  6159.208
 121  6753.692
 122  7292.564
 123  7707.254
 124  7568.846
 125  7089.296
 126  6583.688
 127  6905.558
 128  6522.877
 129  6472.369
 130  6431.398
 131  6084.234
 132  6544.388
 133  6617.388
 134  6188.447
 135  6375.087
 136  6330.772
 137  6388.01
 138  6066.067
 139  6407.317
 140  6626.454
 141  6464.681
 142  6269.392
 143  6247.459
 144  6271.629
 145  6466.015
 146  6832.371
 147  6924.45
 148  6902.358
 149  6598.254
 150  6232.353
 151  6026.646
 152  5859.279
 153  6395.825
 154  6640.331
 155  6772.437
 156  7102.821
 157  7365.757
 158  6593.313
 159  6560.062
 160  6745.066
 161  6818.066
 162  6330.921
 163  6088.771
 164  6283.681
 165  6876.152
 166  7331.988
 167  7077.723
 168  6535.333
 169  6662.428
 170  6861.391
 171  6525.948
 172  6739.799
 173  7258.66
 174  7464.45
 175  6702.23
 176  6557.896
 177  6655.274
 178  6865.41
 179  6845.217
 180  6908.37
 181  7046.601
 182  6749.884
 183  6508.724
 184  6467.456
 185  6610.374
 186  6678.673
 187  6987.832
 188  7257.444
 189  7395.647
 190  7710.612
 191  7911.25
 192  7374.234
 193  6948.041
 194  6961.042
 195  7201.719
 196  6970.585
 197  7333.007
 198  8035.487
 199  7765.896
 200  7039.131
 201  6959.011
 202  7021.108
 203  7108.491
 204  7371.472
 205  7621.28
 206  7978.562
 207  7847.141
 208  7553.562
 209  7380.358
 210  7529.874
 211  7591.012
 212  7342.611
 213  7003.223
 214  7311.925
 215  7463.387
 216  7498.73
 217  7004.133
 218  6866.55
 219  7404.267
 220  7140.603
 221  7420.916
 222  7997.626
 223  8013.717
 224  7502.995
 225  7011.093
 226  6561.565
 227  6275.17
 228  7020.499
 229  7285.828
 230  7651.559
 231  7746.072
 232  7793.939
 233  7044.751
 234  6981.565
 235  6753.939
 236  6927.051
 237  7163.428
 238  7366.387
 239  7678.79
 240  7752.115
 241  7258.085
 242  7219.093
 243  7010.656
 244  6835.946
 245  6709.565
 246  6566.34
 247  6522.855
 248  6358.025
 249  6164.23
 250  6461.169
 251  6896.61
 252  6761.96
 253  6915.691
 254  7419.031
 255  7449.814
 256  7486.533
 257  7473.836
 258  6957.626
 259  6724.406
 260  6858.747
 261  6710.976
 262  6965.696
 263  7093.8
 264  7458.228
 265  6720.917
 266  6392.978
 267  5983.925
 268  5894.755
 269  6141.546
 270  6896.587
 271  7212.737
 272  7915.302
 273  7422.074
 274  6831.897
 275  6764.988
 276  7349.42
 277  7588.076
 278  7027.349
 279  6378.991
 280  6621.523
 281  6828.399
 282  6772.364
 283  6545.182
 284  7046.256
 285  6710.805
 286  6694.606
 287  6935.08
 288  7198.638
 289  7422.212
 290  7453.309
 291  7433.346
 292  6905.844
 293  6772.815
 294  6688.557
 295  6774.776
 296  7442.452
 297  7510.161
 298  7466.966
 299  7126.366
 300  6487.218
 301  6475.227
 302  7134.266
 303  7614.174
 304  8379.178
 305  8805.825
 306  8841.77
 307  8113.616
 308  7690.107
 309  7204.125
 310  6697.131
 311  6410.707
 312  6287.19
 313  6547.557
 314  7021.573
 315  7102.87
 316  6846.197
 317  6369.554
 318  6482.962
 319  6407.744
 320  6448.502
 321  6583.92
 322  6659.993
 323  6803.4
 324  6625.172
 325  6555.424
 326  6582.66
 327  6734.004
 328  6777.116
 329  6659.154
 330  6753.561
 331  6459.549
 332  5735.267
 333  5589.487
 334  6283.307
 335  6606.699
 336  6312.491
 337  7044.29
 338  7431.638
 339  7442.897
 340  7172.396
 341  6460.168
 342  6062.333
 343  6441.137
 344  6450.155
 345  6483.34
 346  6813.594
 347  7083.186
 348  6961.685
 349  6242.665
 350  5995.259
 351  5895.681
 352  6315.908
 353  6719.097
 354  7149.523
 355  7659.369
 356  7265.956
 357  6969.833
 358  6910.457
 359  6802.529
 360  6863.014
 361  7138.148
 362  6710.732
 363  6672.006
 364  6514.832
 365  5960.412
 366  5931.389
 367  6588.429
 368  6517.391
 369  6522.976
 370  6503.517
 371  7042.941
 372  7303.695
 373  7314.262
 374  6769.454
 375  6797.065
 376  7024.399
 377  6409.997
 378  6313.99
 379  6902.664
 380  7132.425
 381  7123.517
 382  6836.834
 383  6793.333
 384  6265.784
 385  6361.107
 386  6510.217
 387  6736.597
 388  7170.458
 389  7182.801
 390  6890.195
 391  6895.804
 392  7220.762
 393  7414.667
 394  7213.112
 395  6657.659
 396  6413.005
 397  6259.95
 398  6158.673
 399  6579.846
 400  6736.048
 401  6714.204
 402  6491.271
 403  6886.017
 404  6985.92
 405  6871.576
 406  6070.04
 407  6165.068
 408  6064.263
 409  6345.231
 410  6793.96
 411  6885.126
 412  6848.96
 413  7262.656
 414  6553.136
 415  6263.091
 416  5978.958
 417  6251.037
 418  6754.501
 419  6804.674
 420  7428.648
 421  7525.546
 422  7360.698
 423  7170.111
 424  6847.06
 425  6980.642
 426  7142.329
 427  7168.166
 428  6798.769
 429  6517.383
 430  6565.691
 431  6777.382
 432  6995.275
 433  6823.567
 434  6729.64
 435  6825.203
 436  6993.549
 437  7290.531
 438  7337.486
 439  6720.926
 440  6871.693
 441  6856.848
 442  6799.537
 443  6957.238
 444  7209.483
 445  7690.376
 446  7442.705
 447  6846.187
 448  6170.757
 449  5673.041
 450  5824.341
 451  6303.68
 452  7021.125
 453  7056.702
 454  7290.049
 455  7168.408
 456  6883.073
 457  6639.516
 458  6578.324
 459  6779.877
 460  6730.911
 461  6278.737
 462  6965.009
 463  7131.339
 464  7032.117
 465  6484.803
 466  6784.559
 467  6630.161
 468  6128.673
 469  6459.587
 470  6866.026
 471  7215.641
 472  6994.266
 473  6586.993
 474  6481.59
 475  6522.051
 476  6876.21
 477  6646.466
 478  6789.12
 479  6763.646
 480  6327.754
 481  5884.762
 482  5833.258
 483  6090.618
 484  6293.307
 485  6700.426
 486  6819.843
 487  7061.269
 488  6696.402
 489  6297.385
 490  6232.38
 491  5924.305
 492  6195.717
 493  6204.363
 494  6259.717
 495  6960.002
 496  7172.415
 497  6108.017
 498  5717.805
 499  5913.92
 500  5840.424
 501  5726.437
 502  6330.302
 503  6584.982
 504  6670.128
 505  6224.357
 506  6024.553
 507  5983.853
 508  6295.354
 509  6334.909
 510  6434.016
 511  6631.82
