# Input file       =  1203358026.105044_cleaned.dat
# Candidate        =  PSR_0332+5434
# Telescope        =  AR
# Epoch_topo       =  58171.755151678750
# Epoch_bary       =  N/A
# T_sample         =  0.002
# Data Folded      =  7340032
# Data Avg         =  0.0929873643794314
# Data StdDev      =  3.26684137838742 
# Profile Bins     =  512
# Profile Avg      =  1333.22293486158 
# Profile StdDev   =  391.148837595585 
# Reduced chi-sqr  =  1.051
# Prob(Noise)      <  0.204   (~0.8 sigma)
# P_topo (ms)      =  714.581073434642  +/- 0.00111
# P'_topo (s/s)    =  -0                +/- 5.83e-10
# P''_topo (s/s^2) =  0                 +/- 2.57e-13
# P_bary (ms)      =  N/A
# P'_bary (s/s)    =  N/A
# P''_bary (s/s^2) =  N/A
# P_orb (s)        =  N/A
# asin(i)/c (s)    =  N/A
# eccentricity     =  N/A
# w (rad)          =  N/A
# T_peri           =  N/A
######################################################
   0  801.3828
   1  937.4244
   2  1043.203
   3  1200.342
   4  1320.445
   5  1280.653
   6  1523.921
   7  1218.493
   8  1149.448
   9  1045.049
  10  1095.123
  11  965.1838
  12  966.7405
  13  1119.75
  14  850.5699
  15  974.8938
  16  1389.778
  17  1207.924
  18  1302.584
  19  926.35
  20  1071.397
  21  1411.43
  22  1144.578
  23  762.1565
  24  1073.468
  25  1087.845
  26  842.7974
  27  706.9765
  28  1120.102
  29  1384.662
  30  1268.134
  31  1191.955
  32  1100.491
  33  1115.562
  34  1014.247
  35  879.6851
  36  964.298
  37  1279.714
  38  911.5325
  39  967.226
  40  1107.11
  41  1283.627
  42  1382.867
  43  1266.24
  44  1291.845
  45  1191.847
  46  1047.991
  47  1210.463
  48  1148.942
  49  929.5427
  50  1306.568
  51  1288.194
  52  943.7651
  53  1101.692
  54  1350.158
  55  1355.233
  56  1383.245
  57  1202.625
  58  1110.053
  59  1046.504
  60  1234.137
  61  1168.106
  62  1391.863
  63  1601.103
  64  1363.254
  65  1375.757
  66  1104.21
  67  1216.45
  68  1125.377
  69  1152.323
  70  1067.992
  71  1001.584
  72  855.2047
  73  1061.472
  74  1247.782
  75  1129.498
  76  798.1771
  77  797.8076
  78  1182.21
  79  1085.406
  80  1576.523
  81  1153.475
  82  1028.734
  83  892.6379
  84  1114.778
  85  1163.809
  86  1217.531
  87  1345.266
  88  1106.242
  89  879.3388
  90  1135.887
  91  1650.56
  92  1180.549
  93  1244.012
  94  1327.748
  95  1487.444
  96  1230.052
  97  835.5205
  98  892.7422
  99  1078.84
 100  1190.573
 101  1202.79
 102  1183.558
 103  1191.323
 104  1091.819
 105  1043.83
 106  839.7189
 107  1236.818
 108  1441.488
 109  1171.528
 110  691.0378
 111  877.801
 112  863.9115
 113  661.8498
 114  944.8652
 115  1095.847
 116  765.1294
 117  1173.737
 118  1478.676
 119  1317.559
 120  1104.038
 121  1181.399
 122  863.1365
 123  914.3488
 124  1205.273
 125  1515.84
 126  1712.002
 127  1615.126
 128  1356.456
 129  1448.197
 130  1160.178
 131  1346.136
 132  1359.29
 133  823.5264
 134  1135.807
 135  973.2838
 136  1274.227
 137  1321.102
 138  1431.17
 139  1446.318
 140  1225.91
 141  1289.82
 142  891.3769
 143  992.1087
 144  1046.703
 145  889.0989
 146  1136.929
 147  1186.276
 148  1208.12
 149  1187.682
 150  1489.78
 151  1392.373
 152  1010.418
 153  1198.608
 154  1374.061
 155  1189.025
 156  1109.639
 157  952.0036
 158  1224.065
 159  1128.854
 160  924.8259
 161  1036.389
 162  1168.348
 163  946.7733
 164  1008.609
 165  1158.855
 166  1312.429
 167  1451.735
 168  1902.49
 169  1415.108
 170  1454.328
 171  1482.562
 172  1323.952
 173  1172.278
 174  1111.462
 175  1458.901
 176  1551.07
 177  1596.391
 178  1364.094
 179  1252.818
 180  1254.366
 181  1611.551
 182  1407.384
 183  1263.301
 184  1332.834
 185  1281.851
 186  1099.269
 187  1098.797
 188  1361.006
 189  1350.326
 190  1274.45
 191  1521.305
 192  1043.87
 193  1254.973
 194  1194.865
 195  1160.113
 196  1120.479
 197  1299.27
 198  1336.395
 199  1171.659
 200  1405.497
 201  1473.036
 202  1602.458
 203  1799.351
 204  1855.924
 205  1826.198
 206  1957.806
 207  2114.782
 208  2224.539
 209  2389.394
 210  2596.33
 211  2207.889
 212  1791.889
 213  1186.603
 214  1457.281
 215  1400.188
 216  1516.38
 217  1201.837
 218  936.7806
 219  1063.493
 220  1360.61
 221  1621.38
 222  1339.674
 223  1066.661
 224  1455.405
 225  1618.088
 226  1814.343
 227  1746.799
 228  1350.412
 229  1113.99
 230  1294.592
 231  1272.501
 232  1009.054
 233  1085.217
 234  1620.13
 235  1289.597
 236  1367.036
 237  1659.532
 238  1692.682
 239  1552.484
 240  1197.352
 241  1415.981
 242  1611.383
 243  1440.734
 244  1378.401
 245  1666.057
 246  1495.877
 247  1719.89
 248  1852.907
 249  1643.258
 250  1599.073
 251  1630.418
 252  1796.071
 253  2048.574
 254  1918.032
 255  1547.943
 256  1629.989
 257  1404.917
 258  1417.118
 259  1714.7
 260  1951.788
 261  1969.681
 262  1688.25
 263  1857.12
 264  1726.69
 265  1494.242
 266  1462.535
 267  1739.204
 268  1841.589
 269  1578.847
 270  1711.481
 271  1589.397
 272  1873.457
 273  1844.89
 274  1499.509
 275  1781.981
 276  1767.88
 277  1750.518
 278  1924.178
 279  1716.953
 280  1601.309
 281  1454.745
 282  1903.525
 283  1773.099
 284  1630.204
 285  1680.641
 286  1542.708
 287  1596.186
 288  1581.898
 289  1716.116
 290  1389.755
 291  1538.187
 292  1709.02
 293  1530.702
 294  1626.468
 295  1555.436
 296  1499.779
 297  1791.484
 298  1799.596
 299  2042.183
 300  2085.443
 301  2007.132
 302  1789.351
 303  1656.716
 304  1659.05
 305  1413.75
 306  1648.885
 307  1447.391
 308  1402.074
 309  1606.933
 310  1590.697
 311  1795.087
 312  1431.398
 313  1809.416
 314  1720.936
 315  1397.458
 316  1547.464
 317  1198.517
 318  1487.983
 319  1217.413
 320  1363.459
 321  1406.47
 322  1434.199
 323  1340.441
 324  1357.091
 325  1572.879
 326  1471.585
 327  1400.824
 328  1315.401
 329  1388.218
 330  1596.635
 331  1321.311
 332  1360.925
 333  1293.185
 334  1399.403
 335  1586.093
 336  1652.713
 337  1466.196
 338  1482.941
 339  1542.783
 340  1539.972
 341  1633.444
 342  1612.348
 343  1761.603
 344  1648.877
 345  1526.536
 346  1489.397
 347  1615.705
 348  1421.539
 349  1239.199
 350  1338.739
 351  1407.538
 352  1462.354
 353  1510.338
 354  1532.442
 355  1573.732
 356  1145.328
 357  1223.813
 358  1368.775
 359  1172.552
 360  1079.383
 361  1160.305
 362  1264.169
 363  1540.006
 364  1537.626
 365  1403.801
 366  1431.092
 367  1557.521
 368  1376.004
 369  1584.216
 370  1779.622
 371  1572.733
 372  1485.379
 373  1674.045
 374  1514.501
 375  1544.829
 376  1268.162
 377  1076.951
 378  1000.737
 379  1502.147
 380  1382.757
 381  1235.239
 382  1566.733
 383  1804.554
 384  1529.201
 385  1531.611
 386  1555.345
 387  1513.044
 388  1740.315
 389  1410.384
 390  1425.934
 391  1561.018
 392  1421.049
 393  1350.164
 394  1389.725
 395  1057.087
 396  1508.051
 397  1697.26
 398  1343.576
 399  1174.432
 400  1151.703
 401  1430.636
 402  1255.362
 403  1040.506
 404  1236.134
 405  1553.808
 406  1478.133
 407  1603.307
 408  1736.785
 409  1586.161
 410  1445.963
 411  1886.408
 412  1664.259
 413  1230.677
 414  1444.685
 415  2054.699
 416  1610.687
 417  1124.346
 418  1311.505
 419  1333.856
 420  1342.385
 421  1182.004
 422  1134.518
 423  1269.263
 424  1405.514
 425  1181.438
 426  1258.16
 427  1377.414
 428  1476.678
 429  1310.475
 430  1200.2
 431  1368.729
 432  1606.55
 433  1287.762
 434  1185.773
 435  960.7881
 436  1330.265
 437  1149.384
 438  1110.801
 439  1087.226
 440  1328.553
 441  1303.475
 442  1280.159
 443  965.1458
 444  745.3547
 445  814.1144
 446  978.2762
 447  1193.107
 448  1583.003
 449  1364.095
 450  1006.388
 451  1086.519
 452  1134.8
 453  1048.849
 454  1456.135
 455  1592.216
 456  1394.005
 457  1363.927
 458  1326.668
 459  1350.192
 460  931.9644
 461  962.0708
 462  1453.147
 463  1234.786
 464  1300.245
 465  1317.034
 466  1467.637
 467  1451.342
 468  1194.979
 469  1206.593
 470  1299.243
 471  1009.609
 472  1228.191
 473  1431.598
 474  1197.142
 475  1010.284
 476  1084.249
 477  848.6003
 478  1023.779
 479  1302.632
 480  1156.781
 481  829.2952
 482  889.4299
 483  1025.532
 484  1275.631
 485  1027.428
 486  782.4285
 487  850.0048
 488  528.1022
 489  929.7161
 490  1288.664
 491  1330.348
 492  1042.727
 493  1194.578
 494  962.834
 495  721.7679
 496  1129.862
 497  1363.123
 498  1001.111
 499  1198.724
 500  1275.688
 501  991.6833
 502  1042.243
 503  1346.533
 504  1404
 505  1440.37
 506  1319.633
 507  1087.072
 508  1037.192
 509  1346.459
 510  1196.294
 511  906.8267
