# Input file       =  1203155681.096231_cleaned.dat
# Candidate        =  PSR_0332+5434
# Telescope        =  AR
# Epoch_topo       =  58169.413195558227
# Epoch_bary       =  N/A
# T_sample         =  0.002
# Data Folded      =  7405568
# Data Avg         =  0.279991674846846
# Data StdDev      =  5.31089745435896 
# Profile Bins     =  256
# Profile Avg      =  8099.43017824597 
# Profile StdDev   =  903.289829381072 
# Reduced chi-sqr  =  0.886
# Prob(Noise)      <  0.904   (~0.0 sigma)
# P_topo (ms)      =  714.580620118388  +/- 8.3e-05
# P'_topo (s/s)    =  -0                +/- 4.34e-11
# P''_topo (s/s^2) =  0                 +/- 1.9e-14
# P_bary (ms)      =  N/A
# P'_bary (s/s)    =  N/A
# P''_bary (s/s^2) =  N/A
# P_orb (s)        =  N/A
# asin(i)/c (s)    =  N/A
# eccentricity     =  N/A
# w (rad)          =  N/A
# T_peri           =  N/A
######################################################
   0  8742.165
   1  8179.772
   2  7817.724
   3  7467.417
   4  6722.45
   5  7119.779
   6  7948.763
   7  8872.241
   8  8223.316
   9  8286.167
  10  7924.505
  11  7334.25
  12  7090.827
  13  7244.634
  14  8069.293
  15  8149.881
  16  8569.548
  17  8932.26
  18  7994.667
  19  7531.506
  20  8116.402
  21  8565.011
  22  8746.491
  23  9231.598
  24  9881.446
  25  9278.349
  26  8209.877
  27  7692.849
  28  7806.46
  29  8627.601
  30  7788.469
  31  7608.842
  32  8071.108
  33  8319.354
  34  8586.29
  35  7872.404
  36  7641.595
  37  7151.514
  38  7897.641
  39  8619.64
  40  9232.025
  41  8206.27
  42  8180.272
  43  7926.629
  44  7530.23
  45  7171.285
  46  6844.377
  47  7220.232
  48  7924.816
  49  8315.28
  50  8338.099
  51  7708.47
  52  7008.195
  53  6974.766
  54  7667.817
  55  8425.929
  56  8106.376
  57  8207.821
  58  8131.084
  59  8020.429
  60  6954.614
  61  7098.806
  62  6597.868
  63  7617.237
  64  7482.054
  65  8356.83
  66  7962.799
  67  7007.807
  68  7292.642
  69  7353.72
  70  7210.116
  71  7001.616
  72  7475.812
  73  7790.602
  74  7962.697
  75  8662.001
  76  7754.777
  77  6804.946
  78  6574.523
  79  7568.417
  80  7532.194
  81  8177.557
  82  8090.988
  83  8005.013
  84  7302.63
  85  6380.795
  86  6856.385
  87  7561.362
  88  7386.136
  89  7455.194
  90  8776.46
  91  9002.201
  92  8427.548
  93  7633.576
  94  7566.636
  95  7868.385
  96  8157.174
  97  8837.025
  98  9410.62
  99  9341.384
 100  8422.457
 101  8056.983
 102  7645.275
 103  7435.503
 104  8299.524
 105  9088.463
 106  8902.952
 107  9108.077
 108  9123.255
 109  8392.372
 110  8117.023
 111  8060.585
 112  8083.409
 113  9438.766
 114  9082.682
 115  9479.559
 116  9011.591
 117  8371.287
 118  8264.395
 119  7750.039
 120  7224.748
 121  8135.125
 122  8472.281
 123  8610.186
 124  8450.513
 125  8481.491
 126  7246.131
 127  7496.543
 128  7716.166
 129  8394.75
 130  8501.285
 131  8863.98
 132  8552.994
 133  8690.433
 134  6966.393
 135  7445.023
 136  7599.962
 137  6944.749
 138  7648.753
 139  9108.558
 140  9144.023
 141  7835.127
 142  7878.447
 143  8036.071
 144  6804.704
 145  7094.581
 146  8399.133
 147  8869.347
 148  9360.499
 149  9829.39
 150  8779.499
 151  8534.376
 152  10086.02
 153  9869.328
 154  9360.479
 155  8922.65
 156  8924.695
 157  8626.77
 158  8425.63
 159  8662.729
 160  8619.962
 161  8514.757
 162  7941.713
 163  8278.149
 164  9230.608
 165  9520.754
 166  9211.935
 167  8270.813
 168  8030.608
 169  7895.143
 170  8722.959
 171  8600.575
 172  8823.743
 173  8908.939
 174  8757.197
 175  8543.365
 176  7399.332
 177  7362.168
 178  6593.685
 179  6755.054
 180  8686.042
 181  9001.488
 182  8677.19
 183  7534.322
 184  7625.778
 185  7425.944
 186  6240.141
 187  7182.826
 188  7795.665
 189  8093.766
 190  7210.009
 191  7552.201
 192  7603.127
 193  6724.871
 194  6766.994
 195  8227.963
 196  7493.608
 197  8130.226
 198  8360.369
 199  7882.902
 200  7344.994
 201  7298.803
 202  8187.847
 203  7667.64
 204  7510.707
 205  8140.182
 206  8513.516
 207  8173.266
 208  7287.816
 209  7953.874
 210  8180.482
 211  7286.023
 212  8433.351
 213  8708.707
 214  9747.612
 215  8979.564
 216  7781.44
 217  8278.215
 218  7949.417
 219  7471.886
 220  8485.812
 221  8963.859
 222  8494.02
 223  8615.55
 224  9027.747
 225  8180.162
 226  8303.54
 227  7691.337
 228  8789.418
 229  8413.966
 230  9082.307
 231  8963.41
 232  8534.016
 233  8374.923
 234  7805.546
 235  7409.669
 236  8335.344
 237  9050.405
 238  8560.433
 239  8652.899
 240  9257.938
 241  7827.054
 242  7641.447
 243  7480.325
 244  7227.004
 245  7584.969
 246  7730.25
 247  9694.363
 248  8538.369
 249  7927.351
 250  7318.816
 251  8367.085
 252  8191.93
 253  7728.156
 254  7797.285
 255  8813.77
