# Input file       =  1203931188.137021_cleaned.dat
# Candidate        =  PSR_0332+5434
# Telescope        =  AR
# Epoch_topo       =  58178.388971493303
# Epoch_bary       =  N/A
# T_sample         =  0.002
# Data Folded      =  7274496
# Data Avg         =  1.46169192384853 
# Data StdDev      =  16.2615806129788 
# Profile Bins     =  1024
# Profile Avg      =  10383.8569491156 
# Profile StdDev   =  1370.61106249958 
# Reduced chi-sqr  =  1.258
# Prob(Noise)      <  3.22e-08   (~5.4 sigma)
# P_topo (ms)      =  714.58045631954   +/- 1.8e-05
# P'_topo (s/s)    =  -0                +/- 9.59e-12
# P''_topo (s/s^2) =  0                 +/- 4.27e-15
# P_bary (ms)      =  N/A
# P'_bary (s/s)    =  N/A
# P''_bary (s/s^2) =  N/A
# P_orb (s)        =  N/A
# asin(i)/c (s)    =  N/A
# eccentricity     =  N/A
# w (rad)          =  N/A
# T_peri           =  N/A
######################################################
   0  10761.41
   1  10257.1
   2  10227.74
   3  9991.372
   4  10687.71
   5  10175.86
   6  9872.72
   7  9260.911
   8  8132.048
   9  7968.134
  10  8221.586
  11  9066.271
  12  10050.04
  13  10654.14
  14  11163.16
  15  10714.86
  16  9867.388
  17  9650.098
  18  9561.581
  19  10063.73
  20  10424.82
  21  10681.47
  22  10600.51
  23  10071.85
  24  9915.133
  25  9916.265
  26  9684.276
  27  10290.8
  28  10883.9
  29  11733.7
  30  12204.51
  31  11869.87
  32  11281.73
  33  10182.03
  34  10179.39
  35  10734.17
  36  11183.88
  37  11440.11
  38  10748.98
  39  10158.7
  40  9017.987
  41  8229.218
  42  8016.794
  43  8113.288
  44  8754.198
  45  9716.763
  46  9882.64
  47  10020.48
  48  9885.266
  49  10302.75
  50  10304.53
  51  10038.2
  52  10557.31
  53  11125
  54  11476.25
  55  11303.65
  56  10720.26
  57  10250.89
  58  9696.616
  59  9719.831
  60  10526.86
  61  10617.31
  62  11334.57
  63  11865.24
  64  11931.86
  65  11172.84
  66  9925.749
  67  10004.5
  68  9955.161
  69  10635.91
  70  10923.2
  71  10743.57
  72  10378.71
  73  9401.777
  74  8870.636
  75  8157.07
  76  8192.316
  77  9580.937
  78  10892.01
  79  11158.36
  80  10635.15
  81  9905.535
  82  9950.76
  83  9627.153
  84  9608.816
  85  10151.71
  86  10561.74
  87  11267.25
  88  11082.3
  89  10661.1
  90  10460.56
  91  10047.52
  92  10430.29
  93  10011.19
  94  10388.33
  95  11044.36
  96  11253.93
  97  11201.7
  98  10509.99
  99  10380.1
 100  10469.64
 101  10623.34
 102  11090.02
 103  10917.97
 104  10913.67
 105  10529.35
 106  9610.973
 107  8701.166
 108  8022.228
 109  8101.208
 110  8908.78
 111  8957.709
 112  9635.088
 113  9661.477
 114  10096.38
 115  10204.4
 116  9994.974
 117  10320.03
 118  10677.6
 119  11443.58
 120  11507.22
 121  10940.73
 122  10511.51
 123  9786.921
 124  9945.691
 125  10135.04
 126  10504.77
 127  11060.23
 128  11317.5
 129  11580.15
 130  11447.77
 131  10953.24
 132  10638.22
 133  10219.2
 134  10370.85
 135  10406.7
 136  10528.99
 137  10943.64
 138  10333.94
 139  9737.435
 140  8844.409
 141  8893.26
 142  9459.468
 143  9831.911
 144  10238.34
 145  10521.1
 146  10369.37
 147  10517.01
 148  10100.07
 149  9696.538
 150  9599.456
 151  10146.26
 152  11380.08
 153  11265.4
 154  11224.48
 155  10932.78
 156  10314.91
 157  9995.911
 158  9847.51
 159  10561.88
 160  11442.72
 161  12012.69
 162  12378.12
 163  11891.35
 164  11255.23
 165  11024.39
 166  10683.88
 167  10739.16
 168  10829.2
 169  11492.37
 170  11566.23
 171  10450.92
 172  9639.002
 173  8825.884
 174  8628.605
 175  8997.623
 176  8940.425
 177  9500.624
 178  9808.087
 179  10600.59
 180  10878.45
 181  10436.78
 182  10317.27
 183  10424.42
 184  10823.61
 185  11253.3
 186  11134.43
 187  11138.54
 188  10712.73
 189  10488.53
 190  10315.63
 191  10228.73
 192  10384.83
 193  11175.81
 194  11511.97
 195  12065.88
 196  11363.04
 197  11353.7
 198  10948.84
 199  10591.12
 200  10437.38
 201  10323.84
 202  11347.68
 203  11408.84
 204  11023.24
 205  9810.775
 206  8990.512
 207  8823.395
 208  8801.081
 209  9195.271
 210  9695.247
 211  10124.53
 212  10347.49
 213  10369.54
 214  9771.653
 215  9830.789
 216  10098.58
 217  10471
 218  10689.46
 219  10692.7
 220  10980.07
 221  10426.91
 222  10156.05
 223  9902.673
 224  9635.689
 225  10359.54
 226  10924.48
 227  11893.15
 228  11772.99
 229  11532.33
 230  11153.22
 231  10476.85
 232  10639
 233  11001.29
 234  11609.8
 235  11553.58
 236  10787.15
 237  10347.35
 238  9462.888
 239  8468.334
 240  7981.248
 241  7787.591
 242  8471.364
 243  9498.685
 244  10034.66
 245  10591.24
 246  9943.782
 247  10324.57
 248  10470.35
 249  10501.3
 250  10583.83
 251  10489.82
 252  11357.32
 253  11387.33
 254  10903.13
 255  10282.39
 256  9862.942
 257  10202.71
 258  10700.94
 259  10711.7
 260  11042.97
 261  10863.3
 262  11560.08
 263  11247.46
 264  10540.16
 265  10377.97
 266  10401.71
 267  11185.2
 268  10998.38
 269  11068.77
 270  10804.35
 271  9788.849
 272  9445.649
 273  8638.057
 274  8615.434
 275  8910.854
 276  9469.856
 277  10103.84
 278  9959.293
 279  9883.265
 280  10263.97
 281  10232.53
 282  10205.42
 283  10206.15
 284  10394.53
 285  10959.98
 286  10624.95
 287  11070.74
 288  10550.69
 289  10153.31
 290  10131.75
 291  10455.22
 292  11504.93
 293  11756.87
 294  11871.27
 295  11763.37
 296  11326.32
 297  10965.2
 298  10490.9
 299  10523.47
 300  10893.34
 301  10779.22
 302  10949.59
 303  10143.13
 304  9459.101
 305  8617.794
 306  8103.265
 307  8424.908
 308  9135.418
 309  9698.804
 310  10638.72
 311  10561.57
 312  10978.41
 313  10410.84
 314  10150.86
 315  10208.99
 316  10139.43
 317  10785.63
 318  10626.78
 319  10553.73
 320  10255.89
 321  10215.4
 322  10472.22
 323  10363.39
 324  10235.54
 325  10795.09
 326  11612.2
 327  12103.48
 328  11917.92
 329  11245.48
 330  11232.92
 331  10446.03
 332  10544.7
 333  10747.16
 334  11097.08
 335  11280.53
 336  10612.06
 337  10208.98
 338  8773.086
 339  8500.704
 340  8915.328
 341  9433.554
 342  9430.708
 343  10157.82
 344  10387.28
 345  10698.84
 346  9997.116
 347  9726.778
 348  9590.405
 349  9876.561
 350  10773.86
 351  11270.93
 352  11431.18
 353  11105.88
 354  10571.45
 355  10421.05
 356  10027.2
 357  10406.44
 358  11454.67
 359  11842.98
 360  12145.08
 361  11866.62
 362  11631.38
 363  11194.75
 364  10620.68
 365  10684.06
 366  10378.42
 367  10637
 368  10846.1
 369  10154.96
 370  9363.021
 371  8513.357
 372  8405.71
 373  8817.645
 374  8702.786
 375  9906.052
 376  10216.53
 377  10780.15
 378  10779.05
 379  10503.1
 380  10565.05
 381  10284.03
 382  10567.08
 383  10571.24
 384  10500.26
 385  10780.88
 386  10666.69
 387  10220.69
 388  9825.31
 389  9805.404
 390  10560.69
 391  10959.64
 392  11342
 393  11827.93
 394  11383.47
 395  11239.96
 396  10367.99
 397  10404.99
 398  10602.83
 399  10952.98
 400  11638.11
 401  11118.8
 402  10472.27
 403  9348.986
 404  8639.128
 405  8538.055
 406  8124.783
 407  8613.787
 408  9265.387
 409  9958.338
 410  10281.15
 411  10040.25
 412  9950.646
 413  10137.59
 414  10009.58
 415  10597.11
 416  10543.93
 417  11188.39
 418  11341.69
 419  10754.3
 420  10444.07
 421  9564.687
 422  9723.139
 423  9849.618
 424  10417.48
 425  11264.94
 426  11231.37
 427  11460.17
 428  11279.74
 429  10739.3
 430  10232.79
 431  9972.299
 432  10944.22
 433  11280.2
 434  11017.69
 435  10650.4
 436  9531.25
 437  8781.346
 438  8228.12
 439  8355.854
 440  9095.31
 441  9680.78
 442  10384.77
 443  10819.95
 444  10405.47
 445  10515.4
 446  9789.105
 447  10060.62
 448  10054.41
 449  10418.09
 450  10886.24
 451  10901.14
 452  10795.66
 453  10419.7
 454  9995.769
 455  10039.66
 456  10285.92
 457  10979.9
 458  11602.22
 459  11607.48
 460  11697.44
 461  10933.68
 462  10352.86
 463  10267.3
 464  10169.35
 465  10723.78
 466  10731.83
 467  11286.73
 468  10714.29
 469  9770.91
 470  9419.384
 471  8631.249
 472  8804.461
 473  8931.405
 474  9762.223
 475  10018.38
 476  10243.5
 477  10356.73
 478  10457.86
 479  9727.842
 480  9634.497
 481  10062.49
 482  11032.14
 483  11473.67
 484  11203.69
 485  11032.63
 486  10590.57
 487  10288.74
 488  10226.39
 489  10184.17
 490  10809.95
 491  11621.31
 492  12201
 493  12257
 494  11202.79
 495  10846.91
 496  10366.98
 497  10379.73
 498  10627.56
 499  10799.49
 500  11008.77
 501  10588.35
 502  10003.84
 503  9579.602
 504  8634.839
 505  8748.32
 506  9409.802
 507  10133.06
 508  10874.16
 509  10406.68
 510  10731.62
 511  10198.71
 512  9835.455
 513  9815.073
 514  9817.592
 515  10572.07
 516  10986.53
 517  11225.8
 518  10897.2
 519  10032.3
 520  10001.58
 521  10207.23
 522  10523.79
 523  11180.02
 524  11339.83
 525  12055.84
 526  12095.01
 527  11453.97
 528  10885.8
 529  10203.72
 530  10886.21
 531  10742.95
 532  10882.08
 533  10637.33
 534  9986.271
 535  9554.113
 536  8675.149
 537  8181.027
 538  8186.773
 539  8348.227
 540  9244.903
 541  10033.27
 542  10584.88
 543  11126.73
 544  10643.64
 545  10434.43
 546  10010.08
 547  10217.78
 548  10826.55
 549  10935.31
 550  11285.3
 551  10866.17
 552  10128.85
 553  9767.062
 554  9320.635
 555  10164.7
 556  10876.33
 557  11595.08
 558  12069.78
 559  11737.21
 560  11808.48
 561  10846.03
 562  10269.88
 563  10108.45
 564  10625.66
 565  11260.94
 566  11018.02
 567  10782.72
 568  10117.33
 569  9096.521
 570  8663.544
 571  8571.326
 572  9114.034
 573  9777.652
 574  10093.94
 575  10485.81
 576  10235.08
 577  9958.698
 578  9951.998
 579  9790.951
 580  10181.8
 581  10463.82
 582  10813.55
 583  11034.45
 584  10731.13
 585  10722.19
 586  10161.45
 587  9962.103
 588  10109.32
 589  10543.09
 590  11292.17
 591  11540.04
 592  11184.24
 593  11091.25
 594  10697.06
 595  10855.83
 596  10314.25
 597  10897.35
 598  11330.86
 599  11333.74
 600  10826.36
 601  9714.696
 602  8906.974
 603  8832.712
 604  8538.064
 605  8957.272
 606  9068.841
 607  9835.359
 608  10753.74
 609  11233.3
 610  11084.56
 611  10469.75
 612  10310.84
 613  10889.81
 614  11237.96
 615  11637.27
 616  11330.42
 617  11136.29
 618  10844.99
 619  10486.61
 620  10203.94
 621  10238.24
 622  10480.58
 623  11486.09
 624  11752.34
 625  11772.74
 626  10832.06
 627  10209.33
 628  10022.92
 629  10045.78
 630  10514.3
 631  11135.27
 632  11456.97
 633  11196.5
 634  10312.26
 635  9846.049
 636  9262.337
 637  9119.856
 638  9286.864
 639  9842.956
 640  10129.96
 641  10455.45
 642  9921.791
 643  10055.33
 644  9537.249
 645  9750.278
 646  9884.989
 647  10333.17
 648  10945.47
 649  11204.38
 650  11307.86
 651  10907.81
 652  10483.52
 653  10606.05
 654  10809.97
 655  11149.59
 656  11752.84
 657  11728.04
 658  11818.12
 659  11059.2
 660  10525.84
 661  10245.12
 662  10383.01
 663  10783.75
 664  10601.81
 665  10724.94
 666  10573.48
 667  9779.521
 668  9527.569
 669  8588.716
 670  8676.192
 671  8857.387
 672  9887.145
 673  10835.83
 674  10803.29
 675  10570.36
 676  10654.49
 677  10411.97
 678  10656.06
 679  10142.8
 680  10732.46
 681  10790.16
 682  10843
 683  10519.22
 684  10194.8
 685  9944.392
 686  10054.35
 687  10094.49
 688  10910.37
 689  11074.54
 690  11851.67
 691  12375.51
 692  12094.54
 693  11764.55
 694  10603.3
 695  10872.4
 696  11052.64
 697  11470.69
 698  11477.1
 699  10691.74
 700  10100.96
 701  9210.15
 702  8554.93
 703  8552.043
 704  8680.399
 705  9506.321
 706  10278.73
 707  10563.87
 708  10710.56
 709  10242.23
 710  10126.88
 711  10425.49
 712  10595.04
 713  11066.24
 714  11080.29
 715  11773.37
 716  11932.61
 717  10878.29
 718  10407.82
 719  9744.912
 720  10328.67
 721  10502.06
 722  11271.66
 723  11988.4
 724  12036.27
 725  11707
 726  11433.3
 727  10774.21
 728  10644.64
 729  10584.39
 730  11388.18
 731  11321.55
 732  10723.36
 733  10079.88
 734  8965.324
 735  8307.567
 736  8271.598
 737  8492.053
 738  9538.813
 739  9797.352
 740  10684.68
 741  10721.51
 742  10502.94
 743  9972.265
 744  9452.129
 745  9742.402
 746  10474.36
 747  10844.88
 748  11032.98
 749  10874.54
 750  10849.29
 751  10547.6
 752  9895.576
 753  10098.41
 754  10422.96
 755  11270.38
 756  11658.82
 757  11699.22
 758  11428.78
 759  10794.09
 760  10831.39
 761  11000.83
 762  10932.17
 763  11010.43
 764  11271.06
 765  11486.3
 766  10505.01
 767  9099.754
 768  8333.933
 769  8444.357
 770  8837.257
 771  9482.584
 772  9580.036
 773  10095.55
 774  10268.67
 775  10103.45
 776  10132.53
 777  9648.731
 778  10239.17
 779  10690.45
 780  11486
 781  11318.06
 782  10833.38
 783  10697.06
 784  10341.42
 785  10063.88
 786  10039.48
 787  10248.07
 788  10933.46
 789  11534.89
 790  11768.22
 791  11331.31
 792  10534.92
 793  10391.84
 794  10336.04
 795  10582.25
 796  10847.06
 797  10986.57
 798  10878.05
 799  10164.06
 800  9694.689
 801  9490.771
 802  8754.045
 803  9024.623
 804  9350.532
 805  10202.8
 806  10455.7
 807  10413.2
 808  10368.92
 809  9672.426
 810  9504.331
 811  9768.395
 812  10107
 813  10733.03
 814  10891.53
 815  10947.38
 816  10509.3
 817  10118.94
 818  10295.13
 819  10415.56
 820  10594.33
 821  11282.74
 822  11334.99
 823  11846.13
 824  11346.55
 825  11022.6
 826  10463.96
 827  10050.11
 828  10739.59
 829  10597.85
 830  11024.97
 831  10697.05
 832  10051.62
 833  9478.224
 834  8788.609
 835  8920.109
 836  8915.762
 837  9215.569
 838  10197.05
 839  10924.32
 840  10846.23
 841  10495.79
 842  9873.968
 843  10443.79
 844  10410.88
 845  10573.04
 846  10692.96
 847  10437.25
 848  10789.67
 849  10396.1
 850  10136.37
 851  10003.42
 852  10251.22
 853  11321.2
 854  11491.82
 855  11684.41
 856  11825.85
 857  11724.27
 858  11632.67
 859  10745.23
 860  10104.98
 861  10401.04
 862  10358.3
 863  10975.04
 864  10273.16
 865  9860.814
 866  9324.12
 867  8768.237
 868  9039.486
 869  8688.238
 870  9318.18
 871  10291
 872  10768.7
 873  10916.9
 874  10226.38
 875  10073.93
 876  10019.86
 877  10053.42
 878  10539.12
 879  10808.29
 880  11052.94
 881  11074.99
 882  10619.04
 883  10055.86
 884  9571.922
 885  9402.974
 886  10261.15
 887  10509.99
 888  11613.55
 889  11729.66
 890  11629.61
 891  11144.39
 892  10700.75
 893  10737.31
 894  10648.31
 895  11289.03
 896  11453
 897  11038.63
 898  10326.39
 899  9069.36
 900  8177.899
 901  7837.211
 902  8232.065
 903  9009.945
 904  9675.67
 905  10368.63
 906  10971.42
 907  10709.51
 908  10569.07
 909  10172.13
 910  10274.09
 911  10726.75
 912  11067.62
 913  11371.71
 914  10836.97
 915  10279
 916  10321.89
 917  10242.34
 918  10335.72
 919  10276.33
 920  10820.64
 921  11562.55
 922  11817.39
 923  11400.3
 924  10783.06
 925  10174.79
 926  10438.97
 927  10370.41
 928  10868.26
 929  10704.36
 930  10716.65
 931  10284.76
 932  9415.612
 933  8519.506
 934  8174.125
 935  8533.617
 936  9632.405
 937  9700.02
 938  10208.85
 939  10065.94
 940  9999.863
 941  9830.09
 942  9634.041
 943  9849.742
 944  9941.68
 945  10351.65
 946  10992.96
 947  10970.43
 948  10615.55
 949  10289.43
 950  10073.08
 951  10300.61
 952  10244.8
 953  10846.15
 954  11577.84
 955  11588.8
 956  11460.57
 957  10475.38
 958  10406.78
 959  10043.79
 960  10421.39
 961  10714.59
 962  10749.13
 963  10962.82
 964  10521.82
 965  9599.63
 966  8615.233
 967  7984.818
 968  8430.139
 969  9158.678
 970  9782.385
 971  10764.37
 972  10739.77
 973  10922.53
 974  10456.71
 975  10008.05
 976  10298.09
 977  10185.67
 978  10826.71
 979  10917.22
 980  10867.93
 981  10785.47
 982  9957.158
 983  10180.8
 984  10241.74
 985  10416.03
 986  11039.03
 987  11095.97
 988  11801.27
 989  11771.49
 990  11371.24
 991  11058.76
 992  10149.98
 993  10464.07
 994  10854.79
 995  11441.59
 996  11461.84
 997  10173.65
 998  9672.936
 999  9122.385
1000  8697.146
1001  8819.117
1002  8923.572
1003  10128.28
1004  10464.83
1005  10379.65
1006  10309.88
1007  9682.001
1008  9824.032
1009  9997.489
1010  10533.84
1011  11003.53
1012  10746.46
1013  11223.26
1014  10779.03
1015  10143.67
1016  9925.757
1017  10271.45
1018  10842.44
1019  11318.5
1020  11302.32
1021  11825.78
1022  11211.43
1023  11404.75
