# Input file       =  1203256882.095392-PSRB0329-2ms-sampling-dd.dat
# Candidate        =  PSR_0332+5434
# Telescope        =  AR
# Epoch_topo       =  58170.584503418890
# Epoch_bary       =  N/A
# T_sample         =  0.002
# Data Folded      =  7340032
# Data Avg         =  -6.36163989672977e-10
# Data StdDev      =  78.6648123328561 
# Profile Bins     =  512
# Profile Avg      =  0.883611417038265
# Profile StdDev   =  9418.77683662134 
# Reduced chi-sqr  =  0.789
# Prob(Noise)      <  1   (~0.0 sigma)
# P_topo (ms)      =  714.580697922718  +/- 0.000679
# P'_topo (s/s)    =  -0                +/- 3.58e-10
# P''_topo (s/s^2) =  0                 +/- 1.58e-13
# P_bary (ms)      =  N/A
# P'_bary (s/s)    =  N/A
# P''_bary (s/s^2) =  N/A
# P_orb (s)        =  N/A
# asin(i)/c (s)    =  N/A
# eccentricity     =  N/A
# w (rad)          =  N/A
# T_peri           =  N/A
######################################################
   0  -5634.668
   1  -5008.532
   2  -3459.935
   3  -3995.208
   4  -6425.72
   5  -8304.735
   6  -7879.391
   7  -4137.471
   8  -2196.614
   9  -1037.492
  10  -2452.892
  11  -3215.801
  12  -5641.507
  13  -6459.942
  14  -6227.887
  15  -4437.835
  16  -3435.215
  17  -3217.236
  18  -3206.816
  19  -4381.915
  20  -4459.382
  21  -3570.443
  22  -2617.806
  23  -1043.307
  24  -427.0098
  25  1146.355
  26  828.1812
  27  769.2711
  28  -1057.371
  29  -2089.825
  30  -347.6014
  31  790.2851
  32  2260.309
  33  565.2972
  34  -1737.591
  35  -4933.825
  36  -6175.763
  37  -4791.378
  38  -1771.525
  39  -232.8499
  40  720.9123
  41  -24.65797
  42  -2018.746
  43  -3367.329
  44  -3867.727
  45  706.3924
  46  287.4026
  47  1590.08
  48  -108.4426
  49  -1823.114
  50  -1831.094
  51  -2872.475
  52  -2288.258
  53  -2758.923
  54  -2017.948
  55  -2576.087
  56  -4810.274
  57  -5629.161
  58  -6768.246
  59  -4375.047
  60  -4026.616
  61  -3909.069
  62  -4901.534
  63  -7279.609
  64  -8423.462
  65  -8912.861
  66  -5615.092
  67  -4126.136
  68  -2479.772
  69  -3930.785
  70  -6019.554
  71  -4736.962
  72  -5589.497
  73  -4023.555
  74  -1829.125
  75  1041.266
  76  656.8436
  77  -4090.824
  78  1864.37
  79  4039.494
  80  7430.511
  81  9563.654
  82  9592.556
  83  6701.818
  84  3552.632
  85  1311.343
  86  -326.3834
  87  7728.901
  88  17382.82
  89  23719.6
  90  23669.39
  91  18680.04
  92  10596.63
  93  -891.2515
  94  6362.752
  95  11740.22
  96  16350.35
  97  16873.36
  98  11604.73
  99  2771.963
 100  -3319.469
 101  -2670
 102  -701.3955
 103  -3011.274
 104  -4338.298
 105  -5644.766
 106  -9351.08
 107  -7464.054
 108  -6507.992
 109  -5151.267
 110  -5580.875
 111  -6087.221
 112  -6943.066
 113  -6696.566
 114  -3222.158
 115  -1409.253
 116  -1327.162
 117  -3345.52
 118  -3370.752
 119  -3514.732
 120  -2773.252
 121  206.1766
 122  -63.3377
 123  -1238.698
 124  -1269.71
 125  -1129.701
 126  -2533.124
 127  -3398.97
 128  -4356.266
 129  -5433.154
 130  -5168.955
 131  -4404.817
 132  -3041.607
 133  -2585.298
 134  -4000.242
 135  -7070.688
 136  -7070.977
 137  -7756.919
 138  -7630.756
 139  -7789.809
 140  -6475.765
 141  -4507.986
 142  -4663.348
 143  -5982.073
 144  -7844.931
 145  -9213.52
 146  -9586.636
 147  -6994.741
 148  -4093.305
 149  -2669.433
 150  -2656.461
 151  -5049.95
 152  -6577.261
 153  -7084.381
 154  -7250.91
 155  -6359.197
 156  -5917.598
 157  -5330.109
 158  -6426.877
 159  -6982.108
 160  -7205.201
 161  -7463.293
 162  -7940.616
 163  -6501.659
 164  -4038.125
 165  -2193.296
 166  -193.3791
 167  1311.947
 168  2151.779
 169  2050.894
 170  1054.372
 171  -602.1641
 172  804.3203
 173  782.2646
 174  4502.484
 175  6647.784
 176  4663.63
 177  4762.814
 178  2058.764
 179  2804.952
 180  2606.616
 181  5918.606
 182  8485.45
 183  8731.246
 184  10763.1
 185  6909.062
 186  4677.468
 187  2073.614
 188  6602.749
 189  5635.241
 190  2466.686
 191  1754.291
 192  -361.7163
 193  -1858.945
 194  -1052.719
 195  -1300.675
 196  -3247.009
 197  -4213.421
 198  -3238.247
 199  -2701.632
 200  623.826
 201  652.8779
 202  3028.4
 203  3993.375
 204  2937.771
 205  5430.266
 206  10960.29
 207  7753.013
 208  6250.865
 209  5811.367
 210  9586.879
 211  9682.374
 212  9747.778
 213  10394.51
 214  6490.664
 215  3886.909
 216  1599.445
 217  1438.232
 218  966.4322
 219  1279.683
 220  2560.37
 221  1732.022
 222  542.4844
 223  -2824.457
 224  -4327.49
 225  -7494.445
 226  -6884.78
 227  -5902.294
 228  -5181.093
 229  -3559.908
 230  -2455.911
 231  -2645.138
 232  -6164.265
 233  -6148.77
 234  -5766.862
 235  -5642.645
 236  -4995.985
 237  -5902.272
 238  -2160.847
 239  -2475.799
 240  -2334.581
 241  -3115.824
 242  -4387.196
 243  -6111.34
 244  -7683.933
 245  -3924.068
 246  -2738.904
 247  -2160.647
 248  -2814.498
 249  -5002.278
 250  -7390.235
 251  -6962.367
 252  -4852.377
 253  -3972.356
 254  -4990.829
 255  -7370.163
 256  -8027.658
 257  -8444.296
 258  -5691.781
 259  -4254.435
 260  -3095.71
 261  -2688.354
 262  -5145.297
 263  -9601.804
 264  -11497.54
 265  -8535.148
 266  -6242.605
 267  -3344.581
 268  -1593.5
 269  -402.8308
 270  -3973.82
 271  -6431.997
 272  -7331.524
 273  -6661.037
 274  -3742.415
 275  364.8356
 276  4577.977
 277  5133.033
 278  3758.848
 279  647.5949
 280  -3026.437
 281  -5495.996
 282  -2519.744
 283  9268.687
 284  14605.43
 285  16378.96
 286  15999.43
 287  9271.707
 288  4253.538
 289  863.2178
 290  7419.241
 291  12000.72
 292  14187.07
 293  13311.74
 294  9573.298
 295  2506.685
 296  2549.174
 297  1132.743
 298  4215.406
 299  5281.15
 300  7066.074
 301  9281.024
 302  14306.79
 303  10336.85
 304  7399.99
 305  10016.74
 306  5519.381
 307  6926.169
 308  13593.97
 309  13206.03
 310  12412.98
 311  5392.311
 312  -1187.625
 313  -4419.12
 314  -3202.842
 315  -1786.733
 316  -2830.938
 317  -4738.737
 318  -6830.362
 319  -6794.785
 320  -2860.229
 321  2326.44
 322  9792.877
 323  10778.95
 324  7428.369
 325  1861.682
 326  -4302.938
 327  -316.49
 328  7095.041
 329  19568.17
 330  21336.71
 331  15775.31
 332  7795.72
 333  -1425.493
 334  -582.8107
 335  787.9108
 336  5501.998
 337  6015.984
 338  5379.782
 339  991.3043
 340  -5162.94
 341  -4852.802
 342  -3717.479
 343  5736.673
 344  9581.923
 345  10110.67
 346  7488.906
 347  -479.7423
 348  -3476.359
 349  -5549.176
 350  5527.725
 351  8237.938
 352  8517.288
 353  3095.144
 354  -1315.435
 355  -1553.19
 356  4776.057
 357  8226.611
 358  9247.914
 359  7847.705
 360  -3757.812
 361  -3894.888
 362  -3449.824
 363  8718.116
 364  10838.31
 365  10657.4
 366  6525.138
 367  -1310.372
 368  -4762.269
 369  -8141.854
 370  -36.42371
 371  3012.418
 372  5023.637
 373  4120.34
 374  409.4454
 375  -3334.489
 376  -7186.534
 377  -1904.993
 378  907.1149
 379  2095.909
 380  1299.433
 381  -630.6763
 382  -5640.415
 383  -5869.158
 384  -5146.003
 385  -1974.052
 386  -1758.561
 387  -1698.951
 388  -1680.701
 389  -4832.827
 390  -6951.175
 391  -9189.135
 392  -6558.739
 393  -6549.655
 394  -5263.419
 395  -5370.002
 396  -5018.927
 397  -6199.916
 398  -6801.143
 399  -6499.868
 400  -7829.764
 401  -7178.048
 402  -7068.313
 403  -3335.601
 404  -3348.556
 405  -3607.037
 406  -4714.62
 407  -6800.544
 408  -4763.495
 409  -2671.727
 410  -704.6141
 411  -218.3739
 412  -480.7801
 413  -667.6318
 414  -2667.097
 415  -1009.804
 416  -2630.066
 417  -1811.556
 418  -504.9114
 419  115.9568
 420  203.279
 421  -813.9937
 422  -2137.146
 423  -6194.609
 424  -2756.242
 425  -2421.605
 426  905.4055
 427  6442.152
 428  4660.347
 429  541.3379
 430  -1831.401
 431  -2300.94
 432  -1267.596
 433  1525.166
 434  5064.463
 435  1603.248
 436  -1908.245
 437  -1200.417
 438  -3139.263
 439  -2347.603
 440  768.6479
 441  1771.901
 442  2182.935
 443  1383.043
 444  3616.218
 445  3402.131
 446  4852.274
 447  7782.32
 448  7687.473
 449  6855.146
 450  6515.635
 451  8288.166
 452  5197.756
 453  2777.267
 454  744.4702
 455  768.4642
 456  1320.569
 457  2192.617
 458  1012.722
 459  -298.5661
 460  -3722.456
 461  743.358
 462  3007.559
 463  5249.793
 464  8791.734
 465  5146.655
 466  3116.664
 467  -485.9591
 468  2165.487
 469  2622.395
 470  8847.945
 471  14941.54
 472  18826.46
 473  15885.59
 474  6608.776
 475  -573.5245
 476  -5867.532
 477  -816.567
 478  6331.818
 479  10050.43
 480  9656.384
 481  5684.56
 482  2574.567
 483  2692.799
 484  2734.031
 485  2563.791
 486  -539.884
 487  -369.1273
 488  1296.218
 489  5754.541
 490  5411.019
 491  5261.505
 492  5391.952
 493  4424.858
 494  3735.572
 495  943.1271
 496  -110.8568
 497  -1118.921
 498  35.46506
 499  1511.169
 500  1532.547
 501  471.5443
 502  -1611.515
 503  -2834.219
 504  -5657.05
 505  -5349.693
 506  -5917.795
 507  -6530.802
 508  -6147.003
 509  -6606.167
 510  -7346.689
 511  -8071.317
