# Input file       =  1203242249.109574_cleaned.dat
# Candidate        =  PSR_0332+5434
# Telescope        =  AR
# Epoch_topo       =  58170.415140157107
# Epoch_bary       =  N/A
# T_sample         =  0.002
# Data Folded      =  7208960
# Data Avg         =  0.118403424221537
# Data StdDev      =  1.00052680076139 
# Profile Bins     =  512
# Profile Avg      =  1667.06031892503 
# Profile StdDev   =  118.721685537685 
# Reduced chi-sqr  =  1.561
# Prob(Noise)      <  6.64e-15   (~7.7 sigma)
# P_topo (ms)      =  714.580667966981  +/- 0.000128
# P'_topo (s/s)    =  -0                +/- 6.87e-11
# P''_topo (s/s^2) =  0                 +/- 3.09e-14
# P_bary (ms)      =  N/A
# P'_bary (s/s)    =  N/A
# P''_bary (s/s^2) =  N/A
# P_orb (s)        =  N/A
# asin(i)/c (s)    =  N/A
# eccentricity     =  N/A
# w (rad)          =  N/A
# T_peri           =  N/A
######################################################
   0  1862.624
   1  1803.179
   2  1815.115
   3  1739.962
   4  1570.662
   5  1534.583
   6  1622.303
   7  1690.529
   8  1632.615
   9  1560.521
  10  1670.745
  11  1634.639
  12  1481.224
  13  1502.843
  14  1597.835
  15  1693.198
  16  1616.891
  17  1548.881
  18  1511.666
  19  1632.092
  20  1699.046
  21  1687.254
  22  1755.823
  23  1674.512
  24  1618.133
  25  1595.594
  26  1685.262
  27  1674.956
  28  1747.479
  29  1757.024
  30  1694.763
  31  1612.845
  32  1641.386
  33  1553.945
  34  1573.703
  35  1611.654
  36  1653.891
  37  1730.966
  38  1826.543
  39  1815.188
  40  1879.249
  41  1864.806
  42  1771.663
  43  1687.909
  44  1675.081
  45  1674.928
  46  1702.823
  47  1737.748
  48  1631.599
  49  1605.264
  50  1609.101
  51  1653.289
  52  1679.963
  53  1701.621
  54  1643.061
  55  1716.082
  56  1816.754
  57  1813.838
  58  1807.243
  59  1816.04
  60  1713.625
  61  1714.09
  62  1703.613
  63  1826.409
  64  1825.006
  65  1751.293
  66  1713.628
  67  1763.687
  68  1718.259
  69  1706.131
  70  1656.506
  71  1789.493
  72  1833.651
  73  1857.445
  74  1827.219
  75  1795.81
  76  1672.592
  77  1722.948
  78  1682.924
  79  1664.009
  80  1691.152
  81  1687.526
  82  1709.526
  83  1627.761
  84  1673.234
  85  1705.141
  86  1668.389
  87  1706.266
  88  1706.642
  89  1817.55
  90  1738.835
  91  1615.291
  92  1696.075
  93  1783.904
  94  1739.741
  95  1721.466
  96  1796.25
  97  1701.422
  98  1756.168
  99  1635.953
 100  1570.79
 101  1654.135
 102  1668.621
 103  1746.418
 104  1671.881
 105  1648.326
 106  1603.983
 107  1614.695
 108  1589.508
 109  1698.735
 110  1750.506
 111  1698.887
 112  1656.173
 113  1629.398
 114  1574.935
 115  1569.241
 116  1609.35
 117  1664.506
 118  1698.871
 119  1637.502
 120  1736.556
 121  1721.104
 122  1666.037
 123  1653.51
 124  1626.803
 125  1655.979
 126  1640.745
 127  1636.886
 128  1676.258
 129  1798.121
 130  1769.18
 131  1681.111
 132  1675.739
 133  1600.754
 134  1590.46
 135  1665.11
 136  1666.732
 137  1602.615
 138  1697.111
 139  1864.972
 140  1760.41
 141  1669.237
 142  1647.257
 143  1579.994
 144  1548.745
 145  1617.861
 146  1705.987
 147  1722.487
 148  1658.766
 149  1631.991
 150  1752.444
 151  1730.231
 152  1628.394
 153  1685.418
 154  1764.256
 155  1776.411
 156  1770.335
 157  1723.705
 158  1757.271
 159  1804.478
 160  1760.974
 161  1779.735
 162  1813.184
 163  1870.313
 164  1766.271
 165  1786.996
 166  1798.048
 167  1795.769
 168  1797.195
 169  1808.354
 170  1919.036
 171  2007.665
 172  2033.311
 173  1882.863
 174  1904.113
 175  1891.819
 176  1946.831
 177  1885.426
 178  1953.681
 179  2026.113
 180  1911.175
 181  1947.377
 182  1842.458
 183  1777.272
 184  1811.505
 185  1871.355
 186  1878.148
 187  1874.008
 188  1931.641
 189  1914.335
 190  1818.605
 191  1793.825
 192  1826.648
 193  1852.705
 194  1922.239
 195  1916.515
 196  1763.056
 197  1803.501
 198  1789.98
 199  1794.482
 200  1724.065
 201  1801.748
 202  1844.332
 203  1906.705
 204  1801.234
 205  1849.513
 206  1817.834
 207  1845.589
 208  1828.918
 209  1868.469
 210  1842.631
 211  1788.703
 212  1824.92
 213  1870.114
 214  1781.262
 215  1732.566
 216  1730.075
 217  1692.786
 218  1742.586
 219  1747.18
 220  1818.908
 221  1800.146
 222  1788.722
 223  1661.81
 224  1649.236
 225  1693.71
 226  1649.114
 227  1600.593
 228  1701.506
 229  1702.287
 230  1693.3
 231  1571.107
 232  1576.472
 233  1675.634
 234  1592.618
 235  1650.214
 236  1774.783
 237  1690.95
 238  1622.121
 239  1724.337
 240  1732.761
 241  1571.123
 242  1598.24
 243  1641.736
 244  1650.648
 245  1647.769
 246  1498.436
 247  1539.879
 248  1519.693
 249  1579.309
 250  1626.111
 251  1640.57
 252  1669.821
 253  1709.501
 254  1688.254
 255  1569.646
 256  1590.438
 257  1649.846
 258  1624.76
 259  1614.045
 260  1673.909
 261  1756.696
 262  1699.637
 263  1636.675
 264  1620.282
 265  1613.693
 266  1649.225
 267  1545.763
 268  1601.485
 269  1636.104
 270  1612.965
 271  1632.26
 272  1484.688
 273  1537.27
 274  1642.067
 275  1610.368
 276  1557.64
 277  1561.132
 278  1580.742
 279  1556.022
 280  1622.424
 281  1592.008
 282  1579.566
 283  1536.394
 284  1602.724
 285  1639.524
 286  1619.728
 287  1756.354
 288  1604.474
 289  1625.573
 290  1602.07
 291  1525.063
 292  1597.139
 293  1567.556
 294  1636.695
 295  1529.143
 296  1572.371
 297  1564.147
 298  1562.553
 299  1532.911
 300  1637.612
 301  1665.69
 302  1671.421
 303  1700.807
 304  1741.01
 305  1575.027
 306  1619.609
 307  1645.414
 308  1592.897
 309  1593.679
 310  1665.421
 311  1672.827
 312  1542.64
 313  1489.828
 314  1519.945
 315  1557.36
 316  1549.026
 317  1522.109
 318  1652.379
 319  1715.615
 320  1712.349
 321  1599.53
 322  1606.547
 323  1616.686
 324  1594.222
 325  1573.872
 326  1657.982
 327  1653.466
 328  1679.085
 329  1691.674
 330  1687.534
 331  1619.584
 332  1574.724
 333  1695.537
 334  1732.128
 335  1727.049
 336  1663.264
 337  1777.738
 338  1636.067
 339  1561.478
 340  1663.454
 341  1738.514
 342  1687.291
 343  1736.483
 344  1752.424
 345  1645.757
 346  1665.925
 347  1613.288
 348  1670.597
 349  1664.19
 350  1645.289
 351  1779.124
 352  1770.475
 353  1755.853
 354  1697.864
 355  1635.609
 356  1578.965
 357  1704.373
 358  1734.228
 359  1727.283
 360  1690.325
 361  1701.921
 362  1592.879
 363  1584.866
 364  1619.115
 365  1667.92
 366  1665.671
 367  1753.807
 368  1726.991
 369  1653.727
 370  1646.689
 371  1678.07
 372  1650.903
 373  1671.014
 374  1670.278
 375  1636.325
 376  1668.962
 377  1639.331
 378  1593.977
 379  1593.531
 380  1613.321
 381  1636.055
 382  1610.957
 383  1679.263
 384  1684.873
 385  1781.067
 386  1802.476
 387  1789.659
 388  1688.832
 389  1545.792
 390  1541.742
 391  1560.395
 392  1601.262
 393  1632.013
 394  1645.888
 395  1622.677
 396  1650.202
 397  1604.258
 398  1505.879
 399  1592.434
 400  1622.344
 401  1610.007
 402  1544.821
 403  1639.927
 404  1662.731
 405  1590.225
 406  1579.349
 407  1641.468
 408  1661.659
 409  1669.418
 410  1693.048
 411  1625.558
 412  1596.002
 413  1593.675
 414  1614.332
 415  1598.346
 416  1571.043
 417  1565.294
 418  1717.538
 419  1697.592
 420  1739.302
 421  1735.941
 422  1685.2
 423  1708.456
 424  1650.769
 425  1660.997
 426  1591.334
 427  1571.16
 428  1572.73
 429  1559.207
 430  1546.818
 431  1570.507
 432  1589.214
 433  1544.228
 434  1670.995
 435  1731.381
 436  1648.251
 437  1498.373
 438  1604.707
 439  1568.313
 440  1613.873
 441  1619.482
 442  1554.444
 443  1499.312
 444  1503.505
 445  1453.597
 446  1524.261
 447  1557.411
 448  1529.115
 449  1514.008
 450  1675.576
 451  1667.612
 452  1574.337
 453  1554.547
 454  1573.67
 455  1498.23
 456  1587.844
 457  1659.401
 458  1565.723
 459  1574.428
 460  1601.389
 461  1569.371
 462  1593.389
 463  1569.513
 464  1496.127
 465  1442.189
 466  1486.121
 467  1551.714
 468  1579.101
 469  1508.19
 470  1442.967
 471  1497.764
 472  1489.4
 473  1487.264
 474  1496.883
 475  1434.175
 476  1566.182
 477  1576.818
 478  1508.454
 479  1426.788
 480  1414.276
 481  1422.537
 482  1491.876
 483  1522.776
 484  1578.057
 485  1566.065
 486  1548.417
 487  1419.93
 488  1442.271
 489  1424.811
 490  1507.593
 491  1566.797
 492  1594.139
 493  1540.828
 494  1552
 495  1629.612
 496  1518.774
 497  1429.06
 498  1571.096
 499  1688.534
 500  1686.542
 501  1653.368
 502  1718.639
 503  1689.528
 504  1644.045
 505  1609.717
 506  1595.21
 507  1568.321
 508  1597.394
 509  1758.238
 510  1913.93
 511  1909.257
