# Input file       =  1203155681.096231_cleaned.dat
# Candidate        =  PSR_0332+5434
# Telescope        =  AR
# Epoch_topo       =  58169.413195558227
# Epoch_bary       =  N/A
# T_sample         =  0.002
# Data Folded      =  7405568
# Data Avg         =  0.279991674846846
# Data StdDev      =  5.31089745435896 
# Profile Bins     =  1024
# Profile Avg      =  2024.8575445358  
# Profile StdDev   =  451.644914690536 
# Reduced chi-sqr  =  0.632
# Prob(Noise)      <  1   (~0.0 sigma)
# P_topo (ms)      =  714.580620019776  +/- 8.12e-05
# P'_topo (s/s)    =  -0                +/- 4.25e-11
# P''_topo (s/s^2) =  0                 +/- 1.86e-14
# P_bary (ms)      =  N/A
# P'_bary (s/s)    =  N/A
# P''_bary (s/s^2) =  N/A
# P_orb (s)        =  N/A
# asin(i)/c (s)    =  N/A
# eccentricity     =  N/A
# w (rad)          =  N/A
# T_peri           =  N/A
######################################################
   0  2224.909
   1  2185.155
   2  2237.866
   3  2139.43
   4  2027.988
   5  2079.41
   6  1986.836
   7  2027.717
   8  1975.475
   9  1940.173
  10  1928.76
  11  1837.64
  12  1929.911
  13  1924.748
  14  1840.272
  15  1721.105
  16  1563.053
  17  1614.445
  18  1791.868
  19  1779.477
  20  1775.398
  21  1684.092
  22  1828.018
  23  1927.313
  24  1905.668
  25  2062.205
  26  1986.408
  27  2113.671
  28  2122.154
  29  2273.506
  30  2276.953
  31  2243.042
  32  2125.121
  33  2059.659
  34  1971.303
  35  1882.863
  36  2023.641
  37  2130.311
  38  2127.237
  39  2105.593
  40  2095.679
  41  1957.369
  42  1890.916
  43  1891.844
  44  1849.322
  45  1856.125
  46  1779.594
  47  1811.908
  48  1707.467
  49  1793.912
  50  1786.319
  51  1791.354
  52  1766.839
  53  1774.118
  54  1838.374
  55  1923.099
  56  2007.16
  57  2115.977
  58  2006.13
  59  1966.714
  60  1922.784
  61  2083.505
  62  2095.169
  63  2115.565
  64  2125.986
  65  2149.895
  66  2144.465
  67  2177.028
  68  2195.908
  69  2299.058
  70  2282.343
  71  2152.438
  72  2090.662
  73  1946.421
  74  1906.703
  75  1964.451
  76  1933.658
  77  1844.222
  78  1786.052
  79  1970.423
  80  1997.035
  81  1959.847
  82  2090.258
  83  2195.792
  84  2219.627
  85  2123.947
  86  2048.074
  87  2097.711
  88  2210.425
  89  2258.902
  90  2209.833
  91  2121.865
  92  2154.975
  93  2324.183
  94  2428.753
  95  2418.297
  96  2481.695
  97  2507.51
  98  2514.154
  99  2335.295
 100  2329.665
 101  2328.974
 102  2324.5
 103  2280.401
 104  2144.723
 105  2000.166
 106  1917.753
 107  1964.919
 108  1960.163
 109  1947.586
 110  1894.934
 111  1812.049
 112  1734.367
 113  1904.462
 114  2136.076
 115  2286.452
 116  2175.878
 117  2158.742
 118  2159.396
 119  1967.911
 120  1987.402
 121  1894.197
 122  1978.94
 123  1914.287
 124  1873.766
 125  1953.034
 126  1910.786
 127  1882.334
 128  2023.656
 129  2007.055
 130  2070.113
 131  1998.7
 132  2063.193
 133  2114.565
 134  2058.378
 135  2198.066
 136  2143.535
 137  2205.649
 138  2090.535
 139  2044.296
 140  2044.229
 141  1973.897
 142  1892.598
 143  1964.39
 144  2007.786
 145  1965.682
 146  1789.376
 147  1760.189
 148  1782.969
 149  1699.041
 150  1819.742
 151  1934.094
 152  2059.538
 153  1932.345
 154  1928.617
 155  2098.066
 156  2107.855
 157  2093.046
 158  2196.087
 159  2255.319
 160  2368.697
 161  2306.035
 162  2285.078
 163  2258.766
 164  2134.002
 165  2113.326
 166  1915.771
 167  1882.075
 168  2045.843
 169  2113.14
 170  2094.774
 171  1915.394
 172  1882.536
 173  2003.116
 174  2046.757
 175  2077.164
 176  2000.379
 177  1830.65
 178  1757.155
 179  1879.701
 180  1860.32
 181  1803.522
 182  1655.592
 183  1753.776
 184  1679.49
 185  1701.991
 186  1720.037
 187  1790.255
 188  1787.677
 189  1766.572
 190  1851.877
 191  1849.518
 192  1884.611
 193  1966.957
 194  2051.556
 195  2077.771
 196  2051.427
 197  2102.356
 198  2121.927
 199  2066.535
 200  2059.164
 201  2105.169
 202  2073.401
 203  2105.854
 204  2057.832
 205  1976.554
 206  1778.32
 207  1669.279
 208  1699.388
 209  1743.702
 210  1852.262
 211  1783.678
 212  1766.009
 213  1701.067
 214  1773.389
 215  1742.862
 216  1885.543
 217  1944.909
 218  1986.716
 219  1934.684
 220  2028.58
 221  2124.999
 222  2189.846
 223  2253.617
 224  2150.447
 225  2010.738
 226  1826.435
 227  1918.001
 228  2023.78
 229  2081.762
 230  2069.186
 231  2199.174
 232  2132.638
 233  1957.963
 234  1935.773
 235  2015.623
 236  2098.475
 237  2005.53
 238  1965.8
 239  1833.159
 240  1797.361
 241  1770.253
 242  1662.216
 243  1718.447
 244  1748.59
 245  1838.706
 246  1771.703
 247  1678.994
 248  1636.84
 249  1605.86
 250  1698.676
 251  1752.014
 252  1801.818
 253  1927.242
 254  1985.333
 255  1873.726
 256  1813.404
 257  1777.247
 258  1979.002
 259  1996.625
 260  2104.382
 261  2115.895
 262  2084.425
 263  2125.767
 264  2066.035
 265  1942.907
 266  1944.097
 267  1858.76
 268  1888.299
 269  1642.302
 270  1732.417
 271  1660.925
 272  1715.206
 273  1835.221
 274  1939.822
 275  1884.648
 276  1834.366
 277  1843.705
 278  1881.565
 279  1754.467
 280  1799.458
 281  1852.722
 282  1846.188
 283  1706.073
 284  1727.065
 285  1774.595
 286  1780.735
 287  1721.938
 288  1856.652
 289  1888.024
 290  1921.677
 291  1856.849
 292  1914.343
 293  1947.953
 294  1985.02
 295  2071.68
 296  2110.098
 297  1940.121
 298  1884.942
 299  2011.37
 300  2286.257
 301  2261.579
 302  2074.285
 303  1999.82
 304  1917.597
 305  1972.431
 306  1939.046
 307  1913.545
 308  1784.218
 309  1644.179
 310  1598.925
 311  1572.014
 312  1575.602
 313  1701.149
 314  1693.492
 315  1717.712
 316  1749.648
 317  1959.122
 318  2007.925
 319  1910.584
 320  1865.213
 321  1842.022
 322  1908.696
 323  1954.8
 324  2049.587
 325  2042.83
 326  2074.836
 327  2088.717
 328  2114.377
 329  1999.564
 330  1957.222
 331  1943.036
 332  2001.073
 333  2042.963
 334  2032.735
 335  1888.123
 336  1880.519
 337  1813.284
 338  1829.828
 339  1664.026
 340  1734.528
 341  1589.623
 342  1518.787
 343  1522.082
 344  1646.545
 345  1826.742
 346  1700.974
 347  1763.035
 348  1806.438
 349  1904.45
 350  1994.946
 351  1942.26
 352  1891.214
 353  1827.569
 354  1781.867
 355  1770.708
 356  1738.98
 357  1808.839
 358  2004.419
 359  2127.105
 360  2253.068
 361  2158.197
 362  2227.712
 363  2123.023
 364  2271.332
 365  2310.138
 366  2249.124
 367  2142.857
 368  2124.089
 369  2138.591
 370  2104.338
 371  2023.276
 372  1905.691
 373  1890.76
 374  1910.151
 375  1844.962
 376  1940.156
 377  1874.681
 378  1902.772
 379  1821.442
 380  1976.463
 381  1992.16
 382  1978.036
 383  2032.146
 384  2011.541
 385  2028.288
 386  2035.991
 387  2116.111
 388  2195.633
 389  2238.743
 390  2215.548
 391  2338.023
 392  2276.33
 393  2354.707
 394  2362.764
 395  2456.754
 396  2417.3
 397  2384.499
 398  2229.287
 399  2154.699
 400  2023.209
 401  2212.011
 402  2103.155
 403  2051.721
 404  1970.654
 405  2053.386
 406  2013.67
 407  1891.007
 408  1925.987
 409  1933.434
 410  1899.104
 411  1920.609
 412  1884.712
 413  1843.141
 414  1819.559
 415  1938.68
 416  2106.39
 417  2017.076
 418  2060.809
 419  2247.151
 420  2338.216
 421  2302.265
 422  2182.903
 423  2266.02
 424  2223.592
 425  2154.041
 426  2256.597
 427  2316.765
 428  2387.571
 429  2271.924
 430  2188.134
 431  2202.638
 432  2228.666
 433  2306.789
 434  2328.777
 435  2252.816
 436  2134.609
 437  2025.028
 438  2092.299
 439  2067.891
 440  2029.155
 441  1992.398
 442  2005.567
 443  2126.635
 444  2047.464
 445  2045.976
 446  1917.84
 447  1907.989
 448  1964.77
 449  2015.454
 450  2063.687
 451  2225.172
 452  2393.846
 453  2478.57
 454  2278.163
 455  2261.558
 456  2268.37
 457  2288.372
 458  2268.166
 459  2340.226
 460  2313.239
 461  2410.243
 462  2370.616
 463  2370.928
 464  2228.634
 465  2230.929
 466  2265.406
 467  2204.235
 468  2074.178
 469  2016.503
 470  2121.268
 471  2151.627
 472  2081.094
 473  2033.248
 474  2049.515
 475  2012.651
 476  1981.607
 477  1913.839
 478  1964.025
 479  1797.012
 480  1856.865
 481  1754.789
 482  1793.763
 483  1881.712
 484  2108.791
 485  2100.931
 486  1974.425
 487  2068.923
 488  2128.866
 489  2142.086
 490  2091.163
 491  2095.513
 492  2055.41
 493  2076.534
 494  2269.415
 495  2278.311
 496  2101.166
 497  1994.849
 498  2145.115
 499  2203.808
 500  2155.102
 501  2074.636
 502  2126.171
 503  2016.473
 504  1896.286
 505  1703.817
 506  1716.467
 507  1786.745
 508  1865.374
 509  1894.564
 510  1916.057
 511  1896.241
 512  1791.155
 513  1933.949
 514  1996.512
 515  2025.823
 516  1998.066
 517  2113.472
 518  2202.007
 519  2147.325
 520  2091.338
 521  2129.936
 522  2125.539
 523  2207.968
 524  2216.171
 525  2166.768
 526  2230.63
 527  2284.333
 528  2248.982
 529  2128.449
 530  2039.291
 531  2104.64
 532  2314.513
 533  2259.947
 534  2118.583
 535  1730.727
 536  1758.29
 537  1663.933
 538  1801.949
 539  1820.164
 540  1835.844
 541  1894.814
 542  1893.761
 543  1854.79
 544  1859.288
 545  1874.134
 546  1981.126
 547  1833.475
 548  1788.557
 549  1742.516
 550  1677.71
 551  1724.639
 552  1805.384
 553  1952.645
 554  2029.363
 555  2000.305
 556  2071.214
 557  2254.574
 558  2487.873
 559  2526.802
 560  2326.986
 561  2279.517
 562  2193.986
 563  2158.923
 564  2084.982
 565  1940.74
 566  1825.043
 567  1873.638
 568  1974.564
 569  2018.806
 570  1907.309
 571  2068.169
 572  2093.708
 573  2036.308
 574  1918.853
 575  1805.375
 576  1705.296
 577  1611.698
 578  1697.05
 579  1833.722
 580  1787.61
 581  1689.917
 582  1771.681
 583  1913.95
 584  2013.833
 585  2088.004
 586  2213.937
 587  2202.156
 588  2124.859
 589  2205.374
 590  2276.708
 591  2362.03
 592  2377.583
 593  2392.883
 594  2261.71
 595  2271.305
 596  2350.713
 597  2476.396
 598  2628.584
 599  2471.673
 600  2321.655
 601  2075.602
 602  2086.806
 603  2062.647
 604  2130.668
 605  2109.03
 606  2161.86
 607  2319.148
 608  2506.591
 609  2594.219
 610  2548.74
 611  2488.728
 612  2486.307
 613  2476.042
 614  2410.004
 615  2445.243
 616  2393.281
 617  2420.842
 618  2251.836
 619  2211.643
 620  2086.839
 621  2214.618
 622  2281.676
 623  2414.113
 624  2266.506
 625  2242.304
 626  2135.038
 627  2186.234
 628  2163.196
 629  2177.015
 630  2124.095
 631  2129.657
 632  2152.609
 633  2099.122
 634  2061.883
 635  2095.234
 636  2181.185
 637  2233.38
 638  2154.454
 639  2139.024
 640  2143.708
 641  2177.227
 642  2148.521
 643  2134.762
 644  2238.577
 645  2148.298
 646  2108.431
 647  1926.4
 648  2008.97
 649  1922.171
 650  2067.515
 651  2013.734
 652  2022.78
 653  1947.667
 654  2090.796
 655  2350.041
 656  2282.691
 657  2278.668
 658  2300.973
 659  2412.541
 660  2302.76
 661  2294.087
 662  2430.116
 663  2480.522
 664  2271.026
 665  2323.736
 666  2259.746
 667  2202.506
 668  1942.3
 669  2004.459
 670  2172.954
 671  2179.518
 672  2127.307
 673  1938.143
 674  1886.139
 675  1976.863
 676  1951.082
 677  1964.336
 678  1987.25
 679  2074.82
 680  2176.318
 681  2174.56
 682  2239.565
 683  2159.5
 684  2223.51
 685  2160.914
 686  2109.798
 687  2065.858
 688  2207.626
 689  2234.876
 690  2221.819
 691  2193.563
 692  2209.082
 693  2172.655
 694  2282.674
 695  2290.598
 696  2244.614
 697  2147.079
 698  2141.461
 699  2203.185
 700  2203.089
 701  2166.751
 702  2079.18
 703  1991.819
 704  1967.767
 705  1856.293
 706  1769.926
 707  1692.846
 708  1829.139
 709  1961.661
 710  1804.799
 711  1716.414
 712  1587.864
 713  1705.002
 714  1665.816
 715  1594.746
 716  1595.997
 717  1611.663
 718  1788.114
 719  1972.429
 720  2142.832
 721  2159.747
 722  2208.991
 723  2328.319
 724  2354.928
 725  2237.726
 726  2148.695
 727  2156.627
 728  2130.68
 729  2216.341
 730  2167.3
 731  2149.369
 732  1888.926
 733  1797.171
 734  1857.429
 735  1896.641
 736  1965.548
 737  1894.731
 738  1898.183
 739  1843.779
 740  1847.175
 741  1947.761
 742  1830.865
 743  1677.555
 744  1505.657
 745  1526.177
 746  1608.374
 747  1602.82
 748  1706.329
 749  1790.082
 750  1898.11
 751  1969.42
 752  1985.312
 753  1951.059
 754  1885.331
 755  1982.746
 756  2174.022
 757  2118.707
 758  1903.959
 759  1807.826
 760  1815.26
 761  1817.909
 762  1749.732
 763  1789.901
 764  1740.755
 765  1864.573
 766  2020.315
 767  2105.609
 768  2101.02
 769  1922.229
 770  1724.007
 771  1559.15
 772  1536.766
 773  1690.375
 774  1786.403
 775  1866.744
 776  1658.979
 777  1612.849
 778  1696.337
 779  1895.017
 780  2044.837
 781  2076.811
 782  2096.228
 783  2000.711
 784  1904.402
 785  1783.789
 786  1833.555
 787  1911.234
 788  1946.973
 789  2025.838
 790  2132.68
 791  2173.201
 792  2127.864
 793  2078.899
 794  2027.914
 795  2025.769
 796  2042.885
 797  2013.303
 798  1930.224
 799  1821.421
 800  1866.724
 801  1870.447
 802  1796.26
 803  1819.218
 804  1780.643
 805  1844.035
 806  1815.217
 807  1962.353
 808  2128.14
 809  2099.178
 810  1983.417
 811  1902.229
 812  1819.224
 813  1935.015
 814  1948.614
 815  1995.433
 816  1834.377
 817  1781.539
 818  1898.093
 819  2061.177
 820  2110.296
 821  1997.327
 822  1975.52
 823  2017.129
 824  2155.617
 825  2195.691
 826  2113.978
 827  2051.043
 828  2047.329
 829  2176.909
 830  1990.091
 831  1825.528
 832  1672.98
 833  1876.101
 834  1878.518
 835  1968.712
 836  1899.731
 837  2069.437
 838  1954.941
 839  2049.412
 840  1940.334
 841  2128.512
 842  2074.572
 843  1952.67
 844  1791.492
 845  1735.684
 846  1862.813
 847  2000.299
 848  2195.754
 849  2201.406
 850  2061.802
 851  1865.451
 852  2043.758
 853  2122.644
 854  2397.716
 855  2464.119
 856  2567.669
 857  2464.4
 858  2313.797
 859  2365.406
 860  2303.141
 861  2292.739
 862  2110.934
 863  2116.44
 864  1960.339
 865  1997.876
 866  1842.907
 867  1936.222
 868  1991.015
 869  2130.297
 870  2109.842
 871  2016.849
 872  1960.437
 873  1974.674
 874  2005.276
 875  2041.615
 876  1892.976
 877  1821.026
 878  1813.437
 879  1962.87
 880  2048.573
 881  2106.215
 882  2181.563
 883  2253.423
 884  2289.598
 885  2264.479
 886  2203.301
 887  2164.001
 888  2106.05
 889  2148.552
 890  2095.936
 891  2126.648
 892  2068.71
 893  2128.231
 894  2206.543
 895  2261.619
 896  2351.784
 897  2311.476
 898  2201.221
 899  2071.217
 900  1966.175
 901  2052.843
 902  2095.426
 903  2087.442
 904  2041.046
 905  2074.213
 906  2072.199
 907  2096.933
 908  1931.859
 909  1876.633
 910  1848.805
 911  2072.516
 912  2208.979
 913  2253.692
 914  2190.849
 915  2103.234
 916  2122.238
 917  2130.173
 918  2101.81
 919  2053.579
 920  2185.624
 921  2316.515
 922  2348.688
 923  2382.923
 924  2310.394
 925  2226.527
 926  2170.976
 927  2161.07
 928  2112.083
 929  2183.552
 930  2139.9
 931  2084.137
 932  2068.519
 933  2108.325
 934  2102.891
 935  2040.438
 936  2029.521
 937  1925.055
 938  1895.776
 939  1843.266
 940  1823.539
 941  1829.169
 942  1872.774
 943  2002.401
 944  2072.728
 945  2128.818
 946  2067.58
 947  2129.594
 948  2321.417
 949  2332.266
 950  2258.546
 951  2094.587
 952  2090.644
 953  2134.889
 954  2186.992
 955  2270.633
 956  2255.931
 957  2118.332
 958  2075.425
 959  2121.75
 960  2222.885
 961  2330.687
 962  2425.543
 963  2345.838
 964  1969.759
 965  1727.565
 966  1956.957
 967  2127.484
 968  2106.316
 969  1788.899
 970  1741.748
 971  1862.856
 972  1924.211
 973  1872.685
 974  1815.977
 975  1843.357
 976  1844.808
 977  1810.366
 978  1713.944
 979  1847.07
 980  1855.664
 981  2022.331
 982  1909.975
 983  1675.071
 984  1665.445
 985  1874.098
 986  2228.536
 987  2357.085
 988  2416.422
 989  2472.249
 990  2440.584
 991  2274.576
 992  2155.999
 993  2086.698
 994  2148.147
 995  2097.106
 996  2089.742
 997  2008.037
 998  1886.19
 999  1726.253
1000  1704.666
1001  1839.245
1002  1946.801
1003  1984.058
1004  2041.46
1005  2095.003
1006  2153.814
1007  2117.105
1008  2030.473
1009  2024.018
1010  2055.832
1011  2024.108
1012  1966.424
1013  1958.467
1014  1886.264
1015  1804.141
1016  1923.814
1017  1991.579
1018  2001.313
1019  2097.383
1020  2233.405
1021  2239.594
1022  2199.668
1023  2096.328
