# Input file       =  1203429282.104877_cleaned.dat
# Candidate        =  PSR_0332+5434
# Telescope        =  AR
# Epoch_topo       =  58172.579873899042
# Epoch_bary       =  N/A
# T_sample         =  0.002
# Data Folded      =  7340032
# Data Avg         =  0.0626097067773338
# Data StdDev      =  1.00016921340443 
# Profile Bins     =  512
# Profile Avg      =  897.549844459259 
# Profile StdDev   =  119.753296811474 
# Reduced chi-sqr  =  1.553
# Prob(Noise)      <  1.4e-14   (~7.6 sigma)
# P_topo (ms)      =  714.580743130157  +/- 0.000836
# P'_topo (s/s)    =  -0                +/- 4.41e-10
# P''_topo (s/s^2) =  0                 +/- 1.95e-13
# P_bary (ms)      =  N/A
# P'_bary (s/s)    =  N/A
# P''_bary (s/s^2) =  N/A
# P_orb (s)        =  N/A
# asin(i)/c (s)    =  N/A
# eccentricity     =  N/A
# w (rad)          =  N/A
# T_peri           =  N/A
######################################################
   0  1428.387
   1  1351.967
   2  1301.662
   3  1243.725
   4  1194.074
   5  1061.506
   6  1043.691
   7  1061.932
   8  1081.596
   9  1130.986
  10  1082.512
  11  1103.422
  12  981.171
  13  954.5631
  14  971.9224
  15  952.689
  16  971.1935
  17  976.1183
  18  995.7242
  19  1026.748
  20  1106.05
  21  1081.425
  22  972.1202
  23  978.9589
  24  1045.003
  25  1030.964
  26  966.5394
  27  1002.054
  28  977.8641
  29  908.9904
  30  979.0685
  31  1029.986
  32  992.8408
  33  996.1093
  34  937.8248
  35  974.2183
  36  965.3928
  37  925.3259
  38  990.2504
  39  999.9016
  40  998.781
  41  959.6276
  42  954.4807
  43  915.068
  44  956.1423
  45  887.9916
  46  860.5181
  47  929.1845
  48  1008.02
  49  1032.636
  50  935.7597
  51  843.3249
  52  871.2312
  53  969.6064
  54  1002.749
  55  1059.883
  56  1015.206
  57  970.8888
  58  980.8533
  59  958.8348
  60  932.171
  61  950.267
  62  1049.746
  63  1081.02
  64  1079.438
  65  1031.739
  66  1026.169
  67  1090.774
  68  1022.384
  69  1026.44
  70  1075.722
  71  1073.168
  72  999.942
  73  942.7077
  74  910.0447
  75  984.6982
  76  1022.745
  77  1025.153
  78  932.8319
  79  922.688
  80  907.7225
  81  985.3771
  82  973.1161
  83  949.528
  84  874.8878
  85  902.4567
  86  895.4609
  87  867.1332
  88  858.2393
  89  869.2745
  90  881.6401
  91  903.4637
  92  874.7688
  93  873.433
  94  894.7772
  95  901.4222
  96  877.8489
  97  906.1776
  98  954.048
  99  854.8245
 100  856.781
 101  875.4767
 102  874.4496
 103  898.2285
 104  923.6822
 105  916.3248
 106  927.9233
 107  876.418
 108  885.7573
 109  842.2007
 110  898.0312
 111  902.8862
 112  956.1232
 113  906.0433
 114  931.7864
 115  918.2087
 116  912.466
 117  889.1661
 118  844.0851
 119  855.5555
 120  914.408
 121  903.3395
 122  868.9797
 123  864.8675
 124  818.52
 125  842.0763
 126  888.5993
 127  901.4805
 128  871.084
 129  880.4053
 130  858.39
 131  875.8679
 132  850.2401
 133  910.5726
 134  961.0057
 135  965.7227
 136  915.6786
 137  953.8635
 138  993.9207
 139  957.2291
 140  986.394
 141  940.9543
 142  897.7532
 143  845.8599
 144  784.2105
 145  890.9942
 146  863.3362
 147  852.3405
 148  834.2683
 149  850.7155
 150  837.6203
 151  855.0656
 152  902.0065
 153  883.0243
 154  858.8931
 155  853.2914
 156  840.234
 157  820.6866
 158  793.8757
 159  783.1383
 160  832.2732
 161  828.2753
 162  854.6707
 163  871.5391
 164  859.0635
 165  838.3547
 166  799.395
 167  823.1676
 168  880.083
 169  913.085
 170  880.7905
 171  902.3834
 172  917.9314
 173  851.2652
 174  805.6871
 175  863.6179
 176  901.3102
 177  869.6249
 178  898.8231
 179  862.2619
 180  809.335
 181  785.342
 182  822.1143
 183  862.881
 184  879.1362
 185  899.6309
 186  866.3885
 187  910.196
 188  844.7431
 189  843.8967
 190  899.7971
 191  877.4202
 192  814.5607
 193  838.7514
 194  828.3357
 195  810.1693
 196  844.5186
 197  899.374
 198  907.9418
 199  840.3572
 200  799.7527
 201  757.7422
 202  736.5792
 203  732.8144
 204  772.1812
 205  777.9417
 206  798.8561
 207  741.0233
 208  692.4866
 209  729.9333
 210  754.9128
 211  734.8953
 212  731.8193
 213  725.071
 214  716.6948
 215  758.2665
 216  778.91
 217  726.5785
 218  724.8904
 219  750.4403
 220  798.8667
 221  835.6823
 222  827.039
 223  840.7115
 224  852.6273
 225  827.9554
 226  868.047
 227  850.9393
 228  835.7887
 229  773.098
 230  752.6091
 231  785.8356
 232  836.5391
 233  845.0811
 234  820.6603
 235  786.2961
 236  728.5372
 237  766.1597
 238  735.4863
 239  783.9226
 240  853.2294
 241  835.1857
 242  857.3685
 243  901.4218
 244  811.9219
 245  841.7711
 246  839.2162
 247  884.1426
 248  927.3115
 249  876.555
 250  880.1932
 251  884.4772
 252  933.1752
 253  937.5905
 254  916.8972
 255  901.0945
 256  871.0796
 257  896.1712
 258  814.7385
 259  833.4639
 260  874.6724
 261  845.8332
 262  886.7185
 263  856.5789
 264  890.4211
 265  916.5215
 266  907.7748
 267  920.0032
 268  891.5615
 269  917.9044
 270  931.1426
 271  904.9811
 272  963.5607
 273  963.4295
 274  1000.252
 275  970.3494
 276  956.4298
 277  882.8644
 278  818.9348
 279  769.7227
 280  739.5239
 281  754.9609
 282  794.4933
 283  789.3823
 284  795.6772
 285  814.7476
 286  789.7697
 287  744.1637
 288  690.1077
 289  734.1825
 290  760.687
 291  787.7497
 292  806.7297
 293  756.2674
 294  763.0936
 295  741.0646
 296  709.9396
 297  787.1984
 298  747.6853
 299  766.864
 300  743.7703
 301  721.6076
 302  732.3271
 303  684.5226
 304  792.3558
 305  767.2528
 306  800.8306
 307  768.1327
 308  755.9445
 309  815.0885
 310  837.6431
 311  876.1999
 312  853.5986
 313  791.3879
 314  809.7563
 315  813.1271
 316  820.1662
 317  777.6905
 318  823.1246
 319  888.2488
 320  878.8244
 321  811.3052
 322  792.9957
 323  777.1799
 324  742.5453
 325  769.968
 326  798.046
 327  756.6094
 328  725.7688
 329  777.1352
 330  876.5417
 331  889.6826
 332  907.5032
 333  814.778
 334  780.0985
 335  828.888
 336  873.4233
 337  881.8284
 338  929.65
 339  875.6695
 340  873.9928
 341  917.5466
 342  925.7177
 343  892.7354
 344  777.6261
 345  773.5891
 346  771.7313
 347  787.5935
 348  851.1646
 349  873.1902
 350  929.1351
 351  869.9919
 352  703.1558
 353  703.981
 354  735.5169
 355  749.4176
 356  758.0719
 357  726.0975
 358  819.8301
 359  803.6149
 360  747.666
 361  750.9491
 362  841.549
 363  847.4136
 364  828.2897
 365  892.3572
 366  885.983
 367  893.7058
 368  918.2922
 369  854.2609
 370  904.3747
 371  933.3315
 372  943.8505
 373  919.5598
 374  806.2237
 375  791.8873
 376  834.5455
 377  827.6239
 378  836.6755
 379  905.4415
 380  921.963
 381  921.3881
 382  931.8976
 383  933.1658
 384  893.315
 385  984.4649
 386  928.3362
 387  853.8792
 388  992.1981
 389  1028.25
 390  1006.823
 391  1002.2
 392  881.7697
 393  871.3884
 394  830.2615
 395  829.4647
 396  856.9814
 397  833.7585
 398  786.2829
 399  747.5922
 400  872.8532
 401  889.6648
 402  842.2161
 403  856.9136
 404  928.5505
 405  846.5967
 406  889.1267
 407  892.0557
 408  832.7201
 409  898.5786
 410  920.1083
 411  842.5358
 412  725.8356
 413  712.9755
 414  807.0777
 415  818.5451
 416  838.3989
 417  812.2059
 418  805.6624
 419  830.2957
 420  767.1165
 421  746.0137
 422  762.8444
 423  829.9242
 424  895.7779
 425  942.2037
 426  847.4534
 427  869.5123
 428  848.8284
 429  825.1683
 430  938.9913
 431  934.8403
 432  976.2041
 433  891.9881
 434  796.6473
 435  736.3435
 436  759.9805
 437  837.028
 438  910.217
 439  906.2868
 440  912.3866
 441  938.1288
 442  901.2861
 443  921.0409
 444  967.7725
 445  896.8782
 446  882.4532
 447  891.351
 448  960.5903
 449  910.5995
 450  916.9591
 451  964.4703
 452  977.3807
 453  981.8469
 454  934.9247
 455  1014.023
 456  1019.936
 457  1017.724
 458  941.4562
 459  1003.131
 460  1097.2
 461  1073.36
 462  984.846
 463  950.5496
 464  945.0566
 465  968.8899
 466  994.8438
 467  1068.018
 468  1008.691
 469  946.5979
 470  924.5901
 471  841.134
 472  893.6229
 473  982.8265
 474  1028.204
 475  1045.185
 476  1023.862
 477  1055.123
 478  1013.324
 479  1030.022
 480  1011.038
 481  976.9714
 482  986.119
 483  1039.135
 484  1036.067
 485  1116.823
 486  1116.31
 487  1057.741
 488  1086.204
 489  1059.296
 490  1049.417
 491  990.614
 492  960.5205
 493  1084.48
 494  1100.073
 495  1068.529
 496  1054.728
 497  1027.01
 498  989.5101
 499  1063.328
 500  1046.492
 501  1076.631
 502  1102.392
 503  1125.889
 504  1084.505
 505  1075.041
 506  1086.135
 507  1114.546
 508  1219.368
 509  1257.521
 510  1270.022
 511  1283.886
