# Input file       =  1203328409.099087_cleaned.dat
# Candidate        =  PSR_0332+5434
# Telescope        =  AR
# Epoch_topo       =  58171.412362257950
# Epoch_bary       =  N/A
# T_sample         =  0.002
# Data Folded      =  7208960
# Data Avg         =  0.500752479406286
# Data StdDev      =  5.59201747997119 
# Profile Bins     =  512
# Profile Avg      =  7050.84536919697 
# Profile StdDev   =  663.544185196398 
# Reduced chi-sqr  =  3.519
# Prob(Noise)      <  1.29e-142   (~25.4 sigma)
# P_topo (ms)      =  714.580703862634  +/- 1.63e-05
# P'_topo (s/s)    =  -0                +/- 8.74e-12
# P''_topo (s/s^2) =  0                 +/- 3.93e-15
# P_bary (ms)      =  N/A
# P'_bary (s/s)    =  N/A
# P''_bary (s/s^2) =  N/A
# P_orb (s)        =  N/A
# asin(i)/c (s)    =  N/A
# eccentricity     =  N/A
# w (rad)          =  N/A
# T_peri           =  N/A
######################################################
   0  6817.543
   1  6943.479
   2  6859.923
   3  6917.771
   4  7150.442
   5  7449.549
   6  7217.775
   7  6405.079
   8  6004.589
   9  6111.259
  10  6356.519
  11  6923.762
  12  7784.039
  13  8536.404
  14  7869.103
  15  7587.206
  16  7073.196
  17  6390.82
  18  6240.554
  19  6617.247
  20  6802.268
  21  6991.512
  22  7120.968
  23  6696.464
  24  6209.361
  25  5780.829
  26  5978.29
  27  6882.013
  28  7671.118
  29  8197.912
  30  8759.863
  31  8530.95
  32  7686.087
  33  7147.17
  34  6515.243
  35  6810.044
  36  6549.523
  37  6845.431
  38  7336.002
  39  7241.827
  40  6556.107
  41  5986.967
  42  6023.694
  43  6411.928
  44  7355.011
  45  8638.893
  46  9744.191
  47  10092.8
  48  9210.896
  49  8495.006
  50  7599.06
  51  7147.461
  52  6892.95
  53  7056.097
  54  7758.886
  55  7358.289
  56  6575.625
  57  6002.679
  58  5673.654
  59  6271.205
  60  6878.969
  61  7234.417
  62  8383.704
  63  8832.639
  64  8457.143
  65  7573.469
  66  6984.7
  67  6658.096
  68  6499.81
  69  6736.015
  70  6654.549
  71  6993.534
  72  6751.015
  73  5896.082
  74  5462.475
  75  5322.751
  76  5800.235
  77  6667.299
  78  7595.007
  79  8330.853
  80  8322.924
  81  7581.942
  82  6639.318
  83  5984.638
  84  6191.073
  85  6512.081
  86  6690.919
  87  7309.858
  88  7492.339
  89  6722.453
  90  5610.051
  91  5597.588
  92  5911.148
  93  6553.654
  94  6913.948
  95  7949.688
  96  8255.903
  97  7363.643
  98  7294.91
  99  6765.51
 100  6469.398
 101  6134.778
 102  6111.673
 103  6642.776
 104  6961.475
 105  7222.118
 106  6838.363
 107  5958.737
 108  5735.625
 109  6396.865
 110  6839.798
 111  7428.259
 112  8511.675
 113  8729.977
 114  8029.767
 115  6843.778
 116  6796.825
 117  6879.525
 118  6859.784
 119  6674.902
 120  6941.327
 121  7445.421
 122  6741.667
 123  6090.144
 124  5993.729
 125  6379.964
 126  6713.04
 127  7299.345
 128  8186.302
 129  8875.04
 130  8637.133
 131  7518.177
 132  7177.443
 133  6527.679
 134  6802.06
 135  6662.521
 136  6902.507
 137  7449.446
 138  7150.332
 139  6626.925
 140  6112.333
 141  6099.252
 142  6775.057
 143  7223.072
 144  7895.284
 145  8374.411
 146  8384.617
 147  7434.595
 148  6410.358
 149  6315.252
 150  6511.83
 151  6423.267
 152  6596.098
 153  7203.203
 154  7300.27
 155  6332.728
 156  5871.043
 157  5670.41
 158  6075.006
 159  6473.415
 160  7421.757
 161  8661.718
 162  9159.364
 163  8216.23
 164  7157.913
 165  6258.269
 166  6412.94
 167  6620.135
 168  6429.717
 169  7363.591
 170  7575.227
 171  7505.78
 172  6773.398
 173  5729.463
 174  5861.264
 175  6256.504
 176  7334.817
 177  7768.12
 178  8240.394
 179  8935.184
 180  8249.359
 181  7066.024
 182  6529.688
 183  6702.373
 184  6845.528
 185  6515.237
 186  7247.132
 187  7410.06
 188  6768.98
 189  6006.042
 190  5765.729
 191  5766.106
 192  6204.99
 193  7244.203
 194  8254.288
 195  8645.799
 196  8156.382
 197  7468.833
 198  6642.164
 199  6458.823
 200  6074.023
 201  6552.716
 202  7339.634
 203  7755.223
 204  7436.213
 205  6774.39
 206  6146.233
 207  6098.708
 208  6558.661
 209  6816.355
 210  7812.356
 211  8599.992
 212  8830.911
 213  8257.866
 214  7265.938
 215  6728.583
 216  6903.031
 217  6696.997
 218  6869.973
 219  7137.462
 220  7483.314
 221  6993.046
 222  6422.556
 223  6250.937
 224  6467.845
 225  6976.279
 226  7447.658
 227  8136.013
 228  8730.881
 229  8689.793
 230  7903.169
 231  7120.057
 232  6745.862
 233  6838.122
 234  7009.1
 235  7266.043
 236  7457.193
 237  7486.304
 238  6514.788
 239  5800.312
 240  6433.822
 241  7267.949
 242  7454.373
 243  8450.38
 244  9157.005
 245  9115.281
 246  8084.27
 247  7426.18
 248  6763.218
 249  6487.43
 250  6752.422
 251  7112.367
 252  7690.941
 253  7995.468
 254  7116.018
 255  6309.357
 256  5884.819
 257  6085.043
 258  6657.574
 259  7219.915
 260  8396.197
 261  9092.506
 262  8641.287
 263  7371.264
 264  6534.487
 265  6531.029
 266  6203.876
 267  6482
 268  6683.552
 269  6987.932
 270  7375.067
 271  6579.163
 272  5745.351
 273  5512.477
 274  5819.498
 275  6568.373
 276  7379.515
 277  8395.25
 278  8374.031
 279  7674.822
 280  6368.612
 281  5884.271
 282  5847.762
 283  6047.63
 284  6052.218
 285  6442.874
 286  6877.779
 287  6580.622
 288  5754.154
 289  5421.276
 290  5155.084
 291  5477.263
 292  6430.993
 293  7515.367
 294  8318.205
 295  7904.613
 296  6879.665
 297  5971.513
 298  5685.381
 299  5826.953
 300  5748.934
 301  6104.937
 302  6715.631
 303  6642.338
 304  6150.444
 305  5220.188
 306  5053.702
 307  5557.456
 308  6174.949
 309  6462.152
 310  7694.812
 311  8069.53
 312  7105.868
 313  6415.349
 314  5695.707
 315  5780.958
 316  5699.715
 317  6071.412
 318  6342.585
 319  6736.242
 320  6624.095
 321  5436.5
 322  5101.129
 323  5554.269
 324  6045.936
 325  6777.207
 326  7868.964
 327  8384.212
 328  8318.971
 329  7231.51
 330  6248.151
 331  5969.838
 332  5808.394
 333  6141.89
 334  6586.515
 335  7201.292
 336  7449.93
 337  6625.28
 338  5971.682
 339  5883.086
 340  6158.586
 341  6914.692
 342  7690.103
 343  8453.062
 344  8831.983
 345  8730.909
 346  7163.626
 347  6671.839
 348  6519.653
 349  6555.663
 350  6657.317
 351  7040.799
 352  7746.307
 353  7614.293
 354  6772.046
 355  5918.317
 356  6426.545
 357  7176.734
 358  7352.569
 359  8690.794
 360  9018.158
 361  9030.76
 362  8097.98
 363  7435.519
 364  7287.832
 365  7162.587
 366  7196.369
 367  7079.066
 368  7695.208
 369  7561.314
 370  6922.429
 371  6110.324
 372  6135.702
 373  6912.596
 374  7357.539
 375  8118.292
 376  8862.015
 377  9027.576
 378  8659.772
 379  7524.467
 380  7041.543
 381  6904.7
 382  7149.683
 383  7255.499
 384  7677.307
 385  7874.488
 386  7750.26
 387  6625.011
 388  6058.101
 389  6337.754
 390  6766.218
 391  7120.922
 392  8051.376
 393  9245.583
 394  9221.521
 395  8220.523
 396  7165.916
 397  6523.19
 398  6859.62
 399  6863.155
 400  6830.589
 401  7308.36
 402  7913.69
 403  7307.772
 404  6087.317
 405  5611.345
 406  5951.277
 407  6839.162
 408  7809.831
 409  8795.838
 410  9261.189
 411  8375.175
 412  7136.112
 413  6052.928
 414  6178.512
 415  6504.906
 416  6773.778
 417  7209.138
 418  7678.134
 419  7081.635
 420  6010.529
 421  5796.843
 422  6364.864
 423  6788.838
 424  7236.814
 425  7926.017
 426  8490.037
 427  8746.839
 428  8175.325
 429  7008.878
 430  6577.693
 431  6683.572
 432  6746.239
 433  6909.519
 434  7073.94
 435  7130.352
 436  6842.876
 437  6401.457
 438  6126.71
 439  6218.197
 440  6289.055
 441  7217.612
 442  8043.005
 443  8410.844
 444  8141.148
 445  7058.219
 446  6618.032
 447  6446.708
 448  6554.271
 449  6456.068
 450  6882.71
 451  7154.927
 452  6681.785
 453  6323.529
 454  6141.979
 455  6148.843
 456  6700.369
 457  7317.472
 458  8173.11
 459  8779.433
 460  8483.548
 461  7904.329
 462  7042.961
 463  6717.523
 464  6471.07
 465  6821.899
 466  7154.776
 467  7654.257
 468  7747.277
 469  7028.671
 470  6353.753
 471  5912.849
 472  6427.823
 473  7264.985
 474  7616.081
 475  8571.547
 476  9130.437
 477  8692.879
 478  7849.51
 479  6684.727
 480  6523.165
 481  6448.116
 482  6746.585
 483  7355.354
 484  7761.037
 485  7357.919
 486  6460.514
 487  5623.082
 488  6044.153
 489  6534.769
 490  7193.221
 491  8412.198
 492  8795.451
 493  8746.853
 494  7843.614
 495  7235.692
 496  6689.052
 497  6455.394
 498  6746.923
 499  6932.454
 500  7095.114
 501  7346.173
 502  7129.217
 503  6501.546
 504  6392.335
 505  6554.89
 506  7039.248
 507  7567.333
 508  8409.329
 509  8828.947
 510  8231.138
 511  7151.807
