# Input file       =  1203075975.116474_cleaned.dat
# Candidate        =  PSR_0332+5434
# Telescope        =  AR
# Epoch_topo       =  58168.490672644373
# Epoch_bary       =  N/A
# T_sample         =  0.002
# Data Folded      =  7340032
# Data Avg         =  1.20845480690124 
# Data StdDev      =  5.89089126609418 
# Profile Bins     =  1024
# Profile Avg      =  8661.95443937386 
# Profile StdDev   =  498.746665299444 
# Reduced chi-sqr  =  0.833
# Prob(Noise)      <  1   (~0.0 sigma)
# P_topo (ms)      =  714.580508839591  +/- 0.00118
# P'_topo (s/s)    =  -0                +/- 6.24e-10
# P''_topo (s/s^2) =  0                 +/- 2.76e-13
# P_bary (ms)      =  N/A
# P'_bary (s/s)    =  N/A
# P''_bary (s/s^2) =  N/A
# P_orb (s)        =  N/A
# asin(i)/c (s)    =  N/A
# eccentricity     =  N/A
# w (rad)          =  N/A
# T_peri           =  N/A
######################################################
   0  8824.621
   1  8814.525
   2  8807.099
   3  8743.957
   4  8684.482
   5  8716.303
   6  8713.46
   7  8702.947
   8  8719.604
   9  8685.369
  10  8591.269
  11  8404.071
  12  8538.373
  13  8646.208
  14  8759.329
  15  8596.107
  16  8565.306
  17  8506.933
  18  8490.229
  19  8466.826
  20  8534.884
  21  8565.126
  22  8621.484
  23  8573.79
  24  8502.209
  25  8433.474
  26  8455.97
  27  8440.223
  28  8489.508
  29  8526.535
  30  8506.931
  31  8471.034
  32  8422.762
  33  8570.464
  34  8582.242
  35  8620.486
  36  8604.334
  37  8660.24
  38  8562.493
  39  8478.546
  40  8494.662
  41  8567.391
  42  8606.908
  43  8558.789
  44  8575.247
  45  8643.726
  46  8693.824
  47  8664.735
  48  8541.801
  49  8495.315
  50  8551.304
  51  8566.637
  52  8556.269
  53  8423.243
  54  8496.337
  55  8560.014
  56  8524.905
  57  8501.802
  58  8466.505
  59  8618.557
  60  8782.656
  61  8892.812
  62  8826.725
  63  8688.995
  64  8620.698
  65  8622.102
  66  8540.838
  67  8434.728
  68  8327.76
  69  8404.96
  70  8469.427
  71  8468.573
  72  8447.005
  73  8378.802
  74  8444.188
  75  8447.818
  76  8523.803
  77  8548.601
  78  8481.588
  79  8392.993
  80  8351.869
  81  8376.745
  82  8405.958
  83  8354.514
  84  8441.744
  85  8485.691
  86  8435.841
  87  8378.931
  88  8344.945
  89  8310.942
  90  8260.486
  91  8336.912
  92  8344.352
  93  8330.915
  94  8396.937
  95  8471.304
  96  8579.549
  97  8545.645
  98  8585.625
  99  8599.838
 100  8642.636
 101  8629.051
 102  8655.889
 103  8612.779
 104  8751.891
 105  8801.714
 106  8860.441
 107  8800.405
 108  8778.801
 109  8926.677
 110  8968.574
 111  8905.221
 112  8861.029
 113  8959.134
 114  9086.93
 115  9022.26
 116  8966.08
 117  8881.25
 118  8940.412
 119  8916.879
 120  8819.434
 121  8761.114
 122  8764.79
 123  8782.31
 124  8715.597
 125  8624.342
 126  8666.36
 127  8694.454
 128  8854.642
 129  8868.784
 130  8830.319
 131  8848.738
 132  8823.99
 133  8776.283
 134  8686.443
 135  8733.737
 136  8744.497
 137  8642.998
 138  8593.475
 139  8676.271
 140  8737.898
 141  8823.173
 142  8788.051
 143  8840.185
 144  8758.003
 145  8670.958
 146  8587.079
 147  8607.29
 148  8697.889
 149  8793.29
 150  8758.541
 151  8607.581
 152  8539.271
 153  8671.931
 154  8742.171
 155  8700.241
 156  8615.886
 157  8588.806
 158  8549.389
 159  8481.437
 160  8430.158
 161  8455.285
 162  8568.006
 163  8715.405
 164  8749.888
 165  8669.817
 166  8483.127
 167  8474.987
 168  8578.755
 169  8661.06
 170  8570.78
 171  8533.274
 172  8535.054
 173  8506.265
 174  8541.291
 175  8497.791
 176  8624.381
 177  8679.177
 178  8744.468
 179  8741.903
 180  8699.418
 181  8699.868
 182  8664.551
 183  8733.58
 184  8584.021
 185  8444.792
 186  8398.408
 187  8552.423
 188  8725.539
 189  8711.614
 190  8562.928
 191  8382.695
 192  8253.923
 193  8331.285
 194  8409.244
 195  8467.651
 196  8433.671
 197  8501.243
 198  8622.265
 199  8745.141
 200  8721.388
 201  8583.146
 202  8480.665
 203  8463.853
 204  8537.544
 205  8629.57
 206  8571.101
 207  8558.756
 208  8489.792
 209  8562.702
 210  8467.341
 211  8490.493
 212  8622.854
 213  8707.018
 214  8623.482
 215  8586.284
 216  8530.166
 217  8548.656
 218  8537.372
 219  8551.226
 220  8576.599
 221  8457.105
 222  8450.334
 223  8543.521
 224  8673.831
 225  8678.929
 226  8665.591
 227  8607.254
 228  8557.658
 229  8506.629
 230  8575.987
 231  8586.824
 232  8531.261
 233  8566.021
 234  8662.886
 235  8755.159
 236  8693.114
 237  8642.39
 238  8617.409
 239  8602.098
 240  8693.523
 241  8682.206
 242  8765.951
 243  8732.179
 244  8699.882
 245  8650.11
 246  8679.538
 247  8697.428
 248  8745.234
 249  8684.336
 250  8610.146
 251  8600.757
 252  8644.801
 253  8741.771
 254  8743.535
 255  8676.957
 256  8470.61
 257  8405.899
 258  8531.532
 259  8700.409
 260  8742.295
 261  8745.651
 262  8753.221
 263  8624.8
 264  8546.801
 265  8381.718
 266  8383.412
 267  8348.271
 268  8396.403
 269  8359.656
 270  8477.128
 271  8559.646
 272  8724.862
 273  8641.17
 274  8641.156
 275  8604.801
 276  8679.462
 277  8626.441
 278  8576.439
 279  8638.819
 280  8626.865
 281  8593.667
 282  8412.603
 283  8424.534
 284  8426.418
 285  8500.881
 286  8572.317
 287  8490.315
 288  8434.25
 289  8329.562
 290  8349.28
 291  8378.486
 292  8491.317
 293  8464.252
 294  8319.379
 295  8287.158
 296  8291.819
 297  8352.802
 298  8458.809
 299  8591.712
 300  8592.087
 301  8539.237
 302  8522.278
 303  8647.224
 304  8517.638
 305  8404.479
 306  8293.539
 307  8332.012
 308  8398.556
 309  8343.442
 310  8470.951
 311  8441.328
 312  8483.084
 313  8485.679
 314  8460.63
 315  8425.163
 316  8369.42
 317  8346.761
 318  8368.173
 319  8379.34
 320  8334.534
 321  8242.927
 322  8113.238
 323  8175.455
 324  8289.829
 325  8359.804
 326  8349.915
 327  8391.05
 328  8294.825
 329  8230.714
 330  8165.248
 331  8199.178
 332  8184.372
 333  8222.062
 334  8194.211
 335  8156.147
 336  8004.074
 337  7968.765
 338  8045.277
 339  8083.703
 340  8209.317
 341  8155.657
 342  8209.45
 343  8167.18
 344  8118.854
 345  8176.353
 346  8047.749
 347  8019.433
 348  7976.154
 349  8065.608
 350  8086.241
 351  8061.331
 352  8021.591
 353  8113.349
 354  8128.874
 355  8134.264
 356  8026.87
 357  7958.778
 358  7871.607
 359  7850.665
 360  7952.442
 361  8054.166
 362  8095.795
 363  8125.001
 364  8170.241
 365  8101.543
 366  8087.987
 367  7971.812
 368  8024.382
 369  8068.849
 370  8198.832
 371  8191.253
 372  8075.892
 373  8003.267
 374  8136.644
 375  8301.365
 376  8321.626
 377  8287.998
 378  8314.799
 379  8412.351
 380  8339.137
 381  8311.299
 382  8317.735
 383  8344.266
 384  8241.407
 385  8158.755
 386  8056.494
 387  8103.705
 388  8104.906
 389  8126.177
 390  8242.986
 391  8252.002
 392  8247.027
 393  8228.9
 394  8256.478
 395  8291.117
 396  8266.06
 397  8160.103
 398  8156.001
 399  8152.724
 400  8236.582
 401  8285.719
 402  8266.276
 403  8232.808
 404  8185.113
 405  8167.824
 406  8172.864
 407  8244.385
 408  8249.854
 409  8279.659
 410  8382.598
 411  8459.062
 412  8398.595
 413  8311.719
 414  8188.674
 415  8261.692
 416  8386.426
 417  8511.55
 418  8514.946
 419  8480.382
 420  8572.079
 421  8506.179
 422  8455.199
 423  8361.035
 424  8275.71
 425  8323.693
 426  8367.92
 427  8325.334
 428  8357.208
 429  8439.083
 430  8538.171
 431  8524.162
 432  8550.435
 433  8648.624
 434  8642.973
 435  8558.997
 436  8548.974
 437  8564.113
 438  8682.201
 439  8706.675
 440  8851.811
 441  8955.491
 442  8990.282
 443  8901.127
 444  8870.98
 445  8761.166
 446  8666.167
 447  8544.128
 448  8567.621
 449  8575.449
 450  8620.535
 451  8620.56
 452  8684.544
 453  8830.31
 454  8753.943
 455  8800.447
 456  8742.491
 457  8781.381
 458  8793.605
 459  8853.699
 460  8919.629
 461  8816.832
 462  8816.07
 463  8780.364
 464  8759.617
 465  8604.808
 466  8511.977
 467  8506.214
 468  8647.19
 469  8643.373
 470  8704.585
 471  8896.014
 472  8981.46
 473  8982.988
 474  8782.547
 475  8785.971
 476  8743.818
 477  8754.088
 478  8716.354
 479  8709.776
 480  8732.619
 481  8737.351
 482  8757.556
 483  8774.804
 484  8829.21
 485  8913.234
 486  8888.713
 487  8880.726
 488  8899.41
 489  8850.151
 490  8813.307
 491  8784.298
 492  8733.032
 493  8744.318
 494  8641.468
 495  8683.406
 496  8758.063
 497  8835.692
 498  8859.781
 499  8738.949
 500  8741.08
 501  8660.843
 502  8522.797
 503  8496.46
 504  8554.84
 505  8665.088
 506  8752.492
 507  8826.538
 508  8854.28
 509  8706.745
 510  8586.218
 511  8680.851
 512  8722.893
 513  8804.581
 514  8847.471
 515  8859.662
 516  8747.869
 517  8702.672
 518  8806.314
 519  8876.381
 520  8934.467
 521  8842.924
 522  8823.33
 523  8810.6
 524  8801.532
 525  8724.705
 526  8741.872
 527  8759.419
 528  8678.773
 529  8663.631
 530  8690.169
 531  8767.44
 532  8803.043
 533  8886.129
 534  8854.584
 535  8840.356
 536  8738.929
 537  8735.869
 538  8654.233
 539  8613.765
 540  8567.605
 541  8553.264
 542  8527.862
 543  8537.652
 544  8500.447
 545  8548.16
 546  8685.075
 547  8683.752
 548  8588.883
 549  8595.146
 550  8613.886
 551  8610.242
 552  8517.671
 553  8507.854
 554  8447.023
 555  8383.961
 556  8398.152
 557  8424.133
 558  8491.903
 559  8461.724
 560  8530.262
 561  8617.617
 562  8660.358
 563  8644.996
 564  8538.854
 565  8526.257
 566  8541.54
 567  8553.343
 568  8434.191
 569  8390.258
 570  8456.785
 571  8494.034
 572  8514.95
 573  8593.824
 574  8631.01
 575  8641.044
 576  8669.421
 577  8670.161
 578  8650.517
 579  8583.387
 580  8654.963
 581  8782.081
 582  8676.757
 583  8501.311
 584  8405.98
 585  8448.205
 586  8517.873
 587  8506.394
 588  8423.636
 589  8476.668
 590  8580.381
 591  8673.007
 592  8669.098
 593  8633.747
 594  8583.902
 595  8613.689
 596  8640.503
 597  8654.35
 598  8811.845
 599  8837.293
 600  8769.602
 601  8690.363
 602  8724.936
 603  8947.653
 604  8988.868
 605  9049.47
 606  9012.02
 607  9164.304
 608  9295.78
 609  9394.54
 610  9405.798
 611  9508.533
 612  9619.339
 613  9599.235
 614  9469.195
 615  9332.249
 616  9188.085
 617  9020.263
 618  8877.608
 619  8663.665
 620  8537.863
 621  8671.511
 622  8849.331
 623  8862.311
 624  8731.46
 625  8641.943
 626  8671.086
 627  8721.724
 628  8771.714
 629  8811.6
 630  8709.67
 631  8553.857
 632  8519.845
 633  8627.277
 634  8759.96
 635  8744.619
 636  8712.572
 637  8717.205
 638  8738.016
 639  8854.983
 640  8932.322
 641  8938.434
 642  8878.923
 643  8788.718
 644  8750.04
 645  8776.646
 646  8785.44
 647  8738.415
 648  8824.268
 649  8945.496
 650  8964.432
 651  8885.914
 652  8986.872
 653  9028.496
 654  9106.25
 655  8997.025
 656  8956.712
 657  8846.728
 658  8873.7
 659  8937.053
 660  8932.637
 661  8831.454
 662  8752.496
 663  8772.325
 664  8846.937
 665  8773.537
 666  8766.458
 667  8774.444
 668  8869.892
 669  8903.25
 670  8935.557
 671  9000.131
 672  9030.172
 673  9017.405
 674  8988.271
 675  8947.577
 676  8887.366
 677  8964.485
 678  8974.79
 679  8948.746
 680  8869.15
 681  8880.562
 682  8995.789
 683  8923.472
 684  9016.747
 685  8923.197
 686  8914.39
 687  8869.946
 688  8891.788
 689  8961.243
 690  8908.554
 691  9072.813
 692  9097.078
 693  9094.092
 694  8966.096
 695  8961.537
 696  8970.953
 697  9027.936
 698  8903.899
 699  8908.812
 700  8938.798
 701  9054.393
 702  9028.893
 703  9034.09
 704  9036.967
 705  9064.737
 706  9127.172
 707  9215.216
 708  9167.507
 709  9105.16
 710  9086.329
 711  9205.188
 712  9216.532
 713  9194.692
 714  9203.419
 715  9297.506
 716  9285.048
 717  9220.148
 718  9055.754
 719  9077.592
 720  9066.982
 721  9037.142
 722  8968.349
 723  9037.521
 724  9155.189
 725  9225.968
 726  9131.259
 727  8943.519
 728  8919.811
 729  8972.088
 730  9097.195
 731  9107.993
 732  9098.614
 733  9117.896
 734  9182.331
 735  9204.572
 736  9216.914
 737  9096.069
 738  9107.835
 739  9080.618
 740  9224.623
 741  9200.389
 742  9237.913
 743  9059.379
 744  8957.46
 745  8893.699
 746  8909.357
 747  8936.568
 748  8968.83
 749  9006.915
 750  9084.231
 751  9090.031
 752  9101.805
 753  8930.8
 754  8754.471
 755  8698.777
 756  8714.513
 757  8899.866
 758  8829.455
 759  8874.41
 760  8776.402
 761  8856.566
 762  8853.46
 763  8834.353
 764  8692.82
 765  8700.116
 766  8807.713
 767  8791.69
 768  8814.311
 769  8800.669
 770  8802.734
 771  8808.612
 772  8893.63
 773  8876.912
 774  8872.34
 775  8819.177
 776  8809.415
 777  8770.787
 778  8809.691
 779  8785.521
 780  8646.519
 781  8577.617
 782  8670.323
 783  8850.887
 784  8881.91
 785  8823.648
 786  8685.894
 787  8729.067
 788  8806.831
 789  8796.484
 790  8760.315
 791  8707.179
 792  8737.153
 793  8772.764
 794  8769.113
 795  8747.827
 796  8658.704
 797  8670.938
 798  8678.606
 799  8849.55
 800  8870.09
 801  8771.105
 802  8658.811
 803  8704.008
 804  8796.296
 805  8856.269
 806  8691.715
 807  8566.368
 808  8549.796
 809  8644.821
 810  8660.728
 811  8705.952
 812  8637.157
 813  8630.602
 814  8633.324
 815  8704.546
 816  8654.903
 817  8594.91
 818  8602.684
 819  8691.884
 820  8697.556
 821  8653.009
 822  8817.465
 823  8820.476
 824  8846.432
 825  8810.802
 826  8823.998
 827  8842.481
 828  8802.137
 829  8816.89
 830  8781.702
 831  8742.359
 832  8701.174
 833  8623.718
 834  8654.925
 835  8697.757
 836  8748.927
 837  8694.207
 838  8706.404
 839  8812.911
 840  8860.492
 841  8791.15
 842  8732.329
 843  8720.593
 844  8783.407
 845  8751.667
 846  8785.685
 847  8815.486
 848  8733.649
 849  8684.251
 850  8702.863
 851  8749.789
 852  8846.463
 853  8823.589
 854  8735.841
 855  8706.011
 856  8781.217
 857  8905.198
 858  8841.51
 859  8748.25
 860  8752.186
 861  8854.906
 862  8874.142
 863  8769.733
 864  8768.782
 865  8836.065
 866  8917.718
 867  8909.549
 868  8885.737
 869  8896.459
 870  8895.139
 871  8969.94
 872  8907.635
 873  8988.046
 874  9006.13
 875  9032.801
 876  8909.835
 877  8874.229
 878  8875.237
 879  8908.977
 880  8905.201
 881  8950.653
 882  9023.039
 883  9019.182
 884  8966.01
 885  8975.193
 886  9010.287
 887  8899.224
 888  8865.282
 889  8847.291
 890  8898.072
 891  8814.009
 892  8960.58
 893  8938.16
 894  8813.271
 895  8759.188
 896  8828.769
 897  8770.113
 898  8642.789
 899  8605.695
 900  8631.552
 901  8703.276
 902  8627.517
 903  8644.439
 904  8629.129
 905  8609.765
 906  8718.351
 907  8684.119
 908  8617.433
 909  8477.934
 910  8525.632
 911  8490.393
 912  8425.782
 913  8438.254
 914  8473.703
 915  8578.625
 916  8602.69
 917  8554.414
 918  8595.094
 919  8600.824
 920  8598.345
 921  8545.545
 922  8530.452
 923  8605.696
 924  8711.786
 925  8779.978
 926  8747.751
 927  8658.99
 928  8577.98
 929  8587.916
 930  8695.933
 931  8748.567
 932  8792.445
 933  8730.896
 934  8758.812
 935  8816.275
 936  8968.561
 937  9054.728
 938  9037.009
 939  8912.938
 940  8722.277
 941  8615.285
 942  8605.287
 943  8611.393
 944  8592.037
 945  8702.795
 946  8749.86
 947  8727.77
 948  8734.673
 949  8796.457
 950  8909.584
 951  8984.335
 952  8996.131
 953  8939.779
 954  8835.677
 955  8729.697
 956  8766.652
 957  8670.161
 958  8649.439
 959  8660.847
 960  8692.567
 961  8712.565
 962  8674.644
 963  8724.815
 964  8731.292
 965  8757.487
 966  8864.419
 967  8905.459
 968  8969.23
 969  8852.754
 970  8918.142
 971  8955.449
 972  8940.998
 973  8747.51
 974  8746.206
 975  8605.671
 976  8595.022
 977  8545.689
 978  8615.034
 979  8618.615
 980  8550.943
 981  8636.655
 982  8618.026
 983  8611.135
 984  8571.503
 985  8560.942
 986  8533.92
 987  8500.668
 988  8493.956
 989  8493.938
 990  8510.631
 991  8544.429
 992  8638.811
 993  8658.121
 994  8605.524
 995  8464.774
 996  8437.838
 997  8385.966
 998  8483.682
 999  8624.865
1000  8746.524
1001  8792.637
1002  8780.674
1003  8899.34
1004  8932.281
1005  8857.705
1006  8919.987
1007  8925.57
1008  8825.763
1009  8584.08
1010  8565.655
1011  8503.438
1012  8547.151
1013  8561.499
1014  8623.17
1015  8651.971
1016  8701.635
1017  8709.699
1018  8787.619
1019  8778.655
1020  8822.292
1021  8751.662
1022  8811.292
1023  8800.121
