# Input file       =  1203358026.105044_cleaned.dat
# Candidate        =  PSR_0332+5434
# Telescope        =  AR
# Epoch_topo       =  58171.755151678750
# Epoch_bary       =  N/A
# T_sample         =  0.002
# Data Folded      =  7340032
# Data Avg         =  0.0929873643794314
# Data StdDev      =  3.26684137838742 
# Profile Bins     =  512
# Profile Avg      =  1333.22293485678 
# Profile StdDev   =  391.148837595585 
# Reduced chi-sqr  =  1.048
# Prob(Noise)      <  0.217   (~0.8 sigma)
# P_topo (ms)      =  714.581073508469  +/- 0.00111
# P'_topo (s/s)    =  -0                +/- 5.84e-10
# P''_topo (s/s^2) =  0                 +/- 2.58e-13
# P_bary (ms)      =  N/A
# P'_bary (s/s)    =  N/A
# P''_bary (s/s^2) =  N/A
# P_orb (s)        =  N/A
# asin(i)/c (s)    =  N/A
# eccentricity     =  N/A
# w (rad)          =  N/A
# T_peri           =  N/A
######################################################
   0  1965.607
   1  1173.066
   2  1223.641
   3  1347.902
   4  1307.634
   5  1313.529
   6  1117.203
   7  1205.174
   8  1382.779
   9  1271.439
  10  1205.197
  11  1324.667
  12  1454.169
  13  1320.832
  14  1312.871
  15  1215.864
  16  1624.289
  17  1389.706
  18  1247.875
  19  975.764
  20  1191.965
  21  1240.686
  22  1122.721
  23  1093.426
  24  1236.1
  25  1347.85
  26  1301.944
  27  1125.428
  28  769.3719
  29  753.932
  30  928.3458
  31  1073.401
  32  1443.96
  33  1524.889
  34  1092.411
  35  1018.914
  36  1169.112
  37  1072.86
  38  1232.216
  39  1632.387
  40  1424.834
  41  1383.286
  42  1319.578
  43  1392.047
  44  1102.187
  45  871.5265
  46  1301.466
  47  1384.123
  48  1225.404
  49  1308.865
  50  1359.8
  51  1519.237
  52  1318.505
  53  1155.205
  54  1278.11
  55  1120.822
  56  1053.124
  57  1424.447
  58  1357.335
  59  1052.885
  60  1044.203
  61  969.6958
  62  840.9213
  63  1251.58
  64  1247.063
  65  949.3221
  66  848.9822
  67  995.0796
  68  1168.494
  69  1221.328
  70  734.6666
  71  921.6752
  72  595.1555
  73  730.1964
  74  1160.958
  75  1400.096
  76  1124.234
  77  1093.417
  78  1142.613
  79  724.6385
  80  930.0981
  81  1370.838
  82  1147.152
  83  1021.114
  84  1308.535
  85  1075.367
  86  1024.29
  87  1214.1
  88  1433.286
  89  1356.979
  90  1406.133
  91  1215.667
  92  1002.769
  93  1252.625
  94  1257.854
  95  1018.207
  96  786.7797
  97  898.9045
  98  1034.315
  99  1123.842
 100  1301.505
 101  1289.814
 102  1434.225
 103  1394.254
 104  1106.935
 105  1104.893
 106  1052.959
 107  1073.592
 108  917.3728
 109  1085.079
 110  960.5234
 111  823.4089
 112  1269.777
 113  1296.006
 114  1308.17
 115  1087.302
 116  942.0949
 117  1258.838
 118  1371.917
 119  794.2813
 120  986.7631
 121  1093.579
 122  1003.696
 123  659.9928
 124  900.6931
 125  1347.037
 126  1358.097
 127  1209.071
 128  1158.824
 129  1080.173
 130  1087.023
 131  917.9653
 132  856.6236
 133  1236.54
 134  1039.003
 135  920.9958
 136  1033.329
 137  1239.791
 138  1366.747
 139  1309.805
 140  1296.27
 141  1206.346
 142  1127.128
 143  1067.475
 144  1299.813
 145  944.4799
 146  1083.008
 147  1373.965
 148  1047.014
 149  1024.429
 150  1282.235
 151  1341.126
 152  1432.423
 153  1281.443
 154  1147.681
 155  987.0592
 156  1156.003
 157  1257.22
 158  1208.667
 159  1618.689
 160  1424.386
 161  1422.772
 162  1203.017
 163  1145.148
 164  1159.941
 165  1100.88
 166  1170.609
 167  989.6663
 168  927.2992
 169  900.5588
 170  1242.746
 171  1200.93
 172  964.191
 173  690.85
 174  1107.981
 175  1051.113
 176  1416.586
 177  1395.578
 178  1022.483
 179  976.4871
 180  963.8409
 181  1192.613
 182  1126.149
 183  1333.557
 184  1277.934
 185  903.7553
 186  938.192
 187  1504.156
 188  1433.848
 189  1151.164
 190  1318.41
 191  1382.283
 192  1434.93
 193  890.0936
 194  892.2972
 195  1002.9
 196  1197.314
 197  1170.132
 198  1220.857
 199  1172.768
 200  1150.243
 201  1049.421
 202  900.957
 203  1001.352
 204  1450.19
 205  1326.136
 206  879.143
 207  690.1389
 208  988.2133
 209  634.0213
 210  816.2383
 211  1139.889
 212  889.9161
 213  905.2226
 214  1436.897
 215  1416.447
 216  1120.137
 217  1171.661
 218  1025.724
 219  827.7738
 220  1129.669
 221  1366.008
 222  1657.539
 223  1684.032
 224  1416.608
 225  1410.815
 226  1306.179
 227  1196.613
 228  1475.034
 229  977.8537
 230  985.3364
 231  1069.435
 232  1093.641
 233  1382.936
 234  1304.78
 235  1512.982
 236  1255.628
 237  1324.517
 238  1071.137
 239  888.9196
 240  1093.548
 241  897.0898
 242  1018.709
 243  1210.045
 244  1205.51
 245  1181.926
 246  1349.274
 247  1503.17
 248  1141.556
 249  1040.922
 250  1372.926
 251  1261.839
 252  1163.041
 253  957.697
 254  1073.703
 255  1264.307
 256  972.4446
 257  966.819
 258  1149.621
 259  1044.12
 260  958.2348
 261  1080.534
 262  1288.791
 263  1270.203
 264  1844.168
 265  1628.174
 266  1395.742
 267  1486.655
 268  1377.441
 269  1258.367
 270  1122.421
 271  1280.69
 272  1535.587
 273  1586.373
 274  1493.915
 275  1281.277
 276  1213.045
 277  1505.188
 278  1538.414
 279  1294.095
 280  1266.609
 281  1367.064
 282  1124.213
 283  1080.375
 284  1201.11
 285  1459.366
 286  1176.029
 287  1550.93
 288  1197.219
 289  1113.078
 290  1270.563
 291  1190.552
 292  1143.404
 293  1169.245
 294  1386.816
 295  1159.46
 296  1331.035
 297  1444.381
 298  1537.385
 299  1741.492
 300  1863.382
 301  1819.28
 302  1915.933
 303  2026.537
 304  2256.405
 305  2234.531
 306  2561.153
 307  2390.806
 308  2001.347
 309  1406.406
 310  1256.807
 311  1466.53
 312  1483.211
 313  1369.857
 314  1019.257
 315  951.2473
 316  1223.936
 317  1517.734
 318  1548.722
 319  1078.078
 320  1307.05
 321  1547.966
 322  1766.68
 323  1780.815
 324  1526.551
 325  1175.229
 326  1212.348
 327  1368.74
 328  1067.343
 329  991.0649
 330  1396.91
 331  1529.8
 332  1196.438
 333  1631.728
 334  1646.306
 335  1692.885
 336  1284.89
 337  1312.503
 338  1520.503
 339  1568.779
 340  1324.873
 341  1614.93
 342  1558.454
 343  1560.4
 344  1838.463
 345  1762.888
 346  1589.259
 347  1636.38
 348  1696.494
 349  1944.437
 350  2068.623
 351  1639.006
 352  1586.004
 353  1514.055
 354  1315.99
 355  1621.206
 356  1845.12
 357  2072.943
 358  1741.669
 359  1764.239
 360  1831.73
 361  1596.724
 362  1434.401
 363  1557.635
 364  1902.966
 365  1646.689
 366  1657.111
 367  1650.401
 368  1690.074
 369  1972.162
 370  1588.803
 371  1617.583
 372  1847.676
 373  1699.734
 374  1921.287
 375  1781.076
 376  1661.078
 377  1437.425
 378  1772.206
 379  1890.895
 380  1634.24
 381  1652.576
 382  1625.295
 383  1547.012
 384  1571.642
 385  1697.639
 386  1561.154
 387  1391.045
 388  1728.98
 389  1542.462
 390  1581.851
 391  1611.687
 392  1465.488
 393  1699.108
 394  1773.976
 395  1951.124
 396  2086.451
 397  2101.85
 398  1871.794
 399  1665.835
 400  1695.393
 401  1502.463
 402  1545.659
 403  1551.421
 404  1313.089
 405  1568.477
 406  1568.495
 407  1806.811
 408  1550.32
 409  1581.385
 410  1886.73
 411  1410.58
 412  1593.36
 413  1262.378
 414  1385.482
 415  1333.468
 416  1271.9
 417  1435.35
 418  1381.653
 419  1407.202
 420  1321.54
 421  1485.389
 422  1552.859
 423  1397.798
 424  1378.1
 425  1285.972
 426  1584.372
 427  1417.104
 428  1346.604
 429  1324.714
 430  1366.24
 431  1466.136
 432  1681.634
 433  1529.107
 434  1469.778
 435  1519.135
 436  1529.536
 437  1601.606
 438  1574.57
 439  1754.404
 440  1694.585
 441  1602.444
 442  1456.415
 443  1546.784
 444  1549.3
 445  1298.153
 446  1275.916
 447  1423.663
 448  1359.586
 449  1581.27
 450  1446.407
 451  1662.66
 452  1303.715
 453  1104.421
 454  1386.944
 455  1268.422
 456  1087.43
 457  1106.163
 458  1216.45
 459  1391.484
 460  1625.154
 461  1383.713
 462  1449.549
 463  1510.973
 464  1492.909
 465  1423.915
 466  1753.543
 467  1699.009
 468  1419.489
 469  1646.865
 470  1542.206
 471  1543.965
 472  1421.112
 473  1141.854
 474  989.8669
 475  1289.882
 476  1541.291
 477  1236.921
 478  1351.335
 479  1803.609
 480  1624.892
 481  1496.47
 482  1569.787
 483  1471.453
 484  1736.001
 485  1525.647
 486  1406.603
 487  1482.581
 488  1545.623
 489  1293.877
 490  1434.237
 491  1183.532
 492  1203.584
 493  1790.734
 494  1448.814
 495  1241.877
 496  1102.276
 497  1315.915
 498  1408.755
 499  1123.259
 500  1079.979
 501  1476.931
 502  1494.909
 503  1534.19
 504  1673.496
 505  1725.717
 506  1382.109
 507  1722.112
 508  1875.813
 509  1361.529
 510  1290.389
 511  1813.506
