# Input file       =  1204189742.101555_cleaned.dat
# Candidate        =  PSR_0332+5434
# Telescope        =  AR
# Epoch_topo       =  58181.381494230962
# Epoch_bary       =  N/A
# T_sample         =  0.002
# Data Folded      =  7208960
# Data Avg         =  0.112921167649307
# Data StdDev      =  1.00011144824423 
# Profile Bins     =  512
# Profile Avg      =  1589.86482589888 
# Profile StdDev   =  118.672400150335 
# Reduced chi-sqr  =  1.989
# Prob(Noise)      <  9.2e-36   (~12.4 sigma)
# P_topo (ms)      =  714.580095974246  +/- 0.000134
# P'_topo (s/s)    =  -0                +/- 7.2e-11
# P''_topo (s/s^2) =  0                 +/- 3.24e-14
# P_bary (ms)      =  N/A
# P'_bary (s/s)    =  N/A
# P''_bary (s/s^2) =  N/A
# P_orb (s)        =  N/A
# asin(i)/c (s)    =  N/A
# eccentricity     =  N/A
# w (rad)          =  N/A
# T_peri           =  N/A
######################################################
   0  2085.683
   1  2130.332
   2  1979.616
   3  1899.898
   4  1724.856
   5  1662.457
   6  1670.359
   7  1693.006
   8  1716.758
   9  1743.944
  10  1797.373
  11  1793.495
  12  1733.376
  13  1724.145
  14  1719.658
  15  1710.912
  16  1700.601
  17  1671.797
  18  1749.774
  19  1822.553
  20  1721.561
  21  1682.273
  22  1695.017
  23  1667.84
  24  1689.216
  25  1634.728
  26  1690.963
  27  1678.811
  28  1664.454
  29  1710.677
  30  1638.972
  31  1666.706
  32  1672.402
  33  1740.482
  34  1797.918
  35  1814.783
  36  1775.096
  37  1766.402
  38  1778.451
  39  1847.39
  40  1777.954
  41  1683.784
  42  1737.883
  43  1818.829
  44  1748.005
  45  1636.315
  46  1663.272
  47  1622.369
  48  1688.916
  49  1711.357
  50  1778.607
  51  1737.295
  52  1735.02
  53  1730.207
  54  1694.444
  55  1658.369
  56  1635.284
  57  1618.194
  58  1660.825
  59  1675.163
  60  1725.211
  61  1686.658
  62  1574.481
  63  1570.257
  64  1661.303
  65  1706.864
  66  1703.312
  67  1711.912
  68  1767.657
  69  1775.086
  70  1669.637
  71  1606.818
  72  1670.154
  73  1696.604
  74  1657.217
  75  1671.529
  76  1702.441
  77  1694.806
  78  1658.21
  79  1791.869
  80  1759.363
  81  1716.331
  82  1668.156
  83  1738.292
  84  1760.599
  85  1792.648
  86  1743.733
  87  1613.589
  88  1620.03
  89  1706.62
  90  1630.206
  91  1677.667
  92  1690.092
  93  1750.929
  94  1602.783
  95  1576.794
  96  1608.546
  97  1521.328
  98  1528.384
  99  1480.495
 100  1565.109
 101  1670.328
 102  1734.051
 103  1683.201
 104  1614.717
 105  1666.775
 106  1681.385
 107  1669.489
 108  1697.175
 109  1732.677
 110  1683.286
 111  1596.26
 112  1511.674
 113  1579.607
 114  1726.233
 115  1614.196
 116  1525.612
 117  1632.964
 118  1658.462
 119  1593.114
 120  1592.69
 121  1598.959
 122  1521.321
 123  1590.508
 124  1629.353
 125  1631.088
 126  1612.44
 127  1612.675
 128  1673.828
 129  1649.449
 130  1581.574
 131  1556.62
 132  1474.052
 133  1546.408
 134  1610.449
 135  1694.07
 136  1633.621
 137  1610.023
 138  1525.483
 139  1563.326
 140  1547.907
 141  1496.705
 142  1567
 143  1560.293
 144  1487.26
 145  1471.363
 146  1500.065
 147  1568.778
 148  1479.235
 149  1580.061
 150  1621.671
 151  1529.193
 152  1544.202
 153  1448.831
 154  1509.268
 155  1481.14
 156  1432.851
 157  1436.913
 158  1579.417
 159  1617.659
 160  1576.557
 161  1548.921
 162  1424.129
 163  1428.813
 164  1449.865
 165  1469.784
 166  1520.301
 167  1572.138
 168  1593.925
 169  1615.922
 170  1539.484
 171  1538.118
 172  1501.245
 173  1555.458
 174  1500.805
 175  1544.729
 176  1537.805
 177  1590.618
 178  1568.966
 179  1535.563
 180  1559.798
 181  1528.624
 182  1526.888
 183  1533.391
 184  1533.061
 185  1553.535
 186  1615.636
 187  1507.663
 188  1493.565
 189  1601.938
 190  1610.861
 191  1433.729
 192  1489.632
 193  1596.192
 194  1538.305
 195  1512.783
 196  1547.943
 197  1592.967
 198  1484.247
 199  1520.022
 200  1531.548
 201  1553.197
 202  1579.198
 203  1623.457
 204  1515.267
 205  1483.342
 206  1451.598
 207  1465.009
 208  1580.023
 209  1658.417
 210  1557.476
 211  1547.567
 212  1513.937
 213  1462.25
 214  1472.162
 215  1481.548
 216  1604.036
 217  1563.395
 218  1547.483
 219  1470.525
 220  1506.633
 221  1496.172
 222  1502.142
 223  1513.43
 224  1502.124
 225  1545.988
 226  1532.083
 227  1366.411
 228  1355.148
 229  1410.355
 230  1474.224
 231  1476.849
 232  1471.991
 233  1455.396
 234  1536.866
 235  1467.45
 236  1472.936
 237  1478.145
 238  1490.269
 239  1481.916
 240  1460.47
 241  1550.251
 242  1561.77
 243  1534.912
 244  1437.491
 245  1349.97
 246  1346.25
 247  1555.991
 248  1546.01
 249  1522.381
 250  1686.374
 251  1662.209
 252  1530.592
 253  1576.076
 254  1614.273
 255  1509.866
 256  1533.662
 257  1496.59
 258  1577.137
 259  1598.33
 260  1563.342
 261  1643.455
 262  1530.407
 263  1593.237
 264  1664.564
 265  1589.292
 266  1665.023
 267  1748.707
 268  1735.552
 269  1667.958
 270  1594.783
 271  1592.028
 272  1626.597
 273  1644.616
 274  1639.92
 275  1688.613
 276  1695.093
 277  1612.346
 278  1559.637
 279  1516.495
 280  1591.205
 281  1527.549
 282  1531.757
 283  1575.028
 284  1623.811
 285  1642.284
 286  1617.995
 287  1676.648
 288  1626.26
 289  1550.161
 290  1576.924
 291  1573.113
 292  1574.246
 293  1584.728
 294  1436.225
 295  1389.123
 296  1442.523
 297  1496.512
 298  1490.865
 299  1526.428
 300  1592.339
 301  1554.314
 302  1500.975
 303  1451.985
 304  1462.988
 305  1529.091
 306  1535.932
 307  1519.411
 308  1490.419
 309  1507.672
 310  1464.506
 311  1371.063
 312  1329.527
 313  1423.784
 314  1448.167
 315  1438.054
 316  1403.675
 317  1473.756
 318  1428.883
 319  1410.552
 320  1392.323
 321  1468.662
 322  1510.013
 323  1466.004
 324  1579.308
 325  1503.806
 326  1401.759
 327  1340.498
 328  1377.086
 329  1422.028
 330  1361.693
 331  1476.21
 332  1452.932
 333  1470.331
 334  1491.833
 335  1496.051
 336  1517.159
 337  1483.312
 338  1419.5
 339  1485.162
 340  1469.942
 341  1533.265
 342  1503.661
 343  1482.319
 344  1450.927
 345  1429.678
 346  1517.935
 347  1438.511
 348  1411.173
 349  1515.948
 350  1569.108
 351  1541.439
 352  1470.476
 353  1485.885
 354  1512.401
 355  1461.502
 356  1462.568
 357  1454.188
 358  1520.903
 359  1543.424
 360  1570.874
 361  1485.06
 362  1485.46
 363  1461.876
 364  1472.703
 365  1520.373
 366  1547.549
 367  1573.421
 368  1559.833
 369  1485.591
 370  1504.869
 371  1520.816
 372  1532.909
 373  1505.888
 374  1610.466
 375  1657.847
 376  1583.557
 377  1562.731
 378  1529.316
 379  1445.917
 380  1535.051
 381  1478.063
 382  1508.996
 383  1390.062
 384  1442.39
 385  1415.358
 386  1391.89
 387  1502.066
 388  1484.725
 389  1489.371
 390  1461.061
 391  1444.672
 392  1481.405
 393  1487.619
 394  1454.76
 395  1435.577
 396  1541.716
 397  1499.391
 398  1404.36
 399  1472.573
 400  1475.517
 401  1470.99
 402  1503.703
 403  1468.337
 404  1418.154
 405  1496.968
 406  1457.557
 407  1426.287
 408  1423.208
 409  1424.449
 410  1405.187
 411  1440.809
 412  1501.239
 413  1445.487
 414  1525.053
 415  1583.898
 416  1568.858
 417  1527.034
 418  1514.667
 419  1453.148
 420  1501.25
 421  1480.795
 422  1451.106
 423  1497.611
 424  1459.135
 425  1502.174
 426  1472.315
 427  1451.081
 428  1474.157
 429  1507.394
 430  1590.979
 431  1660.463
 432  1657.253
 433  1680.933
 434  1563.359
 435  1577.775
 436  1482.008
 437  1554.55
 438  1586.898
 439  1575.347
 440  1689.902
 441  1667.576
 442  1593.329
 443  1563.91
 444  1594.366
 445  1601.891
 446  1696.487
 447  1714.254
 448  1659.496
 449  1645.808
 450  1702.61
 451  1673.298
 452  1610.931
 453  1567.223
 454  1552.254
 455  1573.476
 456  1648.458
 457  1716.059
 458  1640.366
 459  1603.238
 460  1600.409
 461  1620.181
 462  1646.088
 463  1662.48
 464  1635.098
 465  1735.042
 466  1794.544
 467  1629.431
 468  1598.328
 469  1596.327
 470  1632.458
 471  1651.03
 472  1721.349
 473  1733.398
 474  1683.978
 475  1805.107
 476  1771.813
 477  1622.775
 478  1590.926
 479  1711.265
 480  1780.714
 481  1786.631
 482  1891.532
 483  1832.875
 484  1723.807
 485  1664.603
 486  1706.797
 487  1694.692
 488  1705.064
 489  1764.539
 490  1796.107
 491  1884.353
 492  1795.373
 493  1760.995
 494  1682.258
 495  1720.693
 496  1848.413
 497  1796.573
 498  1857.147
 499  1863.866
 500  1834.31
 501  1758.29
 502  1800.642
 503  1750.894
 504  1676.459
 505  1690.821
 506  1807.522
 507  1811.119
 508  1787.342
 509  1931.808
 510  1984.481
 511  2002.747
