# Input file       =  1204103553.100353_cleaned.dat
# Candidate        =  PSR_0332+5434
# Telescope        =  AR
# Epoch_topo       =  58180.383936346676
# Epoch_bary       =  N/A
# T_sample         =  0.002
# Data Folded      =  7208960
# Data Avg         =  0.0624533114572326
# Data StdDev      =  1.00001551922844 
# Profile Bins     =  512
# Profile Avg      =  879.401222659546 
# Profile StdDev   =  118.661017292386 
# Reduced chi-sqr  =  3.272
# Prob(Noise)      <  2.91e-123   (~23.6 sigma)
# P_topo (ms)      =  714.580232217948  +/- 2.58e-05
# P'_topo (s/s)    =  -0                +/- 1.39e-11
# P''_topo (s/s^2) =  0                 +/- 6.24e-15
# P_bary (ms)      =  N/A
# P'_bary (s/s)    =  N/A
# P''_bary (s/s^2) =  N/A
# P_orb (s)        =  N/A
# asin(i)/c (s)    =  N/A
# eccentricity     =  N/A
# w (rad)          =  N/A
# T_peri           =  N/A
######################################################
   0  1234.066
   1  1220.254
   2  987.8102
   3  810.5422
   4  720.838
   5  639.9371
   6  750.843
   7  883.4968
   8  912.5839
   9  899.8217
  10  937.1694
  11  836.7624
  12  737.6116
  13  814.7338
  14  784.5376
  15  763.0621
  16  823.4715
  17  842.0582
  18  787.8431
  19  681.457
  20  635.5449
  21  742.5374
  22  876.9984
  23  857.5134
  24  971.3382
  25  999.5826
  26  972.9818
  27  716.5283
  28  658.269
  29  703.9606
  30  612.9832
  31  677.514
  32  831.9124
  33  969.7451
  34  959.7853
  35  829.0805
  36  815.9459
  37  826.0354
  38  782.7612
  39  818.7667
  40  856.6155
  41  874.8846
  42  899.355
  43  1024.286
  44  866.8499
  45  881.8715
  46  925.106
  47  902.3371
  48  932.5726
  49  914.613
  50  904.1438
  51  863.7066
  52  896.4271
  53  971.264
  54  868.4313
  55  840.8699
  56  1014.207
  57  1050.78
  58  1036.194
  59  911.6127
  60  830.7294
  61  790.7974
  62  772.8406
  63  745.046
  64  827.1403
  65  939.5132
  66  997.1418
  67  1074.775
  68  1020.635
  69  959.4282
  70  842.0332
  71  785.2014
  72  929.5533
  73  834.1183
  74  1029.395
  75  982.9621
  76  907.7909
  77  933.8748
  78  814.2802
  79  893.296
  80  921.0606
  81  904.6752
  82  932.1934
  83  853.158
  84  870.378
  85  852.02
  86  774.8994
  87  806.9496
  88  793.9725
  89  867.3044
  90  911.8756
  91  982.7763
  92  895.1869
  93  824.9623
  94  800.8082
  95  768.9158
  96  693.2858
  97  782.5699
  98  876.5972
  99  1005.548
 100  1073.125
 101  931.2538
 102  784.1357
 103  774.9209
 104  798.4504
 105  798.9782
 106  884.2823
 107  948.7411
 108  1092.097
 109  1066.176
 110  1003.346
 111  881.4114
 112  938.0361
 113  938.6976
 114  940.3233
 115  1084.325
 116  1204.358
 117  1089.488
 118  948.5373
 119  947.5577
 120  966.3722
 121  932.2623
 122  1090.622
 123  1121.06
 124  1155.415
 125  1197.506
 126  1070.937
 127  1037.743
 128  991.052
 129  1077.787
 130  1084.815
 131  996.8046
 132  1019.733
 133  1083.38
 134  1140.002
 135  953.9423
 136  1004.757
 137  1043.763
 138  1094.415
 139  1252.316
 140  1347.078
 141  1362.726
 142  1288.605
 143  1135.033
 144  1167.688
 145  1119.717
 146  1091.005
 147  1053.081
 148  994.0338
 149  1235.648
 150  1210.452
 151  1065.346
 152  1054.56
 153  1071.802
 154  1047.367
 155  1100.025
 156  1185.112
 157  1232.199
 158  1323.774
 159  1253.353
 160  1083.969
 161  946.6718
 162  1039.052
 163  1196.641
 164  1301.777
 165  1319.872
 166  1162.183
 167  1037.274
 168  923.4663
 169  1020.478
 170  989.4706
 171  1110.403
 172  1077.32
 173  1221.142
 174  1302.64
 175  1153.814
 176  988.411
 177  1058.016
 178  1041.654
 179  1018.149
 180  1030.649
 181  1033.825
 182  1194.67
 183  1237.59
 184  1136.517
 185  956.3145
 186  951.0358
 187  1029.089
 188  1098.992
 189  1174.716
 190  1233.985
 191  1304.497
 192  1164.742
 193  1030.762
 194  951.9768
 195  939.474
 196  989.3215
 197  983.7616
 198  1072.98
 199  1035.49
 200  981.3372
 201  963.5477
 202  990.3744
 203  1017.184
 204  960.3619
 205  1059.448
 206  1155.634
 207  1268.784
 208  1193.895
 209  1045.165
 210  902.4138
 211  920.2138
 212  975.7946
 213  970.0623
 214  1074.264
 215  1107.816
 216  877.2041
 217  852.2195
 218  907.9494
 219  1026.08
 220  978.3945
 221  1061.297
 222  1024.995
 223  1065.92
 224  986.0638
 225  958.7201
 226  905.5225
 227  794.1664
 228  804.1642
 229  837.0942
 230  810.8334
 231  973.2643
 232  984.2446
 233  940.4495
 234  808.3313
 235  804.7952
 236  830.4998
 237  846.4055
 238  916.4601
 239  944.6113
 240  953.963
 241  932.1776
 242  827.7434
 243  761.3445
 244  811.7748
 245  870.5427
 246  951.5078
 247  936.2764
 248  877.4172
 249  930.3204
 250  843.4474
 251  691.517
 252  661.6438
 253  699.527
 254  816.8045
 255  1025.058
 256  977.8761
 257  1034.339
 258  991.9025
 259  799.7259
 260  702.9527
 261  733.9315
 262  740.0246
 263  777.8639
 264  839.6281
 265  900.1464
 266  903.6727
 267  769.5905
 268  811.1598
 269  790.5322
 270  838.7935
 271  1007.072
 272  957.4756
 273  930.9109
 274  879.9105
 275  779.0054
 276  773.8931
 277  874.7559
 278  892.8168
 279  997.1141
 280  1063.95
 281  1071.913
 282  987.623
 283  874.2634
 284  809.4799
 285  814.2699
 286  857.0519
 287  906.7104
 288  965.3179
 289  1015.497
 290  1004.49
 291  871.9921
 292  764.7983
 293  800.4352
 294  732.1566
 295  787.7712
 296  889.0015
 297  939.6526
 298  936.9
 299  891.8522
 300  743.8338
 301  730.704
 302  737.5138
 303  806.2987
 304  856.9622
 305  906.5546
 306  1035.978
 307  943.5384
 308  801.2194
 309  853.3115
 310  839.3688
 311  775.0988
 312  766.2112
 313  770.0581
 314  946.9572
 315  931.3346
 316  820.1609
 317  862.6827
 318  775.8176
 319  765.7803
 320  837.8474
 321  896.5107
 322  893.3088
 323  869.4219
 324  914.9438
 325  879.2779
 326  763.7516
 327  669.9474
 328  776.3738
 329  831.1823
 330  750.1401
 331  845.7549
 332  806.0744
 333  681.5669
 334  620.5302
 335  679.4872
 336  763.2809
 337  826.2498
 338  882.3644
 339  905.1331
 340  784.9766
 341  726.1025
 342  690.8335
 343  651.1891
 344  611.5793
 345  760.662
 346  865.3429
 347  933.993
 348  781.61
 349  626.8328
 350  620.7841
 351  732.4195
 352  816.5398
 353  902.7634
 354  909.0113
 355  1061.085
 356  1034.383
 357  938.2815
 358  795.7214
 359  751.1529
 360  830.028
 361  836.1609
 362  785.2531
 363  764.145
 364  881.4546
 365  914.8821
 366  811.8061
 367  666.3257
 368  762.9896
 369  682.4362
 370  701.1412
 371  811.5972
 372  979.2813
 373  884.6629
 374  748.0156
 375  740.7983
 376  698.2607
 377  661.3752
 378  704.7087
 379  791.0116
 380  796.4767
 381  811.5817
 382  787.5153
 383  740.7153
 384  756.0009
 385  738.1251
 386  697.5677
 387  802.8438
 388  885.1787
 389  938.3219
 390  816.1591
 391  667.2622
 392  489.9681
 393  630.4072
 394  675.9056
 395  622.7854
 396  801.1127
 397  831.0727
 398  810.722
 399  664.6885
 400  592.7394
 401  631.305
 402  717.4841
 403  751.7761
 404  854.7106
 405  892.9416
 406  852.5535
 407  760.6316
 408  640.9727
 409  700.4366
 410  791.5897
 411  794.5136
 412  875.7318
 413  823.9567
 414  837.0357
 415  874.9303
 416  757.7097
 417  768.9368
 418  811.6656
 419  835.1173
 420  936.5338
 421  1007.59
 422  957.4335
 423  968.0744
 424  833.4573
 425  751.3156
 426  751.3524
 427  841.8584
 428  883.5323
 429  970.0605
 430  880.7184
 431  772.4976
 432  670.5146
 433  615.2299
 434  663.9998
 435  666.1014
 436  742.4109
 437  807.7831
 438  907.8562
 439  833.3226
 440  753.8916
 441  708.8755
 442  652.5037
 443  659.7724
 444  716.9347
 445  717.6805
 446  843.6871
 447  815.3
 448  764.7344
 449  674.5855
 450  622.4086
 451  847.5726
 452  792.7617
 453  816.6385
 454  902.0301
 455  897.7728
 456  831.2571
 457  771.1129
 458  778.6055
 459  711.0806
 460  625.7733
 461  737.6923
 462  800.0293
 463  764.0526
 464  709.1695
 465  627.1713
 466  622.3208
 467  688.3945
 468  692.767
 469  609.3929
 470  738.049
 471  844.9645
 472  856.4312
 473  783.1818
 474  600.0217
 475  560.5667
 476  614.5871
 477  610.3957
 478  630.5546
 479  748.431
 480  783.41
 481  744.0988
 482  652.9664
 483  579.9141
 484  645.4927
 485  758.9409
 486  752.1071
 487  879.3663
 488  874.3768
 489  851.6011
 490  706.6806
 491  643.0776
 492  641.8414
 493  624.7828
 494  804.8599
 495  854.271
 496  873.1194
 497  892.5222
 498  683.2021
 499  580.3474
 500  666.0967
 501  801.0159
 502  878.3558
 503  874.7437
 504  848.7729
 505  910.2003
 506  754.0482
 507  623.6012
 508  669.7292
 509  786.2405
 510  942.7783
 511  1194.701
