# Input file       =  1204017792.172484_cleaned.dat
# Candidate        =  PSR_0332+5434
# Telescope        =  AR
# Epoch_topo       =  58179.391333014857
# Epoch_bary       =  N/A
# T_sample         =  0.002
# Data Folded      =  7274496
# Data Avg         =  0.0661250080080569
# Data StdDev      =  3.90663065086733 
# Profile Bins     =  1024
# Profile Avg      =  469.88728838897  
# Profile StdDev   =  329.271263022559 
# Reduced chi-sqr  =  1.975
# Prob(Noise)      <  7.86e-68   (~17.4 sigma)
# P_topo (ms)      =  714.580347074463  +/- 2.12e-05
# P'_topo (s/s)    =  -0                +/- 1.13e-11
# P''_topo (s/s^2) =  0                 +/- 5.02e-15
# P_bary (ms)      =  N/A
# P'_bary (s/s)    =  N/A
# P''_bary (s/s^2) =  N/A
# P_orb (s)        =  N/A
# asin(i)/c (s)    =  N/A
# eccentricity     =  N/A
# w (rad)          =  N/A
# T_peri           =  N/A
######################################################
   0  110.5584
   1  73.29819
   2  88.09558
   3  67.67457
   4  288.784
   5  428.3689
   6  496.6437
   7  679.3021
   8  714.1234
   9  751.9969
  10  426.3111
  11  252.1919
  12  263.8428
  13  323.6726
  14  445.4041
  15  294.4565
  16  94.55316
  17  29.67968
  18  139.5467
  19  443.745
  20  473.8699
  21  617.5591
  22  830.7823
  23  1014.915
  24  943.4427
  25  677.6551
  26  502.9411
  27  572.8702
  28  459.4987
  29  379.363
  30  102.9505
  31  91.16246
  32  47.18703
  33  84.22901
  34  100.7574
  35  111.6974
  36  135.386
  37  296.256
  38  290.7187
  39  386.9722
  40  397.085
  41  517.6927
  42  695.4653
  43  679.785
  44  650.4471
  45  510.9818
  46  489.6043
  47  467.0633
  48  419.4093
  49  546.4849
  50  465.0897
  51  370.4549
  52  288.3969
  53  381.1234
  54  632.1473
  55  788.7874
  56  875.1727
  57  883.2984
  58  706.7801
  59  595.2791
  60  430.5122
  61  291.8875
  62  121.2269
  63  38.28522
  64  82.82281
  65  128.0219
  66  128.2487
  67  146.7005
  68  111.5367
  69  176.3714
  70  288.9176
  71  409.7146
  72  510.1847
  73  501.6485
  74  537.457
  75  486.8456
  76  406.9325
  77  384.0912
  78  300.7985
  79  245.3937
  80  267.2392
  81  302.5787
  82  295.4036
  83  267.4887
  84  324.0659
  85  435.0353
  86  447.3622
  87  730.5571
  88  892.2411
  89  943.7617
  90  848.7459
  91  748.5897
  92  684.0079
  93  467.033
  94  427.4123
  95  346.0468
  96  244.9062
  97  146.8803
  98  143.8628
  99  184.4274
 100  88.44563
 101  15.31991
 102  148.9534
 103  335.5355
 104  510.0209
 105  687.2158
 106  621.9897
 107  689.2805
 108  526.084
 109  448.209
 110  150.5784
 111  163.0479
 112  370.856
 113  531.9818
 114  394.7295
 115  312.0031
 116  238.3731
 117  381.4615
 118  366.4582
 119  548.5038
 120  821.2515
 121  981.9595
 122  1084.388
 123  859.2651
 124  795.5028
 125  624.5207
 126  529.0262
 127  434.3083
 128  295.8485
 129  261.7084
 130  174.6177
 131  164.6589
 132  247.1136
 133  356.0557
 134  353.0659
 135  340.3566
 136  372.5792
 137  531.6908
 138  524.4088
 139  468.3074
 140  488.036
 141  503.3402
 142  633.5965
 143  532.0226
 144  425.3113
 145  358.7521
 146  369.6148
 147  412.358
 148  306.9402
 149  265.1796
 150  355.7789
 151  563.4741
 152  855.4018
 153  969.1559
 154  987.2743
 155  1001.459
 156  938.4155
 157  841.4695
 158  539.7666
 159  431.1656
 160  348.6172
 161  279.4265
 162  304.3968
 163  269.0252
 164  348.2835
 165  315.7065
 166  289.2827
 167  279.9788
 168  310.6527
 169  475.9475
 170  592.8121
 171  653.5757
 172  724.572
 173  668.9298
 174  553.1821
 175  496.6544
 176  433.7093
 177  529.1974
 178  531.6902
 179  478.8967
 180  430.6414
 181  358.711
 182  523.8269
 183  535.593
 184  587.0944
 185  718.3416
 186  855.0325
 187  1076.182
 188  1051.905
 189  939.3246
 190  806.341
 191  625.6614
 192  545.442
 193  364.5644
 194  348.4104
 195  241.8941
 196  279.4219
 197  348.6957
 198  326.6696
 199  246.806
 200  140.5244
 201  240.3359
 202  401.7101
 203  523.953
 204  605.7292
 205  753.1785
 206  638.6703
 207  551.9721
 208  411.0591
 209  590.3866
 210  746.8106
 211  800.6885
 212  593.9136
 213  384.05
 214  361.9729
 215  453.797
 216  572.6411
 217  597.6086
 218  652.7972
 219  701.9364
 220  874.7403
 221  858.7957
 222  787.0483
 223  674.1466
 224  745.9745
 225  806.5019
 226  687.5491
 227  446.7839
 228  253.1368
 229  255.5708
 230  316.6086
 231  192.725
 232  105.5977
 233  32.32104
 234  73.98224
 235  219.5654
 236  459.8084
 237  778.624
 238  854.212
 239  857.3237
 240  818.3937
 241  715.0151
 242  626.6328
 243  545.4875
 244  405.1658
 245  403.5511
 246  382.6275
 247  451.352
 248  520.8016
 249  365.8498
 250  552.3752
 251  723.1064
 252  1083.283
 253  1005.354
 254  900.8018
 255  995.0279
 256  1034.969
 257  979.1929
 258  728.0494
 259  518.5751
 260  363.3235
 261  242.845
 262  334.6026
 263  342.7312
 264  252.2626
 265  99.58686
 266  128.013
 267  228.8293
 268  411.7159
 269  536.2014
 270  753.2184
 271  746.1876
 272  761.9473
 273  748.7411
 274  646.8712
 275  635.3284
 276  684.0532
 277  731.5417
 278  625.853
 279  464.1685
 280  423.092
 281  287.1827
 282  256.5229
 283  380.3931
 284  560.9279
 285  812.2986
 286  907.045
 287  1048.865
 288  1054.984
 289  988.8745
 290  1042.855
 291  821.8173
 292  640.8327
 293  282.583
 294  116.2171
 295  179.9691
 296  194.4859
 297  237.5119
 298  155.9848
 299  173.2216
 300  186.745
 301  291.5642
 302  510.3109
 303  723.0476
 304  819.187
 305  1012.123
 306  917.0255
 307  743.5845
 308  652.7159
 309  649.5679
 310  655.9507
 311  450.6248
 312  526.2903
 313  466.6042
 314  443.9179
 315  462.5
 316  492.9344
 317  608.1713
 318  612.3054
 319  815.8754
 320  880.3206
 321  768.4554
 322  739.2485
 323  721.0331
 324  764.368
 325  607.87
 326  419.9993
 327  382.6509
 328  216.0579
 329  246.6604
 330  302.9292
 331  348.4591
 332  236.6265
 333  177.1928
 334  194.1392
 335  335.6824
 336  482.2209
 337  611.266
 338  549.9783
 339  397.4874
 340  487.7433
 341  377.0488
 342  284.1545
 343  189.3375
 344  424.3504
 345  597.0044
 346  450.3994
 347  232.1621
 348  207.446
 349  294.8826
 350  402.9116
 351  527.5917
 352  769.4093
 353  973.7571
 354  1012.218
 355  908.1539
 356  690.3927
 357  508.9375
 358  321.0093
 359  292.8232
 360  280.4308
 361  267.3474
 362  208.3731
 363  51.04002
 364  44.91889
 365  8.56931
 366  172.6217
 367  361.3885
 368  592.4041
 369  742.7426
 370  884.5994
 371  777.3676
 372  632.1553
 373  502.2144
 374  428.8158
 375  545.0421
 376  581.9038
 377  645.153
 378  611.7366
 379  528.6542
 380  460.6162
 381  492.0082
 382  632.8824
 383  685.1718
 384  720.9414
 385  825.2404
 386  867.8892
 387  776.6414
 388  674.3267
 389  581.662
 390  582.0257
 391  503.689
 392  336.6042
 393  294.4488
 394  367.8869
 395  487.1745
 396  343.009
 397  236.9514
 398  133.2097
 399  41.64975
 400  171.2642
 401  250.6247
 402  545.8485
 403  669.9478
 404  822.7306
 405  687.3326
 406  429.0005
 407  312.8086
 408  347.7463
 409  453.9389
 410  471.045
 411  282.8561
 412  148.1493
 413  139.4494
 414  249.3631
 415  470.3192
 416  499.0582
 417  648.9636
 418  827.3192
 419  777.4763
 420  761.5507
 421  608.3649
 422  769.5372
 423  701.8128
 424  547.9628
 425  368.0013
 426  300.7169
 427  341.4717
 428  299.0371
 429  250.7506
 430  222.7037
 431  185.6845
 432  117.3485
 433  162.6696
 434  382.4599
 435  692.1215
 436  742.3422
 437  668.1195
 438  587.9283
 439  512.1002
 440  485.3705
 441  421.8303
 442  484.059
 443  533.0659
 444  427.5794
 445  412.5704
 446  383.3026
 447  463.3025
 448  431.702
 449  521.4607
 450  815.3384
 451  968.3711
 452  1058.509
 453  1044.21
 454  908.3227
 455  768.7825
 456  558.9822
 457  380.5121
 458  254.3763
 459  189.9346
 460  125.5645
 461  22.52465
 462  46.94585
 463  199.5489
 464  176.7257
 465  246.9511
 466  341.4727
 467  714.4808
 468  922.569
 469  1026.689
 470  946.6306
 471  755.4627
 472  584.2089
 473  459.7747
 474  324.9901
 475  246.1348
 476  274.5525
 477  386.0418
 478  542.4987
 479  468.3447
 480  483.7564
 481  489.0966
 482  668.1036
 483  816.6929
 484  809.5777
 485  893.6219
 486  847.5191
 487  923.4996
 488  820.4124
 489  625.9086
 490  449.8313
 491  361.0439
 492  367.2978
 493  309.2812
 494  257.2831
 495  234.1307
 496  282.7002
 497  272.9817
 498  288.3873
 499  290.9244
 500  409.9589
 501  527.6226
 502  633.9348
 503  736.8285
 504  680.0896
 505  624.7483
 506  584.9101
 507  501.4045
 508  411.397
 509  304.6101
 510  449.6979
 511  549.2162
 512  526.2255
 513  498.3851
 514  398.0423
 515  382.5082
 516  454.3988
 517  703.075
 518  1009.656
 519  1040.857
 520  1066.998
 521  836.0698
 522  692.6284
 523  503.1587
 524  557.6584
 525  566.6992
 526  414.7545
 527  384.8111
 528  402.9236
 529  443.2885
 530  305.2649
 531  261.5969
 532  349.2396
 533  522.1625
 534  678.0246
 535  847.8808
 536  818.1819
 537  737.4539
 538  559.6794
 539  564.6648
 540  562.0321
 541  624.8726
 542  563.877
 543  605.7645
 544  506.33
 545  430.2031
 546  346.0996
 547  480.2543
 548  718.2623
 549  872.8678
 550  1076.139
 551  1124.034
 552  1082.028
 553  971.1346
 554  843.0262
 555  749.9648
 556  559.0228
 557  499.6627
 558  480.96
 559  381.7535
 560  310.7593
 561  194.4904
 562  195.6291
 563  188.0155
 564  125.5172
 565  311.6371
 566  514.351
 567  631.1385
 568  745.9319
 569  668.5599
 570  692.1346
 571  645.0276
 572  565.1679
 573  438.3172
 574  214.7168
 575  356.4227
 576  544.6534
 577  642.5488
 578  672.3195
 579  627.8014
 580  647.2394
 581  725.2285
 582  752.8919
 583  881.1431
 584  691.7177
 585  760.6074
 586  742.3765
 587  568.7057
 588  390.2564
 589  266.2848
 590  439.938
 591  407.6481
 592  388.2328
 593  397.0398
 594  373.7588
 595  222.0405
 596  89.50621
 597  189.3956
 598  490.0318
 599  553.2864
 600  646.1744
 601  611.6279
 602  635.528
 603  747.465
 604  784.3793
 605  875.665
 606  915.8221
 607  1057.032
 608  1092.543
 609  1019.242
 610  1078.468
 611  1079.375
 612  1119.925
 613  1035.639
 614  1058.864
 615  993.4338
 616  1050.452
 617  1060.775
 618  1148.665
 619  905.18
 620  738.6975
 621  469.023
 622  450.5121
 623  401.5273
 624  365.7585
 625  180.5568
 626  -0.8314166
 627  39.17242
 628  231.977
 629  324.7564
 630  298.8549
 631  230.5613
 632  249.0544
 633  418.3691
 634  527.4094
 635  624.2488
 636  628.7791
 637  612.0242
 638  583.0649
 639  436.8071
 640  335.3156
 641  225.7619
 642  237.7104
 643  203.3814
 644  260.5696
 645  217.2623
 646  287.8617
 647  333.6035
 648  639.9723
 649  716.6965
 650  841.9869
 651  801.3749
 652  861.0512
 653  734.9513
 654  457.6882
 655  320.1696
 656  168.9296
 657  153.864
 658  199.5903
 659  279.611
 660  348.8849
 661  198.5414
 662  116.3956
 663  91.68137
 664  100.2032
 665  257.7512
 666  462.1309
 667  644.8178
 668  681.0189
 669  678.4214
 670  711.5833
 671  661.6215
 672  518.9261
 673  377.1999
 674  258.3912
 675  135.1461
 676  122.977
 677  174.9087
 678  228.4787
 679  301.9091
 680  514.4006
 681  683.7814
 682  659.3709
 683  743.0588
 684  828.5255
 685  927.2115
 686  763.6258
 687  646.1308
 688  588.0547
 689  439.7101
 690  329.1151
 691  187.3382
 692  249.2366
 693  154.1513
 694  268.2789
 695  334.4396
 696  298.5043
 697  237.1523
 698  399.3753
 699  469.7505
 700  543.8682
 701  663.6477
 702  668.072
 703  522.3489
 704  344.2468
 705  371.574
 706  355.0331
 707  255.7921
 708  262.8004
 709  337.5205
 710  335.4492
 711  378.519
 712  242.5218
 713  417.42
 714  432.5466
 715  564.3934
 716  642.0661
 717  604.7324
 718  646.3256
 719  533.2656
 720  500.287
 721  412.6157
 722  335.7693
 723  340.954
 724  270.2787
 725  284.2614
 726  40.56091
 727  -144.7106
 728  -276.0647
 729  -145.8566
 730  68.31576
 731  332.2699
 732  384.8271
 733  524.5908
 734  512.7732
 735  519.8781
 736  434.8229
 737  331.7297
 738  375.9165
 739  340.001
 740  486.4719
 741  450.2544
 742  303.5146
 743  143.2287
 744  137.2572
 745  243.5387
 746  454.183
 747  614.117
 748  816.2364
 749  816.933
 750  813.8175
 751  734.2957
 752  588.6318
 753  536.4544
 754  394.4801
 755  254.5371
 756  13.31426
 757  -82.85114
 758  24.75224
 759  101.5489
 760  100.1223
 761  -55.81452
 762  -98.20053
 763  -18.74886
 764  95.61253
 765  391.6825
 766  517.9374
 767  564.5101
 768  580.1241
 769  572.9158
 770  422.5245
 771  254.8372
 772  229.4658
 773  369.3444
 774  414.2086
 775  455.4155
 776  350.7072
 777  288.575
 778  320.9657
 779  414.6711
 780  599.625
 781  765.5965
 782  785.9384
 783  769.4833
 784  531.1826
 785  440.5203
 786  403.7396
 787  424.6829
 788  391.321
 789  239.0631
 790  224.1722
 791  119.5843
 792  107.2667
 793  -4.046261
 794  -85.81344
 795  -81.84029
 796  73.42843
 797  340.0062
 798  461.7509
 799  487.3831
 800  464.7767
 801  583.8928
 802  582.0468
 803  545.9835
 804  553.6033
 805  564.2543
 806  498.4393
 807  436.7798
 808  364.5493
 809  313.7314
 810  375.5123
 811  478.6694
 812  644.0881
 813  792.2614
 814  964.5397
 815  963.1107
 816  993.7347
 817  868.5332
 818  812.1672
 819  572.6432
 820  458.7426
 821  337.9589
 822  344.6259
 823  255.0173
 824  219.5406
 825  212.7087
 826  145.8468
 827  75.26292
 828  127.2394
 829  289.4783
 830  466.0327
 831  584.915
 832  559.0242
 833  613.0992
 834  537.5217
 835  553.0692
 836  479.6635
 837  484.7583
 838  495.9391
 839  447.816
 840  387.3488
 841  338.6295
 842  202.5926
 843  262.5681
 844  370.2667
 845  605.3846
 846  724.3848
 847  858.4442
 848  1034.737
 849  1154.201
 850  1007.232
 851  891.3088
 852  647.4098
 853  531.9514
 854  176.9363
 855  201.7894
 856  153.3059
 857  165.267
 858  84.79692
 859  88.38123
 860  131.9053
 861  274.4323
 862  320.0186
 863  394.8031
 864  428.6653
 865  590.3182
 866  732.7098
 867  631.1862
 868  524.2352
 869  392.8866
 870  363.3136
 871  394.393
 872  405.2468
 873  456.5827
 874  380.1573
 875  259.2838
 876  169.4089
 877  219.0598
 878  401.803
 879  726.8121
 880  843.479
 881  922.998
 882  716.0766
 883  764.3951
 884  768.1724
 885  769.9078
 886  592.6131
 887  407.5278
 888  405.5336
 889  345.373
 890  335.1471
 891  245.8603
 892  272.7489
 893  361.0648
 894  358.9594
 895  387.4462
 896  480.0681
 897  445.4904
 898  563.7598
 899  485.3641
 900  495.2098
 901  467.5217
 902  476.7219
 903  486.5835
 904  431.7112
 905  497.7134
 906  489.8819
 907  431.6879
 908  422.136
 909  627.1636
 910  703.0667
 911  778.0057
 912  602.106
 913  643.432
 914  674.4222
 915  770.8711
 916  769.0867
 917  707.9514
 918  550.1483
 919  198.6799
 920  171.9275
 921  236.4692
 922  320.8241
 923  224.3298
 924  130.2103
 925  90.54652
 926  87.94644
 927  80.3982
 928  64.5002
 929  95.12655
 930  119.9621
 931  264.2714
 932  277.2968
 933  353.8748
 934  412.5269
 935  473.6981
 936  582.9252
 937  418.9165
 938  260.6833
 939  25.43711
 940  -0.9189665
 941  78.56866
 942  192.0254
 943  275.1
 944  272.2756
 945  362.5999
 946  629.9689
 947  707.3663
 948  741.221
 949  652.0876
 950  629.6877
 951  431.3273
 952  260.6997
 953  268.8181
 954  318.6274
 955  183.3097
 956  -30.46292
 957  -106.605
 958  41.65667
 959  69.87417
 960  85.03725
 961  112.4908
 962  219.5918
 963  368.0443
 964  486.1928
 965  546.2812
 966  529.4517
 967  450.8126
 968  418.3883
 969  336.0878
 970  251.4978
 971  225.6518
 972  310.6556
 973  276.0142
 974  256.0547
 975  281.3318
 976  381.6663
 977  423.6353
 978  522.1352
 979  601.2307
 980  577.0123
 981  618.997
 982  660.64
 983  599.715
 984  381.117
 985  268.4855
 986  248.0008
 987  81.48755
 988  -38.37776
 989  -13.34899
 990  -4.986175
 991  -73.64888
 992  -144.3746
 993  7.120368
 994  83.09589
 995  150.917
 996  412.3112
 997  521.8474
 998  577.051
 999  590.8482
1000  529.8894
1001  459.3116
1002  321.4152
1003  265.4462
1004  243.4734
1005  256.4511
1006  359.1022
1007  392.234
1008  434.2736
1009  524.5793
1010  608.5391
1011  679.5221
1012  640.5893
1013  733.1741
1014  830.8182
1015  761.5615
1016  646.8892
1017  399.4519
1018  323.5182
1019  198.754
1020  104.927
1021  97.71695
1022  34.1324
1023  183.959
