# Input file       =  1204736803.105261_cleaned.dat
# Candidate        =  PSR_0332+5434
# Telescope        =  AR
# Epoch_topo       =  58187.713218810895
# Epoch_bary       =  N/A
# T_sample         =  0.002
# Data Folded      =  7340032
# Data Avg         =  0.396206600888815
# Data StdDev      =  6.25926859970205 
# Profile Bins     =  512
# Profile Avg      =  5679.82364674321 
# Profile StdDev   =  749.441234940076 
# Reduced chi-sqr  =  0.794
# Prob(Noise)      <  1   (~0.0 sigma)
# P_topo (ms)      =  714.579199288807  +/- 0.000554
# P'_topo (s/s)    =  -0                +/- 2.92e-10
# P''_topo (s/s^2) =  0                 +/- 1.29e-13
# P_bary (ms)      =  N/A
# P'_bary (s/s)    =  N/A
# P''_bary (s/s^2) =  N/A
# P_orb (s)        =  N/A
# asin(i)/c (s)    =  N/A
# eccentricity     =  N/A
# w (rad)          =  N/A
# T_peri           =  N/A
######################################################
   0  5685.107
   1  5751.139
   2  6086.177
   3  6156.427
   4  6069.623
   5  5757.931
   6  5614.173
   7  5832.38
   8  6015.172
   9  6097.971
  10  6212.791
  11  6123.195
  12  6393.675
  13  6363.789
  14  6303.326
  15  6542.833
  16  6307.246
  17  5686.503
  18  5513.631
  19  6093.796
  20  6377.928
  21  6478.621
  22  6180.846
  23  6266.923
  24  6290.023
  25  5872.299
  26  6302.125
  27  5854.262
  28  5724.637
  29  5613.674
  30  5475.818
  31  5746.746
  32  5402.542
  33  5756.142
  34  5422.973
  35  5156.365
  36  5261.456
  37  5569.499
  38  5434.777
  39  5601.676
  40  5693.954
  41  5822.864
  42  5353.276
  43  5454.047
  44  5808.923
  45  5762.854
  46  5717.669
  47  5881.002
  48  5704.096
  49  5791.458
  50  5620.649
  51  5475.414
  52  5474.209
  53  6052.27
  54  5920.652
  55  5891.653
  56  5816.052
  57  6127.984
  58  5890.803
  59  5882.584
  60  5880.343
  61  6009.156
  62  5877.901
  63  5511.761
  64  5681.955
  65  5762.201
  66  5993.977
  67  6023.382
  68  6256.669
  69  5710.856
  70  5536.416
  71  6221.451
  72  6103.643
  73  6054.75
  74  6331.755
  75  6271.396
  76  6353.555
  77  6134.293
  78  6132.946
  79  6261.987
  80  6539.046
  81  6412.559
  82  6534.803
  83  6742.651
  84  6741.56
  85  6512.146
  86  6257.244
  87  6312.438
  88  6697.151
  89  6650.031
  90  6787.916
  91  6593.949
  92  6676.7
  93  6339.883
  94  6478.682
  95  6255.345
  96  6313.141
  97  6348.839
  98  6455.646
  99  6438.873
 100  6360.892
 101  6470.792
 102  6391.167
 103  6547.117
 104  6609.719
 105  6156.611
 106  6060.783
 107  6350.523
 108  6195.604
 109  6233.584
 110  6258.449
 111  5898.864
 112  6099.396
 113  6324.143
 114  6411.88
 115  6581.476
 116  6295.698
 117  6219.852
 118  5852.905
 119  6123.945
 120  6003.76
 121  5467.216
 122  5353.686
 123  5347.514
 124  5513.099
 125  5643.771
 126  5749.085
 127  5569.904
 128  5385.251
 129  5642.875
 130  5727.242
 131  6114.749
 132  5710.156
 133  5765.491
 134  5775.658
 135  5699.296
 136  5900.588
 137  5642.95
 138  5301.049
 139  5729.245
 140  5976.861
 141  5849.458
 142  5875.947
 143  5184.458
 144  5243.022
 145  5493.015
 146  5407.61
 147  5320.003
 148  5006.643
 149  5273.685
 150  5454.575
 151  5121.463
 152  4877.79
 153  5098.117
 154  5389.464
 155  5781.371
 156  6025.062
 157  6041.775
 158  5876.962
 159  6058.737
 160  5714.261
 161  5663.865
 162  5557.999
 163  5949.269
 164  6528.131
 165  6182.987
 166  5921.303
 167  6221.094
 168  6234.093
 169  6413.189
 170  6612.798
 171  6540.459
 172  6301.709
 173  6351.944
 174  6129.419
 175  6220.355
 176  6015.694
 177  5970.506
 178  5746.315
 179  5852.719
 180  6464.102
 181  6472.238
 182  6059.042
 183  5675.914
 184  5638.008
 185  5612.995
 186  5913.039
 187  5890.466
 188  6002.702
 189  6107.479
 190  5528.86
 191  5826.374
 192  5183.198
 193  5389.972
 194  5800.296
 195  5898.471
 196  5610.952
 197  5833.22
 198  5739.803
 199  5338.467
 200  5441.832
 201  5569.311
 202  6046.463
 203  5732.434
 204  5604.731
 205  5817.938
 206  5702.49
 207  5499.627
 208  5577.769
 209  5617.919
 210  5681.21
 211  5237.768
 212  5373.916
 213  5220.316
 214  5706.454
 215  5500.419
 216  5120.984
 217  4819.87
 218  4917.835
 219  4990.018
 220  4937.619
 221  5350.407
 222  5073.445
 223  5005.93
 224  5144.275
 225  5179.078
 226  5494.966
 227  5365.538
 228  5019.972
 229  5206.415
 230  5219.491
 231  5302.174
 232  5174.308
 233  5265.404
 234  5611.045
 235  5261.187
 236  5311.033
 237  5527.811
 238  5622.004
 239  5823.983
 240  5992.953
 241  6017.868
 242  5727.967
 243  5726.403
 244  5764.208
 245  6086.586
 246  6395.347
 247  5863.511
 248  6284.457
 249  6614.637
 250  5984.194
 251  5887.979
 252  5880.605
 253  5887.672
 254  5900.258
 255  6014.73
 256  6177.757
 257  5610.995
 258  5655.742
 259  5484.004
 260  5061.938
 261  5494.032
 262  5205.396
 263  5239.489
 264  5426.612
 265  5225.694
 266  5484.221
 267  5469.487
 268  5801.48
 269  5577.191
 270  5101.402
 271  5584.084
 272  5563.047
 273  5099.629
 274  5621.905
 275  5623.362
 276  5253.2
 277  4788.427
 278  5469.035
 279  5513.349
 280  4788.5
 281  4964.358
 282  5204.764
 283  5337.869
 284  4881.568
 285  5051.671
 286  4816.28
 287  4931.552
 288  5338.354
 289  5292.731
 290  5298.088
 291  5334.716
 292  5165.942
 293  5271.576
 294  5501.635
 295  5622.778
 296  5909.587
 297  6015.263
 298  5809.684
 299  5376.512
 300  5615.397
 301  5507.231
 302  5860.242
 303  6300.5
 304  6248.112
 305  6468.255
 306  6437.14
 307  6052.537
 308  5936.641
 309  6032.455
 310  5959.504
 311  6346.552
 312  6445.212
 313  6530.741
 314  6814.945
 315  6452.291
 316  6242.369
 317  6359.359
 318  6194.005
 319  6126.883
 320  5956.954
 321  5889.352
 322  6038.962
 323  6067.903
 324  6145.042
 325  5960.402
 326  6328.77
 327  6446.797
 328  6267.517
 329  6131.45
 330  6026.947
 331  6373.452
 332  6133.918
 333  6024.09
 334  5786.295
 335  5861.773
 336  6052.85
 337  5615.46
 338  5303.75
 339  5282.677
 340  5762.667
 341  5621.78
 342  5618.855
 343  5086.689
 344  5248.151
 345  5049.052
 346  5075.959
 347  5223.081
 348  5381.134
 349  5016.771
 350  5013.104
 351  5366.408
 352  5262.21
 353  5243.3
 354  5241.139
 355  5235.519
 356  5202.076
 357  5048.962
 358  5018.844
 359  4741.763
 360  4940.976
 361  4944.386
 362  5066.695
 363  5068.172
 364  4850.707
 365  5027.374
 366  5106.643
 367  5304.777
 368  5369.657
 369  5057.223
 370  4894.069
 371  4850.169
 372  4939.589
 373  4862.576
 374  4758.797
 375  4826.76
 376  4912.341
 377  4899.961
 378  4753.941
 379  4462.163
 380  4953.789
 381  5158.038
 382  5147.583
 383  4978.651
 384  4813.901
 385  5331.568
 386  5942.384
 387  5390.581
 388  5473.4
 389  5619.67
 390  5678.615
 391  5587.179
 392  5580.584
 393  6039.533
 394  6316.681
 395  6597.718
 396  6500.606
 397  6789.283
 398  7085.067
 399  7208.325
 400  6571.413
 401  6060.69
 402  5888.817
 403  5519.9
 404  5366.23
 405  5603.042
 406  5731.511
 407  5264.881
 408  5127.172
 409  5232.208
 410  5026.408
 411  5066.405
 412  5942.742
 413  5840.289
 414  5943.653
 415  5657.345
 416  5607.629
 417  5680.026
 418  5324.663
 419  5486.701
 420  5964.435
 421  5743.555
 422  6017.688
 423  5788.51
 424  5116.618
 425  5175.777
 426  5509.772
 427  5750.976
 428  5228.54
 429  5300.242
 430  5425.37
 431  5123.723
 432  4787.064
 433  4896.387
 434  5197.489
 435  5145.424
 436  5081.527
 437  5132.79
 438  5126.885
 439  4643.225
 440  4829.589
 441  5193.757
 442  5329.738
 443  5207.521
 444  5302.215
 445  5304.553
 446  5093.591
 447  5080.097
 448  5346.354
 449  5183.501
 450  4989.271
 451  5335.241
 452  5498.406
 453  5267.807
 454  5222.602
 455  5395.773
 456  5443.596
 457  5633.063
 458  5463.064
 459  5361.772
 460  5274.463
 461  5565.558
 462  5692.01
 463  5549.59
 464  5957.555
 465  5375.782
 466  5873.288
 467  5970.111
 468  5830.329
 469  5671.32
 470  5207.4
 471  5242.665
 472  5463.697
 473  5350.291
 474  5497.856
 475  5575.688
 476  5085.591
 477  4956.914
 478  5098.245
 479  5347.178
 480  5198.646
 481  5071.804
 482  5043.315
 483  5122.882
 484  4902.341
 485  5207.929
 486  5073.967
 487  4972.234
 488  5337.09
 489  5603.201
 490  5309.75
 491  5474.861
 492  5565.748
 493  5518.327
 494  5836.796
 495  5388.509
 496  5157.742
 497  5331.456
 498  5616.072
 499  5515.837
 500  5524.408
 501  5848.869
 502  5607.372
 503  5452.707
 504  5479.914
 505  5551.034
 506  5884.265
 507  5772.281
 508  6163.501
 509  5990.442
 510  6016.16
 511  5950.148
