# Input file       =  1204549517.10465_cleaned.dat
# Candidate        =  PSR_0332+5434
# Telescope        =  AR
# Epoch_topo       =  58185.545556766781
# Epoch_bary       =  N/A
# T_sample         =  0.002
# Data Folded      =  7340032
# Data Avg         =  0.0511882017678685
# Data StdDev      =  1.00030339486315 
# Profile Bins     =  512
# Profile Avg      =  733.899279455466 
# Profile StdDev   =  119.769362764952 
# Reduced chi-sqr  =  1.048
# Prob(Noise)      <  0.22   (~0.8 sigma)
# P_topo (ms)      =  714.579366351814  +/- 0.000288
# P'_topo (s/s)    =  -0                +/- 1.52e-10
# P''_topo (s/s^2) =  0                 +/- 6.7e-14
# P_bary (ms)      =  N/A
# P'_bary (s/s)    =  N/A
# P''_bary (s/s^2) =  N/A
# P_orb (s)        =  N/A
# asin(i)/c (s)    =  N/A
# eccentricity     =  N/A
# w (rad)          =  N/A
# T_peri           =  N/A
######################################################
   0  1170.504
   1  1147.32
   2  1044.684
   3  836.0915
   4  764.3622
   5  736.2889
   6  704.5635
   7  713.593
   8  737.9907
   9  714.8514
  10  782.2
  11  672.1165
  12  691.349
  13  711.624
  14  683.4329
  15  717.0942
  16  749.0117
  17  784.2074
  18  702.6494
  19  665.9544
  20  673.813
  21  700.7225
  22  704.3703
  23  784.5513
  24  816.4279
  25  846.7169
  26  864.8541
  27  838.4991
  28  875.5577
  29  739.3021
  30  792.7554
  31  830.6892
  32  763.947
  33  868.947
  34  862.7486
  35  788.238
  36  757.3201
  37  694.754
  38  727.631
  39  781.5374
  40  698.8865
  41  785.6562
  42  815.3333
  43  748.9335
  44  702.8481
  45  710.5213
  46  804.9988
  47  771.9667
  48  723.8908
  49  725.4889
  50  761.5312
  51  760.043
  52  741.3627
  53  672.1879
  54  651.949
  55  729.0413
  56  846.5173
  57  775.9406
  58  751.1982
  59  665.0197
  60  624.0494
  61  660.2842
  62  726.033
  63  636.8139
  64  598.9505
  65  683.6554
  66  729.1887
  67  696.7358
  68  756.9092
  69  739.8162
  70  690.6604
  71  601.6989
  72  570.7629
  73  614.7192
  74  638.5056
  75  628.5734
  76  628.7332
  77  665.5345
  78  627.0524
  79  600.8246
  80  628.9651
  81  676.0308
  82  662.0744
  83  624.7734
  84  678.4968
  85  655.7329
  86  675.7317
  87  623.2545
  88  572.4387
  89  627.4827
  90  645.3706
  91  635.894
  92  574.1758
  93  593.9268
  94  601.9728
  95  600.2299
  96  637.3391
  97  660.0946
  98  671.9903
  99  702.8298
 100  651.6483
 101  635.0154
 102  590.8664
 103  714.322
 104  700.8251
 105  576.5622
 106  622.789
 107  615.6095
 108  670.2852
 109  666.8132
 110  651.6823
 111  628.7804
 112  719.8792
 113  630.5391
 114  629.1447
 115  660.2663
 116  685.0798
 117  685.3685
 118  643.0342
 119  597.5637
 120  701.1942
 121  734.2147
 122  665.5034
 123  648.709
 124  579.2325
 125  583.9595
 126  659.3763
 127  623.7175
 128  611.5057
 129  593.0228
 130  637.7744
 131  681.89
 132  676.3101
 133  655.881
 134  579.9738
 135  563.6713
 136  622.504
 137  651.1902
 138  645.2493
 139  681.1656
 140  747.9827
 141  693.6448
 142  761.8391
 143  722.1535
 144  743.6646
 145  606.9026
 146  549.3054
 147  576.8629
 148  564.5469
 149  550.0551
 150  654.3994
 151  758.9194
 152  709.7073
 153  665.869
 154  609.3214
 155  599.5376
 156  520.7656
 157  609.1681
 158  743.6143
 159  790.669
 160  680.5469
 161  637.5715
 162  730.8222
 163  757.2546
 164  831.0626
 165  743.2635
 166  722.7104
 167  684.8992
 168  780.1847
 169  805.6542
 170  695.65
 171  713.5353
 172  692.9448
 173  730.36
 174  755.0006
 175  758.3403
 176  715.234
 177  672.6033
 178  696.9315
 179  658.6937
 180  694.1966
 181  720.2503
 182  718.6974
 183  730.8632
 184  759.0247
 185  715.4939
 186  676.686
 187  662.5411
 188  722.8262
 189  740.4559
 190  758.6058
 191  756.2053
 192  781.0364
 193  803.8279
 194  730.8472
 195  695.4567
 196  737.9113
 197  672.3688
 198  657.1808
 199  755.6273
 200  703.5103
 201  811.8914
 202  743.9858
 203  740.4323
 204  763.535
 205  756.2734
 206  762.0543
 207  841.5919
 208  843.9519
 209  733.4711
 210  793.611
 211  794.0101
 212  880.9471
 213  852.564
 214  844.896
 215  807.1617
 216  811.9525
 217  867.0375
 218  818.8286
 219  872.042
 220  893.8884
 221  854.6516
 222  800.6302
 223  743.9805
 224  797.0729
 225  776.1472
 226  749.0871
 227  713.396
 228  738.2386
 229  769.399
 230  806.0269
 231  837.925
 232  723.4488
 233  651.4975
 234  644.2396
 235  745.5587
 236  772.6116
 237  703.4661
 238  622.6448
 239  726.9397
 240  740.657
 241  754.6448
 242  772.1733
 243  744.8494
 244  720.0195
 245  727.2354
 246  681.9232
 247  762.129
 248  741.422
 249  777.9606
 250  740.7465
 251  711.5715
 252  755.0683
 253  789.7772
 254  799.3705
 255  841.5331
 256  822.8386
 257  814.3275
 258  792.1135
 259  806.447
 260  827.7104
 261  789.728
 262  719.9688
 263  717.3108
 264  620.8161
 265  569.5517
 266  616.5255
 267  675.9979
 268  698.6752
 269  681.5044
 270  623.2484
 271  634.3712
 272  574.6201
 273  557.7422
 274  604.6744
 275  647.2618
 276  631.8386
 277  512.0305
 278  572.2009
 279  603.942
 280  620.8977
 281  649.9014
 282  715.514
 283  720.6542
 284  723.343
 285  669.7687
 286  706.2189
 287  623.2455
 288  677.2296
 289  744.97
 290  761.5702
 291  752.4929
 292  755.1984
 293  749.0757
 294  704.3571
 295  683.9344
 296  732.9606
 297  709.5224
 298  666.4236
 299  664.9245
 300  669.1834
 301  695.4951
 302  656.721
 303  696.5002
 304  688.5408
 305  653.3372
 306  640.2526
 307  637.3969
 308  652.661
 309  579.371
 310  619.8638
 311  672.7961
 312  725.7166
 313  765.3227
 314  701.0735
 315  703.0336
 316  696.6924
 317  743.7949
 318  737.0192
 319  776.7959
 320  816.296
 321  851.3507
 322  858.726
 323  884.3611
 324  843.4751
 325  845.7169
 326  780.7352
 327  814.7584
 328  864.4263
 329  882.1578
 330  822.2537
 331  890.4803
 332  911.5477
 333  808.596
 334  702.9779
 335  765.9558
 336  754.3792
 337  787.8998
 338  776.1901
 339  788.7623
 340  814.9862
 341  735.8444
 342  624.0594
 343  715.6526
 344  794.3822
 345  736.7957
 346  744.2449
 347  674.7723
 348  663.2317
 349  667.9728
 350  678.6944
 351  748.093
 352  786.5838
 353  854.1915
 354  766.7449
 355  704.6583
 356  848.7047
 357  1003.989
 358  881.2291
 359  771.5663
 360  768.3739
 361  766.4262
 362  832.4991
 363  806.5573
 364  823.7579
 365  770.5568
 366  774.1768
 367  732.6688
 368  697.4885
 369  747.8709
 370  725.4683
 371  791.02
 372  699.9187
 373  731.2164
 374  756.6826
 375  703.8845
 376  620.749
 377  687.2285
 378  716.3075
 379  749.5149
 380  699.1675
 381  668.1709
 382  783.1891
 383  799.2488
 384  751.1453
 385  763.4136
 386  777.9641
 387  735.2678
 388  728.5655
 389  761.0018
 390  810.6973
 391  783.7484
 392  749.2321
 393  739.6533
 394  793.2272
 395  815.4608
 396  778.4415
 397  799.7638
 398  788.3365
 399  768.5009
 400  721.3776
 401  765.3769
 402  874.5323
 403  881.7402
 404  876.1083
 405  820.3233
 406  756.2613
 407  773.4966
 408  742.5224
 409  714.6212
 410  625.5383
 411  633.0253
 412  723.2712
 413  772.4789
 414  765.3683
 415  744.188
 416  711.3262
 417  682.5206
 418  675.1152
 419  727.3427
 420  713.1579
 421  647.2429
 422  669.5195
 423  651.7219
 424  625.6432
 425  661.6339
 426  687.8854
 427  743.9638
 428  723.4369
 429  759.2323
 430  828.2935
 431  865.0804
 432  790.0329
 433  857.2968
 434  882.986
 435  861.7529
 436  796.1128
 437  725.5599
 438  743.6227
 439  835.0415
 440  798.2947
 441  697.5946
 442  715.563
 443  801.0814
 444  747.3578
 445  765.3596
 446  838.8017
 447  780.0072
 448  787.8761
 449  786.8916
 450  737.9792
 451  658.7216
 452  675.2646
 453  755.929
 454  746.9952
 455  730.6292
 456  809.8879
 457  786.1605
 458  737.7941
 459  737.4094
 460  817.5678
 461  783.6547
 462  752.0735
 463  794.9254
 464  839.0563
 465  860.1891
 466  848.2241
 467  776.1278
 468  853.2134
 469  814.9296
 470  904.1694
 471  912.1824
 472  833.5862
 473  811.0762
 474  870.152
 475  872.6287
 476  848.1885
 477  802.2946
 478  813.4519
 479  848.0007
 480  839.1881
 481  782.5226
 482  858.9609
 483  853.7231
 484  815.848
 485  768.5862
 486  721.9503
 487  703.9514
 488  681.1057
 489  615.0265
 490  714.3598
 491  755.5782
 492  794.9548
 493  681.6184
 494  622.2713
 495  655.148
 496  635.4874
 497  641.803
 498  663.5968
 499  718.54
 500  730.2548
 501  728.4164
 502  739.7589
 503  837.1357
 504  821.8533
 505  769.8593
 506  805.1113
 507  846.3868
 508  892.2493
 509  1040.607
 510  1112.757
 511  1142.57
