# Input file       =  1204822943.102232_cleaned.dat
# Candidate        =  PSR_0332+5434
# Telescope        =  AR
# Epoch_topo       =  58188.710209516576
# Epoch_bary       =  N/A
# T_sample         =  0.002
# Data Folded      =  7340032
# Data Avg         =  0.162570005499999
# Data StdDev      =  4.73444853637361 
# Profile Bins     =  1024
# Profile Avg      =  1165.33608641084 
# Profile StdDev   =  400.837549512906 
# Reduced chi-sqr  =  1.049
# Prob(Noise)      <  0.133   (~1.1 sigma)
# P_topo (ms)      =  714.578936794707  +/- 1.99e-05
# P'_topo (s/s)    =  -0                +/- 1.05e-11
# P''_topo (s/s^2) =  0                 +/- 4.63e-15
# P_bary (ms)      =  N/A
# P'_bary (s/s)    =  N/A
# P''_bary (s/s^2) =  N/A
# P_orb (s)        =  N/A
# asin(i)/c (s)    =  N/A
# eccentricity     =  N/A
# w (rad)          =  N/A
# T_peri           =  N/A
######################################################
   0  1566.021
   1  1383.416
   2  1342.324
   3  1115.107
   4  1221.531
   5  914.0321
   6  930.5606
   7  974.9357
   8  1248.599
   9  1125.334
  10  1169.483
  11  1139.225
  12  1245.429
  13  1167.511
  14  1252.474
  15  1222.197
  16  1286.891
  17  1208.871
  18  1167.355
  19  914.1558
  20  905.2311
  21  896.9906
  22  949.6146
  23  969.2697
  24  1112.401
  25  1228.159
  26  1307.371
  27  1344.668
  28  1362.194
  29  1282.32
  30  1124.641
  31  1066.041
  32  911.3933
  33  823.0187
  34  715.4257
  35  788.3922
  36  907.3621
  37  1099.982
  38  1102.823
  39  1280.234
  40  1136.903
  41  1290.549
  42  1070.961
  43  1278.139
  44  1312.559
  45  1491.954
  46  1420.074
  47  1439.285
  48  1281.511
  49  1307.256
  50  1192.274
  51  1367.549
  52  1408.732
  53  1476.448
  54  1331.086
  55  1200.672
  56  1142.017
  57  1083.267
  58  1016.523
  59  1015.077
  60  1043.794
  61  962.1526
  62  914.6305
  63  936.2474
  64  1024.128
  65  948.2582
  66  897.3436
  67  693.9668
  68  766.3305
  69  816.3094
  70  1055.693
  71  1055.692
  72  1158.717
  73  1058.446
  74  1056.399
  75  760.3353
  76  679.8196
  77  623.6511
  78  973.8986
  79  950.3492
  80  983.9751
  81  838.608
  82  1019.005
  83  1006.086
  84  1172.494
  85  1054.237
  86  983.1909
  87  838.3613
  88  891.527
  89  1031.039
  90  1088.82
  91  935.2161
  92  762.7306
  93  764.2962
  94  724.4507
  95  809.4691
  96  840.7989
  97  1009.094
  98  971.0624
  99  1044.42
 100  884.1276
 101  929.4927
 102  715.0231
 103  745.5934
 104  692.8561
 105  879.4152
 106  832.0768
 107  897.3798
 108  799.2733
 109  930.3126
 110  766.9293
 111  1001.393
 112  1013.76
 113  1128.678
 114  1045.876
 115  1125.577
 116  985.9431
 117  1169.741
 118  1038.053
 119  1083.733
 120  819.5649
 121  832.595
 122  774.6732
 123  958.0322
 124  875.5856
 125  768.814
 126  820.5732
 127  1007.815
 128  1012.43
 129  1000.796
 130  1082.573
 131  1052.54
 132  985.4383
 133  816.9194
 134  849.1851
 135  914.8474
 136  1058.041
 137  1084.505
 138  1231.902
 139  1219.844
 140  1330.124
 141  1139.187
 142  1219.791
 143  1096.365
 144  1200.901
 145  1077.437
 146  1113.435
 147  949.9976
 148  1010.42
 149  941.2028
 150  949.0234
 151  929.4521
 152  1124.466
 153  1245.046
 154  1307.938
 155  1207.92
 156  1237.264
 157  1080.323
 158  1052.15
 159  1000.838
 160  1120.354
 161  1143.546
 162  1234.45
 163  1282.019
 164  1111.341
 165  861.8605
 166  834.6652
 167  957.9772
 168  980.1193
 169  990.6389
 170  1055.139
 171  1064.633
 172  962.8271
 173  995.3546
 174  1147.524
 175  1441.1
 176  1492.598
 177  1482.478
 178  1194.49
 179  1068.966
 180  864.9794
 181  942.9377
 182  956.0328
 183  1041.11
 184  917.7786
 185  946.6219
 186  981.2051
 187  1129.462
 188  1193.394
 189  1301.237
 190  1312.14
 191  1124.388
 192  939.0621
 193  1005.475
 194  1097.193
 195  1019.479
 196  963.6061
 197  1026.291
 198  1055.133
 199  953.6454
 200  991.7227
 201  983.4544
 202  1035.443
 203  858.0082
 204  980.7871
 205  909.3312
 206  1171.299
 207  1038.886
 208  1043.141
 209  908.2202
 210  1004.875
 211  915.8934
 212  999.3993
 213  938.621
 214  1233.296
 215  1176.484
 216  1247.089
 217  1044.071
 218  1096.141
 219  1031.38
 220  1157.489
 221  1133.556
 222  1091.565
 223  995.1207
 224  1054.713
 225  1107.882
 226  1055.395
 227  961.7173
 228  1079.209
 229  1273.519
 230  1244.32
 231  1118.047
 232  965.874
 233  965.8555
 234  944.6854
 235  1085.991
 236  1191.881
 237  1273.876
 238  1109.59
 239  1215.614
 240  1088.96
 241  1288.083
 242  1290.437
 243  1388.95
 244  1305.212
 245  1278.282
 246  1120.725
 247  1076.288
 248  834.3882
 249  990.6608
 250  942.158
 251  1039.534
 252  964.5575
 253  1107.722
 254  1069.122
 255  1125.669
 256  997.6725
 257  971.5275
 258  845.7802
 259  792.2555
 260  743.443
 261  783.5775
 262  920.6575
 263  1072.858
 264  1140.941
 265  1153.329
 266  1137.621
 267  1171.682
 268  1246.733
 269  1184.732
 270  1166.003
 271  1209.594
 272  1318.446
 273  1364.535
 274  1386.693
 275  1378.185
 276  1375.999
 277  1392.949
 278  1504.619
 279  1416.321
 280  1407.095
 281  1322.423
 282  1444.823
 283  1337.113
 284  1492.591
 285  1389.271
 286  1614.827
 287  1548.908
 288  1608.491
 289  1500.713
 290  1440.618
 291  1344.692
 292  1244.64
 293  1167.626
 294  1225.764
 295  1203.355
 296  1118.851
 297  1060.297
 298  938.2745
 299  870.8929
 300  851.5424
 301  1030.426
 302  1150.608
 303  1012.692
 304  982.6752
 305  1070.384
 306  1068.924
 307  1027.874
 308  738.5068
 309  867.2369
 310  821.7817
 311  1040.846
 312  1079.82
 313  1148.003
 314  1030.22
 315  984.2745
 316  1015.757
 317  1188.776
 318  1022.51
 319  1053.193
 320  910.5794
 321  977.4328
 322  936.7374
 323  968.0654
 324  947.7985
 325  1037.043
 326  994.0132
 327  1051.628
 328  1095.287
 329  1152.68
 330  1267.499
 331  1196.278
 332  1151.087
 333  1071.184
 334  1260.013
 335  1352.504
 336  1313.081
 337  1217.403
 338  1290.837
 339  1303.598
 340  1467.6
 341  1256.363
 342  1237.639
 343  1153.382
 344  1229.109
 345  1202.103
 346  1156.38
 347  954.4598
 348  919.9553
 349  1065.315
 350  1306.004
 351  1237.589
 352  1344.827
 353  1279.168
 354  1368.821
 355  1114.119
 356  1164.206
 357  1135.717
 358  1254.059
 359  1347.25
 360  1492.654
 361  1439.404
 362  1405.585
 363  1165.067
 364  1173.427
 365  1110.913
 366  1151.002
 367  1288.882
 368  1351.369
 369  1298.008
 370  1236.164
 371  1314.83
 372  1390.108
 373  1381.398
 374  1312.17
 375  1399.2
 376  1444.123
 377  1706.154
 378  1536.191
 379  1584.512
 380  1466.138
 381  1562.917
 382  1503.2
 383  1522.498
 384  1394.993
 385  1356.182
 386  1343.376
 387  1591.99
 388  1599.691
 389  1755.593
 390  1732.808
 391  1809.343
 392  1663.039
 393  1606.596
 394  1475.69
 395  1429.433
 396  1302.872
 397  1299.9
 398  1225.547
 399  1285.762
 400  1304.52
 401  1311.281
 402  1251.714
 403  1005.834
 404  977.4962
 405  1023.841
 406  1245.672
 407  1188.401
 408  1155.618
 409  1101.077
 410  1158.591
 411  1109.721
 412  1268.664
 413  1299.278
 414  1429.927
 415  1252.421
 416  1342.41
 417  1321.157
 418  1368.125
 419  1183.225
 420  1262.673
 421  1209.374
 422  1229.938
 423  1163.256
 424  1227.161
 425  1333.715
 426  1520.476
 427  1484.419
 428  1369
 429  1265.903
 430  1353.998
 431  1436.094
 432  1463.721
 433  1442.881
 434  1393.304
 435  1313.048
 436  1157.556
 437  1143.854
 438  1213.088
 439  1355.334
 440  1397.533
 441  1474.826
 442  1385.262
 443  1471.252
 444  1413.895
 445  1488.149
 446  1350.479
 447  1450.838
 448  1414.789
 449  1565.232
 450  1462.573
 451  1440.978
 452  1220.868
 453  1345.834
 454  1290.24
 455  1398.515
 456  1160.931
 457  1209.727
 458  1117.61
 459  1151.057
 460  1094.788
 461  1180.67
 462  1269.316
 463  1356.467
 464  1304.164
 465  1231.622
 466  1131.728
 467  1200.279
 468  1280.697
 469  1302.74
 470  1327.655
 471  1209.039
 472  1241.807
 473  1349.965
 474  1467.791
 475  1220.489
 476  1103.438
 477  1180.74
 478  1436.816
 479  1329.231
 480  1280.054
 481  1103.918
 482  1332.422
 483  1218.505
 484  1238.13
 485  1163.225
 486  1342.638
 487  1280.624
 488  1379.319
 489  1139.357
 490  1180.077
 491  1003.239
 492  1185.331
 493  1170.912
 494  1449.369
 495  1348.843
 496  1242.577
 497  1165.452
 498  1274.571
 499  1183.013
 500  1142.907
 501  1046.176
 502  1196.581
 503  1232.737
 504  1172.249
 505  1167.24
 506  1132.271
 507  1318.792
 508  1329.055
 509  1566.056
 510  1556.616
 511  1465.733
 512  1269.804
 513  1266.75
 514  1239.534
 515  1248.032
 516  1068.147
 517  1141.35
 518  1164.79
 519  1432.24
 520  1377.151
 521  1490.419
 522  1428.007
 523  1577.066
 524  1438.325
 525  1440.616
 526  1201.786
 527  1253.061
 528  1138.446
 529  1295.989
 530  1343.557
 531  1387.777
 532  1485.725
 533  1470.88
 534  1520.222
 535  1470.567
 536  1446.897
 537  1287.226
 538  1160.521
 539  1086.798
 540  1048.842
 541  1033.553
 542  1104.757
 543  938.8578
 544  844.7552
 545  931.4157
 546  1185.378
 547  1382.33
 548  1534.595
 549  1440.989
 550  1459.94
 551  1286.11
 552  1298.237
 553  1049.453
 554  1021.885
 555  1012.427
 556  1273.925
 557  1238.26
 558  1233.345
 559  1010.886
 560  1192.473
 561  1115.933
 562  1227.162
 563  1222.322
 564  1250.433
 565  1157.801
 566  1151.837
 567  1273.421
 568  1446.89
 569  1456.902
 570  1427.757
 571  1318.929
 572  1365.96
 573  1436.176
 574  1424.88
 575  1283.888
 576  1233.966
 577  1344.415
 578  1315.025
 579  1386.725
 580  1444.591
 581  1545.004
 582  1426.858
 583  1391.221
 584  1278.374
 585  1314.662
 586  1286.322
 587  1477.115
 588  1383.651
 589  1270.988
 590  1126.747
 591  1303.083
 592  1297.81
 593  1401.975
 594  1296.122
 595  1332.911
 596  1238.598
 597  1298.489
 598  1379.777
 599  1701.316
 600  1750.75
 601  1749.86
 602  1723.402
 603  1855.956
 604  1861.53
 605  1970.001
 606  2094.392
 607  2285.897
 608  2294.084
 609  2100.595
 610  2022.486
 611  2013.149
 612  2072.945
 613  1983.108
 614  1686.33
 615  1367.943
 616  1442.984
 617  1378.641
 618  1416.928
 619  1261.888
 620  1572.139
 621  1566.606
 622  1478.384
 623  1261.932
 624  1334.248
 625  1273.748
 626  1414.573
 627  1458.952
 628  1475.138
 629  1252.143
 630  1314.234
 631  1244.445
 632  1212.006
 633  1171.336
 634  1386.588
 635  1463.141
 636  1436.867
 637  1376.188
 638  1438.711
 639  1403.034
 640  1310.909
 641  1428.427
 642  1344.992
 643  1376.806
 644  1229.667
 645  1316.545
 646  1306.738
 647  1210.771
 648  1189.98
 649  1216.996
 650  1174.21
 651  1137.657
 652  942.2886
 653  1006.774
 654  830.0449
 655  991.7053
 656  1039.122
 657  1279.198
 658  1142.517
 659  1120.729
 660  1006.809
 661  1084.219
 662  1025.489
 663  1000.104
 664  988.0546
 665  1241.564
 666  1362.349
 667  1422.25
 668  1278.857
 669  1181.373
 670  1096.896
 671  1081.717
 672  1132.032
 673  1089.553
 674  1096.591
 675  1015.735
 676  1145.825
 677  1079.435
 678  1171.668
 679  1216.02
 680  1493.55
 681  1459.967
 682  1507.985
 683  1270.284
 684  1356.078
 685  1322.772
 686  1568.09
 687  1436.554
 688  1497.778
 689  1280.734
 690  1322.066
 691  1047.382
 692  1131.96
 693  1265.657
 694  1465.859
 695  1418.363
 696  1514.23
 697  1547.742
 698  1582.466
 699  1479.584
 700  1366.62
 701  1348.407
 702  1395.653
 703  1374.503
 704  1325.812
 705  1324.596
 706  1349.889
 707  1398.138
 708  1447.222
 709  1398.956
 710  1367.656
 711  1373.702
 712  1416.627
 713  1485.467
 714  1374.4
 715  1381.617
 716  1292.432
 717  1468.282
 718  1490.087
 719  1601.706
 720  1428.191
 721  1479.237
 722  1194.487
 723  1221.399
 724  1032.016
 725  1242.101
 726  1278.895
 727  1367.185
 728  1279.389
 729  1288.894
 730  1284.462
 731  1370.662
 732  1374.989
 733  1361.226
 734  1214.115
 735  1266.225
 736  1341.241
 737  1412.651
 738  1343.096
 739  1246.627
 740  1200.385
 741  1097.548
 742  939.0451
 743  799.6517
 744  925.5158
 745  1076.477
 746  1199.067
 747  1069.583
 748  1052.419
 749  919.8483
 750  1131.241
 751  971.5942
 752  979.3295
 753  853.575
 754  1100.977
 755  1051.311
 756  1003.263
 757  901.4526
 758  1055.703
 759  984.7902
 760  1102.825
 761  992.5476
 762  1078.213
 763  891.2814
 764  932.6202
 765  896.14
 766  1053.007
 767  1028.333
 768  1195.101
 769  1268.653
 770  1316.639
 771  1245.677
 772  1061.293
 773  1048.875
 774  1080.032
 775  1140.271
 776  1078.098
 777  1045.374
 778  1060.712
 779  1184.121
 780  1256.347
 781  1383.059
 782  1366.88
 783  1419.085
 784  1413.711
 785  1443.389
 786  1251.714
 787  1217.401
 788  1037.492
 789  1113.147
 790  1069.057
 791  1126.739
 792  1065.589
 793  1126.673
 794  1107.722
 795  1096.039
 796  938.6285
 797  1050.607
 798  1036.922
 799  1255.89
 800  1191.826
 801  1267.441
 802  1110.873
 803  1284.36
 804  1202.176
 805  1230.121
 806  1170.477
 807  1192.193
 808  1167.727
 809  1077.052
 810  1098.301
 811  1092.549
 812  1134.599
 813  1138.701
 814  1112.678
 815  1019.229
 816  1000.903
 817  959.1389
 818  1058.699
 819  934.7322
 820  1000.432
 821  966.9968
 822  1127.487
 823  1068.984
 824  1028.001
 825  873.8128
 826  1009.917
 827  1008.862
 828  1154.816
 829  986.1271
 830  994.1502
 831  666.93
 832  780.6888
 833  719.6498
 834  873.451
 835  822.1542
 836  897.6466
 837  941.4326
 838  1068.367
 839  1112.184
 840  1122.165
 841  1046.299
 842  1076.967
 843  1034.921
 844  1061.421
 845  866.8086
 846  976.8632
 847  1040.148
 848  993.7252
 849  1006.058
 850  999.2397
 851  1266.088
 852  1184.398
 853  1216.783
 854  1008.85
 855  1044.709
 856  1030.049
 857  1122.974
 858  1043.579
 859  1173.804
 860  1114.716
 861  1232.542
 862  1034.965
 863  1147.122
 864  1096.854
 865  1356.213
 866  1291.525
 867  1293.009
 868  1057.63
 869  1152.833
 870  1058.97
 871  1126.542
 872  1114.539
 873  1304.052
 874  1206.164
 875  1158.934
 876  1083.517
 877  996.6218
 878  1038.469
 879  1074.526
 880  1166.063
 881  984.1779
 882  984.3246
 883  964.593
 884  1062.752
 885  954.925
 886  1015.436
 887  936.3644
 888  1027.205
 889  916.5313
 890  930.6884
 891  954.1699
 892  1187.994
 893  1101.161
 894  949.2939
 895  679.7501
 896  853.0434
 897  847.3284
 898  1041.196
 899  996.1559
 900  1017.661
 901  825.9433
 902  784.2748
 903  773.0074
 904  803.2358
 905  882.9406
 906  1080.635
 907  1022.239
 908  1075.157
 909  915.6957
 910  915.6113
 911  812.8561
 912  904.3165
 913  977.4523
 914  920.3181
 915  782.0691
 916  580.5616
 917  733.6483
 918  832.112
 919  938.8054
 920  738.6562
 921  725.0993
 922  664.7776
 923  738.4815
 924  674.9291
 925  746.8286
 926  701.6393
 927  899.1527
 928  697.9832
 929  685.9078
 930  543.9308
 931  662.1827
 932  633.813
 933  661.7906
 934  670.0702
 935  877.3656
 936  916.0501
 937  923.4758
 938  742.7048
 939  797.8626
 940  925.4915
 941  942.9925
 942  894.2406
 943  810.6425
 944  856.0261
 945  887.9993
 946  903.8496
 947  851.2495
 948  927.5557
 949  1009.283
 950  1227.24
 951  1075.6
 952  879.307
 953  584.8574
 954  920.0587
 955  1096.53
 956  1227.3
 957  966.1602
 958  1021.579
 959  951.0156
 960  968.8438
 961  884.951
 962  1074.141
 963  1076.192
 964  1050.671
 965  978.2193
 966  1165.366
 967  1075.056
 968  1066.007
 969  916.406
 970  1065.509
 971  960.3711
 972  994.1642
 973  997.7403
 974  1125.759
 975  1124.646
 976  1077.798
 977  1117.057
 978  1228.821
 979  1283.102
 980  1220.832
 981  1227.942
 982  1249.84
 983  1170.974
 984  1047.339
 985  981.0245
 986  1048.948
 987  1198.671
 988  1115.267
 989  1111.324
 990  1025.374
 991  1157.364
 992  1171.281
 993  1221.429
 994  1270.283
 995  1340.987
 996  1239.773
 997  1175.03
 998  1108.298
 999  1247.973
1000  1119.751
1001  1116.756
1002  1099.739
1003  1156.846
1004  1099.767
1005  1116.18
1006  1095.476
1007  1277.991
1008  1255.152
1009  1453.522
1010  1344.681
1011  1330.414
1012  1096
1013  1000.107
1014  1127.63
1015  1102.302
1016  1169.951
1017  1064.568
1018  1118.8
1019  1068.405
1020  1244.669
1021  1276.715
1022  1372.731
1023  1423.422
