# Input file       =  1204382832.118454_cleaned.dat
# Candidate        =  PSR_0332+5434
# Telescope        =  AR
# Epoch_topo       =  58183.616332389516
# Epoch_bary       =  N/A
# T_sample         =  0.002
# Data Folded      =  7340032
# Data Avg         =  0.318051933508416
# Data StdDev      =  15.826011191118  
# Profile Bins     =  1024
# Profile Avg      =  2279.97042465502 
# Profile StdDev   =  1339.89407545035 
# Reduced chi-sqr  =  0.623
# Prob(Noise)      <  1   (~0.0 sigma)
# P_topo (ms)      =  714.579858689008  +/- 0.000562
# P'_topo (s/s)    =  -0                +/- 2.97e-10
# P''_topo (s/s^2) =  0                 +/- 1.31e-13
# P_bary (ms)      =  N/A
# P'_bary (s/s)    =  N/A
# P''_bary (s/s^2) =  N/A
# P_orb (s)        =  N/A
# asin(i)/c (s)    =  N/A
# eccentricity     =  N/A
# w (rad)          =  N/A
# T_peri           =  N/A
######################################################
   0  1992.774
   1  2483.85
   2  2626.657
   3  3018.455
   4  2928.47
   5  3027.993
   6  2860.582
   7  2703.21
   8  2721.903
   9  2333.24
  10  1636.302
  11  1684.183
  12  1602.733
  13  2178.051
  14  2365.808
  15  2064.17
  16  1953.717
  17  2562.467
  18  3466.695
  19  3282.178
  20  2458.175
  21  2083.051
  22  2003.622
  23  1996.021
  24  2159.487
  25  2303.54
  26  2476.49
  27  2397.784
  28  2225.908
  29  2267.193
  30  2355.747
  31  2044.28
  32  1930.171
  33  1754.828
  34  1968.45
  35  2092.878
  36  2126.808
  37  2191.584
  38  1728.078
  39  1637.012
  40  2118.633
  41  2577.412
  42  2702.169
  43  2356.672
  44  2370.024
  45  2341.097
  46  2654.786
  47  2687.864
  48  2798
  49  2550.913
  50  2522.684
  51  2304.814
  52  1977.334
  53  1992.947
  54  1806.739
  55  1934.237
  56  1891.038
  57  1550.978
  58  1731.405
  59  1792.994
  60  2218.084
  61  1883.796
  62  1568.996
  63  1617.622
  64  1895.471
  65  2255.147
  66  2449.071
  67  2471.235
  68  2268.754
  69  1823.844
  70  1941.898
  71  2339.958
  72  2364.315
  73  2422.198
  74  1762.171
  75  1527.923
  76  1512.664
  77  1839.295
  78  2094.477
  79  2139.568
  80  2081.847
  81  2219.277
  82  2344.497
  83  2190.086
  84  2234.705
  85  2802.16
  86  2878.422
  87  3247.219
  88  3114.655
  89  3616.422
  90  2683.381
  91  2688.933
  92  3057.518
  93  2819.143
  94  2333.006
  95  1734.144
  96  1783.415
  97  2414.794
  98  2748.161
  99  3109.004
 100  3046.442
 101  2477.069
 102  3096.609
 103  3235.521
 104  3345.368
 105  2721.365
 106  2712.648
 107  2515.269
 108  2230.667
 109  1802.072
 110  2587.814
 111  2937.175
 112  3137.847
 113  2947.663
 114  2621.852
 115  2570.93
 116  2882.123
 117  2870.125
 118  2776.751
 119  2396.007
 120  2479.182
 121  2822.611
 122  3266.725
 123  3871.515
 124  3837.558
 125  3913.557
 126  3982.523
 127  4118.54
 128  3797.983
 129  3303.549
 130  2636.057
 131  2320.55
 132  2322.031
 133  2735.257
 134  3455.31
 135  3189.428
 136  2794.033
 137  2288.778
 138  2705.949
 139  2833.641
 140  3116.73
 141  3320.92
 142  3121.683
 143  3031.932
 144  2920.674
 145  2666.894
 146  2693.052
 147  2666.37
 148  2682.489
 149  2420.586
 150  2652.773
 151  2770.972
 152  2994.804
 153  2931.597
 154  3140.25
 155  3610.485
 156  3324.86
 157  3288.868
 158  2388.324
 159  2476.456
 160  2469.486
 161  2671.29
 162  2613.604
 163  2013.902
 164  2319.505
 165  2836.023
 166  2355.212
 167  2125.017
 168  1661.725
 169  1887.292
 170  1881.617
 171  2102.993
 172  2415.047
 173  1966.121
 174  1897.833
 175  1879.06
 176  2195.273
 177  2274.644
 178  1884.515
 179  1756.633
 180  1890.589
 181  2252.106
 182  2256.927
 183  2375.898
 184  2729.869
 185  2792.281
 186  2887.098
 187  2895.463
 188  3265.432
 189  3449.001
 190  3442.08
 191  3360.638
 192  2875.434
 193  2829.353
 194  2925.775
 195  3044.737
 196  3579.023
 197  3336.794
 198  3513.147
 199  3125.366
 200  2955.106
 201  2921.858
 202  3088.263
 203  3150.961
 204  3110.839
 205  3052.901
 206  3037.827
 207  3115.79
 208  3074.942
 209  2975.523
 210  2205.838
 211  2046.339
 212  2097.393
 213  1846.143
 214  1722.805
 215  1519.417
 216  1285.108
 217  1243.864
 218  1041.405
 219  1370.017
 220  1984.611
 221  2009.844
 222  1776.185
 223  1318.233
 224  1274.808
 225  1145.284
 226  1347.487
 227  1858.245
 228  1917.961
 229  1897.075
 230  1718.629
 231  1526.428
 232  1113.735
 233  1471.932
 234  1977.047
 235  2678.124
 236  2516.303
 237  2412.025
 238  2202.874
 239  2165.25
 240  2141.428
 241  2314.1
 242  2853.061
 243  3191.678
 244  2782.814
 245  2626.984
 246  2037.351
 247  2139.091
 248  2556.974
 249  3298.102
 250  3345.404
 251  2799.182
 252  2511.482
 253  2801.297
 254  2704.236
 255  2832.755
 256  2507.822
 257  2406.948
 258  2039.667
 259  2056.42
 260  2095.963
 261  2387.097
 262  2335.769
 263  2303.488
 264  1747.094
 265  1115.914
 266  1006.714
 267  1259.165
 268  1658.114
 269  1787.234
 270  2219.15
 271  2188.198
 272  2155.539
 273  1855.292
 274  2161.754
 275  1769.121
 276  1647.617
 277  1455.086
 278  1399.572
 279  1316.319
 280  1321.529
 281  1627.197
 282  2189.747
 283  2061.311
 284  2024.915
 285  2259.352
 286  2482.373
 287  2891.933
 288  3293.988
 289  3274.023
 290  2809.918
 291  1984.758
 292  1818.655
 293  1566.872
 294  1121.741
 295  1279.542
 296  1450.571
 297  1688.47
 298  1664.515
 299  2080.064
 300  2723.989
 301  3035.951
 302  3319.014
 303  2870.719
 304  2729.595
 305  2305.335
 306  2423.259
 307  2097.317
 308  2111.503
 309  1809.811
 310  1704.198
 311  2191.106
 312  2573.521
 313  2889.606
 314  2039.565
 315  1932.199
 316  2289.782
 317  2958.107
 318  3145.191
 319  3206.862
 320  2755.169
 321  2473.613
 322  2366.217
 323  2254.91
 324  2192.254
 325  1633.034
 326  2023.952
 327  2533.308
 328  2308.019
 329  2225.492
 330  1872.26
 331  2118.9
 332  2435.851
 333  2301.586
 334  2830.152
 335  2548.002
 336  2308.715
 337  1907.283
 338  1768.688
 339  1769.835
 340  1596.817
 341  1274.167
 342  1524.549
 343  1738.1
 344  2190.802
 345  2056.458
 346  2196.943
 347  2542.579
 348  2409.561
 349  2397.128
 350  2591.776
 351  2545.433
 352  2652.122
 353  2358.376
 354  2139.78
 355  1747.262
 356  1829.46
 357  1840.385
 358  1800.584
 359  1497.055
 360  1520.446
 361  1411.574
 362  1607.198
 363  1817.137
 364  1698.525
 365  1551.474
 366  1680.796
 367  1758.176
 368  1737.97
 369  1583.115
 370  1507.059
 371  1800.367
 372  1675.412
 373  1806.781
 374  1553.43
 375  1547.577
 376  1906.377
 377  1823.102
 378  1441.922
 379  1410.232
 380  1809.374
 381  2666.013
 382  2490.946
 383  2648.981
 384  2062.576
 385  1959.338
 386  1959.847
 387  2260.882
 388  2321.015
 389  2707.763
 390  2821.016
 391  2635.537
 392  1762.138
 393  1230.393
 394  1513.342
 395  1808.947
 396  1874.747
 397  2123.422
 398  2482.252
 399  2533.763
 400  2194.543
 401  1612.418
 402  1885.888
 403  1753.714
 404  1705.268
 405  1420.968
 406  1388.948
 407  1854.665
 408  1940.196
 409  2085.632
 410  2221.719
 411  1970.862
 412  1735.64
 413  1480.893
 414  1264.535
 415  1305.115
 416  1065.668
 417  1203.78
 418  1328.733
 419  1493.407
 420  1805.29
 421  1787.852
 422  1610.726
 423  1296.116
 424  827.0679
 425  982.7615
 426  1180.657
 427  1588.335
 428  1608.905
 429  1133.146
 430  1282.428
 431  1330.676
 432  1439.858
 433  1519.867
 434  1514.074
 435  1707.699
 436  1989.521
 437  1939.79
 438  1851.047
 439  1771.125
 440  1870.472
 441  2057.462
 442  2133.263
 443  2140.038
 444  1994.854
 445  1661.138
 446  1549.283
 447  1332.826
 448  1353.799
 449  2096.294
 450  2116.598
 451  2592.015
 452  2190.951
 453  2052.876
 454  1943.631
 455  1687.427
 456  1736.389
 457  1665.599
 458  1432.144
 459  1635.365
 460  1630.467
 461  1595.741
 462  1604.541
 463  1391.042
 464  1396.179
 465  1436.857
 466  1290.124
 467  1516.146
 468  1379.652
 469  1466.992
 470  1525.319
 471  1594.736
 472  1664.5
 473  1869.216
 474  1415.419
 475  1130.763
 476  778.9165
 477  740.4015
 478  953.6102
 479  1075.626
 480  1742.89
 481  2237.432
 482  2313.741
 483  2474.947
 484  2484.07
 485  2637.909
 486  2297.712
 487  2106.783
 488  2042.285
 489  1544.189
 490  1313.412
 491  1562.11
 492  1949.512
 493  2030.734
 494  1986.741
 495  2245.326
 496  2601.484
 497  2625.866
 498  2864.589
 499  2644.027
 500  2911.395
 501  2546.151
 502  2006.534
 503  2148.325
 504  2429.346
 505  2247.285
 506  2083.749
 507  2008.287
 508  2207.616
 509  2469.565
 510  2307.563
 511  2261.033
 512  2118.42
 513  2395.199
 514  2793.048
 515  2568.262
 516  2715.414
 517  2264.624
 518  2029.113
 519  1963.669
 520  1937.094
 521  2297.694
 522  2340.184
 523  2213.929
 524  2586.439
 525  2451.704
 526  1977.863
 527  1480.367
 528  1565.428
 529  2125.795
 530  1982.897
 531  1911.335
 532  1918.776
 533  2290.406
 534  2640.813
 535  2996.625
 536  2666.368
 537  2884.71
 538  2156.087
 539  1746.885
 540  1496.347
 541  1651.352
 542  1809.636
 543  2211.414
 544  1962.295
 545  2259.904
 546  1493.55
 547  1840.948
 548  1986.588
 549  2591.523
 550  2500.818
 551  2614.826
 552  2748.08
 553  2986.391
 554  2405.903
 555  2117.499
 556  2440.912
 557  2470.958
 558  2931.924
 559  2728.688
 560  2619.746
 561  2280.137
 562  2162.125
 563  2084.335
 564  2263.344
 565  2447.481
 566  2558.67
 567  1901.191
 568  1777.2
 569  1978.234
 570  2051.612
 571  2244.937
 572  2481.256
 573  2522.16
 574  2361.233
 575  1766.131
 576  2012.821
 577  2255.693
 578  2535.978
 579  2228.824
 580  2257.711
 581  2273.222
 582  2449.043
 583  2278.065
 584  2630.218
 585  2456.499
 586  2310.99
 587  2192.181
 588  2202.741
 589  2140.539
 590  2391.382
 591  2279.711
 592  2441.16
 593  1887.676
 594  1909.638
 595  1664.913
 596  1510.799
 597  1457.147
 598  2426.035
 599  3022.482
 600  3617.271
 601  3528.719
 602  3575.345
 603  3178.794
 604  2683.064
 605  3069.912
 606  2916.107
 607  2808.791
 608  2312.739
 609  2516.218
 610  3231.67
 611  3266.903
 612  3095.029
 613  3626.597
 614  3718.7
 615  3632.958
 616  3159.666
 617  2916.062
 618  2858.045
 619  2657.384
 620  2887.804
 621  3168.983
 622  2655.809
 623  2421.325
 624  2050.124
 625  2521.934
 626  2998.787
 627  3269.279
 628  3062.794
 629  3079.351
 630  2574.923
 631  2489.471
 632  2346.21
 633  2339.006
 634  2766.859
 635  2821.281
 636  2894.021
 637  2594.44
 638  2473.681
 639  3021.494
 640  3204.615
 641  3176.679
 642  2402.618
 643  2024.676
 644  2139.191
 645  2045.432
 646  2070.248
 647  2381.583
 648  2385.148
 649  2109.11
 650  2108.269
 651  2212.717
 652  2572.926
 653  2263.956
 654  2378.297
 655  1908.158
 656  1898.087
 657  1916.362
 658  1804.924
 659  2077.654
 660  2312.167
 661  2431.426
 662  2490.799
 663  2192.838
 664  2523.673
 665  2759.852
 666  2574.675
 667  1939.759
 668  1484.028
 669  1132.639
 670  1784.485
 671  2034.607
 672  2284.544
 673  1444.818
 674  1273.701
 675  1482.208
 676  1928.752
 677  2070.681
 678  2224.468
 679  2241.684
 680  1922.691
 681  1949.912
 682  1642.919
 683  1582.773
 684  1378.826
 685  1743.542
 686  1597.253
 687  1200.798
 688  1162.588
 689  1607.368
 690  1978.823
 691  2213.736
 692  2084.75
 693  1951.707
 694  1712.509
 695  1774.835
 696  2079.553
 697  2125.809
 698  2301.134
 699  2244.607
 700  1957.739
 701  1873.515
 702  2274.302
 703  2320.49
 704  2515.616
 705  2545.971
 706  2543.888
 707  2388.284
 708  1833.989
 709  1608.927
 710  1400.167
 711  1494.013
 712  2228.176
 713  2016.119
 714  2346.749
 715  2183.698
 716  1960.313
 717  1892.978
 718  1939.505
 719  2039.937
 720  2117.952
 721  1613.787
 722  1657.535
 723  1842.449
 724  1967.336
 725  2246.226
 726  2227.296
 727  2088.638
 728  2180.171
 729  1979.143
 730  2141.129
 731  1474.869
 732  1656.865
 733  1976.779
 734  2802.694
 735  2688.306
 736  2464.788
 737  1829.522
 738  1949.989
 739  1561.993
 740  2037.825
 741  2220.475
 742  2087.56
 743  2076.399
 744  1887.345
 745  1870.944
 746  1710.482
 747  1516.982
 748  1548.881
 749  1600.003
 750  1741.79
 751  1925.701
 752  1782.998
 753  1667.433
 754  1705.963
 755  1880.391
 756  1917.526
 757  2096.383
 758  2292.774
 759  2562.811
 760  2315.4
 761  2491.935
 762  2703.8
 763  2456.459
 764  2217.515
 765  1905.364
 766  2266.916
 767  2524.34
 768  2609.821
 769  2226.407
 770  1869.782
 771  2132.429
 772  2436.557
 773  2625.415
 774  2767.987
 775  2427.352
 776  2424.863
 777  2550.219
 778  2783.785
 779  2972.217
 780  2683.393
 781  2504.598
 782  2728.062
 783  2949.974
 784  3132.992
 785  2655.943
 786  2752.709
 787  2750.866
 788  2825.031
 789  2276.461
 790  2837.105
 791  3546.079
 792  4169.929
 793  4114.105
 794  3317.384
 795  3257.935
 796  3199.578
 797  3201.451
 798  3186.2
 799  2533.412
 800  2179.316
 801  1840.292
 802  2016.003
 803  2438.106
 804  2683.771
 805  2799.756
 806  2889.765
 807  2930.334
 808  3145.811
 809  2724.253
 810  2347.344
 811  2777.501
 812  2880.92
 813  2925.892
 814  2496.168
 815  2362.027
 816  2258.202
 817  2083.52
 818  2120.329
 819  2189.118
 820  2155.888
 821  2386.354
 822  2711.614
 823  2852.222
 824  2726.436
 825  2525.366
 826  2716.308
 827  2573.781
 828  1955.123
 829  2177.334
 830  2429.823
 831  2114.28
 832  1682.695
 833  1525.727
 834  1865.432
 835  2243.27
 836  2603.374
 837  2683.572
 838  2776.438
 839  2877.298
 840  3191.742
 841  2701.112
 842  2260.001
 843  1801.022
 844  1762.551
 845  2107.124
 846  2139.598
 847  1849.374
 848  2239.182
 849  2521.95
 850  2981.658
 851  2402.607
 852  2200.257
 853  2222.145
 854  2274.64
 855  2203.793
 856  1822.272
 857  1976.471
 858  2332.382
 859  2002.787
 860  1691.778
 861  1091.866
 862  1094.599
 863  1620.203
 864  2246.052
 865  2142.259
 866  1926.25
 867  1481.756
 868  1787.882
 869  1886.314
 870  1965.658
 871  1787.165
 872  1576.187
 873  1776.389
 874  1167.057
 875  866.4312
 876  1288.645
 877  1859.547
 878  2153.754
 879  1945.689
 880  1816.339
 881  1874.213
 882  2033.763
 883  2007.131
 884  1909.767
 885  1711.433
 886  2079.543
 887  2384.28
 888  2363.272
 889  2515.406
 890  1859.704
 891  1851.493
 892  1824.469
 893  2274.827
 894  2948.341
 895  3501.253
 896  3528.554
 897  2860.705
 898  2896.997
 899  2268.831
 900  2602.467
 901  2123.727
 902  2661.757
 903  2728.383
 904  2473.692
 905  2868.516
 906  3056.821
 907  3281.732
 908  2917.179
 909  2572.836
 910  2783.706
 911  3211.74
 912  3377.145
 913  3162.825
 914  2678.563
 915  2239.303
 916  2078.003
 917  1661.761
 918  1837.086
 919  1957.55
 920  2508.223
 921  2697.865
 922  2669.778
 923  2504.724
 924  2389.042
 925  2284.513
 926  2278.785
 927  2627.885
 928  2943.004
 929  2809.148
 930  2655.11
 931  2707.752
 932  2744.295
 933  2936.922
 934  2439.874
 935  2287.339
 936  2427.575
 937  2492.915
 938  3082.888
 939  2940.777
 940  2980.795
 941  2675.68
 942  2653.429
 943  2759.726
 944  2698.506
 945  2270.164
 946  2627.499
 947  2626.105
 948  3014.623
 949  3062.605
 950  3439.598
 951  3184.09
 952  3472.064
 953  3691.597
 954  3758.339
 955  3392.938
 956  3882.381
 957  4694.451
 958  4308.114
 959  4175.824
 960  3609.818
 961  3433.148
 962  3127.825
 963  3236.861
 964  3460.076
 965  3298.417
 966  2781.529
 967  2780.125
 968  2266.87
 969  2003.578
 970  1994.647
 971  2214.104
 972  2433.827
 973  2548.326
 974  2678.087
 975  3074.751
 976  2684.892
 977  2424.872
 978  2019.607
 979  1854.259
 980  1779.437
 981  1670.371
 982  1302.212
 983  1643.929
 984  1899.113
 985  2234.447
 986  2640.841
 987  2667.794
 988  2758.726
 989  2110.031
 990  1777.011
 991  1830.841
 992  2279.29
 993  2395.723
 994  2223.669
 995  2245.504
 996  2766.262
 997  2586.995
 998  2573.925
 999  2714.74
1000  2757.585
1001  2417.738
1002  1821.525
1003  1493.302
1004  1638.039
1005  1654.405
1006  1747.097
1007  1617.636
1008  1933.679
1009  2008.111
1010  1996.324
1011  2250.082
1012  2447.443
1013  2485.595
1014  2489.13
1015  2563.254
1016  2491.273
1017  2719.172
1018  2348.773
1019  1944.211
1020  1676.12
1021  1356.278
1022  1496.92
1023  1567.135
