# Input file       =  1204893568.118315_cleaned.dat
# Candidate        =  PSR_0332+5434
# Telescope        =  AR
# Epoch_topo       =  58189.527628684198
# Epoch_bary       =  N/A
# T_sample         =  0.002
# Data Folded      =  7340032
# Data Avg         =  0.0769056907003151
# Data StdDev      =  1.00003118280289 
# Profile Bins     =  512
# Profile Avg      =  1102.45038592315 
# Profile StdDev   =  119.736769988439 
# Reduced chi-sqr  =  0.909
# Prob(Noise)      <  0.93   (~0.0 sigma)
# P_topo (ms)      =  714.578359210045  +/- 0.000568
# P'_topo (s/s)    =  -0                +/- 3e-10
# P''_topo (s/s^2) =  0                 +/- 1.32e-13
# P_bary (ms)      =  N/A
# P'_bary (s/s)    =  N/A
# P''_bary (s/s^2) =  N/A
# P_orb (s)        =  N/A
# asin(i)/c (s)    =  N/A
# eccentricity     =  N/A
# w (rad)          =  N/A
# T_peri           =  N/A
######################################################
   0  1068.624
   1  1100.522
   2  1129.796
   3  1101.533
   4  1072.042
   5  1067.979
   6  1037.338
   7  1092.313
   8  1101.54
   9  1057.7
  10  1064.637
  11  1093.23
  12  1087.726
  13  1060.332
  14  1022.264
  15  1004.07
  16  1081.416
  17  1093.938
  18  1087.333
  19  1111.372
  20  1120.876
  21  1017.718
  22  1023.979
  23  1054.57
  24  994.1624
  25  1100.666
  26  1087.086
  27  1102.057
  28  1092.348
  29  1160.721
  30  1120.266
  31  1166.151
  32  1063.75
  33  1114.273
  34  1106.671
  35  1120.172
  36  1112.736
  37  1074.492
  38  1041.546
  39  1078.172
  40  1053.443
  41  1086.776
  42  1093.901
  43  1098.629
  44  1016.161
  45  997.0712
  46  1027.533
  47  1061.653
  48  1055.28
  49  1083.112
  50  1061.144
  51  1029.901
  52  1096.854
  53  1166.106
  54  1165.772
  55  1131.133
  56  1113.706
  57  1146.854
  58  1146.55
  59  1146.016
  60  1146.45
  61  1111.572
  62  1091.195
  63  995.3801
  64  1097.385
  65  1166.948
  66  1140.946
  67  1135.275
  68  1112.502
  69  1058.963
  70  1049.919
  71  1104.473
  72  1074.656
  73  1038.2
  74  1050.689
  75  993.6957
  76  1009.436
  77  1081.773
  78  1029.828
  79  1038.241
  80  1105.274
  81  1084.734
  82  1068.567
  83  984.8092
  84  998.4223
  85  921.3782
  86  906.1224
  87  1027.057
  88  984.4648
  89  964.6111
  90  969.0704
  91  961.1829
  92  985.6302
  93  1057.767
  94  1091.671
  95  1038.228
  96  972.9501
  97  994.3328
  98  1038.906
  99  958.3782
 100  1018.994
 101  1043.869
 102  941.7645
 103  921.0093
 104  965.9725
 105  994.1165
 106  1004.461
 107  1010.095
 108  1029.38
 109  996.633
 110  1116.147
 111  1163.667
 112  1133.312
 113  1127.578
 114  1133.676
 115  1081.37
 116  1152.034
 117  1176.556
 118  1087.606
 119  1117.669
 120  1196.943
 121  1209.648
 122  1173.99
 123  1153.629
 124  1125.178
 125  1126.425
 126  1156.381
 127  1160.447
 128  1155.636
 129  1098.395
 130  1039.588
 131  1040.483
 132  1038.471
 133  1065.157
 134  1102.162
 135  1061.347
 136  971.8929
 137  1022.303
 138  1043.745
 139  1074.727
 140  1068.89
 141  991.7472
 142  1057.39
 143  1117.869
 144  1185.804
 145  1189.147
 146  1166.838
 147  1144.777
 148  1099.41
 149  1089.597
 150  1180.896
 151  1191.918
 152  1104.828
 153  1152.382
 154  1081.002
 155  1085.486
 156  1075.41
 157  1066.888
 158  1084.244
 159  1091.24
 160  1121.1
 161  1082.379
 162  1091.269
 163  1157.006
 164  1111.498
 165  1145.25
 166  1137.863
 167  1185.212
 168  1159.92
 169  1040.555
 170  1034.063
 171  1071.469
 172  1112.649
 173  1161.05
 174  1147.668
 175  1138.881
 176  1212.587
 177  1182.338
 178  1212.434
 179  1125.275
 180  1120.596
 181  1082.153
 182  1050.337
 183  1183.295
 184  1166.684
 185  1210.979
 186  1189.338
 187  1100.518
 188  1141.828
 189  1199.828
 190  1213.989
 191  1123.296
 192  1115.434
 193  1179.586
 194  1176.885
 195  1222.243
 196  1174.981
 197  1173.349
 198  1147.999
 199  1135.089
 200  1081.391
 201  1058.323
 202  1052.715
 203  1119.087
 204  1095.226
 205  1141.576
 206  1202.014
 207  1229.012
 208  1285.959
 209  1262.901
 210  1159.909
 211  1152.725
 212  1146.863
 213  1037.007
 214  1019.735
 215  1107.583
 216  1110.031
 217  1067.228
 218  1051.848
 219  1034.434
 220  1074.518
 221  1069.96
 222  1092.34
 223  1085.474
 224  1045.082
 225  1059.105
 226  1075.781
 227  1046.938
 228  1022.233
 229  1081.346
 230  1098.363
 231  1140.333
 232  1128.588
 233  1085.498
 234  1082.917
 235  1097.069
 236  982.9229
 237  1047.482
 238  1056.048
 239  1018.712
 240  1039.854
 241  1056.197
 242  1069.9
 243  1112.209
 244  1151.559
 245  1154.06
 246  1105.492
 247  1090.932
 248  1040.25
 249  1026.981
 250  1138.703
 251  1077.703
 252  1098.502
 253  1102.569
 254  1021.525
 255  1038.358
 256  996.4287
 257  1073.081
 258  1132.629
 259  1126.726
 260  1096.765
 261  1077.21
 262  1139.729
 263  1199.03
 264  1201.579
 265  1145.035
 266  1089.701
 267  1184.077
 268  1201.751
 269  1143.1
 270  1065.315
 271  1046.079
 272  1162.834
 273  1155.192
 274  1158.285
 275  1175.311
 276  1230.284
 277  1240.751
 278  1203.367
 279  1149.748
 280  1140.871
 281  1170.917
 282  1235.257
 283  1221.539
 284  1118.251
 285  1083.103
 286  1075.014
 287  1075.62
 288  1060.798
 289  1064.78
 290  1067.819
 291  1097.657
 292  1099.87
 293  1026.609
 294  990.6777
 295  1006.318
 296  1115.191
 297  1117.159
 298  1100.102
 299  1123.689
 300  1150.804
 301  1111.772
 302  1098.845
 303  1078.471
 304  1103.105
 305  1109.473
 306  1126.992
 307  1112.536
 308  1162.409
 309  1171.501
 310  1090.634
 311  1058.794
 312  1124.187
 313  1116.408
 314  1052.695
 315  1076.022
 316  1026.762
 317  1026.262
 318  1033.04
 319  1074.288
 320  1086.8
 321  1178.455
 322  1095.827
 323  1084.211
 324  1045.712
 325  1111.868
 326  1051.385
 327  1060.557
 328  1067.684
 329  1083.705
 330  981.5216
 331  996.8749
 332  1064.977
 333  1011.265
 334  1115.528
 335  1132.404
 336  1059.11
 337  1041.07
 338  1070.668
 339  1054.889
 340  1077.462
 341  1042.755
 342  1027.481
 343  1006.461
 344  1036.896
 345  998.4283
 346  984.8961
 347  1025.049
 348  1037.65
 349  1113.058
 350  1088.388
 351  1144.281
 352  1185.254
 353  1157.532
 354  1119.192
 355  1128.651
 356  1138.026
 357  1122.764
 358  1086.097
 359  1108.019
 360  1127.529
 361  1113.792
 362  988.8944
 363  962.4515
 364  1019.153
 365  986.8999
 366  1032.12
 367  1120.42
 368  1129.992
 369  991.6444
 370  964.3795
 371  1007.364
 372  1005.852
 373  1057.945
 374  1055.402
 375  961.7398
 376  1014.183
 377  1010.292
 378  1066.054
 379  1044.279
 380  1030.549
 381  1024.188
 382  1015.216
 383  1072.199
 384  1044.257
 385  988.6473
 386  980.2068
 387  951.1249
 388  915.3765
 389  973.4761
 390  937.8799
 391  944.1527
 392  998.0701
 393  1031.911
 394  1113.785
 395  1071.453
 396  1056.073
 397  1050.88
 398  1077.742
 399  1111.095
 400  1170.766
 401  1070.256
 402  1079.078
 403  1120.232
 404  1152.547
 405  1139.32
 406  1083.747
 407  1092.284
 408  1156.66
 409  1108.915
 410  1140.902
 411  1169.747
 412  1206.128
 413  1224.283
 414  1244.344
 415  1383.184
 416  1481.031
 417  1550.744
 418  1512.641
 419  1441.064
 420  1312.997
 421  1229.274
 422  1170.695
 423  1127.666
 424  1174.167
 425  1153.825
 426  1077.273
 427  1114.01
 428  1205.737
 429  1238.255
 430  1219.725
 431  1183.586
 432  1091.089
 433  1144.977
 434  1161.228
 435  1161.234
 436  1188.438
 437  1139.952
 438  1039.78
 439  1101.364
 440  1118.407
 441  1089.345
 442  1049.989
 443  1079.417
 444  1148.393
 445  1106.391
 446  1139.532
 447  1215.113
 448  1145.534
 449  1157.537
 450  1194.877
 451  1213.722
 452  1216.225
 453  1219.167
 454  1222.175
 455  1220.289
 456  1237.916
 457  1290.368
 458  1317.113
 459  1282.902
 460  1283.302
 461  1302.954
 462  1217.496
 463  1254.738
 464  1351.433
 465  1342.045
 466  1241.267
 467  1228.331
 468  1318.823
 469  1264.41
 470  1197.91
 471  1168.762
 472  1254.212
 473  1196.335
 474  1143.798
 475  1158.014
 476  1214.217
 477  1218.881
 478  1122.05
 479  1126.658
 480  1141.273
 481  1163.556
 482  1145.951
 483  1092.527
 484  1156.715
 485  1162.823
 486  1127.115
 487  1183.28
 488  1122.445
 489  1046.262
 490  1019.544
 491  1032.281
 492  1027.288
 493  1060.552
 494  981.2292
 495  982.2772
 496  986.8339
 497  1026.481
 498  1087.843
 499  986.217
 500  970.6918
 501  989.2395
 502  1019.692
 503  1033.375
 504  1093.07
 505  1080.421
 506  1009.786
 507  1030.473
 508  1082.235
 509  1058.594
 510  1066.384
 511  1058.219
