# Input file       =  1204133086.10236_cleaned.dat
# Candidate        =  PSR_0332+5434
# Telescope        =  AR
# Epoch_topo       =  58180.725753499537
# Epoch_bary       =  N/A
# T_sample         =  0.002
# Data Folded      =  7340032
# Data Avg         =  0.164409558026819
# Data StdDev      =  5.77024451311245 
# Profile Bins     =  1024
# Profile Avg      =  1178.49462723247 
# Profile StdDev   =  488.532223543377 
# Reduced chi-sqr  =  0.614
# Prob(Noise)      <  1   (~0.0 sigma)
# P_topo (ms)      =  714.580535213464  +/- 0.000675
# P'_topo (s/s)    =  -0                +/- 3.56e-10
# P''_topo (s/s^2) =  0                 +/- 1.57e-13
# P_bary (ms)      =  N/A
# P'_bary (s/s)    =  N/A
# P''_bary (s/s^2) =  N/A
# P_orb (s)        =  N/A
# asin(i)/c (s)    =  N/A
# eccentricity     =  N/A
# w (rad)          =  N/A
# T_peri           =  N/A
######################################################
   0  1294.345
   1  1220.192
   2  1192.351
   3  1259.085
   4  1281.023
   5  1258.876
   6  1277.997
   7  1266.465
   8  1204.874
   9  1264.986
  10  1339.68
  11  1264.894
  12  1055.31
  13  1037.647
  14  1087.142
  15  1237.455
  16  1303.964
  17  1278.52
  18  1203.182
  19  1229.723
  20  1267.031
  21  1249.651
  22  1209.714
  23  1233.906
  24  1219.416
  25  1129.208
  26  1102.838
  27  1056.659
  28  1023.403
  29  998.1868
  30  1178.159
  31  1191.691
  32  1183.312
  33  1050.078
  34  1097.651
  35  1089.991
  36  1056.105
  37  1060.326
  38  1123.729
  39  1151.381
  40  1140.916
  41  1244.993
  42  1313.867
  43  1327.968
  44  1282.588
  45  1200.65
  46  1069.642
  47  1016.448
  48  954.7322
  49  978.2701
  50  1068.79
  51  1090.375
  52  968.5888
  53  995.1343
  54  1074.15
  55  1356.707
  56  1304.072
  57  1198.852
  58  1071.757
  59  1119.806
  60  1173.381
  61  1105.912
  62  955.8355
  63  902.5048
  64  1003.559
  65  1046.88
  66  1054.995
  67  1071.612
  68  992.1472
  69  899.418
  70  924.9442
  71  980.658
  72  857.3638
  73  859.9026
  74  903.8518
  75  1058.843
  76  1142.122
  77  1260.628
  78  1211.505
  79  1008.306
  80  916.4421
  81  976.0423
  82  1009.76
  83  1094.713
  84  1203.174
  85  1240.718
  86  1189.321
  87  1082.71
  88  1125.373
  89  1104.164
  90  1050.223
  91  943.3287
  92  878.2531
  93  807.1765
  94  773.2991
  95  913.5038
  96  1002.468
  97  1069.851
  98  1022.405
  99  881.5333
 100  778.1984
 101  747.4694
 102  866.6561
 103  1077.049
 104  1158.907
 105  1107.515
 106  922.2527
 107  824.601
 108  763.2426
 109  627.0185
 110  572.2114
 111  667.8049
 112  719.4059
 113  736.7088
 114  934.5064
 115  1107.471
 116  1027.466
 117  900.9264
 118  852.9034
 119  814.198
 120  645.9659
 121  586.9963
 122  651.0871
 123  823.2758
 124  844.2144
 125  904.0295
 126  752.8583
 127  721.8854
 128  753.0577
 129  821.2013
 130  795.751
 131  742.6681
 132  772.939
 133  771.1598
 134  721.0595
 135  671.8047
 136  614.4864
 137  582.5442
 138  686.6805
 139  906.0905
 140  873.9348
 141  756.3732
 142  796.1204
 143  883.369
 144  837.7626
 145  933.5673
 146  842.2066
 147  791.2062
 148  653.0875
 149  807.2341
 150  906.2151
 151  931.0317
 152  982.0959
 153  862.9914
 154  862.1386
 155  884.213
 156  981.7977
 157  927.6052
 158  807.4462
 159  883.0743
 160  982.0103
 161  1059.17
 162  967.2165
 163  981.406
 164  883.4215
 165  772.1934
 166  715.6666
 167  716.3119
 168  692.8979
 169  648.1574
 170  722.4919
 171  809.0317
 172  839.3463
 173  860.4029
 174  864.2457
 175  1027.696
 176  911.84
 177  813.4872
 178  771.1762
 179  914.1465
 180  1011.311
 181  1059.261
 182  1093.034
 183  1072.638
 184  1127.489
 185  1213.982
 186  1302.737
 187  1197.503
 188  1145.027
 189  1026.23
 190  1013.343
 191  1154.248
 192  1270.29
 193  1465.281
 194  1398.589
 195  1309.422
 196  1190.719
 197  1106.38
 198  1264.422
 199  1281.011
 200  1489.623
 201  1355.06
 202  1239.963
 203  1233.266
 204  1369.591
 205  1449.959
 206  1486.597
 207  1463.73
 208  1352.001
 209  1231.026
 210  1127.7
 211  1082.61
 212  1130.231
 213  1183.894
 214  1210.451
 215  1078.485
 216  1169.487
 217  1364.854
 218  1628.073
 219  1694.411
 220  1533.377
 221  1464.748
 222  1409.243
 223  1440.87
 224  1358.18
 225  1264.358
 226  1110.735
 227  1169.261
 228  1256.58
 229  1369.589
 230  1243.073
 231  1169.565
 232  1219.833
 233  1333.879
 234  1290.462
 235  1269.826
 236  1323.876
 237  1375.63
 238  1271.082
 239  1077.772
 240  1056.837
 241  1041.039
 242  1146.407
 243  1246.014
 244  1268.042
 245  1212.351
 246  1104.857
 247  1218.044
 248  1411.483
 249  1546.584
 250  1520.63
 251  1550.61
 252  1499.177
 253  1362.243
 254  1195.226
 255  1194.017
 256  1192.094
 257  1196.712
 258  1125.737
 259  1093.236
 260  1071.972
 261  1219.928
 262  1334.395
 263  1353.824
 264  1297.594
 265  1361.14
 266  1382.758
 267  1369.848
 268  1313.548
 269  1287.214
 270  1229.818
 271  1198.344
 272  1273.904
 273  1246.01
 274  1312.818
 275  1359.143
 276  1439.073
 277  1523.366
 278  1631.257
 279  1670.173
 280  1522.672
 281  1491.868
 282  1529.391
 283  1491.821
 284  1223.501
 285  1142.059
 286  1107.79
 287  1238.03
 288  1321.915
 289  1291.73
 290  1359.935
 291  1330.317
 292  1324.846
 293  1250.188
 294  1099.615
 295  1098.307
 296  1145.847
 297  1116.087
 298  983.7249
 299  839.7686
 300  893.8749
 301  1049.99
 302  1154.959
 303  1172.667
 304  1222.915
 305  1203.725
 306  1273.407
 307  1233.483
 308  1204.175
 309  1244.303
 310  1159.29
 311  1081.775
 312  1043.479
 313  1126.754
 314  1073.728
 315  816.186
 316  717.2288
 317  848.7926
 318  1069.55
 319  1130.245
 320  1182.771
 321  1163.624
 322  1171.359
 323  1105.436
 324  1240.627
 325  1262.25
 326  1258.189
 327  1101.794
 328  1100.383
 329  1101.582
 330  1174.293
 331  1150.74
 332  1010.002
 333  1112.801
 334  1053.806
 335  1111.645
 336  1019.844
 337  1039.428
 338  996.0929
 339  971.4919
 340  932.3969
 341  1098.361
 342  1075.256
 343  1160.63
 344  1223.489
 345  1227.163
 346  1150.61
 347  1031.946
 348  1008.16
 349  1005.743
 350  1000.268
 351  986.2521
 352  1069.922
 353  960.3786
 354  970.9987
 355  960.8047
 356  985.8924
 357  1055.185
 358  1065.901
 359  1155.437
 360  1183.789
 361  1263.058
 362  1312.604
 363  1489.32
 364  1398.508
 365  1350.425
 366  1303.349
 367  1271.32
 368  1142.902
 369  1126.322
 370  1140.312
 371  1151.114
 372  1039.636
 373  1070.296
 374  1169.619
 375  1126.71
 376  1150.44
 377  1144.501
 378  1162.649
 379  1042.27
 380  1100.535
 381  1257.355
 382  1379.482
 383  1217.657
 384  1254.41
 385  1154.184
 386  992.1505
 387  800.7087
 388  819.7841
 389  867.1088
 390  712.0933
 391  793.5911
 392  995.2908
 393  1024.735
 394  1021.05
 395  1116.965
 396  1229.383
 397  1148.236
 398  968.4513
 399  800.676
 400  851.8177
 401  871.0032
 402  973.1355
 403  847.843
 404  813.0477
 405  666.5843
 406  882.3392
 407  1022.202
 408  1125.63
 409  1018.837
 410  1082.822
 411  1125.654
 412  1096.097
 413  1007.578
 414  1026.686
 415  1091.765
 416  1110.341
 417  1105.726
 418  1163.453
 419  1050.51
 420  978.8303
 421  910.7073
 422  1117.21
 423  1171.654
 424  1189.099
 425  1143.388
 426  1219.198
 427  1199.519
 428  1062.426
 429  720.6973
 430  702.5379
 431  958.7003
 432  1144.48
 433  1073.429
 434  883.6689
 435  906.8736
 436  873.7421
 437  931.0988
 438  1070.839
 439  1158.071
 440  1113.034
 441  958.7233
 442  1020.082
 443  971.9437
 444  962.6261
 445  841.563
 446  891.0955
 447  926.725
 448  971.566
 449  931.3558
 450  932.8718
 451  1011.43
 452  1183.791
 453  1210.338
 454  1210.988
 455  1152.24
 456  1111.946
 457  1099.471
 458  1041.907
 459  1022.136
 460  1111.027
 461  1084.455
 462  1158.063
 463  1108.522
 464  1201.668
 465  1161.598
 466  1244.002
 467  1403.007
 468  1406.069
 469  1222.365
 470  965.8014
 471  1054.793
 472  1216.456
 473  1149.381
 474  1023.685
 475  1013.101
 476  1102.756
 477  1080.829
 478  1037.399
 479  1156.941
 480  1177.76
 481  1263.418
 482  1318.31
 483  1311.53
 484  1273.118
 485  1232.305
 486  1276.398
 487  1210.879
 488  1211.316
 489  1254.819
 490  1173.35
 491  1235.466
 492  1288.096
 493  1346.221
 494  1331.484
 495  1331.64
 496  1294.799
 497  1293.521
 498  1220.566
 499  1300.4
 500  1297.338
 501  1288.238
 502  1219.405
 503  1306.966
 504  1251.692
 505  1232.077
 506  1213.396
 507  1382.613
 508  1474.564
 509  1503.805
 510  1558.374
 511  1567.159
 512  1644.538
 513  1468.86
 514  1383.115
 515  1210.304
 516  1104.002
 517  1109.406
 518  1190.24
 519  1325.86
 520  1318.9
 521  1262.549
 522  1268.426
 523  1246.791
 524  1252.726
 525  1103.002
 526  1171.849
 527  1204.778
 528  1241.445
 529  1254.24
 530  1235.085
 531  1217.395
 532  1093.165
 533  1142.411
 534  1021.929
 535  1021.897
 536  898.698
 537  911.684
 538  973.8768
 539  1113.125
 540  1217.572
 541  1182.608
 542  1108.177
 543  1084.333
 544  1274.055
 545  1294.36
 546  1266.629
 547  1128.818
 548  1248.1
 549  1413.219
 550  1276.949
 551  1214.184
 552  1135.794
 553  1230.275
 554  1267.955
 555  1429.757
 556  1459.082
 557  1440.115
 558  1303.384
 559  1306.059
 560  1419.69
 561  1349.337
 562  1422.232
 563  1359.452
 564  1387.792
 565  1256.869
 566  1106.982
 567  1036.13
 568  1033.905
 569  1150.68
 570  1290.88
 571  1377.609
 572  1518.424
 573  1565.265
 574  1382.731
 575  1246.874
 576  1217.178
 577  1274.408
 578  1219.921
 579  1057.249
 580  956.0752
 581  790.1262
 582  871.0326
 583  1003.373
 584  1099.261
 585  1005.269
 586  1005.285
 587  930.2964
 588  1050.232
 589  1052.213
 590  1145.241
 591  1185.553
 592  1236.548
 593  1249.898
 594  1267.029
 595  1140.594
 596  1119.389
 597  1100.501
 598  1210.079
 599  1231.701
 600  1222.602
 601  1213.688
 602  1199.103
 603  1358.396
 604  1506.467
 605  1768.651
 606  1839.476
 607  1916.8
 608  2052.65
 609  2237.153
 610  2314.806
 611  2180.044
 612  2105.364
 613  1968.588
 614  1856.075
 615  1629.271
 616  1543.305
 617  1423.603
 618  1397.282
 619  1382.088
 620  1294.084
 621  1249.232
 622  1211.302
 623  1316.156
 624  1310.455
 625  1256.023
 626  1202.674
 627  1270.899
 628  1202.539
 629  1043.668
 630  1114.523
 631  1263.755
 632  1387.594
 633  1303.795
 634  1117.764
 635  905.6085
 636  850.208
 637  997.0641
 638  951.8963
 639  880.4957
 640  984.2932
 641  1208.167
 642  1288.443
 643  1219.247
 644  1159.363
 645  1323.703
 646  1280.023
 647  1274.953
 648  1359.028
 649  1430.718
 650  1308.521
 651  1259.389
 652  1137.848
 653  1139.328
 654  1095.934
 655  1128.329
 656  1163.777
 657  1144.719
 658  1314.026
 659  1389.755
 660  1250.943
 661  1100.675
 662  1106.69
 663  1034.872
 664  876.7679
 665  838.6758
 666  887.5839
 667  1018.891
 668  1042.523
 669  1119.47
 670  1040.203
 671  987.032
 672  997.8881
 673  1025.477
 674  864.588
 675  882.5986
 676  949.204
 677  1125.521
 678  1146.289
 679  1083.452
 680  1095.624
 681  1228.198
 682  1224.709
 683  1186.085
 684  1122.452
 685  1319.109
 686  1465.294
 687  1534.527
 688  1520.615
 689  1548.104
 690  1611.385
 691  1609.455
 692  1502.597
 693  1431.545
 694  1271.091
 695  1397.057
 696  1405.956
 697  1543.624
 698  1411.834
 699  1364.122
 700  1389.755
 701  1495.129
 702  1573.531
 703  1574.476
 704  1509.273
 705  1579.932
 706  1662.908
 707  1651.303
 708  1542.459
 709  1475.952
 710  1492.965
 711  1548.59
 712  1490.602
 713  1300.955
 714  1290.544
 715  1234.532
 716  1388.774
 717  1501.981
 718  1534.95
 719  1487.994
 720  1397.97
 721  1337.528
 722  1355.272
 723  1273.634
 724  1274.766
 725  1265.829
 726  1325.027
 727  1310.849
 728  1223.564
 729  1232.466
 730  1188.819
 731  1178.048
 732  1058.447
 733  975.0605
 734  949.7307
 735  1059.69
 736  1173.739
 737  1308.089
 738  1366.359
 739  1335.117
 740  1263.71
 741  1187.515
 742  1183.659
 743  1000.173
 744  1015.702
 745  1088.939
 746  1152.618
 747  1136.314
 748  1210.64
 749  1263.08
 750  1216.836
 751  1170.288
 752  1002.929
 753  977.9626
 754  999.7264
 755  1168.765
 756  1105.782
 757  1099.582
 758  1146.361
 759  1147.72
 760  1108.924
 761  1089.577
 762  1040.932
 763  1007.73
 764  1053.31
 765  1048.987
 766  989.1808
 767  1041.511
 768  1054.153
 769  1056.589
 770  934.5657
 771  1046.838
 772  1293.846
 773  1369.675
 774  1347.029
 775  1277.783
 776  1266.33
 777  1197.591
 778  1182.948
 779  1191.815
 780  1149.719
 781  1127.883
 782  1093.252
 783  1181.878
 784  1233.423
 785  1215.916
 786  1226.688
 787  1146.418
 788  1183.403
 789  1133.998
 790  1131.154
 791  1236.989
 792  1288.577
 793  1377.94
 794  1353.717
 795  1362.276
 796  1373.976
 797  1366.483
 798  1423.128
 799  1355.751
 800  1370.743
 801  1433.817
 802  1313.296
 803  1141.199
 804  1008.715
 805  1186.918
 806  1259.775
 807  1291.37
 808  1152.303
 809  1209.385
 810  1401.979
 811  1454.432
 812  1432.279
 813  1239.315
 814  1310.37
 815  1464.466
 816  1564.293
 817  1589.41
 818  1403.612
 819  1318.677
 820  1167.118
 821  1183.755
 822  1319.951
 823  1297.442
 824  1358.163
 825  1308.784
 826  1438.82
 827  1287.756
 828  1215.341
 829  1168.069
 830  1160.716
 831  1168.623
 832  1009.275
 833  1026.038
 834  1088.594
 835  1225.648
 836  1235.307
 837  1163.218
 838  1317.77
 839  1376.63
 840  1339.749
 841  1166.485
 842  1189.435
 843  1267.988
 844  1339.921
 845  1289.49
 846  1284.463
 847  1215.461
 848  1185.576
 849  1182.789
 850  1182.749
 851  1215.351
 852  1191.781
 853  1251.559
 854  1403.57
 855  1563.363
 856  1663.295
 857  1504.465
 858  1366.753
 859  1262.009
 860  1217.18
 861  1271.073
 862  1249.573
 863  1169.324
 864  1186.756
 865  1185.16
 866  1181.225
 867  1266.731
 868  1326.607
 869  1561.134
 870  1517.68
 871  1492.887
 872  1402.228
 873  1337.941
 874  1371.066
 875  1266.888
 876  1293.978
 877  1222.918
 878  1252.54
 879  1353.475
 880  1336.229
 881  1293.003
 882  1228.679
 883  1214.694
 884  1267.684
 885  1350.877
 886  1320.029
 887  1122.35
 888  987.5727
 889  1067.949
 890  1156.236
 891  1065.476
 892  976.132
 893  1032.077
 894  1174.125
 895  1150.38
 896  1243.207
 897  1194.752
 898  1352.627
 899  1515.775
 900  1641.279
 901  1560.111
 902  1502.767
 903  1450.199
 904  1329.741
 905  1218.156
 906  1154.337
 907  1282.685
 908  1327.054
 909  1309.076
 910  1324.119
 911  1413.499
 912  1433.296
 913  1336.096
 914  1190.591
 915  1189.093
 916  1196.036
 917  1247.21
 918  1300.39
 919  1390.183
 920  1408.507
 921  1276.829
 922  1316.787
 923  1271.238
 924  1168.227
 925  1086.357
 926  1175.383
 927  1336.053
 928  1253.082
 929  1217.074
 930  1182.723
 931  1105.375
 932  1086.447
 933  1256.157
 934  1222.741
 935  1206.156
 936  1167.83
 937  1276.876
 938  1139.819
 939  971.5331
 940  951.036
 941  1144.642
 942  1235.594
 943  1354.415
 944  1404.147
 945  1319.418
 946  1238.281
 947  1250.397
 948  1277.395
 949  1220.913
 950  1023.03
 951  1069.466
 952  1075.421
 953  1056.893
 954  1095.348
 955  1097.865
 956  1035.627
 957  1003.347
 958  956.3698
 959  1051.926
 960  1039.006
 961  1128.885
 962  1152.033
 963  1170.923
 964  1224.628
 965  1212.844
 966  1208.664
 967  1267.547
 968  1258.234
 969  1166.168
 970  1127.937
 971  1033.113
 972  1017.943
 973  1107.376
 974  1311.767
 975  1252.209
 976  1173.882
 977  1133.711
 978  1295.562
 979  1283.816
 980  1216.098
 981  1119.061
 982  1132.724
 983  1201.976
 984  1323.344
 985  1490.059
 986  1589.088
 987  1603.552
 988  1553.551
 989  1556.373
 990  1487.064
 991  1466.932
 992  1352.647
 993  1239.956
 994  1176.511
 995  1199.915
 996  1209.264
 997  1264.346
 998  1254.798
 999  1315.468
1000  1376.258
1001  1475.57
1002  1369.941
1003  1260.192
1004  1121.517
1005  1196.883
1006  1235.487
1007  1171.166
1008  1033.715
1009  1072.164
1010  1187.501
1011  1168.35
1012  1222.577
1013  1253.537
1014  1364.428
1015  1404.046
1016  1374.054
1017  1416.442
1018  1315.036
1019  1311.42
1020  1184.959
1021  1024.848
1022  1088.199
1023  1176.928
