# Input file       =  1204204392.112733_cleaned.dat
# Candidate        =  PSR_0332+5434
# Telescope        =  AR
# Epoch_topo       =  58181.551054545518
# Epoch_bary       =  N/A
# T_sample         =  0.002
# Data Folded      =  7340032
# Data Avg         =  0.386745751738739
# Data StdDev      =  8.04898837244082 
# Profile Bins     =  512
# Profile Avg      =  5544.49950926014 
# Profile StdDev   =  963.729817593625 
# Reduced chi-sqr  =  1.833
# Prob(Noise)      <  1.82e-27   (~10.8 sigma)
# P_topo (ms)      =  714.580085605494  +/- 0.000174
# P'_topo (s/s)    =  -0                +/- 9.18e-11
# P''_topo (s/s^2) =  0                 +/- 4.05e-14
# P_bary (ms)      =  N/A
# P'_bary (s/s)    =  N/A
# P''_bary (s/s^2) =  N/A
# P_orb (s)        =  N/A
# asin(i)/c (s)    =  N/A
# eccentricity     =  N/A
# w (rad)          =  N/A
# T_peri           =  N/A
######################################################
   0  5813.787
   1  5680.11
   2  5766.021
   3  6045.722
   4  5638.231
   5  5840.941
   6  5916.934
   7  5634.116
   8  5780.865
   9  6002.608
  10  5878.004
  11  5889.725
  12  6352.283
  13  6716.887
  14  5974.672
  15  5438.167
  16  5217.438
  17  5193.194
  18  5400.135
  19  5769.847
  20  6260.384
  21  6241.24
  22  6162.046
  23  5379.343
  24  5205.516
  25  4989.373
  26  5153.011
  27  5823.036
  28  5339.559
  29  5144.568
  30  5094.366
  31  5613.384
  32  5568.162
  33  5792.511
  34  5878.404
  35  6332.736
  36  6344.104
  37  6549.497
  38  6465.116
  39  6369.734
  40  6888.645
  41  7057.561
  42  7385.875
  43  7289.85
  44  7080.668
  45  6918.287
  46  6950.717
  47  6856.359
  48  7208.709
  49  7236.144
  50  7570.254
  51  7623.914
  52  7361.435
  53  7139.178
  54  6959.444
  55  6730.708
  56  6482.617
  57  6369.401
  58  6285.572
  59  6090.256
  60  6158.392
  61  6366.853
  62  6033.582
  63  5915.115
  64  5457.113
  65  5627.576
  66  6059.961
  67  6015.042
  68  6097.963
  69  5574.026
  70  5524.017
  71  5240.625
  72  5309.151
  73  5743.653
  74  5700.204
  75  5600.36
  76  5749.691
  77  5569.78
  78  5589.223
  79  5324.62
  80  5555.359
  81  5738.061
  82  5785.311
  83  5649.252
  84  5674.107
  85  5825.083
  86  5878.961
  87  5687.27
  88  5518.132
  89  5211.52
  90  4726.919
  91  4426.793
  92  4706.411
  93  4996.95
  94  5104.399
  95  5105.019
  96  4766.933
  97  5144.742
  98  5035.213
  99  5031.845
 100  5015.279
 101  5076.185
 102  5073.519
 103  5502.819
 104  5463.999
 105  5682.065
 106  5347.596
 107  5365.826
 108  5660.916
 109  5509.225
 110  5799.596
 111  5591.042
 112  5682.299
 113  6210.042
 114  6236.041
 115  6036.554
 116  5911.048
 117  6299.15
 118  6169.369
 119  6371.136
 120  6111.916
 121  5885.6
 122  5590.11
 123  5747.53
 124  6158.852
 125  6212.416
 126  5810.547
 127  5880.881
 128  5679.705
 129  5553.95
 130  5564.8
 131  5441.634
 132  5305.621
 133  5146.53
 134  4783.178
 135  4840.193
 136  4833.456
 137  5099.71
 138  5134.966
 139  4847.445
 140  5084.036
 141  5087.18
 142  5184.843
 143  4924.924
 144  5096.559
 145  5335.286
 146  5155.574
 147  4602.674
 148  4931.513
 149  4759.635
 150  4882.841
 151  4740.607
 152  4626.26
 153  4140.168
 154  4226.428
 155  4933.629
 156  4949.413
 157  4839.305
 158  4465.319
 159  4807.249
 160  4984.232
 161  5029.618
 162  4944.626
 163  4847.063
 164  4871.894
 165  4822.233
 166  4370.243
 167  4070.42
 168  4158.658
 169  4146.403
 170  4250.98
 171  4391.201
 172  4264.591
 173  4055.49
 174  4347.441
 175  5023.446
 176  4958.266
 177  4907.547
 178  5318.577
 179  5408.227
 180  5010.299
 181  5035.463
 182  5139.936
 183  5293.35
 184  5412.992
 185  6076.391
 186  5925.064
 187  5493.125
 188  5670.348
 189  6022.366
 190  5998.999
 191  5909.364
 192  6296.053
 193  5986.204
 194  6177.329
 195  6431.177
 196  6313.734
 197  6393.561
 198  6592.211
 199  6424.408
 200  6106.18
 201  6141.226
 202  5563.549
 203  5864.802
 204  6073.019
 205  6102.886
 206  6112.181
 207  5745.129
 208  5649.322
 209  5549.253
 210  5566.516
 211  5542.58
 212  4783.412
 213  4880.486
 214  4817.288
 215  4362.116
 216  4616.302
 217  4629.542
 218  4215.723
 219  3991.558
 220  4240.861
 221  4698.798
 222  4547.604
 223  4282.053
 224  4218.389
 225  3989.663
 226  4128.068
 227  4070.329
 228  4417.362
 229  4295.749
 230  4273.025
 231  3960.79
 232  3924.885
 233  3823.705
 234  3954.554
 235  3866.595
 236  4244.205
 237  3964.683
 238  3850.383
 239  3685.837
 240  3582.799
 241  3866.408
 242  4069.965
 243  4016.856
 244  3771.451
 245  3810.674
 246  4264.532
 247  3956.057
 248  4437.361
 249  4478.602
 250  4102.375
 251  4207.532
 252  4708.884
 253  5636.933
 254  6104.018
 255  6179.169
 256  6232.919
 257  6300.151
 258  6101.889
 259  6195.219
 260  6176.102
 261  6442.33
 262  6628.109
 263  7025.342
 264  7138.844
 265  6814.288
 266  6193.854
 267  6373.846
 268  6667.996
 269  6751.093
 270  6338.169
 271  6392.18
 272  6657.392
 273  6643.657
 274  6474.677
 275  6588
 276  6284.848
 277  6301.85
 278  6527.491
 279  6559.098
 280  6417.662
 281  6003.058
 282  5715.352
 283  5371.325
 284  5688.642
 285  6198.392
 286  5832.258
 287  5749.365
 288  5470.808
 289  5375.506
 290  5046.765
 291  4565.666
 292  4537.686
 293  4693.686
 294  4715.215
 295  4835.756
 296  4639.309
 297  4193.265
 298  4166.352
 299  4826.482
 300  4749.475
 301  4778.044
 302  5436.691
 303  5738.162
 304  5783.446
 305  5925.929
 306  5353.526
 307  4754.761
 308  3967.758
 309  3756.246
 310  3872.087
 311  3949.283
 312  3851.394
 313  4056.882
 314  3752.887
 315  3593.746
 316  3901.157
 317  4185.961
 318  4513.002
 319  4589.597
 320  4508.583
 321  4624.381
 322  4745.455
 323  4711.772
 324  5103.165
 325  5392.963
 326  5073.449
 327  4849.705
 328  4986.189
 329  4948.771
 330  5230.768
 331  5651.393
 332  5765.869
 333  5793.331
 334  5907.618
 335  6198.629
 336  5947.777
 337  5751.508
 338  5374.082
 339  5659.042
 340  5871.886
 341  5885.878
 342  5772.247
 343  6082.153
 344  5930.319
 345  5888.472
 346  6208.54
 347  6550.456
 348  6315.668
 349  6317.176
 350  6512.138
 351  6442.93
 352  6244.036
 353  5617.415
 354  5480.147
 355  5560.011
 356  5784.748
 357  5900.943
 358  5945.338
 359  5680.185
 360  5440.744
 361  5525.157
 362  5249.939
 363  5128.966
 364  4973.461
 365  4754.954
 366  4625.58
 367  4788.824
 368  5038.308
 369  4682.425
 370  4332.256
 371  4517.391
 372  4376.941
 373  4266.748
 374  3891.654
 375  4298.028
 376  4476.885
 377  4124.055
 378  4189.444
 379  4213.581
 380  4322.333
 381  4200.434
 382  3881.366
 383  3661.948
 384  3807.275
 385  4102.09
 386  3743.239
 387  3781.943
 388  3929.51
 389  4086.291
 390  4383.151
 391  4409.622
 392  4607.704
 393  4740.964
 394  4502.115
 395  4455.545
 396  4676.104
 397  4976.32
 398  5363.234
 399  5380.819
 400  5265.819
 401  5203.463
 402  5335.917
 403  6021.913
 404  6137.254
 405  6544.145
 406  6559.677
 407  6601.565
 408  6014.314
 409  6374.73
 410  6511.126
 411  6429.038
 412  6753.502
 413  7322.205
 414  7475.151
 415  7310.822
 416  7359.545
 417  7440.257
 418  7109.423
 419  7132.853
 420  7278.311
 421  7145.955
 422  7523.128
 423  7229.524
 424  6976.726
 425  6745.14
 426  6976.931
 427  7358.184
 428  6820.579
 429  6720.346
 430  6439.771
 431  6431.794
 432  6341.92
 433  6359.524
 434  6145.998
 435  6050.651
 436  5946.745
 437  6071.89
 438  5795.798
 439  5810.014
 440  4952.427
 441  4736.056
 442  5118.711
 443  5474.575
 444  4936.866
 445  4985.122
 446  5303.779
 447  5351.942
 448  5125.381
 449  4951.172
 450  5259.957
 451  5257.431
 452  5189.45
 453  5060.264
 454  5036.714
 455  4804.655
 456  4930.692
 457  4985.542
 458  4878.144
 459  4666.708
 460  5242.444
 461  5569.724
 462  5363.799
 463  4979.709
 464  5178.646
 465  5143.304
 466  5265.817
 467  5596.727
 468  5667.678
 469  5790.478
 470  5755.786
 471  6026.939
 472  6350.286
 473  6420.267
 474  5996.704
 475  5898.54
 476  6233.076
 477  6716.764
 478  6936.118
 479  7425.101
 480  7310.498
 481  7276.265
 482  7145.438
 483  7435.801
 484  7319.965
 485  6855.572
 486  7693.42
 487  7539.885
 488  7404.446
 489  7718.796
 490  7709.45
 491  7934.195
 492  7133.166
 493  6857.104
 494  7240.528
 495  7340.094
 496  7296.458
 497  6926.313
 498  6570.805
 499  6878.114
 500  6810.419
 501  6708.26
 502  6376.137
 503  6133.641
 504  5764.034
 505  5974.004
 506  5900.133
 507  5654.063
 508  5732.938
 509  5990.713
 510  5778.281
 511  5764.73
