# Input file       =  1204204392.112733_cleaned.dat
# Candidate        =  PSR_0332+5434
# Telescope        =  AR
# Epoch_topo       =  58181.551054545518
# Epoch_bary       =  N/A
# T_sample         =  0.002
# Data Folded      =  7340032
# Data Avg         =  0.386745751738739
# Data StdDev      =  8.04898837244082 
# Profile Bins     =  512
# Profile Avg      =  5544.49950907291 
# Profile StdDev   =  963.729817593625 
# Reduced chi-sqr  =  1.834
# Prob(Noise)      <  1.72e-27   (~10.8 sigma)
# P_topo (ms)      =  714.580085700851  +/- 0.000174
# P'_topo (s/s)    =  -0                +/- 9.18e-11
# P''_topo (s/s^2) =  0                 +/- 4.05e-14
# P_bary (ms)      =  N/A
# P'_bary (s/s)    =  N/A
# P''_bary (s/s^2) =  N/A
# P_orb (s)        =  N/A
# asin(i)/c (s)    =  N/A
# eccentricity     =  N/A
# w (rad)          =  N/A
# T_peri           =  N/A
######################################################
   0  5529.399
   1  5579.57
   2  5638.816
   3  5733.361
   4  5571.021
   5  5945.805
   6  6299.179
   7  6166.113
   8  5912.804
   9  6115.589
  10  6230.268
  11  6294.292
  12  6215.438
  13  6061.831
  14  5696.246
  15  5660.397
  16  5864.531
  17  6383.872
  18  5921.218
  19  5862.582
  20  5813.876
  21  5501.992
  22  5641.087
  23  5450.87
  24  5404.367
  25  5281.758
  26  4907.586
  27  4807.672
  28  4772.627
  29  5021.258
  30  5113.827
  31  4991.495
  32  4926.831
  33  5115.408
  34  5124.149
  35  5079.073
  36  4957.584
  37  5192.768
  38  5429.438
  39  4703.347
  40  4855.514
  41  4778.23
  42  4847.128
  43  4797.85
  44  4739.777
  45  4372.426
  46  4035.664
  47  4569.832
  48  5058.686
  49  4961.419
  50  4615.786
  51  4617.783
  52  4856.247
  53  5050.67
  54  4986.345
  55  4892.81
  56  4790.758
  57  4961.582
  58  4574.009
  59  4226.467
  60  4048.532
  61  4155.6
  62  4237.167
  63  4264.503
  64  4478.862
  65  4052.473
  66  4176.619
  67  4651.694
  68  5129.947
  69  4810.559
  70  5130.052
  71  5428.559
  72  5231.652
  73  5008.373
  74  5074.361
  75  5222.456
  76  5267.456
  77  5708.995
  78  6178.596
  79  5643.981
  80  5503.101
  81  5839.048
  82  6075.989
  83  5971.749
  84  6107.986
  85  6136.285
  86  6011.194
  87  6395.063
  88  6382.688
  89  6280.428
  90  6524.252
  91  6562.02
  92  6243.959
  93  6145.575
  94  5833.659
  95  5588.406
  96  6111.609
  97  6051.966
  98  6166.68
  99  5861.796
 100  5736.197
 101  5513.796
 102  5643.529
 103  5508.144
 104  5287.678
 105  4630.473
 106  4995.974
 107  4502.704
 108  4502.305
 109  4651.343
 110  4473.314
 111  4030.119
 112  4041.999
 113  4518.333
 114  4719.54
 115  4406.169
 116  4188.582
 117  4146.72
 118  3982.661
 119  4182.473
 120  4180.26
 121  4385.449
 122  4279.253
 123  4062.663
 124  4029.743
 125  3818.756
 126  3982.927
 127  3834.491
 128  4003.312
 129  4192.56
 130  3846.826
 131  3840.096
 132  3550.494
 133  3725.339
 134  3950.518
 135  4122.109
 136  3863.969
 137  3736.968
 138  4063.208
 139  4131.209
 140  4080.536
 141  4617.895
 142  4230.932
 143  4077.2
 144  4467.698
 145  5124.114
 146  6021.187
 147  6138.731
 148  6195.316
 149  6310.462
 150  6149.9
 151  6183.716
 152  6138.112
 153  6354.723
 154  6439.863
 155  6887.658
 156  7067.111
 157  7080.575
 158  6431.446
 159  6179.726
 160  6591.569
 161  6749.766
 162  6618.091
 163  6195.259
 164  6590.887
 165  6693.58
 166  6523.047
 167  6584.517
 168  6430.241
 169  6302.746
 170  6378.363
 171  6538.104
 172  6501.204
 173  6218.899
 174  5898.844
 175  5508.145
 176  5354.363
 177  6045.411
 178  6106.164
 179  5740.921
 180  5618.149
 181  5456.806
 182  5216.553
 183  4829.922
 184  4416.997
 185  4739.274
 186  4539.004
 187  4941.273
 188  4684.762
 189  4470.348
 190  4075.285
 191  4478.603
 192  4928.574
 193  4584.156
 194  5152.723
 195  5629.773
 196  5818.902
 197  5792.431
 198  5742.359
 199  5004.949
 200  4368.617
 201  3768.021
 202  3821.317
 203  3950.915
 204  3888.78
 205  3985.148
 206  3916.909
 207  3646.879
 208  3693.872
 209  4041.162
 210  4350.516
 211  4579.378
 212  4631.219
 213  4427.378
 214  4764.777
 215  4647.941
 216  4978.228
 217  5295.517
 218  5238.69
 219  4923.957
 220  4872.76
 221  5010.855
 222  4979.382
 223  5493.138
 224  5748.658
 225  5843.378
 226  5791.919
 227  6087.805
 228  6041.797
 229  5926.934
 230  5493.423
 231  5489.3
 232  5742.796
 233  5906.509
 234  5876.738
 235  5866.222
 236  6034.837
 237  5911.054
 238  5930.208
 239  6513.445
 240  6439.803
 241  6246.159
 242  6469.695
 243  6465.062
 244  6429.886
 245  5888.965
 246  5544.021
 247  5434.095
 248  5722.737
 249  5849.249
 250  5930.726
 251  5885.157
 252  5460.316
 253  5527.491
 254  5408.328
 255  5144.236
 256  5099.235
 257  4843.844
 258  4671.701
 259  4641.594
 260  5024.475
 261  4879.784
 262  4474.296
 263  4333.815
 264  4558.171
 265  4295.784
 266  4044.495
 267  3978.311
 268  4505.612
 269  4329.633
 270  4086.709
 271  4296.023
 272  4246.845
 273  4260.084
 274  4034.156
 275  3718.643
 276  3758.735
 277  3940.267
 278  4012.382
 279  3609.956
 280  3940.451
 281  3947.916
 282  4284.124
 283  4409.75
 284  4487.899
 285  4729.047
 286  4638.38
 287  4388.974
 288  4554.389
 289  4799.947
 290  5196.953
 291  5426.84
 292  5259.038
 293  5291.207
 294  5121.27
 295  5811.913
 296  6029.334
 297  6416.604
 298  6532.65
 299  6660.453
 300  6191.52
 301  6210.09
 302  6473.786
 303  6454.583
 304  6493.75
 305  7178.155
 306  7371.928
 307  7473.05
 308  7188.289
 309  7482.236
 310  7268.668
 311  7042.935
 312  7297.441
 313  7123.332
 314  7366.915
 315  7405.08
 316  7140.589
 317  6801.516
 318  6786.198
 319  7298.577
 320  7131.051
 321  6680.378
 322  6672.824
 323  6301.672
 324  6450.216
 325  6351.248
 326  6278.149
 327  6078.712
 328  5991.667
 329  6040.543
 330  5920.434
 331  5844.95
 332  5386.475
 333  4792.898
 334  4803.111
 335  5450.169
 336  5215.934
 337  4917.101
 338  5071.273
 339  5417.921
 340  5232.333
 341  4962.663
 342  5149.272
 343  5268.896
 344  5243.338
 345  5098.414
 346  5084.129
 347  4875.93
 348  4855.033
 349  4947.353
 350  4990.973
 351  4723.659
 352  4942.279
 353  5459.252
 354  5576.1
 355  5086.44
 356  5061.566
 357  5126.934
 358  5208.044
 359  5350.337
 360  5752.003
 361  5671.5
 362  5848.257
 363  5837.585
 364  6223.161
 365  6338.945
 366  6302.827
 367  5864.172
 368  6047.426
 369  6471.531
 370  6785.852
 371  7285.181
 372  7322.653
 373  7340.205
 374  7235.095
 375  7200.841
 376  7545.896
 377  6867.397
 378  7274.303
 379  7763.848
 380  7398.282
 381  7516.549
 382  7765.878
 383  7871.049
 384  7624.726
 385  6823.965
 386  7082.062
 387  7300.22
 388  7349.912
 389  7150.332
 390  6678.124
 391  6608.994
 392  7001.186
 393  6735.845
 394  6583.199
 395  6243.214
 396  5854.697
 397  5874.591
 398  5965.717
 399  5826.04
 400  5585.667
 401  5988.852
 402  5813.353
 403  5734.494
 404  5835.609
 405  5772.933
 406  5650.293
 407  5993.092
 408  5832.881
 409  5665.371
 410  5889.811
 411  5861.637
 412  5566.162
 413  5981.787
 414  5982.592
 415  5836.493
 416  6013.195
 417  6730.03
 418  6288.249
 419  5790.171
 420  5167.135
 421  5264.578
 422  5261.181
 423  5594.659
 424  5971.795
 425  6262.415
 426  6331.737
 427  5712.384
 428  5348.914
 429  5003.104
 430  4971.266
 431  5520.448
 432  5686.942
 433  5219.371
 434  5064.023
 435  5358.495
 436  5657.528
 437  5658.74
 438  5816.718
 439  6043.552
 440  6416.309
 441  6412.171
 442  6580.127
 443  6385.505
 444  6566.855
 445  7044.738
 446  7202.872
 447  7393.715
 448  7158.601
 449  6972.654
 450  6925.179
 451  6887.886
 452  7077.145
 453  7206.133
 454  7390.211
 455  7639.95
 456  7539.048
 457  7165.904
 458  7108.832
 459  6812.826
 460  6630.195
 461  6390.727
 462  6370.602
 463  6115.816
 464  6063.571
 465  6378.413
 466  6196.426
 467  6006.421
 468  5652.572
 469  5406.203
 470  5957.391
 471  5986.37
 472  6140.843
 473  5802.496
 474  5462.935
 475  5479.718
 476  5133.996
 477  5597.401
 478  5790.538
 479  5623.444
 480  5691.239
 481  5719.442
 482  5516.285
 483  5488.942
 484  5391.409
 485  5657.692
 486  5739.344
 487  5792.855
 488  5604.301
 489  5730.004
 490  5878.713
 491  5814.411
 492  5612.104
 493  5373.663
 494  4984.913
 495  4483.64
 496  4568.7
 497  4884.357
 498  5035.053
 499  5114.207
 500  4975.263
 501  4824.263
 502  5316.427
 503  4813.809
 504  5132.843
 505  4999.025
 506  5070.805
 507  5339.474
 508  5401.8
 509  5706.997
 510  5484.559
 511  5284.975
