# Input file       =  1204979731.107805_cleaned.dat
# Candidate        =  PSR_0332+5434
# Telescope        =  AR
# Epoch_topo       =  58190.524885507002
# Epoch_bary       =  N/A
# T_sample         =  0.002
# Data Folded      =  7340032
# Data Avg         =  0.103658661206802
# Data StdDev      =  6.9193395579163  
# Profile Bins     =  512
# Profile Avg      =  1486.10890420006 
# Profile StdDev   =  828.473534991189 
# Reduced chi-sqr  =  0.532
# Prob(Noise)      <  1   (~0.0 sigma)
# P_topo (ms)      =  714.578065230522  +/- 0.00197
# P'_topo (s/s)    =  -0                +/- 1.04e-09
# P''_topo (s/s^2) =  0                 +/- 4.6e-13
# P_bary (ms)      =  N/A
# P'_bary (s/s)    =  N/A
# P''_bary (s/s^2) =  N/A
# P_orb (s)        =  N/A
# asin(i)/c (s)    =  N/A
# eccentricity     =  N/A
# w (rad)          =  N/A
# T_peri           =  N/A
######################################################
   0  2114.668
   1  1910.667
   2  1993.063
   3  2078.223
   4  2094.372
   5  1680.705
   6  1292.971
   7  1611.539
   8  1984.582
   9  2155.669
  10  1890.35
  11  1802.532
  12  1673.361
  13  1567.545
  14  1315.301
  15  1569.476
  16  1378.785
  17  1682.205
  18  1384.079
  19  1148.537
  20  1307.954
  21  1159.047
  22  845.1652
  23  922.4313
  24  937.4243
  25  1120.561
  26  764.9542
  27  828.1458
  28  964.9823
  29  900.9408
  30  1342.311
  31  1224.351
  32  1425.041
  33  1398.367
  34  1416.49
  35  1607.838
  36  1581.382
  37  1326.774
  38  1251.858
  39  853.3859
  40  977.9398
  41  1333.123
  42  1540.035
  43  1446.245
  44  1609.206
  45  1585.662
  46  1755.842
  47  1759.405
  48  1767.461
  49  1595.967
  50  2063.519
  51  2487.187
  52  2167.528
  53  1492.698
  54  1366.349
  55  1512.886
  56  1832.926
  57  2053.624
  58  1772.328
  59  1821.147
  60  1724.248
  61  1379.771
  62  1291.267
  63  1403.112
  64  2095.216
  65  1976.054
  66  2249.927
  67  2047.706
  68  1999.556
  69  2194.091
  70  2531.297
  71  2683.435
  72  2145.434
  73  1992.158
  74  2014.766
  75  2029.299
  76  2559.587
  77  2607.336
  78  2467.477
  79  2536.43
  80  2329.972
  81  2087.852
  82  2044.205
  83  2188.38
  84  1876.448
  85  2004.935
  86  1913.331
  87  1912.734
  88  2157.932
  89  2203.823
  90  2196.391
  91  2124.768
  92  2360.779
  93  2391.742
  94  1886.039
  95  1677.487
  96  1980.087
  97  2203.001
  98  2045.245
  99  2196.495
 100  1989.088
 101  2153.333
 102  1996.106
 103  2101.514
 104  1903.259
 105  2207.364
 106  2084.424
 107  2142.215
 108  2066.009
 109  2176.283
 110  1852.94
 111  2224.741
 112  2268.157
 113  1740.677
 114  1340.972
 115  1490.448
 116  1377.684
 117  1464.921
 118  1897.426
 119  1719.51
 120  1271.902
 121  1657.739
 122  2000.134
 123  1739.555
 124  1765.196
 125  2249.858
 126  1731.224
 127  1627.063
 128  1734.328
 129  1433.361
 130  1839.267
 131  1857.118
 132  1964.128
 133  1734.846
 134  1921.379
 135  1683.26
 136  2136.937
 137  2299.676
 138  2330.331
 139  2147.895
 140  1967.545
 141  2045.349
 142  1792.458
 143  1669.646
 144  1699.694
 145  1578.824
 146  1669.312
 147  1518.985
 148  1370.2
 149  1163.561
 150  1197.505
 151  1297.632
 152  1438.975
 153  1264.477
 154  1606.987
 155  1679.696
 156  1550.38
 157  1231.66
 158  1116.883
 159  735.8468
 160  1364.36
 161  1007.067
 162  939.8894
 163  852.731
 164  906.9662
 165  1109.67
 166  1336.131
 167  1131.113
 168  953.7745
 169  1414.019
 170  1138.218
 171  875.5043
 172  942.4636
 173  1124.944
 174  1203.058
 175  1632.745
 176  1850.643
 177  1145.385
 178  859.0823
 179  1237.383
 180  1293.16
 181  1283.122
 182  1043.348
 183  1101.168
 184  1216.177
 185  1555.967
 186  1491.221
 187  1608.515
 188  1419.465
 189  1414.019
 190  1590.486
 191  1533.68
 192  1451.987
 193  1764.186
 194  1656.344
 195  1541.08
 196  1390.184
 197  1667.71
 198  1295.521
 199  1337.286
 200  1836.104
 201  1774.62
 202  1145.732
 203  1519.01
 204  1310.833
 205  1065.065
 206  991.8269
 207  1220.104
 208  1442.843
 209  1106.14
 210  995.5444
 211  928.7502
 212  767.722
 213  941.605
 214  1025.399
 215  1167.276
 216  963.7969
 217  663.8206
 218  522.399
 219  421.469
 220  892.6104
 221  712.4684
 222  902.3138
 223  798.42
 224  973.6508
 225  1129.658
 226  1357.553
 227  1302.714
 228  926.5391
 229  1074.327
 230  1123.439
 231  997.6081
 232  1379.282
 233  1632.334
 234  1179.389
 235  854.6209
 236  1259.328
 237  1225.703
 238  1317.332
 239  1714.376
 240  1790.439
 241  1301.701
 242  928.0834
 243  911.326
 244  837.473
 245  930.0668
 246  928.9284
 247  1210.845
 248  848.5824
 249  663.6024
 250  1246.129
 251  1276.044
 252  907.2374
 253  669.0914
 254  658.3253
 255  1234.024
 256  1192.278
 257  1371.863
 258  1749.788
 259  1461.709
 260  1399.13
 261  1603.507
 262  1507.649
 263  1211.418
 264  1179.097
 265  1352.323
 266  1597.079
 267  1769.86
 268  1356.651
 269  1132.341
 270  1392.271
 271  1767.684
 272  1161.527
 273  1095.412
 274  1220.655
 275  1081.168
 276  811.3771
 277  706.8623
 278  763.2356
 279  1221.198
 280  1730.435
 281  1590.271
 282  1075.972
 283  864.6311
 284  1112.173
 285  1045.373
 286  916.2655
 287  974.2305
 288  916.3342
 289  934.863
 290  1197.837
 291  1536.018
 292  1718.63
 293  1815.097
 294  1578.163
 295  1550.447
 296  1303.809
 297  1455.185
 298  1437.421
 299  1548.695
 300  1409.097
 301  1751.056
 302  2331.193
 303  2414.077
 304  2553.89
 305  2336.029
 306  1807.744
 307  1637.93
 308  1330.9
 309  1560.483
 310  1108.637
 311  845.6057
 312  1188.949
 313  1162.302
 314  1258.589
 315  1111.635
 316  1361.609
 317  1490.518
 318  1281.134
 319  939.2264
 320  1099.17
 321  986.3608
 322  911.5231
 323  1196.178
 324  1479.124
 325  1241.221
 326  1078.354
 327  1441.143
 328  1512.224
 329  1137.053
 330  1031.743
 331  1134.754
 332  1010.434
 333  1567.789
 334  1829.263
 335  1969.586
 336  1735.697
 337  1633.8
 338  1445.846
 339  1330.836
 340  1142.209
 341  936.1639
 342  1280.026
 343  1140.906
 344  1015.411
 345  954.6277
 346  760.2691
 347  744.4916
 348  944.8533
 349  995.4061
 350  904.8255
 351  876.0341
 352  1362.766
 353  1353.993
 354  1076.041
 355  839.2037
 356  797.7302
 357  915.1683
 358  1635.565
 359  1426.426
 360  1222.417
 361  1152.931
 362  1219.728
 363  1108.18
 364  1315.738
 365  1557.692
 366  1733.916
 367  1336.256
 368  1109.691
 369  1291.001
 370  1205.776
 371  1217.391
 372  1505.006
 373  1363.643
 374  1128.375
 375  1151.854
 376  1323.386
 377  1113.182
 378  1265.686
 379  1444.835
 380  1478.758
 381  1499.541
 382  1245.59
 383  1655.044
 384  1179.144
 385  745.0643
 386  552.8887
 387  621.5505
 388  913.5812
 389  1105.562
 390  1030.118
 391  1225.399
 392  1097.381
 393  974.8755
 394  1013.213
 395  771.8825
 396  1482.914
 397  1377.983
 398  1371.59
 399  1183.747
 400  1146.196
 401  1288.732
 402  1330.629
 403  1225.354
 404  1412.901
 405  1349.113
 406  1171.786
 407  1188.717
 408  1206
 409  1363.633
 410  1478.892
 411  1618.073
 412  1528.075
 413  1480.04
 414  1805.214
 415  1699.859
 416  1402.09
 417  1464.772
 418  1629.418
 419  1581.132
 420  1796.4
 421  1646.096
 422  1450.117
 423  544.7702
 424  394.4001
 425  1064.591
 426  1158.431
 427  1153.236
 428  1316.284
 429  1653.396
 430  1402.953
 431  1307.928
 432  1539.644
 433  1700.38
 434  1713.946
 435  1328.606
 436  1218.785
 437  1022.27
 438  1128.052
 439  1004.111
 440  1458.638
 441  1526.595
 442  1586.057
 443  1231.701
 444  1288.809
 445  1703.248
 446  1373.954
 447  1644.496
 448  1382.428
 449  1805.01
 450  1740.595
 451  1418.754
 452  1518.925
 453  2003.542
 454  1824.683
 455  1336.699
 456  1692.83
 457  1744.834
 458  1281.759
 459  1425.142
 460  1751.639
 461  1756.59
 462  1431.236
 463  1622.725
 464  2000.187
 465  1889.272
 466  1484.898
 467  1893.518
 468  2358.459
 469  2179.383
 470  2350.082
 471  2227.218
 472  2240.686
 473  2489.578
 474  2101.601
 475  2027.109
 476  2596.329
 477  2134.509
 478  2119.863
 479  1624.423
 480  1865.225
 481  1844.358
 482  1923.093
 483  1959.982
 484  2016.774
 485  1967.524
 486  2114.59
 487  1999.806
 488  1707.498
 489  1672.731
 490  1736.73
 491  1959.546
 492  1827.58
 493  1957.189
 494  1852.064
 495  1564.126
 496  1666.498
 497  1647.87
 498  1330.097
 499  1262.52
 500  1689.044
 501  1693.393
 502  1731.244
 503  1611.258
 504  1593.084
 505  1747.239
 506  2118.266
 507  2149.083
 508  2251.221
 509  2181.718
 510  2021.694
 511  1924.215
