# Input file       =  1204103553.100353_cleaned.dat
# Candidate        =  PSR_0332+5434
# Telescope        =  AR
# Epoch_topo       =  58180.383936346676
# Epoch_bary       =  N/A
# T_sample         =  0.002
# Data Folded      =  7208960
# Data Avg         =  0.0624533114572326
# Data StdDev      =  1.00001551922844 
# Profile Bins     =  512
# Profile Avg      =  879.401214644959 
# Profile StdDev   =  118.661017292386 
# Reduced chi-sqr  =  3.266
# Prob(Noise)      <  8.64e-123   (~23.5 sigma)
# P_topo (ms)      =  714.580233072163  +/- 2.58e-05
# P'_topo (s/s)    =  -0                +/- 1.39e-11
# P''_topo (s/s^2) =  0                 +/- 6.24e-15
# P_bary (ms)      =  N/A
# P'_bary (s/s)    =  N/A
# P''_bary (s/s^2) =  N/A
# P_orb (s)        =  N/A
# asin(i)/c (s)    =  N/A
# eccentricity     =  N/A
# w (rad)          =  N/A
# T_peri           =  N/A
######################################################
   0  938.678
   1  924.9818
   2  999.5983
   3  1169.207
   4  1174.238
   5  1003.494
   6  928.8896
   7  978.8839
   8  924.2337
   9  1020.193
  10  1121.832
  11  1119.758
  12  1203.851
  13  1126.174
  14  1062.013
  15  985.2219
  16  1042.014
  17  1089.008
  18  1046.352
  19  986.7822
  20  1063.627
  21  1109.557
  22  1068.363
  23  924.0751
  24  1070.554
  25  1044.538
  26  1184.081
  27  1313.997
  28  1352.286
  29  1349.674
  30  1186.66
  31  1152.286
  32  1151.572
  33  1095.67
  34  1081.763
  35  997.4819
  36  1102.142
  37  1271.664
  38  1111.309
  39  1053.614
  40  1076.165
  41  1053.844
  42  1059.094
  43  1151.203
  44  1211.585
  45  1286.865
  46  1303.797
  47  1163.155
  48  1007.437
  49  965.5274
  50  1133.47
  51  1243.865
  52  1329.918
  53  1254.418
  54  1095.946
  55  950.3322
  56  993.4358
  57  981.4396
  58  1066.375
  59  1083.591
  60  1135.215
  61  1280.331
  62  1266.905
  63  1027.765
  64  1026.828
  65  1055.547
  66  1017.898
  67  1041.649
  68  1012.715
  69  1116.865
  70  1236.645
  71  1211.211
  72  1022.632
  73  933.2277
  74  982.8326
  75  1076.794
  76  1141.88
  77  1196.587
  78  1284.953
  79  1254.034
  80  1067.425
  81  1004.454
  82  912.8132
  83  994.3177
  84  960.6565
  85  1050.717
  86  1061.123
  87  1009.417
  88  967.8145
  89  963.571
  90  1008.414
  91  977.1965
  92  1009.044
  93  1108.009
  94  1234.824
  95  1234.953
  96  1129.671
  97  955.9609
  98  895.8294
  99  958.8418
 100  958.7925
 101  1023.96
 102  1112.98
 103  1011.048
 104  820.7047
 105  894.4766
 106  974.0123
 107  996.2532
 108  1021.454
 109  1038.333
 110  1051.888
 111  1043.855
 112  943.3277
 113  954.2118
 114  830.7138
 115  789.0772
 116  843.448
 117  804.689
 118  886.1582
 119  1005.827
 120  964.9853
 121  869.8617
 122  777.1303
 123  830.1396
 124  832.8626
 125  882.7426
 126  940.7465
 127  946.6104
 128  957.4169
 129  888.5502
 130  767.4249
 131  783.5095
 132  826.6105
 133  934.7094
 134  939.3591
 135  912.8755
 136  892.5872
 137  936.3502
 138  732.2955
 139  666.0144
 140  675.6735
 141  742.7247
 142  951.238
 143  1011.627
 144  986.4125
 145  1042.798
 146  889.7009
 147  730.4946
 148  711.7951
 149  746.7717
 150  750.8171
 151  800.0628
 152  884.7058
 153  908.6953
 154  850.5483
 155  750.9844
 156  835.3885
 157  760.5814
 158  971.3294
 159  981.0265
 160  946.0938
 161  897.3535
 162  843.1008
 163  750.5801
 164  847.3737
 165  870.2166
 166  941.2953
 167  1039.103
 168  1066.821
 169  1050.061
 170  912.1277
 171  846.4522
 172  797.5561
 173  836.2632
 174  876.1198
 175  928.952
 176  1007.649
 177  1019.384
 178  957.5775
 179  770.0703
 180  809.1628
 181  749.7571
 182  750.906
 183  840.0461
 184  927.8079
 185  942.9576
 186  929.212
 187  793.4193
 188  731.153
 189  729.9734
 190  779.2347
 191  836.552
 192  876.3417
 193  974.1316
 194  1033.164
 195  836.386
 196  829.1943
 197  851.4233
 198  811.0185
 199  745.4351
 200  765.141
 201  839.3353
 202  999.5892
 203  848.4056
 204  845.6025
 205  819.2454
 206  757.3961
 207  798.507
 208  891.2034
 209  883.8439
 210  887.96
 211  880.7891
 212  920.9586
 213  820.5181
 214  702.0804
 215  700.8983
 216  845.2099
 217  753.0061
 218  804.7965
 219  850.9055
 220  746.5551
 221  632.3306
 222  640.7711
 223  723.9366
 224  801.1899
 225  848.1265
 226  906.0931
 227  849.4216
 228  743.9351
 229  704.3663
 230  676.1745
 231  614.5572
 232  681.3566
 233  838.246
 234  905.0876
 235  893.7462
 236  665.594
 237  617.0455
 238  654.4109
 239  773.5342
 240  875.8204
 241  893.9653
 242  1003.684
 243  1060.732
 244  990.4742
 245  865.1941
 246  751.1838
 247  795.0485
 248  852.9673
 249  799.6675
 250  769.5735
 251  810.2884
 252  916.1435
 253  883.7948
 254  703.9325
 255  729.4487
 256  723.3657
 257  680.2628
 258  733.3011
 259  912.1316
 260  976.3478
 261  782.1411
 262  767.0292
 263  695.0295
 264  688.0296
 265  666.9177
 266  759.6597
 267  795.4553
 268  799.7715
 269  806.5442
 270  762.6621
 271  746.0991
 272  765.8471
 273  697.8564
 274  728.4187
 275  854.3565
 276  922.8596
 277  893.3365
 278  749.1314
 279  550.1913
 280  538.7914
 281  685.9829
 282  638.1085
 283  694.7829
 284  856.2363
 285  801.1198
 286  754.8029
 287  601.746
 288  601.7189
 289  686.6736
 290  718.8411
 291  832.18
 292  862.5555
 293  896.2955
 294  796.8472
 295  701.1631
 296  645.9218
 297  765.2629
 298  781.8393
 299  839.2109
 300  869.6377
 301  804.2471
 302  879.3253
 303  815.2629
 304  734.257
 305  797.7025
 306  817.8635
 307  886.4674
 308  996.9559
 309  978.2354
 310  965.9661
 311  912.2632
 312  778.4037
 313  738.0886
 314  811.7277
 315  848.2816
 316  942.3211
 317  929.5893
 318  834.9471
 319  711.7341
 320  638.9444
 321  629.1832
 322  666.4017
 323  704.1206
 324  775.7322
 325  859.8408
 326  891.4791
 327  769.8344
 328  742.2178
 329  666.8535
 330  660.8616
 331  687.1156
 332  716.0753
 333  782.0374
 334  846.5662
 335  794.6136
 336  719.6076
 337  609.8192
 338  731.7996
 339  851.7931
 340  773.1862
 341  886.7234
 342  901.6541
 343  876.8184
 344  781.3607
 345  781.7156
 346  755.1731
 347  657.3859
 348  664.1715
 349  790.7181
 350  789.7479
 351  730.5007
 352  680.8149
 353  584.6778
 354  658.0087
 355  703.1179
 356  648.3356
 357  653.0026
 358  812.7008
 359  864.8028
 360  827.0185
 361  701.0587
 362  532.7944
 363  604.0086
 364  599.8639
 365  631.9765
 366  687.0164
 367  792.0298
 368  764.2913
 369  695.701
 370  600.396
 371  601.9188
 372  711.0905
 373  753.4965
 374  810.5054
 375  883.3525
 376  878.3011
 377  782.0002
 378  664.4501
 379  648.1439
 380  613.8093
 381  699.2467
 382  860.0153
 383  847.5982
 384  908.5408
 385  793.6524
 386  593.6053
 387  620.5818
 388  726.9701
 389  873.6702
 390  866.9911
 391  876.675
 392  876.191
 393  864.3223
 394  645.728
 395  646.3737
 396  713.1294
 397  865.5212
 398  1086.968
 399  1231.291
 400  1247.162
 401  1099.003
 402  870.3424
 403  765.5161
 404  671.4339
 405  684.2179
 406  820.4811
 407  908.8052
 408  892.1993
 409  934.9964
 410  904.15
 411  773.0901
 412  763.6273
 413  820.3832
 414  750.2574
 415  802.3229
 416  831.9165
 417  837.784
 418  720.7133
 419  651.6445
 420  661.5759
 421  839.4095
 422  858.7502
 423  916.671
 424  990.7454
 425  1015.848
 426  838.4764
 427  651.1905
 428  697.1559
 429  655.3985
 430  626.9193
 431  751.1407
 432  914.0673
 433  981.8951
 434  894.3336
 435  785.562
 436  855.619
 437  783.8126
 438  815.5873
 439  842.6033
 440  866.4719
 441  868.7676
 442  971.8139
 443  968.6092
 444  843.6337
 445  920.0683
 446  912.3755
 447  917.7905
 448  926.6752
 449  899.4353
 450  897.9788
 451  857.0633
 452  950.4587
 453  930.2645
 454  807.8553
 455  949.7833
 456  1029.221
 457  1083.891
 458  950.8117
 459  887.2868
 460  781.3815
 461  794.0719
 462  742.8635
 463  784.809
 464  882.2792
 465  971.3342
 466  1038.559
 467  1064.111
 468  993.804
 469  903.987
 470  779.2972
 471  873.5767
 472  877.6908
 473  920.4316
 474  1065.734
 475  907.7372
 476  932.9617
 477  863.2473
 478  830.5398
 479  939.7701
 480  889.1808
 481  942.7113
 482  874.5029
 483  857.6371
 484  869.955
 485  816.692
 486  782.1039
 487  805.9847
 488  834.2743
 489  879.2875
 490  966.5977
 491  944.7335
 492  847.8615
 493  806.7888
 494  783.2433
 495  730.3267
 496  712.3963
 497  847.4719
 498  912.4772
 499  1095.532
 500  1004.236
 501  851.588
 502  754.5772
 503  800.05
 504  786.6864
 505  843.028
 506  918.3752
 507  1027.056
 508  1092.739
 509  1040.328
 510  926.3564
 511  907.5557
