# Input file       =  1204204392.112733_cleaned.dat
# Candidate        =  PSR_0332+5434
# Telescope        =  AR
# Epoch_topo       =  58181.551054545518
# Epoch_bary       =  N/A
# T_sample         =  0.002
# Data Folded      =  7340032
# Data Avg         =  0.386745751738739
# Data StdDev      =  8.04898837244082 
# Profile Bins     =  1024
# Profile Avg      =  2772.24975453645 
# Profile StdDev   =  681.459889252126 
# Reduced chi-sqr  =  1.585
# Prob(Noise)      <  6.74e-30   (~11.3 sigma)
# P_topo (ms)      =  714.580085700851  +/- 0.000174
# P'_topo (s/s)    =  -0                +/- 9.18e-11
# P''_topo (s/s^2) =  0                 +/- 4.05e-14
# P_bary (ms)      =  N/A
# P'_bary (s/s)    =  N/A
# P''_bary (s/s^2) =  N/A
# P_orb (s)        =  N/A
# asin(i)/c (s)    =  N/A
# eccentricity     =  N/A
# w (rad)          =  N/A
# T_peri           =  N/A
######################################################
   0  2879.48
   1  2922.521
   2  2791.199
   3  2844.191
   4  2873.829
   5  2991.197
   6  3053.164
   7  2917.267
   8  2789.418
   9  2854.603
  10  2904.61
  11  2949.558
  12  2956.531
  13  2978.344
  14  2764.408
  15  2759.888
  16  2877.49
  17  3030.866
  18  3012.603
  19  3006.017
  20  2930.038
  21  2889.234
  22  2963.405
  23  2975.089
  24  3170.447
  25  3399.665
  26  3363.887
  27  3165.152
  28  2950.949
  29  2946.693
  30  2696.761
  31  2580.019
  32  2579.631
  33  2671.419
  34  2559.113
  35  2623.392
  36  2723.29
  37  2777.363
  38  2897.357
  39  2969.895
  40  3153.726
  41  3151.592
  42  3071.485
  43  3214.722
  44  3071.921
  45  2888.179
  46  2623.253
  47  2688.294
  48  2633.543
  49  2464.102
  50  2524.871
  51  2452.279
  52  2564.092
  53  2751.99
  54  2973.147
  55  2844.465
  56  2645.968
  57  2629.366
  58  2536.428
  59  2546.128
  60  2520.383
  61  2688.869
  62  2843.885
  63  2803.679
  64  2809.406
  65  2783.607
  66  2929.584
  67  2910.692
  68  2895.972
  69  3036.341
  70  3172.804
  71  3250.965
  72  3133.788
  73  3215.098
  74  3262.638
  75  3311.481
  76  3225.007
  77  3202.459
  78  3164.165
  79  3255.343
  80  3472.306
  81  3526.504
  82  3533.795
  83  3579.766
  84  3721.352
  85  3680.563
  86  3648.064
  87  3560.536
  88  3576.153
  89  3477.55
  90  3474.522
  91  3439.303
  92  3474.779
  93  3442.878
  94  3428.695
  95  3542.149
  96  3597.764
  97  3606.499
  98  3613.564
  99  3696.879
 100  3786.558
 101  3820.964
 102  3820.023
 103  3781.434
 104  3668.669
 105  3594.282
 106  3548.639
 107  3590.497
 108  3435.135
 109  3434.672
 110  3363.039
 111  3326.32
 112  3238.429
 113  3178.44
 114  3177.865
 115  3205.334
 116  3138.744
 117  3052.233
 118  3040.73
 119  3051.196
 120  3026.905
 121  3234.126
 122  3179.051
 123  3116.97
 124  2986.494
 125  3008.174
 126  2985.462
 127  2784.673
 128  2767.466
 129  2644.418
 130  2861.202
 131  2937.645
 132  3077.395
 133  2971.379
 134  3006.552
 135  3071.443
 136  3072.886
 137  2911.478
 138  2760.652
 139  2723.641
 140  2740.615
 141  2793.969
 142  2582.822
 143  2566.691
 144  2640.552
 145  2815.975
 146  2867.333
 147  2925.389
 148  2856.711
 149  2776.981
 150  2794.826
 151  2832.458
 152  2894.043
 153  2889.806
 154  2761.923
 155  2748.559
 156  2829.218
 157  2727.684
 158  2662.737
 159  2665.035
 160  2776.8
 161  2839.305
 162  2902.162
 163  2842.442
 164  2899.487
 165  2899.245
 166  2799.814
 167  2812.75
 168  2860.946
 169  2843.229
 170  2923.784
 171  2926.919
 172  2937.165
 173  2942.802
 174  2799.614
 175  2848.638
 176  2749.554
 177  2688.012
 178  2616.048
 179  2482.658
 180  2373.366
 181  2242.87
 182  2153.434
 183  2346.925
 184  2294.676
 185  2490.766
 186  2482.5
 187  2502.334
 188  2550.677
 189  2582.826
 190  2539.545
 191  2522.954
 192  2344.721
 193  2380.236
 194  2585.329
 195  2738.538
 196  2455.957
 197  2417.641
 198  2492.215
 199  2618.587
 200  2478.609
 201  2464.098
 202  2576.001
 203  2532.673
 204  2518.21
 205  2675.199
 206  2772.771
 207  2698.172
 208  2703.835
 209  2878.846
 210  2867.154
 211  2700.291
 212  2689.425
 213  2614.761
 214  2711.09
 215  2744.468
 216  2836.414
 217  2826.267
 218  2706.914
 219  2846.512
 220  2880.714
 221  2898.043
 222  2798.17
 223  2766.44
 224  2813.396
 225  2975.532
 226  3118.918
 227  3160.703
 228  3117.61
 229  3076.141
 230  3020.884
 231  2962.294
 232  2922.349
 233  3078.535
 234  3145.736
 235  3138.152
 236  3054.598
 237  3148.268
 238  3206.445
 239  3087.234
 240  3085.396
 241  3020.445
 242  2954.533
 243  2853.565
 244  2771.957
 245  2827.978
 246  2857.104
 247  2929.228
 248  3073.244
 249  3245.528
 250  3097.721
 251  2948.469
 252  2907.109
 253  2933.052
 254  2950.633
 255  2909.726
 256  2832.544
 257  2720.107
 258  2774.377
 259  2846.097
 260  2786.408
 261  2720.133
 262  2734.801
 263  2698.385
 264  2629.748
 265  2644.069
 266  2620.382
 267  2399.418
 268  2424.804
 269  2360.203
 270  2458.577
 271  2351.172
 272  2433.246
 273  2521.5
 274  2558.73
 275  2517.097
 276  2608.052
 277  2487.221
 278  2432.225
 279  2427.22
 280  2540.035
 281  2588.523
 282  2516.388
 283  2576.399
 284  2619.978
 285  2516.598
 286  2492.096
 287  2427.852
 288  2572.254
 289  2573.137
 290  2667.966
 291  2752.416
 292  2581.927
 293  2328.671
 294  2283.296
 295  2456.95
 296  2468.467
 297  2386.438
 298  2335.779
 299  2468.304
 300  2438.786
 301  2402.593
 302  2336.605
 303  2406.285
 304  2305.52
 305  2218.202
 306  2053.365
 307  1983.637
 308  2100.45
 309  2278.678
 310  2468.42
 311  2588.76
 312  2418.129
 313  2533
 314  2405.126
 315  2320.56
 316  2213.918
 317  2261.23
 318  2472.479
 319  2415.889
 320  2492.139
 321  2511.573
 322  2525.083
 323  2471.978
 324  2500.714
 325  2424.135
 326  2442.813
 327  2369.625
 328  2453.353
 329  2496.298
 330  2401.697
 331  2290.529
 332  2176.061
 333  2128.052
 334  2032.322
 335  1983.885
 336  2118.653
 337  2057.889
 338  2082.338
 339  2118.883
 340  2133.369
 341  2105.849
 342  2215.736
 343  2236.273
 344  2156.758
 345  2019.533
 346  2018.134
 347  2088.36
 348  2141.849
 349  2306.845
 350  2550.856
 351  2566.408
 352  2494.335
 353  2364.995
 354  2456.813
 355  2562.143
 356  2693.676
 357  2698.458
 358  2723.045
 359  2608.191
 360  2501.74
 361  2511.196
 362  2499.75
 363  2538.686
 364  2561.789
 365  2627.177
 366  2640.528
 367  2611.565
 368  2720.955
 369  2826.782
 370  3052.451
 371  3137.555
 372  2952.37
 373  2849.927
 374  2712.494
 375  2725.872
 376  2837.103
 377  2934.486
 378  3016.138
 379  3038.178
 380  2987.275
 381  3009.568
 382  2923.94
 383  3046.987
 384  3177.585
 385  3072.698
 386  2988.143
 387  2985.233
 388  3079.306
 389  3225.554
 390  3214.484
 391  3203.613
 392  3137.22
 393  3151.052
 394  3161.931
 395  3308.263
 396  3267.492
 397  3292.11
 398  3239.241
 399  3101.612
 400  3046.335
 401  3051.314
 402  3105.811
 403  2937.805
 404  2762.743
 405  2778.948
 406  2901.015
 407  3097.301
 408  3023.574
 409  3025.965
 410  3035.189
 411  3084.9
 412  3098.153
 413  2894.263
 414  2892.296
 415  2857.831
 416  2850.655
 417  2731.763
 418  2766.447
 419  2838.723
 420  2788.364
 421  2724.888
 422  2793.665
 423  2677.836
 424  2360.698
 425  2297.413
 426  2440.018
 427  2515.852
 428  2418.465
 429  2257.454
 430  2156.185
 431  2261.451
 432  2265.651
 433  2356.993
 434  2314.716
 435  2253.854
 436  2126.674
 437  1981.638
 438  1992.537
 439  2009.993
 440  2088.459
 441  2287.299
 442  2366.596
 443  2369.968
 444  2274.228
 445  2204.315
 446  2147.072
 447  2095.302
 448  2072.117
 449  2108.08
 450  1976.897
 451  1968.461
 452  2102.782
 453  2073.292
 454  2054.92
 455  2039.088
 456  2265.111
 457  2176.862
 458  2146.176
 459  2118.073
 460  2185.669
 461  1995.296
 462  1979.754
 463  2014.088
 464  1955.257
 465  1932.329
 466  1890.117
 467  2035.853
 468  1944.23
 469  1916.954
 470  1896.006
 471  2015.228
 472  2140.119
 473  2127.108
 474  1969.647
 475  1919.425
 476  1912.956
 477  1957.804
 478  1814.021
 479  1760.379
 480  1802.648
 481  1853.911
 482  1935.274
 483  1972.533
 484  2025.727
 485  2098.141
 486  1993.234
 487  1945.765
 488  1877.532
 489  1857.713
 490  1885.098
 491  2042.722
 492  2155.932
 493  2067.936
 494  1966.93
 495  2003.246
 496  2232.814
 497  2345.179
 498  2235.874
 499  2131.537
 500  2007.845
 501  2047.311
 502  2101.595
 503  2222.229
 504  2353.412
 505  2527.066
 506  2847.037
 507  3031.702
 508  3075.036
 509  3031.053
 510  3103.316
 511  3080.271
 512  3121.74
 513  3179.523
 514  3151.31
 515  3070.787
 516  3019.008
 517  3136.453
 518  3096.542
 519  3042.752
 520  3090.853
 521  3158.426
 522  3264.562
 523  3193.816
 524  3302.537
 525  3468.093
 526  3498.67
 527  3551.769
 528  3561.845
 529  3556.28
 530  3422.136
 531  3195.296
 532  3084.603
 533  3094.643
 534  3147.385
 535  3356.63
 536  3292.277
 537  3386.809
 538  3387.634
 539  3341.005
 540  3136.732
 541  3088.317
 542  3191.248
 543  3277.29
 544  3344.508
 545  3360.902
 546  3337.895
 547  3240.068
 548  3211.588
 549  3329.316
 550  3292.396
 551  3228.519
 552  3092.774
 553  3182.154
 554  3148.846
 555  3170.639
 556  3281.994
 557  3281.962
 558  3260.779
 559  3266.384
 560  3192.844
 561  3155.383
 562  2962.273
 563  2981.074
 564  2826.885
 565  2758.147
 566  2678.375
 567  2647.905
 568  2836.703
 569  3043.462
 570  3120.067
 571  3091.979
 572  2877.726
 573  2857.004
 574  2896.567
 575  2810.111
 576  2725.719
 577  2716.981
 578  2702.439
 579  2592.192
 580  2548.546
 581  2430.602
 582  2264.104
 583  2170.113
 584  2272.262
 585  2404.746
 586  2341.18
 587  2273.531
 588  2312.769
 589  2523.308
 590  2419.401
 591  2311.736
 592  2351.904
 593  2205.474
 594  2128.471
 595  2008.021
 596  2084.333
 597  2205.488
 598  2459.413
 599  2480.888
 600  2382.399
 601  2237.344
 602  2377.838
 603  2586.729
 604  2746.02
 605  2801.235
 606  2872.758
 607  2911.996
 608  2896.661
 609  2867.002
 610  3008.391
 611  2872.471
 612  2669.382
 613  2494.337
 614  2391.714
 615  2212.986
 616  1960.219
 617  1858.132
 618  1882.707
 619  1932.38
 620  1898.318
 621  1986.856
 622  1985.806
 623  1946.639
 624  1907.731
 625  1978.457
 626  2064.176
 627  1948.933
 628  1885.162
 629  1798.747
 630  1807.755
 631  1832.175
 632  1960.504
 633  2015.135
 634  2079.213
 635  2190.393
 636  2265.689
 637  2276.682
 638  2300.222
 639  2348.429
 640  2233.793
 641  2195.899
 642  2313.831
 643  2376.863
 644  2405.643
 645  2292.718
 646  2353.46
 647  2502.945
 648  2526.381
 649  2669.975
 650  2692.755
 651  2650.458
 652  2499.647
 653  2503.949
 654  2402.334
 655  2424.833
 656  2499.515
 657  2514.587
 658  2455.122
 659  2475.081
 660  2622.809
 661  2773.266
 662  2813.051
 663  2848.14
 664  2909.636
 665  2928.185
 666  2910.32
 667  2877.161
 668  2946.823
 669  3030.938
 670  3157.238
 671  2994.235
 672  2977.54
 673  2967.953
 674  2882.756
 675  2741.218
 676  2638.035
 677  2764.39
 678  2845.265
 679  2881.173
 680  2915.49
 681  2958.534
 682  2932.529
 683  2957.228
 684  2870.218
 685  2913.674
 686  3088.56
 687  3011.85
 688  2953.32
 689  2953.351
 690  2935.502
 691  2946.51
 692  3123.687
 693  3264.614
 694  3265.978
 695  3226.398
 696  3180.492
 697  3096.472
 698  3130.968
 699  3250.74
 700  3262.744
 701  3254.772
 702  3195.74
 703  3258.31
 704  3098.582
 705  2971.09
 706  2783.97
 707  2776.347
 708  2729.019
 709  2690.786
 710  2805.831
 711  2855.952
 712  2890.434
 713  2928.136
 714  2938.785
 715  2990.654
 716  2968.378
 717  2949.621
 718  2831.275
 719  2697.67
 720  2751.284
 721  2756.338
 722  2766.895
 723  2707.618
 724  2632.481
 725  2571.176
 726  2546.114
 727  2564.2
 728  2497.159
 729  2421.327
 730  2361.852
 731  2327.426
 732  2325.545
 733  2312.436
 734  2394.116
 735  2518.295
 736  2546.404
 737  2416.166
 738  2373.917
 739  2214.99
 740  2160.342
 741  2144.199
 742  2274.69
 743  2307.545
 744  2158.692
 745  2132.926
 746  2172.831
 747  2019.224
 748  1934.3
 749  1937.569
 750  2171.988
 751  2264.876
 752  2265.075
 753  2146.344
 754  2058.572
 755  2022.06
 756  2140.236
 757  2132.098
 758  2112.195
 759  2091.186
 760  2206.836
 761  2112.395
 762  2084.895
 763  2027.718
 764  1951.04
 765  1841.31
 766  1820.171
 767  1860.885
 768  1945.957
 769  1966.802
 770  2072.676
 771  1991.823
 772  1850.879
 773  1797.503
 774  1886.898
 775  2013.463
 776  1930.882
 777  1996.558
 778  1985.204
 779  2182.178
 780  2202.35
 781  2214.051
 782  2180.052
 783  2231.687
 784  2318.924
 785  2381.32
 786  2380.485
 787  2297.267
 788  2269.505
 789  2167.485
 790  2243.366
 791  2244.194
 792  2351.141
 793  2384.402
 794  2515.009
 795  2565.853
 796  2729.445
 797  2683.408
 798  2725.38
 799  2611.955
 800  2644.176
 801  2636.274
 802  2629.883
 803  2499.174
 804  2671.377
 805  2896.872
 806  3067.963
 807  2980.184
 808  3094.969
 809  3178.32
 810  3305.171
 811  3249.237
 812  3282.58
 813  3345.194
 814  3307.541
 815  3101.639
 816  2941.325
 817  3132.55
 818  3193.892
 819  3221.604
 820  3299.228
 821  3197.119
 822  3238.548
 823  3193.27
 824  3375.995
 825  3599.471
 826  3706.166
 827  3651.918
 828  3747.586
 829  3757.361
 830  3654.009
 831  3544.559
 832  3706.154
 833  3761.106
 834  3696.151
 835  3668.258
 836  3535.685
 837  3514.776
 838  3555.658
 839  3663.726
 840  3639.042
 841  3561.039
 842  3549.274
 843  3679.839
 844  3783.654
 845  3733.227
 846  3584.025
 847  3610.861
 848  3446.834
 849  3419.697
 850  3356.869
 851  3377.045
 852  3489.743
 853  3659.348
 854  3713.967
 855  3554.421
 856  3398.755
 857  3316.698
 858  3397.717
 859  3335.601
 860  3200.988
 861  3119.35
 862  3227.392
 863  3253.636
 864  3164.395
 865  3170.062
 866  3196.386
 867  3141.138
 868  3065.034
 869  3039.032
 870  2999.147
 871  3025.083
 872  2949.19
 873  3017.917
 874  3070.691
 875  2951.867
 876  2898.325
 877  2936.087
 878  2920.708
 879  2678.354
 880  2461.659
 881  2415.098
 882  2350.827
 883  2369.124
 884  2556.834
 885  2735.752
 886  2787.148
 887  2577.388
 888  2452.742
 889  2462.917
 890  2508.25
 891  2498.836
 892  2664.703
 893  2735.579
 894  2665.027
 895  2616.854
 896  2567.87
 897  2486.055
 898  2454.693
 899  2583.235
 900  2627.027
 901  2635.785
 902  2627.914
 903  2636.329
 904  2589.157
 905  2534.707
 906  2529.286
 907  2563.207
 908  2530.291
 909  2409.319
 910  2403.169
 911  2412.319
 912  2489.942
 913  2463.017
 914  2499.611
 915  2527.602
 916  2410.76
 917  2364.803
 918  2297.272
 919  2471.439
 920  2652.042
 921  2731.823
 922  2789.865
 923  2789.62
 924  2695.599
 925  2521.32
 926  2493.5
 927  2481.985
 928  2645.86
 929  2531.955
 930  2579.623
 931  2609.844
 932  2631.898
 933  2660.644
 934  2812.189
 935  2872.122
 936  2844.07
 937  2818.303
 938  2897.894
 939  2951.519
 940  2843.857
 941  2935.006
 942  3000.347
 943  3131.962
 944  3155.97
 945  3171.103
 946  3230.056
 947  3176.238
 948  2970.202
 949  2926.953
 950  2937.391
 951  3049.535
 952  3088.103
 953  3237.726
 954  3375.318
 955  3367.329
 956  3461.879
 957  3672.681
 958  3720.859
 959  3656.648
 960  3613.656
 961  3720.669
 962  3623.323
 963  3620.715
 964  3547.54
 965  3595.982
 966  3745.752
 967  3795.059
 968  3682.267
 969  3386.515
 970  3405.358
 971  3638.352
 972  3855.471
 973  3900.508
 974  3766.542
 975  3702.051
 976  3715.381
 977  3690.694
 978  3924.048
 979  3873.842
 980  3837.741
 981  3922.227
 982  4002.709
 983  3848.001
 984  3558.032
 985  3364.041
 986  3417.186
 987  3546.674
 988  3638.028
 989  3656.255
 990  3646.919
 991  3700.534
 992  3626.124
 993  3601.975
 994  3437.001
 995  3349.951
 996  3298.628
 997  3270.706
 998  3460.504
 999  3511.287
1000  3383.879
1001  3410.321
1002  3337.279
1003  3282.237
1004  3186.615
1005  3120.11
1006  3084.776
1007  2914.223
1008  2820.628
1009  2990.457
1010  2977.432
1011  3007.092
1012  2938.431
1013  2915.428
1014  2833.798
1015  2758.717
1016  2895.034
1017  2966.29
1018  3033.092
1019  2902.642
1020  2905.42
1021  2848.716
1022  2850.491
1023  2960.648
