# Input file       =  1204736803.105261_cleaned.dat
# Candidate        =  PSR_0332+5434
# Telescope        =  AR
# Epoch_topo       =  58187.713218810895
# Epoch_bary       =  N/A
# T_sample         =  0.002
# Data Folded      =  7340032
# Data Avg         =  0.047585212600939
# Data StdDev      =  1.00009671975498 
# Profile Bins     =  512
# Profile Avg      =  682.08945467037  
# Profile StdDev   =  119.744616926708 
# Reduced chi-sqr  =  0.996
# Prob(Noise)      <  0.514   (~0.0 sigma)
# P_topo (ms)      =  714.579198415251  +/- 0.000496
# P'_topo (s/s)    =  -0                +/- 2.62e-10
# P''_topo (s/s^2) =  0                 +/- 1.16e-13
# P_bary (ms)      =  N/A
# P'_bary (s/s)    =  N/A
# P''_bary (s/s^2) =  N/A
# P_orb (s)        =  N/A
# asin(i)/c (s)    =  N/A
# eccentricity     =  N/A
# w (rad)          =  N/A
# T_peri           =  N/A
######################################################
   0  1166.725
   1  1098.852
   2  879.6832
   3  796.8628
   4  760.6611
   5  692.2059
   6  667.9409
   7  755.9943
   8  684.7219
   9  621.0642
  10  668.8529
  11  675.8179
  12  559.1382
  13  648.6436
  14  797.2546
  15  730.8793
  16  740.7709
  17  702.2565
  18  748.3644
  19  719.5986
  20  628.9703
  21  792.4417
  22  788.3847
  23  694.8948
  24  807.5065
  25  643.8823
  26  574.8059
  27  637.7041
  28  736.0016
  29  670.5493
  30  549.298
  31  649.185
  32  657.7287
  33  591.8187
  34  552.6823
  35  637.1915
  36  644.1846
  37  584.6087
  38  585.8497
  39  661.9799
  40  607.4067
  41  568.8748
  42  627.7341
  43  718.5541
  44  637.6822
  45  585.1312
  46  614.0676
  47  617.5451
  48  628.7844
  49  640.3838
  50  677.1683
  51  684.4445
  52  681.2124
  53  735.4722
  54  687.3365
  55  607.1751
  56  668.3253
  57  683.0938
  58  701.6411
  59  657.6401
  60  590.9625
  61  611.3367
  62  648.808
  63  772.5565
  64  712.4604
  65  736.4266
  66  712.6136
  67  615.3512
  68  801.4655
  69  738.4928
  70  744.2472
  71  689.9807
  72  572.556
  73  613.5688
  74  615.0308
  75  645.3549
  76  709.5919
  77  626.1404
  78  509.0974
  79  519.8464
  80  660.6006
  81  710.1508
  82  569.4258
  83  563.5372
  84  569.0707
  85  593.6555
  86  571.7192
  87  652.0658
  88  603.6763
  89  573.8171
  90  682.2003
  91  614.5949
  92  578.9308
  93  608.384
  94  653.0264
  95  691.2736
  96  696.1416
  97  599.0789
  98  604.5988
  99  605.5966
 100  658.3016
 101  589.4308
 102  652.9111
 103  693.8579
 104  644.1927
 105  644.4708
 106  618.4617
 107  653.6777
 108  693.9876
 109  736.1739
 110  774.4279
 111  605.2064
 112  688.361
 113  686.6215
 114  641.8286
 115  712.0813
 116  823.5362
 117  799.8716
 118  671.8604
 119  610.0037
 120  658.2772
 121  710.2831
 122  799.0195
 123  816.2487
 124  834.6149
 125  832.1658
 126  852.0048
 127  748.5231
 128  784.5319
 129  745.8069
 130  679.0548
 131  598.1022
 132  734.8008
 133  825.7615
 134  836.7496
 135  759.8989
 136  710.9722
 137  827.0342
 138  672.6407
 139  703.1437
 140  736.7626
 141  692.9504
 142  694.1888
 143  694.5941
 144  701.6229
 145  740.1233
 146  679.509
 147  708.9263
 148  518.5697
 149  571.5613
 150  578.1496
 151  633.4604
 152  671.6553
 153  678.9631
 154  680.8657
 155  623.09
 156  583.7613
 157  692.5658
 158  728.2405
 159  676.6078
 160  721.5643
 161  676.0687
 162  634.9658
 163  723.598
 164  642.6766
 165  590.1349
 166  598.5522
 167  767.3922
 168  701.3615
 169  702.4685
 170  712.2415
 171  731.853
 172  642.0514
 173  707.6392
 174  723.1826
 175  692.9844
 176  591.4183
 177  570.3676
 178  607.7592
 179  621.0455
 180  674.4316
 181  762.5196
 182  809.9215
 183  591.708
 184  707.9427
 185  778.0714
 186  728.2739
 187  729.0545
 188  781.2427
 189  787.2107
 190  839.4572
 191  728.9894
 192  735.0384
 193  775.4167
 194  762.813
 195  793.8046
 196  887.258
 197  849.3019
 198  821.8763
 199  794.1405
 200  752.4614
 201  805.3907
 202  807.4814
 203  805.2925
 204  789.0707
 205  798.1496
 206  799.9957
 207  743.2078
 208  777.345
 209  713.0668
 210  744.2313
 211  728.8546
 212  725.1195
 213  676.8046
 214  718.2228
 215  735.1158
 216  733.999
 217  805.3864
 218  832.5529
 219  698.3165
 220  773.5971
 221  789.4555
 222  713.3089
 223  777.2932
 224  741.2812
 225  740.3284
 226  738.5808
 227  717.0148
 228  729.1625
 229  744.4493
 230  704.4543
 231  710.9491
 232  705.9786
 233  797.871
 234  612.2983
 235  566.3318
 236  595.1456
 237  638.8132
 238  645.7433
 239  648.9932
 240  747.7704
 241  607.9404
 242  591.3949
 243  637.373
 244  661.1732
 245  702.7421
 246  623.9456
 247  692.6047
 248  642.0922
 249  664.7885
 250  672.282
 251  510.1849
 252  570.4662
 253  679.9294
 254  764.0832
 255  707.8903
 256  687.4661
 257  593.542
 258  718.8984
 259  681.2667
 260  659.0593
 261  592.7658
 262  521.5829
 263  628.9711
 264  621.9625
 265  456.1199
 266  626.7105
 267  609.3813
 268  658.3483
 269  755.9884
 270  791.8795
 271  762.0117
 272  760.6663
 273  745.0917
 274  689.4705
 275  662.6575
 276  678.4639
 277  787.0132
 278  813.5714
 279  699.863
 280  672.1532
 281  665.285
 282  714.0972
 283  743.8547
 284  829.2357
 285  762.5522
 286  768.2792
 287  701.8447
 288  743.2322
 289  679.4826
 290  663.7618
 291  622.8954
 292  603.7014
 293  644.847
 294  798.7875
 295  754.4117
 296  683.7911
 297  599.6259
 298  607.1089
 299  645.6412
 300  702.6051
 301  731.1425
 302  730.0759
 303  677.8525
 304  682.4232
 305  723.4312
 306  609.8898
 307  749.4684
 308  762.8408
 309  696.9972
 310  658.8256
 311  782.1349
 312  643.4867
 313  628.3957
 314  633.5434
 315  749.2737
 316  814.7468
 317  719.6648
 318  662.809
 319  778.7667
 320  678.8592
 321  667.5155
 322  650.6567
 323  763.4938
 324  696.9201
 325  607.8461
 326  540.3884
 327  609.5541
 328  695.0012
 329  556.2299
 330  564.0273
 331  552.8046
 332  529.057
 333  520.0914
 334  574.2117
 335  632.3403
 336  570.8625
 337  557.623
 338  627.5278
 339  647.862
 340  720.8483
 341  560.5385
 342  589.0919
 343  624.5655
 344  637.0601
 345  673.5273
 346  641.2648
 347  727.9352
 348  731.944
 349  608.8021
 350  693.4583
 351  681.754
 352  723.0911
 353  730.7878
 354  737.4894
 355  697.3526
 356  628.6625
 357  646.2055
 358  680.1978
 359  801.933
 360  752.2394
 361  596.8986
 362  823.6855
 363  768.4294
 364  655.7719
 365  687.7766
 366  634.1739
 367  713.2824
 368  681.8923
 369  749.5896
 370  715.644
 371  680.8399
 372  742.1735
 373  655.6886
 374  627.8936
 375  620.2886
 376  504.1011
 377  607.4316
 378  683.7599
 379  732.222
 380  776.958
 381  792.1313
 382  814.5226
 383  633.3718
 384  605.4915
 385  763.2827
 386  683.7484
 387  624.5433
 388  744.9045
 389  696.0233
 390  548.8112
 391  518.0082
 392  723.6918
 393  620.9268
 394  562.0559
 395  562.5276
 396  632.165
 397  571.1578
 398  503.3511
 399  538.2187
 400  537.1832
 401  607.6608
 402  626.4323
 403  631.4077
 404  604.4213
 405  623.2524
 406  572.6794
 407  630.9163
 408  683.6378
 409  696.006
 410  724.2179
 411  724.6166
 412  627.8427
 413  591.6651
 414  635.2324
 415  627.847
 416  791.4891
 417  753.7682
 418  740.0353
 419  809.7877
 420  721.4977
 421  680.379
 422  671.9034
 423  698.1989
 424  690.1875
 425  731.2843
 426  703.3673
 427  781.3237
 428  770.6494
 429  685.473
 430  689.9586
 431  680.0571
 432  705.9332
 433  722.2444
 434  635.6882
 435  635.3229
 436  654.8018
 437  695.4496
 438  718.9473
 439  705.6088
 440  746.4385
 441  706.3328
 442  669.1097
 443  636.6631
 444  716.9335
 445  777.4748
 446  723.9196
 447  632.0735
 448  648.6503
 449  677.6557
 450  639.8892
 451  543.7285
 452  542.1863
 453  704.3537
 454  723.2692
 455  741.8981
 456  657.7902
 457  608.075
 458  647.4711
 459  637.3425
 460  647.4561
 461  694.2519
 462  629.4932
 463  568.0737
 464  622.9962
 465  651.8438
 466  633.9791
 467  632.5661
 468  576.3291
 469  629.403
 470  589.6193
 471  657.14
 472  645.6362
 473  567.0574
 474  573.5518
 475  634.2966
 476  704.544
 477  593.6882
 478  543.461
 479  603.0363
 480  691.5668
 481  730.7522
 482  682.532
 483  618.9446
 484  598.6014
 485  588.0997
 486  572.9287
 487  598.8172
 488  566.5958
 489  591.9813
 490  564.2077
 491  601.6629
 492  501.8854
 493  436.3007
 494  668.6285
 495  676.9152
 496  654.9509
 497  555.4966
 498  551.4775
 499  772.6123
 500  815.283
 501  652.7905
 502  750.4447
 503  754.8756
 504  795.3873
 505  745.4294
 506  824.7565
 507  846.2855
 508  912.27
 509  959.8483
 510  965.4338
 511  1115.51
