# Input file       =  1204305439.103577_cleaned.dat
# Candidate        =  PSR_0332+5434
# Telescope        =  AR
# Epoch_topo       =  58182.720579902511
# Epoch_bary       =  N/A
# T_sample         =  0.002
# Data Folded      =  7340032
# Data Avg         =  0.170976196862675
# Data StdDev      =  5.46736135321993 
# Profile Bins     =  512
# Profile Avg      =  2451.13838080118 
# Profile StdDev   =  654.623775790007 
# Reduced chi-sqr  =  0.690
# Prob(Noise)      <  1   (~0.0 sigma)
# P_topo (ms)      =  714.580235873065  +/- 0.000481
# P'_topo (s/s)    =  -0                +/- 2.54e-10
# P''_topo (s/s^2) =  0                 +/- 1.12e-13
# P_bary (ms)      =  N/A
# P'_bary (s/s)    =  N/A
# P''_bary (s/s^2) =  N/A
# P_orb (s)        =  N/A
# asin(i)/c (s)    =  N/A
# eccentricity     =  N/A
# w (rad)          =  N/A
# T_peri           =  N/A
######################################################
   0  2665.332
   1  2823.527
   2  2560.331
   3  2576.836
   4  2640.45
   5  2524.301
   6  2451.146
   7  2744.617
   8  2755.759
   9  2939.719
  10  3443.369
  11  3154.278
  12  2504.689
  13  2551.685
  14  2628.64
  15  2261.171
  16  2190.542
  17  2086.31
  18  2064.72
  19  2086.73
  20  2099.916
  21  2146.754
  22  2083.005
  23  1970.614
  24  1734.441
  25  2027.662
  26  2004.115
  27  1849.857
  28  2181.215
  29  2356.5
  30  1826.935
  31  1811.733
  32  2360.394
  33  2643.65
  34  2211.338
  35  2151.164
  36  2316.683
  37  2028.418
  38  2274.382
  39  2552.608
  40  2585.178
  41  2575.667
  42  2676.78
  43  2436.265
  44  2074.774
  45  2085.327
  46  2123.228
  47  2065.645
  48  2073.316
  49  2059.017
  50  2481.172
  51  2602.044
  52  2159.259
  53  1935.698
  54  2047.182
  55  1999.917
  56  2224.044
  57  2682.982
  58  2505.674
  59  2185.799
  60  2133.377
  61  2496.171
  62  2186.928
  63  2477.289
  64  2546.024
  65  2366.388
  66  2542.618
  67  2448.796
  68  2478.927
  69  2439.82
  70  2558.42
  71  2973.444
  72  3301.125
  73  3025.401
  74  2914.671
  75  2710.536
  76  2873.597
  77  2549.633
  78  2431.45
  79  2731.128
  80  2292.147
  81  2539.989
  82  2621.255
  83  2204.87
  84  2136.003
  85  2258.458
  86  2609.627
  87  2632.428
  88  2330.04
  89  2301.376
  90  2207.573
  91  2651.311
  92  2754.175
  93  2045.418
  94  2348.728
  95  2446.799
  96  2362.352
  97  2554.106
  98  3041.994
  99  3074.002
 100  2584.158
 101  2446.727
 102  2722.614
 103  2584.036
 104  2946.415
 105  3084.271
 106  2701.16
 107  3487.536
 108  3467.761
 109  3446.661
 110  3442.045
 111  3143.701
 112  3275.072
 113  3202.124
 114  3383.042
 115  3535.761
 116  3473.105
 117  3264.078
 118  2796.553
 119  2668.238
 120  2676.262
 121  2506.267
 122  2721.657
 123  2811.019
 124  2838.747
 125  2672.81
 126  2501.853
 127  2543.399
 128  2565.184
 129  2707.616
 130  3043.482
 131  3532.482
 132  3507.711
 133  3345.775
 134  3560.366
 135  3098.84
 136  3117.47
 137  3104.651
 138  3175.192
 139  3183.495
 140  2761.941
 141  3093.618
 142  3025.445
 143  2367.233
 144  2763.908
 145  3233.239
 146  3269.239
 147  2984.347
 148  2848.37
 149  3110.888
 150  3024.236
 151  2957.165
 152  2809.475
 153  2963.064
 154  2897.203
 155  2815.675
 156  2558.816
 157  2872.823
 158  2818.078
 159  2621.494
 160  2930.873
 161  2672.645
 162  2400.037
 163  2684.263
 164  2720.588
 165  2693.501
 166  1877.938
 167  1833.088
 168  1997.973
 169  1981.459
 170  2241.832
 171  2003.231
 172  2130.627
 173  2260.88
 174  1851.307
 175  1600.494
 176  1699.432
 177  2073.663
 178  2055.278
 179  1992.39
 180  2051.72
 181  2055.383
 182  2339.378
 183  2549.935
 184  2212.801
 185  1922.277
 186  1921.845
 187  2058.969
 188  2332.122
 189  2827.182
 190  2728.763
 191  2294.11
 192  2349.774
 193  2305.498
 194  2312.084
 195  2161.405
 196  2106.745
 197  2089.14
 198  2430.188
 199  2250.555
 200  1780.396
 201  2000.761
 202  2261.265
 203  2413.018
 204  2242.137
 205  2110.718
 206  2149.089
 207  1894.532
 208  2060.306
 209  1900.894
 210  1243.733
 211  1678.407
 212  2341.351
 213  2396.082
 214  2606.017
 215  2943.28
 216  2706.908
 217  2844.091
 218  2666.064
 219  2563.905
 220  2601.596
 221  2541.731
 222  2957.247
 223  2951.65
 224  2688.99
 225  2641.016
 226  2327.471
 227  2208.36
 228  2447.072
 229  2572.32
 230  2484.319
 231  2851.254
 232  2821.833
 233  2426.368
 234  1962.568
 235  1953.907
 236  2291.562
 237  2300.523
 238  2339.936
 239  2156.991
 240  1949.808
 241  1983.318
 242  2163.435
 243  2284.903
 244  2511.371
 245  2678.21
 246  2611.548
 247  2583.955
 248  1936.438
 249  1987.118
 250  2093.539
 251  2155.685
 252  2778.909
 253  2439.286
 254  2276.456
 255  2743.279
 256  2916.594
 257  2690.53
 258  2699.421
 259  2738.629
 260  2719.906
 261  2876.595
 262  3084.156
 263  2649.751
 264  2574.781
 265  2599.527
 266  2434.485
 267  1879.997
 268  1974.806
 269  1517.562
 270  1661.147
 271  1990.203
 272  2035.405
 273  2257.319
 274  2430.389
 275  2241.071
 276  1820.734
 277  2303.965
 278  2320.644
 279  2449.236
 280  2288.537
 281  2216.266
 282  2442.701
 283  2259.802
 284  2324.94
 285  2166.147
 286  2546.468
 287  2493.212
 288  2458.675
 289  2340.097
 290  2189.852
 291  2052.034
 292  1870.534
 293  1775.827
 294  2108.065
 295  2077.771
 296  2229.99
 297  2429.414
 298  2744.566
 299  2739.909
 300  2689.154
 301  2687.426
 302  2942.986
 303  3622.79
 304  3832.304
 305  3773.104
 306  3220.336
 307  2751.805
 308  2603.561
 309  2542.635
 310  2079.063
 311  2178.425
 312  2380.304
 313  2897.224
 314  2380.93
 315  2083.22
 316  2494.975
 317  2515.452
 318  2569.424
 319  2835.823
 320  2559.016
 321  2153.718
 322  2270.302
 323  2413.932
 324  2573.31
 325  2672.929
 326  2708.115
 327  2636.723
 328  2541.843
 329  2104.416
 330  1849.633
 331  2099.146
 332  2536.536
 333  2347.198
 334  2499.525
 335  2448.7
 336  1954.148
 337  2104.118
 338  1745.498
 339  1485.966
 340  1939.972
 341  2142.521
 342  2114.783
 343  2091.396
 344  2560.72
 345  2587.785
 346  2597.194
 347  2569.094
 348  2565.352
 349  2692.028
 350  2965.66
 351  2875.816
 352  2928.902
 353  2647.46
 354  2562.689
 355  2219.782
 356  2340.647
 357  2133.433
 358  2058.101
 359  2275.545
 360  2556.229
 361  2374.792
 362  1995.216
 363  2050.838
 364  2184.219
 365  2637.445
 366  2806.282
 367  2308.022
 368  2061.359
 369  2094.305
 370  2167.509
 371  1986.849
 372  2046.778
 373  1894.573
 374  1851.242
 375  2022.69
 376  1991.169
 377  1718.546
 378  1897.605
 379  1767.193
 380  1891.314
 381  2357.801
 382  2509.719
 383  2598.449
 384  2570.253
 385  2429.324
 386  2465.758
 387  2786.677
 388  3027.211
 389  2925.651
 390  2766.892
 391  2614.085
 392  2658.643
 393  2491.072
 394  2583.784
 395  2484.845
 396  2985.283
 397  2874.139
 398  2307.944
 399  2416.71
 400  2219.384
 401  1965.397
 402  1893.604
 403  2259.479
 404  2128.406
 405  2248.815
 406  2122.108
 407  2306.07
 408  2718.485
 409  2638.386
 410  2375.057
 411  2582.535
 412  2747.215
 413  2661.366
 414  3108.653
 415  2800.531
 416  2735.039
 417  2565.352
 418  2753.457
 419  2782.38
 420  2712.326
 421  2650.197
 422  2278.202
 423  2252.987
 424  1982.212
 425  1894.099
 426  2214.081
 427  2161.491
 428  2148.702
 429  2311.656
 430  2319.347
 431  2129.823
 432  1942.532
 433  2100.783
 434  2537.638
 435  2761.8
 436  2664.011
 437  2016.776
 438  2098.712
 439  2053.991
 440  2152.077
 441  2212.458
 442  2172.016
 443  1669.319
 444  1956.708
 445  2066.705
 446  1820.484
 447  2131.726
 448  2473.681
 449  2279.602
 450  2225.507
 451  2344.161
 452  2429.833
 453  2429.447
 454  2306.527
 455  2316.028
 456  2584.426
 457  2998.053
 458  2580.34
 459  1910.065
 460  2039.7
 461  2583.826
 462  2692.093
 463  2895.353
 464  2952.494
 465  2890.25
 466  2646.356
 467  2586.082
 468  2695.892
 469  2554.114
 470  2573.699
 471  2352.094
 472  2071.246
 473  2370.959
 474  2721.799
 475  2534.137
 476  2194.709
 477  2122.942
 478  2187.64
 479  1920.356
 480  1950.107
 481  2096.772
 482  2191.749
 483  2242.299
 484  2358.649
 485  2180.253
 486  2136.409
 487  2366.386
 488  2541.806
 489  2855.97
 490  2539.782
 491  2597.167
 492  2367.585
 493  2400.714
 494  2258.339
 495  2425.122
 496  2497.003
 497  2498.502
 498  2458.618
 499  2059.79
 500  2337.34
 501  2625.529
 502  2563.601
 503  2722.581
 504  2706.022
 505  2808.041
 506  2704.941
 507  2518.911
 508  2578.377
 509  2672.301
 510  2571.619
 511  2591.115
