# Input file       =  1204534384.116725_cleaned.dat
# Candidate        =  PSR_0332+5434
# Telescope        =  AR
# Epoch_topo       =  58185.370406443573
# Epoch_bary       =  N/A
# T_sample         =  0.002
# Data Folded      =  7405568
# Data Avg         =  0.273547827211555
# Data StdDev      =  6.54527003437186 
# Profile Bins     =  1024
# Profile Avg      =  1978.2929878158  
# Profile StdDev   =  556.617398792765 
# Reduced chi-sqr  =  1.001
# Prob(Noise)      <  0.489   (~0.0 sigma)
# P_topo (ms)      =  714.579384506152  +/- 3.06e-05
# P'_topo (s/s)    =  -0                +/- 1.6e-11
# P''_topo (s/s^2) =  0                 +/- 7.01e-15
# P_bary (ms)      =  N/A
# P'_bary (s/s)    =  N/A
# P''_bary (s/s^2) =  N/A
# P_orb (s)        =  N/A
# asin(i)/c (s)    =  N/A
# eccentricity     =  N/A
# w (rad)          =  N/A
# T_peri           =  N/A
######################################################
   0  2070.098
   1  2257.031
   2  2296.547
   3  2099.497
   4  2074.814
   5  1976.796
   6  2174.192
   7  2100.598
   8  2181.617
   9  2049.054
  10  1943.314
  11  1614.597
  12  1389.751
  13  1325.469
  14  1545.164
  15  1737.482
  16  1857.589
  17  1891.549
  18  1957.13
  19  2222.981
  20  2275.093
  21  2196.004
  22  1940.238
  23  2127.197
  24  2331.975
  25  2658.352
  26  2674.823
  27  2304.13
  28  1980.261
  29  1843.492
  30  1852.17
  31  1553.509
  32  1309.951
  33  1327.271
  34  1745.663
  35  2022.489
  36  2154.906
  37  2051.525
  38  1979.145
  39  2212.898
  40  2150.484
  41  2303.865
  42  2306.983
  43  2397.025
  44  2072.533
  45  1657.061
  46  1455.783
  47  1582.167
  48  1722.907
  49  2020.157
  50  2198.841
  51  2322.449
  52  2384.458
  53  2214.711
  54  2169.213
  55  2059.137
  56  2459.265
  57  2592.146
  58  2637.788
  59  2511.904
  60  2429.066
  61  2245.072
  62  1908.749
  63  1716.586
  64  1892.601
  65  1867.62
  66  2003.773
  67  1876.591
  68  1831.14
  69  1690.84
  70  1712.401
  71  1927.559
  72  1929.951
  73  2015.469
  74  2153.377
  75  2084.819
  76  1933.493
  77  1665.703
  78  1485.114
  79  1121.828
  80  1365.303
  81  1686.687
  82  2152.921
  83  2169.094
  84  2411.107
  85  2174.284
  86  2085.06
  87  1885.865
  88  2073.157
  89  2240.174
  90  2342.714
  91  2359.276
  92  2138.963
  93  2140.164
  94  2200.985
  95  2130.254
  96  2007.848
  97  1895.162
  98  2017.178
  99  2113.445
 100  2050.786
 101  2166.307
 102  2064.091
 103  1987.432
 104  1908.016
 105  1883.754
 106  2088.309
 107  2159.835
 108  2199.958
 109  1987.13
 110  1619.196
 111  1403.656
 112  1144.794
 113  1294.236
 114  1479.003
 115  1842.244
 116  2171.685
 117  2322.65
 118  2405.554
 119  2333.583
 120  2207.038
 121  2132.454
 122  2183.245
 123  2216.379
 124  2223.562
 125  2173.902
 126  2169.42
 127  1803.873
 128  1556.142
 129  1487.361
 130  1892.645
 131  2187.694
 132  2311.5
 133  2220.359
 134  2134.085
 135  1905.596
 136  2001.948
 137  1782.968
 138  1714.783
 139  1624.919
 140  1722.424
 141  1820.846
 142  1587.529
 143  1543.052
 144  1372.505
 145  1402.909
 146  1255.086
 147  1450.06
 148  1756.175
 149  2231.379
 150  2367.716
 151  2344.907
 152  2236.323
 153  2109.727
 154  2198.724
 155  2142.454
 156  2269.438
 157  2217.11
 158  2276.896
 159  1939.432
 160  1718.854
 161  1520.635
 162  1620.892
 163  1555.653
 164  1730.993
 165  1767.798
 166  1936.541
 167  2072.146
 168  2167.592
 169  2293.045
 170  2033.048
 171  1976.341
 172  2022.099
 173  2225.4
 174  2267.185
 175  1978.885
 176  1743.875
 177  1574.904
 178  1468.924
 179  1385.596
 180  1459.144
 181  1669.292
 182  2010.495
 183  2294.623
 184  2489.531
 185  2358.661
 186  2297.538
 187  2269.211
 188  2462.416
 189  2677.639
 190  2783.132
 191  2667.096
 192  2277.344
 193  2065.944
 194  1892.733
 195  1725.177
 196  1578.91
 197  1633.989
 198  1836.327
 199  2013.809
 200  1954.612
 201  2047.821
 202  2119.982
 203  1970.75
 204  2019.639
 205  1903.454
 206  2136.865
 207  2206.189
 208  2275.204
 209  2108.881
 210  1778.686
 211  1581.192
 212  1490.862
 213  1751.267
 214  2010.953
 215  2110.214
 216  2179.751
 217  2286.807
 218  2231.948
 219  2191.218
 220  2233.45
 221  2544.827
 222  2533.325
 223  2564.92
 224  2574.522
 225  2406.492
 226  2177.508
 227  1890.195
 228  2107.407
 229  2169.515
 230  2008.816
 231  1872.508
 232  1993.53
 233  2027.527
 234  2066.542
 235  1828.371
 236  1930.522
 237  1969.576
 238  2185.463
 239  2251.181
 240  2158.004
 241  2082.204
 242  1795.64
 243  1643.698
 244  1407.707
 245  1503.288
 246  1630.578
 247  1875.056
 248  2029.724
 249  2077.193
 250  1983.532
 251  2033.132
 252  1995.394
 253  2062.388
 254  2151.508
 255  2306.329
 256  2583.113
 257  2564.969
 258  2432.038
 259  2281.715
 260  2198.937
 261  2117.208
 262  1950.682
 263  1996.517
 264  2023.206
 265  1932.303
 266  2017.741
 267  2026.966
 268  1918.955
 269  1773.146
 270  1601.983
 271  1666.676
 272  1638.474
 273  1855.199
 274  1869.823
 275  1688.166
 276  1540.729
 277  1468.596
 278  1606.79
 279  1531.169
 280  1741.174
 281  1885.505
 282  2156.457
 283  2040.409
 284  2164.269
 285  1994.487
 286  2112.386
 287  2172.68
 288  2462.021
 289  2494.793
 290  2312.125
 291  2211.945
 292  1938.589
 293  1855.972
 294  1727.362
 295  1975.818
 296  2145.775
 297  2300.513
 298  2183.252
 299  2224.551
 300  2069.036
 301  2034.385
 302  1873.24
 303  1809.607
 304  1841.062
 305  1924.357
 306  1976.403
 307  1801.959
 308  1673.984
 309  1486.18
 310  1522.682
 311  1554.185
 312  1604.539
 313  1789.837
 314  2076.633
 315  2404.917
 316  2359.408
 317  2159.976
 318  2109.417
 319  2276.328
 320  2425.889
 321  2514.204
 322  2392.93
 323  2324.42
 324  2193.406
 325  2153.772
 326  2001.616
 327  1839.129
 328  1797.245
 329  1732.001
 330  1684.751
 331  1675.423
 332  1736.869
 333  1677.827
 334  1780.101
 335  1798.586
 336  1871.1
 337  1926.666
 338  1877.746
 339  1961.347
 340  1770.338
 341  1711.46
 342  1330.648
 343  1313.957
 344  1190.284
 345  1223.899
 346  1387.258
 347  1668.562
 348  1903.287
 349  2025.358
 350  2169.791
 351  2132.344
 352  2096.43
 353  2086.861
 354  2317.131
 355  2174.343
 356  2232.84
 357  2001.208
 358  1827.799
 359  1579.463
 360  1489.096
 361  1624.432
 362  1555.975
 363  1476.619
 364  1696.294
 365  1913.224
 366  1911.4
 367  1774.709
 368  1794.161
 369  1975.473
 370  2016.361
 371  2024.203
 372  2010.796
 373  1844.92
 374  1632.303
 375  1390.365
 376  1183.846
 377  1157.673
 378  1329.398
 379  1579.16
 380  1800.031
 381  1886.861
 382  1859.203
 383  1930.112
 384  2104.095
 385  2216.868
 386  2337.306
 387  2305.791
 388  2436.901
 389  2451.103
 390  2229.315
 391  2040.908
 392  1868.917
 393  1852.319
 394  1813.613
 395  1697.582
 396  1939.356
 397  1937.059
 398  1908.211
 399  1805.821
 400  1788.584
 401  1807.266
 402  1861.947
 403  1967.995
 404  2360.872
 405  2364.71
 406  2319.961
 407  1943.023
 408  1710.485
 409  1524.987
 410  1527.475
 411  1815.351
 412  1987.155
 413  2229.024
 414  2388.059
 415  2450.282
 416  2329.634
 417  2172.215
 418  2015.088
 419  2046.732
 420  2130.013
 421  2428.576
 422  2357.881
 423  2197.114
 424  2294.109
 425  2160.465
 426  2219.849
 427  2035.236
 428  2258.281
 429  2093.517
 430  1991.798
 431  1894.122
 432  2133.83
 433  1887.089
 434  1869.703
 435  1765.881
 436  1892.489
 437  1757.01
 438  1864.243
 439  1876.819
 440  1761.435
 441  1576.4
 442  1519.213
 443  1565.945
 444  1758.52
 445  1973.151
 446  2103.278
 447  2057.199
 448  2279.03
 449  2323.519
 450  2137.325
 451  1973.24
 452  2211.615
 453  2320.526
 454  2410.694
 455  2352.263
 456  2353.583
 457  1934.681
 458  1756.473
 459  1738.774
 460  1766.732
 461  1829.62
 462  1967.87
 463  2207.244
 464  2233.866
 465  2203.652
 466  2014.044
 467  2010.033
 468  1748.179
 469  1958.529
 470  2023.849
 471  2090.466
 472  1879.782
 473  1765.758
 474  1521.233
 475  1268.11
 476  1242.211
 477  1472.232
 478  1706.172
 479  1937.251
 480  2201.948
 481  2262.983
 482  2218.336
 483  2068.476
 484  2167.939
 485  2234.056
 486  2379.865
 487  2411.726
 488  2325.063
 489  2227.156
 490  1976.925
 491  2013.481
 492  1710.697
 493  1645.328
 494  1804.676
 495  2157.98
 496  2225.875
 497  2102.669
 498  1798.456
 499  1793.581
 500  1594.998
 501  1598.576
 502  1875.777
 503  1951.534
 504  2027.648
 505  1791.635
 506  1693.902
 507  1477.356
 508  1301.313
 509  1327.531
 510  1537.003
 511  1769.65
 512  2148.3
 513  2336.722
 514  2509.959
 515  2415.54
 516  2442.711
 517  2356.452
 518  2252.673
 519  2369.853
 520  2371.167
 521  2245.892
 522  1970.036
 523  1698.205
 524  1763.339
 525  1606.783
 526  1784.395
 527  1960.435
 528  2006.269
 529  2001.944
 530  1965.128
 531  1983.392
 532  2092.362
 533  2030.211
 534  2068.126
 535  1984.174
 536  2131.81
 537  2280.612
 538  2239.437
 539  2052.849
 540  1674.976
 541  1398.955
 542  1165.565
 543  1288.864
 544  1578.603
 545  1948.359
 546  1976.018
 547  2134.479
 548  2057.909
 549  2132.032
 550  2119.126
 551  2239.6
 552  2480.037
 553  2523.799
 554  2826.506
 555  2587.692
 556  2340.146
 557  1921.065
 558  1924.338
 559  1802.145
 560  1673.083
 561  1635.725
 562  1805.075
 563  1749.542
 564  1862.856
 565  1805.09
 566  1659.84
 567  1667.138
 568  1749.606
 569  2112.001
 570  1974.266
 571  1914.791
 572  1800.618
 573  1742.397
 574  1681.129
 575  1559.353
 576  1515.249
 577  1696.886
 578  2133.858
 579  2448.643
 580  2365.983
 581  2204.322
 582  2279.457
 583  2084.883
 584  1967.553
 585  1910.933
 586  2348.994
 587  2399.122
 588  2221.654
 589  2248.877
 590  2142.07
 591  2088.829
 592  1988.418
 593  2089.362
 594  2162.321
 595  2053.367
 596  2126.928
 597  2244.012
 598  2086.833
 599  1962.839
 600  2001.963
 601  2121.037
 602  2198.757
 603  2216.682
 604  2309.983
 605  2197.188
 606  2095.24
 607  2027.16
 608  2094.883
 609  2266.421
 610  2521.843
 611  2792.731
 612  2868.436
 613  2673.366
 614  2416.173
 615  2254.29
 616  2166.416
 617  2358.648
 618  2377.309
 619  2513.745
 620  2467.373
 621  2356.38
 622  2116.189
 623  1891.955
 624  1815.902
 625  1600.25
 626  1447.213
 627  1551.431
 628  1907.834
 629  2096.775
 630  2016.017
 631  1902.081
 632  1933.727
 633  1714.649
 634  1629.63
 635  1687.641
 636  1942.026
 637  2124.965
 638  1944.677
 639  1570.039
 640  1199.531
 641  1139.099
 642  1445.551
 643  1541.601
 644  1749.356
 645  1977.281
 646  2188.688
 647  2308.837
 648  2113.755
 649  2137.188
 650  2277.942
 651  2411.008
 652  2512.424
 653  2251.607
 654  2136.229
 655  1879.875
 656  1722.454
 657  1683.431
 658  1719.574
 659  1866.172
 660  1945.917
 661  2052.191
 662  2332.621
 663  2126.99
 664  2011.933
 665  1879.471
 666  1816.723
 667  1983.067
 668  1990.026
 669  2187.108
 670  1988.816
 671  1816.757
 672  1669.474
 673  1543.945
 674  1374.228
 675  1337.499
 676  1548.404
 677  1868.676
 678  2050.879
 679  2100.52
 680  2197.295
 681  2161.281
 682  2376.91
 683  2326.791
 684  2489.409
 685  2448.301
 686  2434.021
 687  2379.154
 688  2119.243
 689  2147.114
 690  1991.008
 691  1990.744
 692  1999.034
 693  2109.831
 694  2238.67
 695  2403.689
 696  2316.397
 697  2342.239
 698  2163.279
 699  2131.958
 700  2065.666
 701  2060.85
 702  2213.654
 703  2007.61
 704  1835.212
 705  1562.856
 706  1455.464
 707  1465.573
 708  1498.573
 709  1784.108
 710  2107.644
 711  2345.007
 712  2363.681
 713  2236.604
 714  2182.91
 715  2259.454
 716  2320.728
 717  2480.029
 718  2437.149
 719  2627.892
 720  2476.883
 721  2341.518
 722  2065.036
 723  2021.634
 724  2074.662
 725  2226.52
 726  2285.568
 727  2161.325
 728  1921.583
 729  1842.179
 730  1949.138
 731  1756.388
 732  1880.579
 733  1810.766
 734  1969.835
 735  1875.381
 736  1860.901
 737  1986.133
 738  1769.674
 739  1737.077
 740  1652.871
 741  1893.187
 742  2015.438
 743  2224.449
 744  2332.172
 745  2381.587
 746  2108.997
 747  2139.537
 748  2151.792
 749  2284.19
 750  2300.078
 751  2380.638
 752  2522.418
 753  2389.459
 754  2291.57
 755  2153.677
 756  2144.872
 757  2052.528
 758  1985.121
 759  1850.282
 760  1918.815
 761  1857.794
 762  2067.894
 763  1953.515
 764  1804.02
 765  1821.371
 766  1863.42
 767  2094.268
 768  2124.718
 769  2038.729
 770  1879.099
 771  1664.244
 772  1634.61
 773  1461.412
 774  1450.886
 775  1702.836
 776  2011.518
 777  2148.213
 778  2241.495
 779  2252.47
 780  2169.796
 781  2043.127
 782  2102.079
 783  2279.171
 784  2434.172
 785  2505.177
 786  2319.267
 787  2192.325
 788  1999.397
 789  2076.644
 790  1965.326
 791  2040.303
 792  2242.249
 793  2336.196
 794  2150.372
 795  2072.404
 796  1970.323
 797  2025.1
 798  1799.916
 799  1822.637
 800  1816.94
 801  1603.683
 802  1659.792
 803  1575.525
 804  1638.885
 805  1497.064
 806  1588.308
 807  1750.178
 808  1825.276
 809  2046.069
 810  2323.946
 811  2276.784
 812  2252.496
 813  2324.371
 814  2372.243
 815  2210.177
 816  2075.042
 817  2337.811
 818  2314.53
 819  2254.323
 820  2071.508
 821  1821.428
 822  1754.686
 823  1744.365
 824  1882.427
 825  1888.626
 826  1930.863
 827  2127.911
 828  2269.011
 829  2128.581
 830  2041.098
 831  1907.575
 832  2047.117
 833  2066.464
 834  2074.693
 835  1968.078
 836  1643.424
 837  1371.147
 838  1155.881
 839  1105.473
 840  1409.368
 841  1750.763
 842  2200.127
 843  2324.898
 844  2286.079
 845  2394.395
 846  2255.721
 847  2348.689
 848  2256.885
 849  2632.14
 850  2667.383
 851  2503.996
 852  2050.908
 853  1813.681
 854  1701.517
 855  1624.094
 856  1588.19
 857  1625.811
 858  1840.199
 859  2099.087
 860  2260.484
 861  2076.419
 862  1996.551
 863  1901.323
 864  1758.416
 865  1726.78
 866  1776.639
 867  1960.496
 868  1901.504
 869  1909.534
 870  1831.321
 871  1516.191
 872  1380.36
 873  1447.526
 874  1675.235
 875  1894.662
 876  2151.088
 877  2261.132
 878  2239.191
 879  2104.211
 880  2190.478
 881  2176.657
 882  2268.566
 883  2186.236
 884  2259.229
 885  2177.969
 886  2035.843
 887  1965.705
 888  1841.668
 889  1719.713
 890  1671.421
 891  1793.698
 892  1878.583
 893  1893.271
 894  1803.034
 895  1904.172
 896  1746.885
 897  1722.342
 898  1733.694
 899  1782.286
 900  1792.042
 901  1698.862
 902  1543.258
 903  1355.287
 904  1125.516
 905  1100.878
 906  1088.717
 907  1241.034
 908  1650.745
 909  1956.63
 910  2077.684
 911  1894.758
 912  1801.228
 913  1815.714
 914  1977.046
 915  2331.294
 916  2399.135
 917  2405.953
 918  2176.539
 919  2119.568
 920  2051.336
 921  1935.717
 922  1928.136
 923  1795.539
 924  1692.043
 925  1660.212
 926  1694.64
 927  1682.865
 928  1737.377
 929  1699.033
 930  2051.343
 931  1919.456
 932  1998.516
 933  2002.15
 934  2099.969
 935  1930.846
 936  1583.109
 937  1229.368
 938  1190.92
 939  1353.376
 940  1680.789
 941  1865.215
 942  1961.919
 943  2228.731
 944  2194.961
 945  2138.372
 946  1871.255
 947  1932.555
 948  1987.061
 949  2028.358
 950  2220.855
 951  2085.979
 952  2092.878
 953  1813.86
 954  1906.634
 955  1952.13
 956  2016.544
 957  2075.622
 958  2063.948
 959  1942.42
 960  2019.094
 961  1846.744
 962  1653.109
 963  1617.355
 964  1652.409
 965  1903.499
 966  1718.046
 967  1917.96
 968  1750.29
 969  1620.745
 970  1483.067
 971  1483.737
 972  1501.655
 973  1592.511
 974  2021.97
 975  2393.805
 976  2226.507
 977  2035.902
 978  2008.594
 979  1982.339
 980  2052.806
 981  1871.842
 982  2153.887
 983  2215.35
 984  2231.654
 985  2022.876
 986  1769.157
 987  1738.438
 988  1940.108
 989  2156.932
 990  2229.107
 991  2087.304
 992  2272.536
 993  2354.797
 994  2076.048
 995  1911.825
 996  1856.11
 997  2003.763
 998  2027.042
 999  1892.634
1000  2009.415
1001  1736.273
1002  1632.533
1003  1113.686
1004  990.5504
1005  1123.369
1006  1487.431
1007  1996.211
1008  2221.965
1009  2437.266
1010  2367.539
1011  2322.111
1012  2259.38
1013  2309.632
1014  2388.901
1015  2595.879
1016  2451.067
1017  2190.738
1018  1801.237
1019  1785.234
1020  1690.344
1021  1658.604
1022  1668.369
1023  1809.014
