# Input file       =  1204189742.101555_cleaned.dat
# Candidate        =  PSR_0332+5434
# Telescope        =  AR
# Epoch_topo       =  58181.381494230962
# Epoch_bary       =  N/A
# T_sample         =  0.002
# Data Folded      =  7208960
# Data Avg         =  0.713543522998224
# Data StdDev      =  6.42992759867393 
# Profile Bins     =  1024
# Profile Avg      =  5023.24911964163 
# Profile StdDev   =  539.501196686614 
# Reduced chi-sqr  =  2.488
# Prob(Noise)      <  1.06e-130   (~24.3 sigma)
# P_topo (ms)      =  714.58009694559   +/- 3.3e-05
# P'_topo (s/s)    =  -0                +/- 1.77e-11
# P''_topo (s/s^2) =  0                 +/- 7.97e-15
# P_bary (ms)      =  N/A
# P'_bary (s/s)    =  N/A
# P''_bary (s/s^2) =  N/A
# P_orb (s)        =  N/A
# asin(i)/c (s)    =  N/A
# eccentricity     =  N/A
# w (rad)          =  N/A
# T_peri           =  N/A
######################################################
   0  4409.604
   1  4406.373
   2  4536.715
   3  4838.931
   4  5053.729
   5  4980.793
   6  4783.725
   7  4606.223
   8  4537.261
   9  4399.081
  10  4427.895
  11  4464.86
  12  4425.31
  13  4399.703
  14  4432.329
  15  4505.629
  16  4474.757
  17  4604.052
  18  4839.377
  19  4996.943
  20  4963.742
  21  4964.616
  22  4995.869
  23  4918.701
  24  4712.507
  25  4567.612
  26  4564.361
  27  4441.838
  28  4516.02
  29  4428.114
  30  4584.903
  31  4544.907
  32  4614.195
  33  4642.582
  34  4638.01
  35  4772.061
  36  4814.132
  37  4870.446
  38  4702.542
  39  4460.351
  40  4203.224
  41  3971.076
  42  4006.746
  43  4064.587
  44  4198.817
  45  4286.855
  46  4438.273
  47  4498.35
  48  4640.911
  49  4779.686
  50  4928.531
  51  5010.837
  52  4980.703
  53  5050.917
  54  5222.295
  55  5208.793
  56  4978.762
  57  4689.655
  58  4555.369
  59  4447.961
  60  4372.574
  61  4511.66
  62  4516.743
  63  4576.647
  64  4627.332
  65  4636.017
  66  4618.565
  67  4608.342
  68  4885.599
  69  4956.996
  70  5025.305
  71  5101.386
  72  5075.202
  73  4788.763
  74  4513.625
  75  4382.116
  76  4254.257
  77  4030.592
  78  4046.173
  79  4323.92
  80  4592.547
  81  4681.706
  82  4695.824
  83  4790.278
  84  4818.752
  85  5059.522
  86  5405.366
  87  5577.268
  88  5295.756
  89  5025.887
  90  4781.451
  91  4734.159
  92  4639.503
  93  4737.266
  94  4632.531
  95  4477.031
  96  4453.19
  97  4638.157
  98  4703.153
  99  4694.613
 100  4631.964
 101  4686.783
 102  4786.604
 103  4961.938
 104  5101.516
 105  4930.435
 106  4884.784
 107  4844.592
 108  4853.661
 109  4713.011
 110  4597.795
 111  4689.27
 112  4800.299
 113  5066.021
 114  5207.409
 115  5168.795
 116  5140.567
 117  5249.785
 118  5393.739
 119  5628.621
 120  5587.964
 121  5669.6
 122  5627.659
 123  5505.272
 124  5287.269
 125  5072.614
 126  4928.34
 127  4840.364
 128  4915.409
 129  5034.367
 130  4980.952
 131  4886.717
 132  4870.989
 133  4982.77
 134  4957.735
 135  5111.705
 136  5316.769
 137  5483.83
 138  5344.281
 139  5186.355
 140  4967.599
 141  4825.602
 142  4647.297
 143  4629.401
 144  4586.845
 145  4565.887
 146  4635.308
 147  4760.93
 148  4669.405
 149  4651.637
 150  4834.711
 151  5237.406
 152  5313.022
 153  5361.214
 154  5409.093
 155  5453.87
 156  5373.921
 157  5131.136
 158  4961.375
 159  4950.088
 160  4858.965
 161  4938.607
 162  4827.231
 163  4742.914
 164  4632.77
 165  4646.133
 166  4725.549
 167  4715.086
 168  4798.741
 169  4786.207
 170  4769.56
 171  4803.438
 172  4720.758
 173  4560.751
 174  4329.519
 175  4159.102
 176  4267.533
 177  4345.026
 178  4323.766
 179  4321.758
 180  4451.098
 181  4618.063
 182  4609.913
 183  4651.26
 184  4840.466
 185  4987.243
 186  5119.771
 187  5131.774
 188  4956.278
 189  4766.444
 190  4657.996
 191  4579.632
 192  4447.354
 193  4362.374
 194  4372.991
 195  4434.486
 196  4570.59
 197  4629.487
 198  4661.123
 199  4714.255
 200  4756.265
 201  4870.623
 202  4883.274
 203  4906.174
 204  4883.686
 205  4761.937
 206  4502.33
 207  4271.711
 208  4060.495
 209  4018.887
 210  4008.718
 211  4190.191
 212  4341.372
 213  4399.147
 214  4472.787
 215  4535.963
 216  4631.438
 217  4672.743
 218  4717.843
 219  4839.973
 220  4871.675
 221  4863.765
 222  4638.213
 223  4488.475
 224  4401.284
 225  4314.773
 226  4386.931
 227  4381.388
 228  4489.665
 229  4507.815
 230  4457.471
 231  4379.203
 232  4317.685
 233  4453.847
 234  4674.05
 235  4675.41
 236  4657.975
 237  4457.819
 238  4357.487
 239  4298.957
 240  4055.56
 241  4051.253
 242  4100.183
 243  4318.852
 244  4345.645
 245  4271.197
 246  4297.186
 247  4504.268
 248  4749.371
 249  4827.509
 250  4764.535
 251  4742.43
 252  4785.396
 253  4694.812
 254  4742.883
 255  4539.493
 256  4527.321
 257  4465.084
 258  4422.95
 259  4472.155
 260  4425.309
 261  4393.417
 262  4229.385
 263  4402.757
 264  4520.153
 265  4553.388
 266  4561.865
 267  4642.339
 268  4901.947
 269  4992.641
 270  4866.5
 271  4672.346
 272  4487.516
 273  4424.836
 274  4238.663
 275  4108.219
 276  4225.16
 277  4368.786
 278  4600.615
 279  4631.954
 280  4619.316
 281  4667.242
 282  4697.885
 283  4928.228
 284  5151.766
 285  5283.301
 286  5288.629
 287  5138.286
 288  4975.038
 289  4910.072
 290  4651.469
 291  4603.46
 292  4519.725
 293  4601.68
 294  4509.074
 295  4511.259
 296  4472.118
 297  4413.133
 298  4466.675
 299  4595.276
 300  4622.292
 301  4785.186
 302  4934.739
 303  4930.922
 304  4843.485
 305  4709.945
 306  4592.018
 307  4540.42
 308  4364.128
 309  4507.212
 310  4532.362
 311  4624.344
 312  4644.556
 313  4686.191
 314  4863.741
 315  4915.971
 316  5118.116
 317  5266.544
 318  5343.021
 319  5227.945
 320  5192.335
 321  5151.292
 322  5007.844
 323  4815.315
 324  4756.613
 325  4750.034
 326  4765.256
 327  4803.17
 328  4848.009
 329  4814.884
 330  4847.298
 331  4860.718
 332  4812.722
 333  4805.618
 334  5136.923
 335  5261.233
 336  5219.358
 337  5063.568
 338  4978.697
 339  4832.623
 340  4710.812
 341  4714.545
 342  4760.561
 343  4661.725
 344  4705.81
 345  4904.193
 346  5111.789
 347  5058.689
 348  4992.708
 349  5100.298
 350  5255.689
 351  5338.28
 352  5192.883
 353  5088.345
 354  4974.118
 355  4823.091
 356  4678.225
 357  4463.931
 358  4531.404
 359  4545.723
 360  4639.59
 361  4604.39
 362  4632.326
 363  4661.24
 364  4751.287
 365  4722.353
 366  4727.235
 367  4707.083
 368  4754.541
 369  4856.302
 370  4714.618
 371  4635.06
 372  4499.621
 373  4527.792
 374  4509.427
 375  4439.721
 376  4515.542
 377  4750.821
 378  4821.324
 379  4862.363
 380  4824.071
 381  4714.563
 382  4884.477
 383  4981.091
 384  5252.029
 385  5126.585
 386  5075.297
 387  4891.638
 388  4685.562
 389  4648.685
 390  4646.489
 391  4731.934
 392  4590.531
 393  4553.9
 394  4665.68
 395  4696.614
 396  4728.101
 397  4650.215
 398  4661.791
 399  4741.375
 400  4745.804
 401  4854.039
 402  4836.439
 403  4698.747
 404  4560.855
 405  4435.457
 406  4458.288
 407  4410.506
 408  4509.271
 409  4701.186
 410  4713.589
 411  4809.59
 412  4743.285
 413  4947.377
 414  5092.439
 415  5310.708
 416  5371.822
 417  5465.828
 418  5332.415
 419  5292.835
 420  5005.993
 421  4879.099
 422  4747.941
 423  4592.975
 424  4530.543
 425  4427.341
 426  4667.395
 427  4707.062
 428  4682.11
 429  4570.72
 430  4601.218
 431  4777.234
 432  4837.559
 433  4854.463
 434  4931.037
 435  4947.017
 436  4954.856
 437  4723.323
 438  4463.064
 439  4359.265
 440  4306.925
 441  4383.705
 442  4402.566
 443  4477.288
 444  4722.433
 445  4888.789
 446  4980.382
 447  5176.566
 448  5319.526
 449  5491.94
 450  5543.448
 451  5682.903
 452  5598.971
 453  5253.786
 454  4969.833
 455  4911.006
 456  4870.515
 457  4766.554
 458  4654.321
 459  4617.153
 460  4824.647
 461  4954.126
 462  5029.577
 463  4892.11
 464  5012.118
 465  5173.014
 466  5333.072
 467  5312.436
 468  5266.247
 469  5199.041
 470  5102.1
 471  4875.284
 472  4888.581
 473  4915.402
 474  4965.57
 475  4877.733
 476  4989.748
 477  5157.827
 478  5450.772
 479  5521.437
 480  5621.014
 481  5672.72
 482  5730.823
 483  5691.575
 484  5673.981
 485  5575.581
 486  5529.017
 487  5350.605
 488  5282.739
 489  5211.888
 490  5208.251
 491  5195.702
 492  5214.837
 493  5172.362
 494  5185.735
 495  5110.329
 496  5117.963
 497  5242.381
 498  5360.493
 499  5639.822
 500  5722.595
 501  5728.353
 502  5564.399
 503  5280.081
 504  5152.028
 505  5087.231
 506  5030.186
 507  5112.75
 508  5245.062
 509  5377.34
 510  5443.482
 511  5491.521
 512  5601.815
 513  5659.769
 514  5754.822
 515  5901.43
 516  6112.149
 517  6177.524
 518  6065.736
 519  5844.339
 520  5510.093
 521  5280.408
 522  5330.261
 523  5335.84
 524  5357.026
 525  5338.13
 526  5442.544
 527  5424.486
 528  5419.612
 529  5500.456
 530  5594.934
 531  5704.266
 532  5811.512
 533  5687.421
 534  5591.164
 535  5631.967
 536  5733.809
 537  5737.417
 538  5533.018
 539  5434.906
 540  5330.631
 541  5310.47
 542  5397.464
 543  5513.701
 544  5740.432
 545  5922.955
 546  6082.257
 547  6135.359
 548  6133.866
 549  6239.232
 550  6360.782
 551  6389.002
 552  6114.16
 553  5756.39
 554  5542.132
 555  5481.107
 556  5485.972
 557  5581.676
 558  5688.126
 559  5807.114
 560  5809.005
 561  5765.216
 562  5739.041
 563  5886.742
 564  6082.433
 565  6104.583
 566  6119.437
 567  6185.47
 568  6114.119
 569  5943.313
 570  5683.167
 571  5586.436
 572  5558.594
 573  5519.092
 574  5460.27
 575  5454.519
 576  5533.807
 577  5789.367
 578  5927.966
 579  6106.582
 580  6069.445
 581  6240.825
 582  6419.299
 583  6462.132
 584  6346.401
 585  6168.579
 586  6045.448
 587  5852.661
 588  5655.841
 589  5570.061
 590  5629.801
 591  5778.831
 592  5634.618
 593  5486.136
 594  5447.225
 595  5446.715
 596  5530.586
 597  5654.065
 598  5799.805
 599  5889.264
 600  5993.548
 601  5935.569
 602  5842.565
 603  5788.685
 604  5907.422
 605  5923.847
 606  5897.725
 607  5958.304
 608  5926.873
 609  5966.812
 610  6122.226
 611  6365.93
 612  6508.725
 613  6320.777
 614  6277.881
 615  6291.62
 616  6341.666
 617  6083.024
 618  5719.564
 619  5404.538
 620  5341.012
 621  5329.599
 622  5418.062
 623  5330.008
 624  5380.566
 625  5399.289
 626  5436.96
 627  5412.674
 628  5465.999
 629  5543.3
 630  5580.066
 631  5674.533
 632  5770.468
 633  5657.771
 634  5523.177
 635  5374.493
 636  5247.217
 637  5151.583
 638  5196.579
 639  5216.773
 640  5311.23
 641  5130.105
 642  5243.442
 643  5316.896
 644  5484.889
 645  5565.174
 646  5735.507
 647  6029.118
 648  6032.196
 649  5942.074
 650  5756.73
 651  5501.128
 652  5393.59
 653  5281.795
 654  5231.051
 655  5164.195
 656  5224.43
 657  5300.027
 658  5351.504
 659  5261.541
 660  5177.397
 661  5132.75
 662  5241.704
 663  5301.364
 664  5336.868
 665  5314.455
 666  5233.894
 667  5200.153
 668  5176.714
 669  5021.92
 670  4939.657
 671  4878.204
 672  5073.874
 673  5087.309
 674  5142.108
 675  5245.171
 676  5353.383
 677  5476.679
 678  5554.715
 679  5622.768
 680  5834.143
 681  5815.646
 682  5797.612
 683  5562.193
 684  5554.901
 685  5531.576
 686  5395.092
 687  5403.507
 688  5336.408
 689  5502.646
 690  5435.228
 691  5380.694
 692  5254.034
 693  5195.905
 694  5298
 695  5418.312
 696  5555.13
 697  5571.79
 698  5503.94
 699  5337.99
 700  5148.629
 701  4933.998
 702  4950.143
 703  4841.46
 704  4777.753
 705  4812.326
 706  4952.685
 707  5114.771
 708  5151.134
 709  5276.95
 710  5600.08
 711  5656.851
 712  5622.457
 713  5486.163
 714  5627.88
 715  5662.09
 716  5595.499
 717  5475.01
 718  5263.415
 719  5053.527
 720  4948.048
 721  5004.642
 722  4923.207
 723  4857.193
 724  4912.921
 725  5056.144
 726  4958.809
 727  5001.985
 728  5199.209
 729  5399.973
 730  5496.112
 731  5529.263
 732  5492.777
 733  5232.708
 734  5069.851
 735  4886.059
 736  4814.725
 737  4798.629
 738  4862.703
 739  4988.74
 740  5033.175
 741  5023.117
 742  5103.26
 743  5212.438
 744  5394.13
 745  5605.713
 746  5733.014
 747  5877.792
 748  5835.928
 749  5812.59
 750  5605.205
 751  5370.455
 752  5276.181
 753  5216.94
 754  5193.674
 755  5243.912
 756  5299.639
 757  5349.944
 758  5357.427
 759  5388.783
 760  5349.375
 761  5367.207
 762  5465.606
 763  5526.839
 764  5497.094
 765  5408.494
 766  5274.244
 767  5408.172
 768  5395.629
 769  5301.997
 770  5159.532
 771  5114.593
 772  5120.884
 773  5220.902
 774  5321.321
 775  5497.161
 776  5608.146
 777  5704.394
 778  5879.221
 779  6023.652
 780  6109.47
 781  6077.312
 782  5849.264
 783  5535.982
 784  5169.287
 785  4995.059
 786  5046.205
 787  5164.958
 788  5289.893
 789  5247.552
 790  5167.997
 791  5214.938
 792  5251.231
 793  5225.165
 794  5282.893
 795  5381.716
 796  5511.761
 797  5437.903
 798  5239.655
 799  5128.258
 800  5116.756
 801  5073.681
 802  5085.891
 803  4893.38
 804  4868.805
 805  4759.769
 806  4841.146
 807  4822.207
 808  4953.012
 809  5028.47
 810  5184.447
 811  5325.501
 812  5559.543
 813  5789.316
 814  5873.02
 815  5869.306
 816  5684.676
 817  5538.292
 818  5376.665
 819  5360.688
 820  5387.382
 821  5423.289
 822  5354.144
 823  5341.325
 824  5279.942
 825  5299.188
 826  5265.451
 827  5367.298
 828  5361.66
 829  5359.759
 830  5314.338
 831  5251.152
 832  5212.449
 833  5099.342
 834  5003.85
 835  4938.399
 836  4956.891
 837  5154.321
 838  5334.128
 839  5403.162
 840  5269.512
 841  5108.086
 842  5070.29
 843  5275.539
 844  5427.438
 845  5576.908
 846  5520.242
 847  5566.571
 848  5461.548
 849  5365.01
 850  5301.373
 851  5122.84
 852  5022.95
 853  4819.538
 854  4773.977
 855  4842.708
 856  4990.955
 857  5037.665
 858  5134.281
 859  5193.94
 860  5271.771
 861  5244.28
 862  5369.416
 863  5368.154
 864  5375.986
 865  5206.454
 866  5158.34
 867  5082.784
 868  4944.478
 869  4714.565
 870  4719.453
 871  4783.228
 872  4948.019
 873  4873.401
 874  4951.516
 875  4977.959
 876  5165.233
 877  5286.816
 878  5356.966
 879  5506.932
 880  5588.207
 881  5502.864
 882  5416.016
 883  5353.634
 884  5176.93
 885  5029.598
 886  4885.921
 887  4932.857
 888  4881.602
 889  4875.771
 890  4744.623
 891  4711.911
 892  4711.951
 893  4760.63
 894  4919.675
 895  5089.012
 896  5027.44
 897  4927.801
 898  4724.566
 899  4571.016
 900  4393.091
 901  4379.762
 902  4512.315
 903  4586.602
 904  4710.469
 905  4643.331
 906  4707.002
 907  4738.479
 908  4948.678
 909  5028.981
 910  5098.706
 911  5022.241
 912  5022.317
 913  5091.457
 914  5189.413
 915  5024.907
 916  4699.652
 917  4520.793
 918  4662.495
 919  4717.074
 920  4654.173
 921  4588.168
 922  4623.731
 923  4718.781
 924  4630.1
 925  4700.244
 926  4858.889
 927  5112.472
 928  5103.26
 929  5024.062
 930  4930.482
 931  4843.953
 932  4668.504
 933  4597.787
 934  4330.423
 935  4282.853
 936  4261.62
 937  4424.742
 938  4480.147
 939  4460.423
 940  4577.659
 941  4758.455
 942  4841.421
 943  5041.309
 944  5179.213
 945  5393.15
 946  5289.113
 947  5234.48
 948  5094.759
 949  4843.463
 950  4703.042
 951  4642.912
 952  4653.653
 953  4455.589
 954  4458.439
 955  4479.814
 956  4489.034
 957  4372.487
 958  4372.118
 959  4488.187
 960  4621.929
 961  4705.719
 962  4752.556
 963  4791.755
 964  4827.832
 965  4797.543
 966  4634.86
 967  4395.577
 968  4378.964
 969  4323.097
 970  4346.135
 971  4348.757
 972  4346.256
 973  4414.369
 974  4485.653
 975  4611.928
 976  4630.577
 977  4836.432
 978  5019.352
 979  5137.367
 980  5091.659
 981  4984.858
 982  4925.313
 983  4700.471
 984  4518.747
 985  4336.183
 986  4385.156
 987  4526.403
 988  4615.315
 989  4711.707
 990  4727.381
 991  4555.447
 992  4441.084
 993  4426.585
 994  4602.14
 995  4779.881
 996  4809.213
 997  4750.357
 998  4548.31
 999  4377.465
1000  4378.991
1001  4294.813
1002  4422.803
1003  4429.031
1004  4611.358
1005  4533.484
1006  4554.737
1007  4632.315
1008  4792.958
1009  4793.239
1010  4977.035
1011  5068.235
1012  5178.131
1013  5074.978
1014  4988.603
1015  5074.766
1016  4988.267
1017  4867.403
1018  4594.992
1019  4551.131
1020  4510.822
1021  4498.053
1022  4468.169
1023  4409.241
