# Input file       =  1204908475.111136_cleaned.dat
# Candidate        =  PSR_0332+5434
# Telescope        =  AR
# Epoch_topo       =  58189.700163323330
# Epoch_bary       =  N/A
# T_sample         =  0.002
# Data Folded      =  7340032
# Data Avg         =  0.152073722158094
# Data StdDev      =  4.91472785765099 
# Profile Bins     =  512
# Profile Avg      =  2180.27880413168 
# Profile StdDev   =  588.455289362032 
# Reduced chi-sqr  =  0.862
# Prob(Noise)      <  0.989   (~0.0 sigma)
# P_topo (ms)      =  714.578642688619  +/- 0.00126
# P'_topo (s/s)    =  -0                +/- 6.66e-10
# P''_topo (s/s^2) =  0                 +/- 2.94e-13
# P_bary (ms)      =  N/A
# P'_bary (s/s)    =  N/A
# P''_bary (s/s^2) =  N/A
# P_orb (s)        =  N/A
# asin(i)/c (s)    =  N/A
# eccentricity     =  N/A
# w (rad)          =  N/A
# T_peri           =  N/A
######################################################
   0  2379.01
   1  2517.033
   2  2661.076
   3  2926.443
   4  2688.669
   5  2386.721
   6  1942.375
   7  1736.469
   8  1925.939
   9  1959.488
  10  2330.007
  11  2142.23
  12  2325.936
  13  2348.536
  14  2546.998
  15  2455.59
  16  1982.545
  17  2383.565
  18  2238.79
  19  2085.47
  20  2187.202
  21  2443.303
  22  2066.319
  23  2049.873
  24  2519.24
  25  2580.896
  26  2005.891
  27  2009.759
  28  1734.865
  29  1568.53
  30  2036.132
  31  2139.708
  32  1760.658
  33  2193.103
  34  2021.552
  35  2053.773
  36  2359.109
  37  2019.344
  38  1933.654
  39  1603.731
  40  1974.204
  41  2626.059
  42  2433.828
  43  2163.232
  44  2080.074
  45  2074.195
  46  2336.046
  47  2414.44
  48  1814.131
  49  1730.52
  50  1800.744
  51  1984.129
  52  1779.81
  53  1638.519
  54  1851.924
  55  1717.72
  56  1783.253
  57  2384.21
  58  2210.39
  59  2017.547
  60  1890.747
  61  1729.229
  62  1576.068
  63  2003.243
  64  1851.448
  65  1735.101
  66  1529.234
  67  1260.63
  68  1328.827
  69  1562.324
  70  1585.755
  71  1905.827
  72  2127.901
  73  1814.314
  74  1852.446
  75  1512.023
  76  1324.958
  77  1367.348
  78  1621.636
  79  1491.571
  80  1465.963
  81  1855.614
  82  1987.861
  83  1988.317
  84  2336.93
  85  2114.655
  86  1755.76
  87  1749.658
  88  1572.783
  89  1532.537
  90  1940.696
  91  2305.737
  92  2101.599
  93  2031.387
  94  1590.435
  95  1630.761
  96  1949.288
  97  1937.446
  98  1755.93
  99  1843.612
 100  1725.404
 101  1729.839
 102  1718.495
 103  1832.277
 104  2154.043
 105  2244.58
 106  1812.702
 107  1707.828
 108  1776.609
 109  1792.917
 110  2056.51
 111  2119.079
 112  2055.582
 113  2055.234
 114  2218.882
 115  2220.178
 116  2032.739
 117  1626.886
 118  2453.976
 119  2354.117
 120  2139.125
 121  2266.271
 122  2174.658
 123  2104.466
 124  2118.299
 125  2213.653
 126  2314.523
 127  2116.156
 128  2033.484
 129  2165.07
 130  2382.732
 131  2426.812
 132  2148.022
 133  2040.502
 134  1921.987
 135  1843.245
 136  1596.657
 137  1744.473
 138  1836.381
 139  1890.534
 140  1983.362
 141  1763.265
 142  2149.825
 143  2260.357
 144  1908.722
 145  2067.39
 146  2271.407
 147  2105.599
 148  1994.684
 149  2165.568
 150  2247.256
 151  2433.989
 152  2381.345
 153  2237.296
 154  2506.535
 155  2312.469
 156  2635.037
 157  2494.744
 158  2414.638
 159  2314.957
 160  2401.166
 161  2352.746
 162  2613.365
 163  2669.868
 164  2675.992
 165  2800.87
 166  2090.332
 167  2105.137
 168  2566.963
 169  2092.623
 170  2268.358
 171  1965.107
 172  2049.603
 173  2107.685
 174  2054.78
 175  1801.343
 176  1549.327
 177  1477.518
 178  1664.26
 179  1678.914
 180  1731.968
 181  1599.059
 182  1641.742
 183  1614.625
 184  1853.38
 185  1858.961
 186  1596.04
 187  1693.612
 188  1909.012
 189  1804.664
 190  1941.418
 191  1980.045
 192  2010.984
 193  2171.062
 194  2342.087
 195  2071.812
 196  1741.322
 197  2057.433
 198  2250.018
 199  2111.461
 200  2114.902
 201  2020.599
 202  1886.306
 203  1999.397
 204  2092.86
 205  2307.379
 206  1865.612
 207  1798.293
 208  1814.648
 209  1844.432
 210  1766.683
 211  1990.491
 212  1924.159
 213  1959.276
 214  2498.438
 215  2520.743
 216  2012.082
 217  2067.414
 218  2240.523
 219  1980.322
 220  1755.239
 221  2455.888
 222  2365.835
 223  2323.02
 224  2326.924
 225  2226.128
 226  1975.669
 227  1672.437
 228  1830.752
 229  1898.839
 230  2007.847
 231  2155.366
 232  2252.9
 233  2007.627
 234  2347.036
 235  2356.832
 236  2221.583
 237  2077.933
 238  2381.774
 239  2334.28
 240  2064.01
 241  2226.546
 242  2060.744
 243  2181.025
 244  2159.293
 245  2356.469
 246  2352.125
 247  2314.729
 248  2288.219
 249  1957.694
 250  2373.309
 251  2082.447
 252  2030.103
 253  2135.75
 254  2140.56
 255  2611.914
 256  2641.988
 257  2109.973
 258  2296.33
 259  2811.803
 260  2616.571
 261  2502.92
 262  2796.398
 263  2532.197
 264  2280.926
 265  2641.324
 266  2933.057
 267  2759.402
 268  2778.134
 269  2787.912
 270  2845.205
 271  2714.257
 272  2822.263
 273  3142.27
 274  2816.215
 275  2582.33
 276  2651.905
 277  2554.46
 278  2577.548
 279  2725.888
 280  2643.696
 281  2685.875
 282  2475.732
 283  2465.786
 284  2352.66
 285  2243.528
 286  2566.416
 287  2603.728
 288  3396.542
 289  3422.907
 290  3666.013
 291  3300.069
 292  3271.654
 293  3911.481
 294  4463.993
 295  4643.359
 296  4137.162
 297  3523.058
 298  2824.154
 299  2745.597
 300  2862.45
 301  2564.807
 302  2841.067
 303  2573.327
 304  2247.617
 305  2044.122
 306  2545.579
 307  2866.013
 308  2678.109
 309  2803.276
 310  3311.118
 311  2858.321
 312  2481.723
 313  2380.829
 314  2288.922
 315  2302.664
 316  2358.073
 317  2327.924
 318  2277.953
 319  2398.451
 320  2272.15
 321  2216.347
 322  2016.42
 323  2089.774
 324  1858.231
 325  1907.812
 326  1907.131
 327  2117.193
 328  2157.921
 329  2352.821
 330  2494.328
 331  2539.526
 332  2610.752
 333  2466.802
 334  2330.735
 335  2184.213
 336  2274.961
 337  2090.689
 338  2263.911
 339  2455.822
 340  2576.966
 341  2014.638
 342  2033.792
 343  2473.503
 344  2543.201
 345  2412.718
 346  2498.906
 347  2355.197
 348  2183.408
 349  2050.208
 350  2372.985
 351  2394.563
 352  2403.178
 353  2416.624
 354  2501.413
 355  2168.89
 356  2270.33
 357  2648.198
 358  2187.734
 359  1828.264
 360  2090.901
 361  2380.671
 362  2442.46
 363  2187.646
 364  2148.433
 365  2080.841
 366  2307.046
 367  2147.126
 368  1342.955
 369  1901.393
 370  1904.54
 371  1666.25
 372  2018.591
 373  1818.644
 374  2061.696
 375  2040.777
 376  1945.367
 377  1746.011
 378  1838.728
 379  2205.396
 380  1961.369
 381  1896.852
 382  1936.575
 383  2107.431
 384  2096.861
 385  1869.631
 386  1634.863
 387  1687.499
 388  1934.303
 389  2246.982
 390  1987.95
 391  1752.032
 392  2192.657
 393  1733.691
 394  1491.933
 395  1910.938
 396  2233.625
 397  2082.231
 398  2114.361
 399  2351.505
 400  2509.903
 401  2111.296
 402  1845.892
 403  2130.349
 404  2347.343
 405  2071.469
 406  2241.434
 407  2428.295
 408  2324.014
 409  2293.027
 410  2390.567
 411  2355.529
 412  2793.912
 413  2320.228
 414  2251.152
 415  2298.539
 416  1880.55
 417  1595.801
 418  1596.738
 419  1689.521
 420  1970.194
 421  1984.135
 422  2318.066
 423  2190.845
 424  2194.945
 425  2273.973
 426  1635.458
 427  1945.55
 428  1997.152
 429  1659.191
 430  2173.742
 431  2255.301
 432  2247.568
 433  2380.139
 434  1948.776
 435  1580.386
 436  1656.7
 437  1702.364
 438  2142.676
 439  2290.549
 440  2163.215
 441  1922.752
 442  1932.899
 443  2033.917
 444  2152.91
 445  2109.486
 446  2352.247
 447  2267.319
 448  2425.187
 449  2313.215
 450  1984.491
 451  2017.633
 452  2227.37
 453  2204.165
 454  2306.434
 455  2360.366
 456  2372.722
 457  2650.177
 458  2367.31
 459  1914.033
 460  2187.644
 461  2541.922
 462  2052.838
 463  2020.113
 464  2288.738
 465  2350.451
 466  2300.848
 467  1885.398
 468  1872.005
 469  2337.905
 470  2486.517
 471  2405.142
 472  2448.447
 473  2513.476
 474  2267.623
 475  2240.404
 476  1849.861
 477  2132.779
 478  2442.102
 479  2260.273
 480  1776.782
 481  2200.854
 482  2335.868
 483  2215.341
 484  2152.328
 485  1967.453
 486  1720.522
 487  1833.226
 488  2299.143
 489  2286.197
 490  2169.761
 491  2022.706
 492  1934.019
 493  1979.818
 494  2266.41
 495  2094.772
 496  1811.214
 497  2178.251
 498  2359.095
 499  2282.388
 500  2282.603
 501  2319.978
 502  2442.592
 503  2665.486
 504  2454.853
 505  2328.514
 506  2334.593
 507  2559.094
 508  2551.986
 509  2191.388
 510  2128.416
 511  2077.909
