# Input file       =  1204620467.112361_cleaned.dat
# Candidate        =  PSR_0332+5434
# Telescope        =  AR
# Epoch_topo       =  58186.366737411583
# Epoch_bary       =  N/A
# T_sample         =  0.002
# Data Folded      =  7208960
# Data Avg         =  0.222819187938744
# Data StdDev      =  5.0623971175817  
# Profile Bins     =  1024
# Profile Avg      =  1568.71786755404 
# Profile StdDev   =  424.75895118966  
# Reduced chi-sqr  =  1.848
# Prob(Noise)      <  2.36e-54   (~15.5 sigma)
# P_topo (ms)      =  714.5791647131    +/- 2.41e-05
# P'_topo (s/s)    =  -0                +/- 1.3e-11
# P''_topo (s/s^2) =  0                 +/- 5.83e-15
# P_bary (ms)      =  N/A
# P'_bary (s/s)    =  N/A
# P''_bary (s/s^2) =  N/A
# P_orb (s)        =  N/A
# asin(i)/c (s)    =  N/A
# eccentricity     =  N/A
# w (rad)          =  N/A
# T_peri           =  N/A
######################################################
   0  1819.379
   1  1833.115
   2  1926.103
   3  1722.066
   4  1542.295
   5  1529.509
   6  1449.808
   7  1621.602
   8  1738.446
   9  1808.37
  10  1674.26
  11  1294.479
  12  1233.771
  13  1113.621
  14  1204.536
  15  1273.232
  16  1234.347
  17  1339.621
  18  1460.78
  19  1497.682
  20  1599.275
  21  1541.61
  22  1862.006
  23  1922.304
  24  2058.024
  25  2224.518
  26  2152.92
  27  2027.713
  28  1645.337
  29  1526.272
  30  1482.766
  31  1328.946
  32  1244.274
  33  1319.444
  34  1477.031
  35  1655.749
  36  1564.443
  37  1487.552
  38  1363.7
  39  1309.16
  40  1585.757
  41  1567.404
  42  1745.689
  43  1557.954
  44  1469.477
  45  1158.908
  46  896.58
  47  818.5531
  48  751.481
  49  908.7324
  50  1196.073
  51  1348.302
  52  1538.946
  53  1618.845
  54  1766.918
  55  1959.881
  56  2051.006
  57  2308.432
  58  2303.707
  59  2050.601
  60  1763.275
  61  1466.071
  62  1411.252
  63  1400.689
  64  1382.191
  65  1416.682
  66  1305.696
  67  1451.13
  68  1537.5
  69  1601.09
  70  1645.567
  71  1589.554
  72  1593.685
  73  1657.309
  74  1750.37
  75  1778.458
  76  1534.576
  77  1404.635
  78  1207.22
  79  913.1481
  80  860.3187
  81  818.5982
  82  1152.61
  83  1275.674
  84  1352.394
  85  1348.249
  86  1312.222
  87  1461.006
  88  1787.038
  89  1917.011
  90  2204.586
  91  2083.598
  92  2126.473
  93  1789.395
  94  1505.449
  95  1436.011
  96  1370.147
  97  1433.48
  98  1346.327
  99  1380.172
 100  1637.875
 101  1641.633
 102  1640.975
 103  1400.981
 104  1227.905
 105  1427.459
 106  1473.071
 107  1663.469
 108  1611.971
 109  1568.005
 110  1442.585
 111  1113.358
 112  1039.344
 113  1026.539
 114  1064.851
 115  1092.944
 116  1001.075
 117  1207.101
 118  1328.825
 119  1398.988
 120  1637.116
 121  1707.622
 122  1906.313
 123  1994.824
 124  2014.952
 125  1908.51
 126  1457.242
 127  1500.355
 128  1380.9
 129  1316.791
 130  1302.319
 131  1404.313
 132  1682.583
 133  1671.117
 134  1496.939
 135  1344.959
 136  1164.616
 137  1179.611
 138  1329.729
 139  1441.404
 140  1603.787
 141  1458.946
 142  1497.299
 143  1271.635
 144  1124.521
 145  1009.072
 146  871.4216
 147  944.6734
 148  1160.79
 149  1221.148
 150  1346.317
 151  1363.989
 152  1626.66
 153  1569.766
 154  1588.823
 155  1876.286
 156  1949.803
 157  2034.01
 158  1947.44
 159  1893.961
 160  1848.288
 161  1600.515
 162  1592.082
 163  1456.55
 164  1330.961
 165  1447.429
 166  1544.24
 167  1597.86
 168  1562.399
 169  1488.583
 170  1653.949
 171  1554.404
 172  1640.061
 173  1686.5
 174  1602.981
 175  1622.542
 176  1432.245
 177  1327.217
 178  1148.151
 179  1115.95
 180  1148.46
 181  987.3328
 182  1201.742
 183  1616.528
 184  1776.248
 185  1808.884
 186  1709.63
 187  1861.909
 188  2009.198
 189  2027.096
 190  2156.921
 191  1965.819
 192  1816.125
 193  1605.781
 194  1442.921
 195  1363.003
 196  1195.31
 197  1396.694
 198  1567.048
 199  1514.765
 200  1566.676
 201  1566.528
 202  1608.974
 203  1464.337
 204  1301.599
 205  1404.749
 206  1506.651
 207  1705.265
 208  1698.279
 209  1497.962
 210  1340.975
 211  1050.872
 212  990.6666
 213  1028.001
 214  1179.005
 215  1464.751
 216  1579.51
 217  1563.49
 218  1541.913
 219  1473.043
 220  1755.249
 221  1998.518
 222  2263.825
 223  2228.631
 224  1900.399
 225  1873.002
 226  1732.789
 227  1661.417
 228  1531.925
 229  1401.796
 230  1434.076
 231  1345.464
 232  1534.146
 233  1727.436
 234  1688.115
 235  1621.089
 236  1469.573
 237  1461.637
 238  1631.942
 239  1618.535
 240  1664.826
 241  1359.022
 242  1221.281
 243  1056.522
 244  850.686
 245  869.5674
 246  854.2878
 247  1132.826
 248  1267.696
 249  1302.983
 250  1428.671
 251  1471.526
 252  1578.88
 253  1664.35
 254  1683.841
 255  1956.588
 256  2094.965
 257  2201.976
 258  1953.572
 259  1526.483
 260  1453.308
 261  1433.06
 262  1546.955
 263  1560.503
 264  1611.615
 265  1809.592
 266  1723.172
 267  1684.354
 268  1577.933
 269  1324.922
 270  1259.311
 271  1277.43
 272  1486.376
 273  1606.359
 274  1399.314
 275  1337.972
 276  1030.546
 277  960.1758
 278  850.497
 279  803.46
 280  933.0997
 281  1073.659
 282  1219.799
 283  1254.5
 284  1179.171
 285  1466.159
 286  1593.215
 287  1745.676
 288  1944.321
 289  1899.486
 290  1887.86
 291  1538.281
 292  1538.67
 293  1454.119
 294  1263.956
 295  1309.74
 296  1533.162
 297  1576.64
 298  1597.71
 299  1566.342
 300  1689.752
 301  1463.092
 302  1189.75
 303  1368.579
 304  1348.955
 305  1674.845
 306  1678.436
 307  1630.901
 308  1370.974
 309  983.9669
 310  954.6202
 311  869.0349
 312  1051.203
 313  1298.885
 314  1308.805
 315  1344.521
 316  1239.453
 317  1258.346
 318  1491.463
 319  1577.516
 320  1986.756
 321  2102.94
 322  2178.917
 323  2244.63
 324  2102.897
 325  2121.187
 326  1833.99
 327  1660.484
 328  1594.236
 329  1570.446
 330  1728.243
 331  1801.499
 332  1711.237
 333  1690.777
 334  1437.537
 335  1353.111
 336  1226.972
 337  1247.037
 338  1488.524
 339  1597.609
 340  1736.666
 341  1571.942
 342  1401.592
 343  1098.446
 344  878.5421
 345  1012.799
 346  1254.036
 347  1226.616
 348  1286.173
 349  1250.401
 350  1482.189
 351  1418.69
 352  1531.23
 353  1715.124
 354  1874.908
 355  2072.918
 356  2069.266
 357  1944.528
 358  1781.175
 359  1554.593
 360  1499.179
 361  1357.323
 362  1386.428
 363  1648.339
 364  1793.477
 365  1818.717
 366  1713.331
 367  1520.083
 368  1672.647
 369  1516.456
 370  1596.738
 371  1550.211
 372  1546.308
 373  1560.516
 374  1211.57
 375  1060.635
 376  816.0997
 377  852.4705
 378  1096.778
 379  1340.466
 380  1569.613
 381  1633.898
 382  1610.828
 383  1723.71
 384  1630.067
 385  1743.241
 386  1918.396
 387  2147.568
 388  2360.413
 389  2189.4
 390  2081.864
 391  1874.713
 392  1775.271
 393  1667.859
 394  1443.114
 395  1404.063
 396  1574.378
 397  1842.36
 398  1970.972
 399  1694.114
 400  1577.758
 401  1516.648
 402  1396.712
 403  1401.91
 404  1502.481
 405  1879.146
 406  1750.308
 407  1347.478
 408  1048.819
 409  810.0328
 410  1141.166
 411  1194.396
 412  1307.031
 413  1345.984
 414  1337.981
 415  1562.392
 416  1604.561
 417  1658.305
 418  1847.808
 419  1843.361
 420  2124.982
 421  2104.171
 422  2086.506
 423  2040.244
 424  1752.67
 425  1703.016
 426  1452.493
 427  1348.938
 428  1373.18
 429  1456.902
 430  1662.23
 431  1825.817
 432  1724.043
 433  1655.896
 434  1357.454
 435  1502.527
 436  1739.995
 437  1743.346
 438  1800.703
 439  1558.296
 440  1566.486
 441  1164.678
 442  883.5811
 443  773.8768
 444  718.707
 445  964.6964
 446  1287.591
 447  1445.723
 448  1579.974
 449  1470.163
 450  1656.325
 451  1667.868
 452  1779.602
 453  1970.454
 454  1975.242
 455  2041.908
 456  1939.812
 457  1756.986
 458  1622.204
 459  1374.351
 460  1392.633
 461  1406.208
 462  1447.786
 463  1666.975
 464  1738.198
 465  1702.994
 466  1527.649
 467  1251.848
 468  1220.587
 469  1337.92
 470  1682.097
 471  1892.836
 472  1836.505
 473  1735.475
 474  1487.031
 475  1178.286
 476  837.3485
 477  799.4529
 478  1071.472
 479  1344.221
 480  1369.465
 481  1435.755
 482  1287.499
 483  1585.677
 484  1618.336
 485  1856.735
 486  1907.843
 487  2085.009
 488  2361.73
 489  2169.698
 490  1923.486
 491  1708.04
 492  1643.43
 493  1625.407
 494  1512.641
 495  1518.596
 496  1681.767
 497  1657.65
 498  1818.402
 499  1681.992
 500  1521.176
 501  1469.911
 502  1468.654
 503  1680.898
 504  1702.032
 505  1864.422
 506  1806.969
 507  1414.894
 508  1137.419
 509  939.5387
 510  1097.036
 511  1124.233
 512  1235.849
 513  1462.264
 514  1505.974
 515  1477.035
 516  1595.242
 517  1626.034
 518  1912.751
 519  2055.159
 520  2278.521
 521  2097.426
 522  1798.675
 523  1795.313
 524  1597.279
 525  1440.925
 526  1343.212
 527  1512.681
 528  1723.332
 529  1622.966
 530  1692.543
 531  1712.688
 532  1530.976
 533  1373.405
 534  1422.547
 535  1679.175
 536  1789.642
 537  1809.107
 538  1925.639
 539  1711.205
 540  1448.455
 541  1176.16
 542  912.6978
 543  960.53
 544  1087.431
 545  1438.738
 546  1552.127
 547  1429.476
 548  1553.534
 549  1427.526
 550  1590.165
 551  1800.367
 552  2052.651
 553  2295.192
 554  2037.92
 555  1903.995
 556  1728.607
 557  1626.259
 558  1698.983
 559  1596.37
 560  1577.62
 561  1511.408
 562  1725.074
 563  1886.611
 564  1809.131
 565  1570.098
 566  1609.821
 567  1543.085
 568  1699.866
 569  1755.281
 570  1959.562
 571  1853.025
 572  1562.438
 573  1207.262
 574  904.0768
 575  889.1027
 576  1087.421
 577  1275.603
 578  1519.505
 579  1659.463
 580  1753.55
 581  1931.705
 582  1809.711
 583  1878.486
 584  2034.773
 585  2190.608
 586  2269.909
 587  2018.421
 588  1948.976
 589  1725.763
 590  1717.221
 591  1679.619
 592  1558.337
 593  1583.24
 594  1807.574
 595  1970.924
 596  2070.303
 597  1913.733
 598  1884.158
 599  1682.832
 600  1731.35
 601  1908.221
 602  2042.166
 603  2251.103
 604  2153.653
 605  1995.769
 606  1921.652
 607  1844.615
 608  1970.855
 609  1823.366
 610  1725.152
 611  1867.392
 612  1906.386
 613  2132.696
 614  1975.702
 615  1860.915
 616  1904.801
 617  1901.253
 618  2206.082
 619  2134.175
 620  2112.763
 621  2100.19
 622  1935.398
 623  1810.889
 624  1528.491
 625  1543.373
 626  1607.913
 627  1588.314
 628  1705.556
 629  1817.893
 630  1706.159
 631  1796.065
 632  1558.278
 633  1639.621
 634  1521.414
 635  1688.366
 636  1920.218
 637  1908.887
 638  1809.86
 639  1440.353
 640  1193.246
 641  1022.586
 642  953.2061
 643  1103.791
 644  1242.884
 645  1323.856
 646  1418.161
 647  1468.56
 648  1609.481
 649  1743.179
 650  1887.604
 651  2128.001
 652  2085.14
 653  2286.731
 654  2077.979
 655  1871.373
 656  1657.05
 657  1504.5
 658  1545.024
 659  1484.386
 660  1600.002
 661  1808.882
 662  1832.183
 663  1797.477
 664  1556.922
 665  1468.982
 666  1554.162
 667  1760.844
 668  1972.984
 669  1919.403
 670  1708.465
 671  1538.898
 672  1245.443
 673  1131.211
 674  949.7427
 675  1043.614
 676  1164.415
 677  1294.472
 678  1480.243
 679  1523.629
 680  1531.996
 681  1630.855
 682  1601.786
 683  1975.605
 684  2129.744
 685  2323.94
 686  2225.509
 687  2049.848
 688  1963.299
 689  1782.453
 690  1546.515
 691  1378.378
 692  1266.864
 693  1331.765
 694  1497.189
 695  1601.855
 696  1743.371
 697  1509.652
 698  1557.246
 699  1580.626
 700  1587.732
 701  1773.446
 702  1771.162
 703  1958.29
 704  1594.908
 705  1343.329
 706  1066.167
 707  822.2485
 708  924.5356
 709  1079.846
 710  1298.044
 711  1545.447
 712  1544.172
 713  1664.257
 714  1720.447
 715  1818.872
 716  2032.987
 717  1996.23
 718  2214.665
 719  2195.721
 720  2094.65
 721  1995.641
 722  1767.75
 723  1829.977
 724  1633.914
 725  1533.108
 726  1579.875
 727  1720.298
 728  1809.297
 729  1810.182
 730  1634.33
 731  1622.506
 732  1413.978
 733  1592.185
 734  1636.728
 735  1769.352
 736  1872.226
 737  1720.798
 738  1609.52
 739  1257.312
 740  1029.345
 741  923.7097
 742  966.9464
 743  1199.464
 744  1412.003
 745  1550.015
 746  1748.454
 747  1660.103
 748  1780.368
 749  1901.323
 750  2145.443
 751  2274.537
 752  2246.505
 753  2052.632
 754  1868.974
 755  1680.489
 756  1717.342
 757  1540.47
 758  1648.606
 759  1661.579
 760  1788.394
 761  1778.291
 762  1735.976
 763  1660.63
 764  1682.656
 765  1522.633
 766  1556.508
 767  1552.991
 768  1807.189
 769  1755.677
 770  1579.566
 771  1368.086
 772  1078.082
 773  979.9263
 774  885.2639
 775  971.9951
 776  1221.206
 777  1409.695
 778  1545.69
 779  1629.778
 780  1636.014
 781  1645.148
 782  1582.638
 783  1788.847
 784  1935.031
 785  1843.761
 786  1895.432
 787  1857.523
 788  1807.226
 789  1506.101
 790  1307.423
 791  1468.886
 792  1473.669
 793  1599.821
 794  1687.156
 795  1592.865
 796  1659.776
 797  1508.824
 798  1639.791
 799  1514.511
 800  1507.501
 801  1713.258
 802  1758.915
 803  1649.988
 804  1453.021
 805  1194.58
 806  1034.153
 807  760.7299
 808  938.6681
 809  1069.968
 810  1225.758
 811  1404.876
 812  1443.951
 813  1475.324
 814  1661.068
 815  1783.467
 816  1970.914
 817  1894.429
 818  2125.954
 819  2065.002
 820  1811.977
 821  1577.599
 822  1438.805
 823  1412.643
 824  1428.121
 825  1432.938
 826  1559.286
 827  1552.292
 828  1699.749
 829  1766.003
 830  1534.059
 831  1627.595
 832  1578.517
 833  1782.555
 834  1693.43
 835  1628.01
 836  1452.384
 837  1095.466
 838  1026.411
 839  943.4501
 840  902.3506
 841  1098.602
 842  1227.515
 843  1445.972
 844  1483.852
 845  1516.006
 846  1657.453
 847  1645.76
 848  1792.244
 849  1982.999
 850  1977.08
 851  2075.865
 852  1934.51
 853  1994.295
 854  1771.911
 855  1528.978
 856  1460.999
 857  1354.778
 858  1427.732
 859  1615.767
 860  1729.926
 861  1865.762
 862  1645.7
 863  1758.322
 864  1658.263
 865  1564.429
 866  1553.018
 867  1527.48
 868  1605.409
 869  1440.473
 870  1266.913
 871  1192.116
 872  960.8984
 873  997.4435
 874  1028.043
 875  1246.468
 876  1454.398
 877  1681.254
 878  1822.037
 879  1865.745
 880  1879.478
 881  2075.972
 882  2053.292
 883  2149.952
 884  2134.834
 885  2091.182
 886  1936.08
 887  1693.488
 888  1678.832
 889  1633.339
 890  1565.149
 891  1615.75
 892  1600.715
 893  1661.102
 894  1716.78
 895  1779.842
 896  1697.84
 897  1530.144
 898  1550.758
 899  1684.628
 900  1603.797
 901  1614.134
 902  1368.954
 903  1352.841
 904  1159.195
 905  1119.489
 906  1090.747
 907  1093.788
 908  1181.495
 909  1397.971
 910  1436.061
 911  1625.81
 912  1750.69
 913  1956.266
 914  2040.911
 915  1963.926
 916  2163.571
 917  2108.491
 918  2119.416
 919  1989.681
 920  1848.426
 921  1728.851
 922  1468.834
 923  1437.248
 924  1508.462
 925  1604.202
 926  1627.391
 927  1716.9
 928  1684.005
 929  1726.782
 930  1499.528
 931  1689.997
 932  1620.374
 933  1818.696
 934  1829.62
 935  1797.511
 936  1477.416
 937  1013.011
 938  933.84
 939  1026.025
 940  1060.197
 941  1119.891
 942  1112.538
 943  1288.226
 944  1557.474
 945  1650.982
 946  1807.035
 947  2002.803
 948  2200.516
 949  2233.629
 950  2046.023
 951  2011.887
 952  1826.718
 953  1674.699
 954  1615.716
 955  1506.729
 956  1586.86
 957  1431.376
 958  1532.267
 959  1720.524
 960  1698.07
 961  1568.017
 962  1481.723
 963  1508.935
 964  1597.266
 965  1389.916
 966  1666.128
 967  1583.31
 968  1661.209
 969  1233.81
 970  991.2626
 971  816.0491
 972  806.2416
 973  853.2751
 974  1033.548
 975  1150.572
 976  1341.764
 977  1358.101
 978  1481.465
 979  1624.067
 980  1684.144
 981  1922.138
 982  2041.789
 983  2082.284
 984  1957.364
 985  1602.854
 986  1712.04
 987  1493.352
 988  1489.197
 989  1450.729
 990  1562.033
 991  1547.914
 992  1506.013
 993  1559.309
 994  1625.995
 995  1256.557
 996  1306.903
 997  1263.287
 998  1515.272
 999  1660.347
1000  1713.637
1001  1662.68
1002  1353.494
1003  1157.549
1004  930.7484
1005  638.5298
1006  808.1942
1007  947.0861
1008  1229.466
1009  1389.385
1010  1487.324
1011  1596.036
1012  1584.266
1013  1688.508
1014  1986.879
1015  1921.354
1016  2047.456
1017  1782.95
1018  1798.034
1019  1571.295
1020  1338.956
1021  1290.712
1022  1360.365
1023  1571.932
