# Input file       =  1204032628.106903_cleaned.dat
# Candidate        =  PSR_0332+5434
# Telescope        =  AR
# Epoch_topo       =  58179.563045218783
# Epoch_bary       =  N/A
# T_sample         =  0.002
# Data Folded      =  7340032
# Data Avg         =  0.470400320915881
# Data StdDev      =  8.94051957036572 
# Profile Bins     =  512
# Profile Avg      =  6740.15465273399 
# Profile StdDev   =  1070.47555494579 
# Reduced chi-sqr  =  1.031
# Prob(Noise)      <  0.306   (~0.5 sigma)
# P_topo (ms)      =  714.58035435989   +/- 0.000407
# P'_topo (s/s)    =  -0                +/- 2.15e-10
# P''_topo (s/s^2) =  0                 +/- 9.47e-14
# P_bary (ms)      =  N/A
# P'_bary (s/s)    =  N/A
# P''_bary (s/s^2) =  N/A
# P_orb (s)        =  N/A
# asin(i)/c (s)    =  N/A
# eccentricity     =  N/A
# w (rad)          =  N/A
# T_peri           =  N/A
######################################################
   0  7085.788
   1  6500.198
   2  6788.606
   3  6974.232
   4  7231.413
   5  7826.353
   6  7843.56
   7  7806.499
   8  7709.617
   9  7001.294
  10  7097.712
  11  6974.022
  12  6792.346
  13  7131.858
  14  7670.744
  15  7731.815
  16  8107.448
  17  8118.572
  18  8118.4
  19  8001.124
  20  8094.61
  21  8198.24
  22  7821.341
  23  7946.858
  24  8198.591
  25  8627.225
  26  8262.714
  27  7799.561
  28  7846.519
  29  7727.629
  30  7807.046
  31  8544.012
  32  8467.184
  33  7565.369
  34  7475.047
  35  7581.706
  36  7116.117
  37  6941.561
  38  6624.779
  39  6873.471
  40  7012.606
  41  6721.035
  42  6373.029
  43  5887.114
  44  5366.733
  45  5542.038
  46  5299.42
  47  5516.867
  48  5821.496
  49  5433.49
  50  5427.211
  51  5347.833
  52  5243.917
  53  5520.707
  54  5654.908
  55  5448.746
  56  5648.713
  57  5255.564
  58  5578.226
  59  6014.793
  60  6425.415
  61  6542.936
  62  6161.45
  63  6627.189
  64  6563.016
  65  6359.485
  66  6300.174
  67  6857.027
  68  7181.014
  69  6291.684
  70  6883.151
  71  7642.665
  72  7324.4
  73  7452.193
  74  7916.362
  75  8146.237
  76  7656.537
  77  7432.867
  78  7897.412
  79  7682.711
  80  6987.097
  81  6664.891
  82  7267.506
  83  6997.809
  84  6618.119
  85  7033.044
  86  7363.622
  87  7107.898
  88  6806.075
  89  6530.016
  90  6637.049
  91  6548.419
  92  6624.526
  93  6726.092
  94  6516.033
  95  6572.514
  96  6980.241
  97  6887.036
  98  7154.487
  99  7133.499
 100  6999.809
 101  6786.464
 102  6537.195
 103  7060.876
 104  6940.672
 105  6996.01
 106  7349.748
 107  7053.005
 108  7659.958
 109  7652.919
 110  7785.322
 111  8115.182
 112  7935.699
 113  7780.184
 114  7443.003
 115  7209.179
 116  7066.649
 117  7136.258
 118  6660.572
 119  6578.591
 120  6142.649
 121  6117.339
 122  6090.287
 123  6342.1
 124  6498.979
 125  6314.832
 126  5958.668
 127  5951.812
 128  6203.624
 129  5893.754
 130  5702.111
 131  5716.201
 132  5617.945
 133  5879.905
 134  5743.451
 135  5806.076
 136  5910.676
 137  5789.355
 138  4739.028
 139  5101.295
 140  5351.127
 141  5026.839
 142  5230.658
 143  5677.945
 144  5625.375
 145  5568.809
 146  5164.884
 147  4924.01
 148  5282.803
 149  5384.213
 150  5861.696
 151  5822.507
 152  5642.091
 153  5595.687
 154  5366.761
 155  5820.207
 156  6658.473
 157  6714.983
 158  6284.271
 159  6263.423
 160  6207.746
 161  6193.886
 162  6408.155
 163  6742.637
 164  6493.751
 165  6553.508
 166  6509.579
 167  6576.619
 168  6199.35
 169  6460.138
 170  6977.851
 171  7151.551
 172  7165.945
 173  6643.895
 174  6805.288
 175  6892.985
 176  6984.801
 177  7058.998
 178  7093.286
 179  7110.996
 180  6579.229
 181  6808.212
 182  7116.935
 183  7263.213
 184  7237.671
 185  7536.842
 186  7216.83
 187  6715.903
 188  7084.838
 189  6837.22
 190  6402.336
 191  6641.435
 192  6712.827
 193  6744.814
 194  6300.711
 195  6104.307
 196  6106.228
 197  6016.5
 198  6234.284
 199  5942.633
 200  5524.415
 201  5820.702
 202  5973.002
 203  5705.778
 204  5496.706
 205  5381.382
 206  5541.135
 207  5313.235
 208  6047.178
 209  6290.132
 210  5890.278
 211  6116.469
 212  6434.2
 213  6429.108
 214  6266.832
 215  5578.656
 216  5599.885
 217  5951.316
 218  6036.231
 219  6386.685
 220  6263.601
 221  7108.476
 222  7252.155
 223  7286.195
 224  7109.555
 225  6844.271
 226  6748.254
 227  6397.958
 228  6710.389
 229  6534.594
 230  6611.589
 231  6049.535
 232  6229.305
 233  6582.562
 234  6265.397
 235  6100.49
 236  6205.469
 237  5636.428
 238  5736.127
 239  6138.77
 240  6922.674
 241  7310.714
 242  7457.935
 243  6763.314
 244  6455.742
 245  7036.889
 246  7261.356
 247  7114.232
 248  7256.124
 249  7016.685
 250  6949.746
 251  6425.471
 252  6330.312
 253  6289.637
 254  6458.738
 255  6408.042
 256  5654.424
 257  5868.393
 258  5767.161
 259  6017.918
 260  6073.574
 261  5704.731
 262  5966.394
 263  6182.23
 264  6214.954
 265  6473.696
 266  6516.754
 267  6582.426
 268  6538.383
 269  6608.384
 270  6561.71
 271  6799.296
 272  6860.471
 273  7334.851
 274  7512.925
 275  7500.181
 276  7300.769
 277  6731.238
 278  7244.113
 279  7637.914
 280  7874.333
 281  8025.361
 282  7661.133
 283  7740.634
 284  8029.231
 285  7922.768
 286  7659.967
 287  7534.265
 288  7681.832
 289  7526.645
 290  7354.55
 291  7417.767
 292  7177.951
 293  7337.022
 294  6874.936
 295  6920.641
 296  7308.558
 297  7321.438
 298  7902.876
 299  7914.794
 300  7072.849
 301  7078.024
 302  7679.705
 303  8144.875
 304  8802.94
 305  8943.354
 306  8371.434
 307  8369.402
 308  7717.391
 309  7421.117
 310  7477.826
 311  7956.746
 312  7971.512
 313  7650.649
 314  7708.198
 315  7389.681
 316  7461.165
 317  7655.806
 318  7788.716
 319  7323.943
 320  7518.86
 321  6989.144
 322  6957.407
 323  7026.328
 324  7415.634
 325  7419.81
 326  7075.759
 327  6985.823
 328  6654.64
 329  6871.188
 330  7185.956
 331  6856.325
 332  7288.646
 333  7326.216
 334  6833.905
 335  6399.711
 336  6178.7
 337  6316.651
 338  6134.709
 339  6032.568
 340  6083.12
 341  6282.761
 342  5955.795
 343  5352.199
 344  5111.129
 345  5170.926
 346  5388.502
 347  5473.302
 348  5957.307
 349  6365.984
 350  6078.24
 351  5811.777
 352  5862.522
 353  6500.051
 354  6401.813
 355  6936.538
 356  6624.107
 357  6644.235
 358  6805.71
 359  6603.173
 360  5989.922
 361  5859.745
 362  5898.432
 363  5805.373
 364  5708.354
 365  5641.461
 366  5904.694
 367  6104.132
 368  6062.827
 369  6007.231
 370  6010.829
 371  6554.448
 372  6555.365
 373  6788.421
 374  6748.7
 375  6509.182
 376  6105.57
 377  6362.219
 378  6294.31
 379  6312.19
 380  6361.628
 381  6641.418
 382  6704.627
 383  6802.153
 384  6953.605
 385  6677.343
 386  6938.654
 387  6988.132
 388  6954.397
 389  6555.348
 390  6439.229
 391  6278.837
 392  6574.345
 393  7178.533
 394  7438.159
 395  7619.788
 396  7383.336
 397  7360.721
 398  7039.192
 399  6922.411
 400  7105.979
 401  7014.05
 402  6735.288
 403  6652.849
 404  6460.489
 405  6191.192
 406  6261.254
 407  6140.075
 408  6166.327
 409  5903.718
 410  6149.814
 411  6474.339
 412  6704.626
 413  5952.71
 414  5562.763
 415  5792.246
 416  5715.942
 417  5886.817
 418  6121.413
 419  6176.314
 420  5818.073
 421  5778.768
 422  5795.236
 423  5418.689
 424  5522.213
 425  5613.987
 426  5869.45
 427  6271.572
 428  6385.435
 429  6452.118
 430  5803.477
 431  6265.989
 432  7312.492
 433  7061.406
 434  7049.251
 435  6730.399
 436  6841.388
 437  6686.498
 438  6870.206
 439  7427.346
 440  7657.525
 441  7817.69
 442  7476.929
 443  7664.632
 444  7240.187
 445  7033.787
 446  7238.232
 447  7735.842
 448  7332.473
 449  7389.586
 450  7771.321
 451  7707.528
 452  7236.156
 453  7543.577
 454  8357.022
 455  8390.962
 456  8455.552
 457  8327.748
 458  7507.366
 459  7420.891
 460  7532.25
 461  7630.985
 462  7719.768
 463  7859.568
 464  7886.423
 465  7835.839
 466  7549.742
 467  7316.211
 468  7714.866
 469  7986.101
 470  7709.066
 471  8072.777
 472  8277.158
 473  8040.924
 474  8039.513
 475  7048.289
 476  6608.771
 477  7185.614
 478  7148.171
 479  7624.266
 480  7395.048
 481  7341.421
 482  6616.609
 483  6905.156
 484  7035.083
 485  7154.907
 486  7825.295
 487  7823.851
 488  7446.961
 489  7064.94
 490  7076.329
 491  6538.18
 492  6395.778
 493  6584.874
 494  6326.239
 495  6187.847
 496  5622.652
 497  5359.244
 498  6080.279
 499  6316.821
 500  6185.204
 501  6198.796
 502  6039.317
 503  6148.68
 504  5848.35
 505  5859.02
 506  6169.065
 507  6130.975
 508  6399.901
 509  6383.631
 510  7027.838
 511  7434.362
