# Input file       =  1204808031.109151_cleaned.dat
# Candidate        =  PSR_0332+5434
# Telescope        =  AR
# Epoch_topo       =  58188.537617004062
# Epoch_bary       =  N/A
# T_sample         =  0.002
# Data Folded      =  7340032
# Data Avg         =  0.0892712139559865
# Data StdDev      =  7.41166793179472 
# Profile Bins     =  1024
# Profile Avg      =  639.644091952672 
# Profile StdDev   =  627.50176472708  
# Reduced chi-sqr  =  1.062
# Prob(Noise)      <  0.0815   (~1.4 sigma)
# P_topo (ms)      =  714.578642682803  +/- 0.00114
# P'_topo (s/s)    =  -0                +/- 6.01e-10
# P''_topo (s/s^2) =  0                 +/- 2.66e-13
# P_bary (ms)      =  N/A
# P'_bary (s/s)    =  N/A
# P''_bary (s/s^2) =  N/A
# P_orb (s)        =  N/A
# asin(i)/c (s)    =  N/A
# eccentricity     =  N/A
# w (rad)          =  N/A
# T_peri           =  N/A
######################################################
   0  969.7363
   1  1050.952
   2  969.0342
   3  932.6028
   4  861.1848
   5  905.6323
   6  861.6865
   7  835.3665
   8  777.7503
   9  730.0601
  10  805.9052
  11  1004.814
  12  1119.105
  13  1044.295
  14  932.8356
  15  794.2085
  16  800.6738
  17  846.15
  18  855.9899
  19  938.6547
  20  983.0873
  21  925.0148
  22  766.0103
  23  619.558
  24  549.0003
  25  549.3578
  26  579.0718
  27  484.795
  28  527.5873
  29  549.6289
  30  549.132
  31  408.8135
  32  431.3016
  33  507.4291
  34  600.0537
  35  509.5809
  36  522.4634
  37  656.8244
  38  794.4741
  39  748.7962
  40  709.5828
  41  610.7203
  42  795.9769
  43  866.5046
  44  793.3019
  45  767.1342
  46  762.1
  47  853.4541
  48  793.7595
  49  802.9185
  50  708.0081
  51  686.194
  52  784.0261
  53  863.0396
  54  879.1929
  55  767.845
  56  790.2764
  57  699.4967
  58  680.5684
  59  709.8303
  60  880.0833
  61  886.2551
  62  725.7572
  63  707.7424
  64  782.2425
  65  722.5693
  66  643.0938
  67  684.4045
  68  736.5831
  69  739.4849
  70  705.9959
  71  648.212
  72  644.6588
  73  507.6786
  74  569.791
  75  632.3806
  76  634.5986
  77  647.5031
  78  684.6298
  79  712.3472
  80  717.5148
  81  682.3431
  82  731.9638
  83  666.6927
  84  590.0164
  85  663.1013
  86  834.3591
  87  966.241
  88  990.4577
  89  861.1915
  90  794.905
  91  820.5775
  92  777.3518
  93  807.9677
  94  828.8295
  95  876.5687
  96  956.8302
  97  936.7236
  98  1030.539
  99  1131.783
 100  1246.989
 101  1221.76
 102  1241.475
 103  1212.467
 104  1226.742
 105  1279.126
 106  1230.764
 107  1240.562
 108  1174.071
 109  1172.605
 110  1175.635
 111  1158.03
 112  1242.288
 113  1158.486
 114  967.1493
 115  943.4632
 116  806.6155
 117  911.3712
 118  946.0381
 119  1075.247
 120  1227.55
 121  1092.983
 122  896.5555
 123  718.9517
 124  833.07
 125  803.5796
 126  739.5101
 127  745.7936
 128  799.4225
 129  667.3152
 130  575.5966
 131  379.6675
 132  456.0146
 133  706.7135
 134  800.5237
 135  705.5303
 136  771.3773
 137  665.3127
 138  698.4506
 139  619.5779
 140  582.5409
 141  661.9603
 142  692.1505
 143  805.0186
 144  798.3676
 145  738.8217
 146  691.3792
 147  654.7284
 148  715.2491
 149  796.9363
 150  875.7638
 151  769.4772
 152  632.1648
 153  542.0789
 154  622.0232
 155  678.5555
 156  525.725
 157  498.1041
 158  598.1008
 159  652.5676
 160  775.2609
 161  684.3254
 162  712.6577
 163  575.7631
 164  519.5651
 165  575.8615
 166  625.3181
 167  598.0262
 168  558.0848
 169  355.1326
 170  291.7179
 171  253.545
 172  199.1324
 173  404.5268
 174  590.9832
 175  561.4901
 176  464.0674
 177  363.7321
 178  302.7011
 179  384.5025
 180  447.648
 181  514.1191
 182  461.4381
 183  445.2551
 184  452.3328
 185  469.9016
 186  423.9689
 187  376.0435
 188  329.854
 189  372.8919
 190  534.5076
 191  560.6368
 192  467.1964
 193  283.2482
 194  195.3355
 195  326.3083
 196  348.7162
 197  396.7159
 198  247.8737
 199  234.5196
 200  263.3884
 201  450.2296
 202  570.9035
 203  549.6889
 204  524.0335
 205  361.6788
 206  261.8063
 207  261.5079
 208  274.6163
 209  383.1917
 210  362.5575
 211  493.9333
 212  411.6712
 213  325.884
 214  321.3651
 215  495.6042
 216  560.9569
 217  460.8744
 218  433.4274
 219  380.7495
 220  571.9157
 221  553.1769
 222  611.077
 223  617.8711
 224  747.6701
 225  706.6593
 226  657.7925
 227  641.9033
 228  714.2713
 229  654.2191
 230  682.8333
 231  729.294
 232  845.3723
 233  917.9512
 234  1026.888
 235  920.3984
 236  688.3759
 237  492.6746
 238  418.9982
 239  482.4476
 240  573.8311
 241  577.5274
 242  689.6867
 243  811.0948
 244  882.389
 245  843.2598
 246  897.8841
 247  1063.618
 248  989.3076
 249  848.6672
 250  531.8879
 251  502.697
 252  410.8188
 253  409.1625
 254  443.1051
 255  417.7382
 256  473.2854
 257  522.9094
 258  632.5572
 259  569.7495
 260  607.2584
 261  584.5206
 262  574.2271
 263  619.7728
 264  654.9098
 265  555.9031
 266  451.6396
 267  342.9577
 268  497.2881
 269  437.0312
 270  417.3582
 271  414.7982
 272  403.2583
 273  368.7593
 274  159.5585
 275  263.6538
 276  366.3667
 277  308.1901
 278  119.826
 279  186.3559
 280  229.267
 281  357.9846
 282  367.6415
 283  537.4508
 284  598.3574
 285  491.2308
 286  401.0004
 287  318.8959
 288  446.9075
 289  325.6699
 290  302.8593
 291  328.5299
 292  440.766
 293  243.1724
 294  163.7114
 295  260.9762
 296  205.628
 297  177.6582
 298  147.6608
 299  135.5463
 300  120.2163
 301  51.20375
 302  100.2581
 303  158.3615
 304  265.6449
 305  526.7437
 306  454.0967
 307  304.6266
 308  234.2338
 309  371.823
 310  488.5587
 311  492.9131
 312  406.9276
 313  302.5134
 314  302.0402
 315  303.686
 316  301.4897
 317  343.8046
 318  406.1239
 319  491.2216
 320  520.183
 321  615.821
 322  594.9086
 323  624.738
 324  644.0584
 325  759.4092
 326  813.4173
 327  877.8741
 328  824.7711
 329  842.449
 330  840.488
 331  869.7338
 332  736.0347
 333  727.41
 334  578.5847
 335  613.6063
 336  595.3704
 337  573.3165
 338  690.2765
 339  662.9413
 340  708.748
 341  659.5176
 342  620.2677
 343  543.4602
 344  581.616
 345  704.0669
 346  702.8074
 347  420.8919
 348  147.7882
 349  -12.6303
 350  42.78582
 351  219.4516
 352  310.5639
 353  390.3518
 354  380.6457
 355  253.4305
 356  303.3445
 357  439.3689
 358  537.0005
 359  674.2425
 360  532.1727
 361  334.8288
 362  222.4785
 363  149.4321
 364  223.4543
 365  266.3334
 366  402.4658
 367  444.8395
 368  411.116
 369  364.5851
 370  388.6225
 371  512.8405
 372  515.6585
 373  564.9747
 374  505.7603
 375  555.0359
 376  567.4539
 377  418.984
 378  416.1497
 379  570.5585
 380  674.2809
 381  722.9805
 382  615.738
 383  636.3519
 384  483.2756
 385  415.1075
 386  384.559
 387  336.3346
 388  332.4081
 389  328.4086
 390  261.114
 391  187.9749
 392  -8.324924
 393  37.13082
 394  60.32345
 395  311.3314
 396  318.1873
 397  422.8981
 398  425.8316
 399  336.2702
 400  328.3787
 401  118.4756
 402  93.92762
 403  166.0584
 404  319.4825
 405  484.9398
 406  432.4027
 407  475.6763
 408  330.6378
 409  323.041
 410  325.8949
 411  340.3922
 412  348.116
 413  322.5953
 414  330.1642
 415  279.0703
 416  204.8077
 417  221.7348
 418  263.7083
 419  157.5098
 420  41.1372
 421  -4.574954
 422  13.34703
 423  137.4692
 424  304.4115
 425  374.7667
 426  435.9744
 427  320.9208
 428  224.1871
 429  209.1981
 430  310.7694
 431  488.886
 432  402.3577
 433  426.8568
 434  235.2417
 435  213.8638
 436  192.4991
 437  308.2233
 438  325.2069
 439  317.4924
 440  305.2025
 441  322.212
 442  342.4055
 443  341.4248
 444  327.3851
 445  381.2973
 446  458.3969
 447  481.0905
 448  578.9805
 449  590.058
 450  649.9521
 451  456.0556
 452  392.2179
 453  397.6615
 454  575.4406
 455  579.8505
 456  491.3367
 457  385.0882
 458  274.8998
 459  435.0034
 460  506.0288
 461  590.9967
 462  523.0453
 463  589.3619
 464  606.0916
 465  623.4189
 466  639.1671
 467  699.3683
 468  646.5013
 469  546.0042
 470  412.332
 471  420.6918
 472  390.7156
 473  439.1807
 474  427.1904
 475  606.2906
 476  612.4642
 477  545.6102
 478  545.3889
 479  621.1072
 480  625.0696
 481  548.396
 482  304.1476
 483  206.7607
 484  203.2017
 485  303.878
 486  242.2224
 487  68.9967
 488  14.89213
 489  59.31994
 490  161.3808
 491  117.8341
 492  24.08208
 493  0.6581777
 494  47.07498
 495  22.58737
 496  32.06269
 497  141.6497
 498  106.1518
 499  35.28794
 500  -146.4673
 501  -120.236
 502  -35.46125
 503  34.25114
 504  8.344388
 505  -138.5738
 506  -123.3599
 507  -25.40405
 508  -6.66491
 509  0.7326857
 510  -75.44231
 511  50.70723
 512  141.3044
 513  196.0806
 514  300.1315
 515  265.1314
 516  261.8926
 517  174.6069
 518  286.7391
 519  387.053
 520  200.0093
 521  48.43689
 522  -33.33944
 523  142.2772
 524  215.0291
 525  208.5939
 526  187.3296
 527  99.69693
 528  -57.08566
 529  19.2979
 530  27.56006
 531  127.0367
 532  83.96883
 533  92.14757
 534  72.75173
 535  -49.19312
 536  -313.1871
 537  -319.0243
 538  -135.7343
 539  -78.75591
 540  -158.0278
 541  -275.0216
 542  -222.1772
 543  -264.7395
 544  -167.854
 545  7.244786
 546  -47.67353
 547  -187.8218
 548  -355.6997
 549  -424.6499
 550  -463.0283
 551  -367.2725
 552  -247.9982
 553  -319.2308
 554  -376.964
 555  -457.5474
 556  -349.8011
 557  -277.6275
 558  -166.728
 559  -62.06138
 560  -66.84692
 561  -120.1329
 562  -119.9565
 563  -94.70853
 564  -127.4421
 565  -120.936
 566  -274.0505
 567  -370.4048
 568  -357.2499
 569  -203.4624
 570  -202.1114
 571  -38.5201
 572  86.75128
 573  130.198
 574  168.8673
 575  222.9339
 576  182.2858
 577  182.3137
 578  126.6388
 579  71.73473
 580  -88.13505
 581  -17.45921
 582  111.3717
 583  192.0935
 584  170.6297
 585  154.0525
 586  228.9369
 587  382.46
 588  448.0415
 589  518.3515
 590  572.0137
 591  511.1586
 592  399.7219
 593  359.3123
 594  326.2703
 595  272.2216
 596  298.8526
 597  184.7084
 598  223.2693
 599  268.511
 600  483.1934
 601  409.0167
 602  474.5435
 603  489.3613
 604  722.8795
 605  918.1381
 606  1136.577
 607  1231.155
 608  1186.143
 609  1207.299
 610  1157.855
 611  1063.239
 612  999.0842
 613  860.4705
 614  745.2548
 615  555.59
 616  430.1295
 617  544.5215
 618  453.2061
 619  588.3549
 620  561.5952
 621  558.1443
 622  468.1755
 623  446.5763
 624  508.5653
 625  612.1814
 626  567.759
 627  554.2841
 628  571.9277
 629  547.1077
 630  630.7979
 631  668.3858
 632  663.4165
 633  670.4771
 634  765.7509
 635  722.8195
 636  647.7109
 637  570.0471
 638  548.6806
 639  533.6021
 640  472.6072
 641  502.8333
 642  426.3867
 643  469.9728
 644  564.2499
 645  656.6099
 646  704.4799
 647  759.8384
 648  816.6257
 649  839.6788
 650  840.5813
 651  843.2281
 652  857.2783
 653  903.3207
 654  823.4049
 655  813.9623
 656  767.0263
 657  777.4672
 658  701.5721
 659  548.488
 660  651.3044
 661  754.8296
 662  787.7944
 663  787.9921
 664  697.5192
 665  768.2281
 666  735.3325
 667  752.204
 668  775.8531
 669  796.2008
 670  769.2961
 671  706.3911
 672  727.8204
 673  727.2588
 674  685.7665
 675  762.2083
 676  817.6674
 677  889.7195
 678  966.9179
 679  932.7893
 680  887.2107
 681  792.5219
 682  816.4525
 683  753.3015
 684  856.2905
 685  906.4637
 686  807.0581
 687  652.0903
 688  662.819
 689  802.3062
 690  819.6293
 691  802.1409
 692  758.9697
 693  826.1476
 694  784.832
 695  867.506
 696  777.5446
 697  805.1461
 698  625.26
 699  442.0779
 700  543.752
 701  777.4456
 702  1065.035
 703  1096.008
 704  948.7534
 705  927.0573
 706  1049.208
 707  1088.014
 708  1102.948
 709  982.0126
 710  985.9125
 711  932.3463
 712  934.4939
 713  1017.904
 714  1157.51
 715  1124.917
 716  1059.234
 717  1059.124
 718  1061.128
 719  1004.064
 720  948.1494
 721  912.8563
 722  975.3832
 723  1041.493
 724  1122.562
 725  1223.476
 726  1147.096
 727  970.7782
 728  805.9399
 729  834.7616
 730  864.9681
 731  934.4918
 732  938.639
 733  1011.668
 734  945.3893
 735  918.2571
 736  764.6932
 737  699.8192
 738  712.5311
 739  817.8409
 740  881.7407
 741  676.2627
 742  673.821
 743  736.5602
 744  902.2897
 745  787.5216
 746  914.6895
 747  1010.413
 748  1050.549
 749  990.471
 750  916.6317
 751  1016.777
 752  1001.961
 753  965.0574
 754  806.1688
 755  690.1292
 756  605.2097
 757  595.1371
 758  627.4718
 759  625.0378
 760  695.1264
 761  819.5452
 762  792.3323
 763  746.9207
 764  700.3608
 765  862.0465
 766  870.6978
 767  865.6626
 768  791.5006
 769  695.2785
 770  797.3353
 771  828.0881
 772  907.0108
 773  826.2053
 774  816.3454
 775  735.6401
 776  783.6002
 777  777.5871
 778  761.8448
 779  647.0137
 780  676.4327
 781  809.8513
 782  919.9451
 783  911.7055
 784  986.587
 785  961.9637
 786  929.5723
 787  928.4783
 788  894.4596
 789  823.3255
 790  773.7554
 791  756.1213
 792  765.6056
 793  701.2425
 794  694.1797
 795  670.2361
 796  604.483
 797  495.9384
 798  577.7983
 799  753.8465
 800  823.7861
 801  848.9658
 802  837.5294
 803  925.0429
 804  820.7713
 805  894.5525
 806  926.392
 807  845.3932
 808  981.3381
 809  920.5135
 810  1003.336
 811  987.2802
 812  1001.216
 813  801.7536
 814  698.0161
 815  783.7403
 816  875.1444
 817  983.3215
 818  880.3307
 819  843.9883
 820  903.5046
 821  811.6636
 822  654.6865
 823  523.8706
 824  704.2535
 825  688.8337
 826  653.3893
 827  678.0994
 828  642.9769
 829  642.3672
 830  788.0416
 831  875.145
 832  865.3615
 833  850.1978
 834  827.4776
 835  779.5302
 836  822.2977
 837  881.9126
 838  925.7036
 839  933.3165
 840  987.1319
 841  1085.568
 842  962.0363
 843  909.5632
 844  840.3439
 845  890.3895
 846  696.346
 847  650.8791
 848  615.9767
 849  859.9738
 850  1094.184
 851  1191.319
 852  1210.761
 853  1089.336
 854  1229.75
 855  1043.692
 856  838.533
 857  887.6243
 858  1094.752
 859  1122.843
 860  1134.072
 861  1122.06
 862  1169.584
 863  1097.714
 864  1126.64
 865  1109.069
 866  1034.123
 867  909.071
 868  792.8633
 869  610.9864
 870  598.192
 871  665.4119
 872  712.2849
 873  732.1329
 874  833.4594
 875  869.2043
 876  880.3123
 877  742.7665
 878  795.7924
 879  947.1541
 880  915.8979
 881  831.0383
 882  743.8358
 883  686.4958
 884  632.4227
 885  725.9991
 886  861.559
 887  849.6682
 888  884.6635
 889  1011.784
 890  1120.145
 891  971.5875
 892  864.3085
 893  837.2361
 894  1045.948
 895  965.476
 896  849.1105
 897  841.024
 898  905.9257
 899  995.2754
 900  936.3148
 901  942.4274
 902  999.2751
 903  1107.735
 904  1161.948
 905  1276.898
 906  1496.339
 907  1478.618
 908  1493.338
 909  1337.459
 910  1247.112
 911  1232.851
 912  1221.538
 913  1267.816
 914  1313.324
 915  1255.598
 916  1274.606
 917  1366.338
 918  1439.102
 919  1429.697
 920  1431.856
 921  1457.648
 922  1391.072
 923  1443.476
 924  1342.634
 925  1359.928
 926  1333.14
 927  1552.712
 928  1503.455
 929  1479.893
 930  1483.405
 931  1576.823
 932  1496.397
 933  1332.361
 934  1274.655
 935  1189.999
 936  1047.156
 937  865.6907
 938  950.8635
 939  1059.533
 940  981.6534
 941  897.855
 942  843.6084
 943  818.2381
 944  833.7113
 945  907.1677
 946  1067.762
 947  1053.081
 948  1095.37
 949  990.81
 950  1101.615
 951  1266.839
 952  1189.084
 953  1068.533
 954  980.5954
 955  1048.811
 956  1084.645
 957  959.6957
 958  1012.418
 959  1012.167
 960  1002.315
 961  930.4448
 962  1013.181
 963  1169.274
 964  1206.298
 965  1256.125
 966  1256.234
 967  1221.129
 968  1157.681
 969  993.746
 970  1032.43
 971  1069.271
 972  1102.826
 973  1142.879
 974  1039.431
 975  1032.176
 976  1014.545
 977  1062.565
 978  1113.2
 979  1079.047
 980  996.5098
 981  918.4954
 982  941.7142
 983  905.0092
 984  798.4786
 985  870.9841
 986  988.1929
 987  1076.666
 988  988.2543
 989  857.3828
 990  860.695
 991  840.9518
 992  888.9208
 993  841.0418
 994  803.2355
 995  849.3409
 996  990.8323
 997  1025.067
 998  846.1475
 999  857.2228
1000  970.4811
1001  1176.186
1002  1092.552
1003  1005.114
1004  902.3524
1005  868.0794
1006  861.8685
1007  949.0699
1008  1030.845
1009  986.569
1010  942.6118
1011  903.0281
1012  882.7295
1013  751.4814
1014  595.3608
1015  621.4194
1016  785.1694
1017  937.4694
1018  814.3376
1019  711.3607
1020  728.985
1021  903.7567
1022  875.7044
1023  967.1005
