# Input file       =  1204477759.110359_cleaned.dat
# Candidate        =  PSR_0332+5434
# Telescope        =  AR
# Epoch_topo       =  58184.715024425452
# Epoch_bary       =  N/A
# T_sample         =  0.002
# Data Folded      =  7340032
# Data Avg         =  0.208632603068379
# Data StdDev      =  5.10093895597322 
# Profile Bins     =  1024
# Profile Avg      =  1495.47044380784 
# Profile StdDev   =  431.866109773651 
# Reduced chi-sqr  =  1.340
# Prob(Noise)      <  1.61e-12   (~7.0 sigma)
# P_topo (ms)      =  714.57986777509   +/- 0.00114
# P'_topo (s/s)    =  -0                +/- 6.04e-10
# P''_topo (s/s^2) =  0                 +/- 2.67e-13
# P_bary (ms)      =  N/A
# P'_bary (s/s)    =  N/A
# P''_bary (s/s^2) =  N/A
# P_orb (s)        =  N/A
# asin(i)/c (s)    =  N/A
# eccentricity     =  N/A
# w (rad)          =  N/A
# T_peri           =  N/A
######################################################
   0  1120.915
   1  1000.849
   2  1155.278
   3  1199.393
   4  1273.139
   5  1264.379
   6  1277.954
   7  1322.677
   8  1287.917
   9  1345.866
  10  1231.219
  11  1345.314
  12  1346.048
  13  1456.362
  14  1532.742
  15  1569.2
  16  1465.377
  17  1327.41
  18  1403.433
  19  1381.966
  20  1294.749
  21  1278.902
  22  1389.362
  23  1396.04
  24  1350.88
  25  1279.662
  26  1388.441
  27  1380.285
  28  1312.33
  29  1280.258
  30  1212.925
  31  1293.158
  32  1331.339
  33  1411.049
  34  1249.542
  35  1259.521
  36  1306.799
  37  1368.023
  38  1405.283
  39  1345.063
  40  1350.285
  41  1362.587
  42  1362.513
  43  1368.447
  44  1380.113
  45  1343.072
  46  1306.528
  47  1162.726
  48  1014.454
  49  922.2161
  50  938.1438
  51  1125.899
  52  1189.932
  53  1188.615
  54  1160.194
  55  1000.34
  56  973.1893
  57  1106.216
  58  1199.707
  59  1146.284
  60  977.4243
  61  919.1666
  62  935.0947
  63  865.1799
  64  841.8186
  65  905.8657
  66  1040.105
  67  1111.233
  68  1171.977
  69  1233.923
  70  1162.735
  71  1101.817
  72  1126.798
  73  1308.061
  74  1242.677
  75  1188.903
  76  974.4487
  77  927.9018
  78  901.4208
  79  1087.404
  80  1318.219
  81  1255.226
  82  1090.783
  83  1037.99
  84  1217.145
  85  1238.668
  86  1154.891
  87  1235.674
  88  1285.303
  89  1298.769
  90  1255.523
  91  1265.53
  92  1176.637
  93  1255.942
  94  1328.599
  95  1227.084
  96  1061.618
  97  934.7286
  98  1025.536
  99  995.2991
 100  1033.078
 101  1046.551
 102  1094.307
 103  1029.69
 104  1034.396
 105  1152.264
 106  1149.088
 107  1151.716
 108  1183.92
 109  1202.488
 110  1169.913
 111  1064.448
 112  1082.419
 113  1097.462
 114  1167.548
 115  1129.981
 116  999.6031
 117  968.3337
 118  910.8162
 119  834.9529
 120  850.5371
 121  905.9285
 122  958.1194
 123  1075.427
 124  1192.91
 125  1249.251
 126  1204.067
 127  1148.402
 128  1059.763
 129  1122.962
 130  1026.452
 131  1036.967
 132  998.5579
 133  1030.155
 134  961.8559
 135  1004.987
 136  1038.718
 137  1194.318
 138  1211.762
 139  1251.315
 140  1270.162
 141  1158.808
 142  1141.722
 143  1121.466
 144  1176.885
 145  1151.373
 146  1112.124
 147  1123.891
 148  1104.338
 149  993.3838
 150  1059.859
 151  1111.634
 152  1222.194
 153  1071.958
 154  1152.692
 155  1119.065
 156  1139.378
 157  1119.946
 158  1234.576
 159  1270.508
 160  1176.564
 161  1051.696
 162  1153.075
 163  1146.754
 164  1197.982
 165  1078.569
 166  1040.647
 167  969.2296
 168  1038.224
 169  1212.233
 170  1342.75
 171  1289.453
 172  1297.79
 173  1162.61
 174  1165.161
 175  1133.076
 176  1272.199
 177  1261.174
 178  1153.566
 179  1087.608
 180  1090.686
 181  1087.877
 182  1137.309
 183  1154.093
 184  1241.97
 185  1282.809
 186  1329.142
 187  1354.438
 188  1335.456
 189  1160.904
 190  958.443
 191  968.9191
 192  1073.234
 193  1160.232
 194  1104.664
 195  1031.469
 196  1016.246
 197  1065.827
 198  1188.274
 199  1302.611
 200  1288.422
 201  1243.131
 202  1244.853
 203  1234.111
 204  1206.792
 205  1186.535
 206  1199.955
 207  1198.517
 208  1235
 209  1285.896
 210  1382.838
 211  1315.475
 212  1319.602
 213  1266.249
 214  1387.015
 215  1297.623
 216  1296.06
 217  1377.931
 218  1466.51
 219  1498.751
 220  1424.33
 221  1373.252
 222  1211.585
 223  1227.774
 224  1297.451
 225  1417.918
 226  1413.43
 227  1503.253
 228  1429.813
 229  1506.182
 230  1364.299
 231  1403.592
 232  1313.351
 233  1274.352
 234  1206.616
 235  1215.626
 236  1322.252
 237  1407.359
 238  1397.096
 239  1364.457
 240  1263.288
 241  1239.776
 242  1279.021
 243  1347.736
 244  1320.483
 245  1260.613
 246  1211.448
 247  1278.87
 248  1268.41
 249  1489.39
 250  1573.292
 251  1650.661
 252  1551.116
 253  1575.351
 254  1464.888
 255  1357.561
 256  1106.273
 257  1080.387
 258  1117.077
 259  1292.297
 260  1379.416
 261  1343.133
 262  1287.903
 263  1354.555
 264  1389.803
 265  1490.901
 266  1412.142
 267  1406.737
 268  1484.465
 269  1588.396
 270  1584.197
 271  1356.223
 272  1157.726
 273  1212.25
 274  1284.578
 275  1370.583
 276  1375.516
 277  1440.432
 278  1481.481
 279  1540.989
 280  1416.111
 281  1333.169
 282  1298.156
 283  1210.116
 284  1239.216
 285  1205.082
 286  1397.219
 287  1364.479
 288  1247.12
 289  1098.211
 290  1180.075
 291  1338.199
 292  1464.177
 293  1531.582
 294  1559.282
 295  1583.233
 296  1613.564
 297  1469.787
 298  1406.119
 299  1317.004
 300  1338.841
 301  1480.378
 302  1470.197
 303  1575.951
 304  1613.199
 305  1758.302
 306  1677.855
 307  1627.83
 308  1634.984
 309  1672.793
 310  1504.905
 311  1462.088
 312  1579.411
 313  1754.334
 314  1839.356
 315  1853.153
 316  1794.235
 317  1713.237
 318  1628.017
 319  1581.63
 320  1498.545
 321  1442.203
 322  1478.341
 323  1602.53
 324  1772.436
 325  1672.71
 326  1585.512
 327  1536.191
 328  1618.301
 329  1770.527
 330  1745.223
 331  1754.164
 332  1735.056
 333  1665.479
 334  1515.914
 335  1360.801
 336  1560.035
 337  1573.148
 338  1632.889
 339  1595.801
 340  1672.344
 341  1513.589
 342  1443.908
 343  1339.227
 344  1541.681
 345  1615.389
 346  1698.51
 347  1682.758
 348  1664.49
 349  1593.875
 350  1582.399
 351  1701.23
 352  1682.218
 353  1607.727
 354  1541.201
 355  1682.269
 356  1731.213
 357  1651.343
 358  1571.332
 359  1612.084
 360  1659.649
 361  1682.033
 362  1627.553
 363  1506.99
 364  1370.096
 365  1422.438
 366  1638.748
 367  1737.359
 368  1847.515
 369  1778.178
 370  1773.409
 371  1752.919
 372  1740.847
 373  1713.944
 374  1703.268
 375  1792.627
 376  1755.759
 377  1778.989
 378  1760.954
 379  1865.141
 380  1794.458
 381  1815.508
 382  1820.347
 383  1835.389
 384  1879.043
 385  1805.301
 386  1618.481
 387  1496.17
 388  1516.777
 389  1740.466
 390  1796.735
 391  1829.752
 392  1577.48
 393  1570.581
 394  1557.445
 395  1789.764
 396  1926.394
 397  1978.748
 398  1845.772
 399  1788.636
 400  1758.629
 401  1812.748
 402  1828.503
 403  1838.196
 404  1783.003
 405  1676.604
 406  1650.278
 407  1592.268
 408  1552.018
 409  1508.355
 410  1515.261
 411  1566.239
 412  1612.068
 413  1599.616
 414  1607.471
 415  1617.984
 416  1506.672
 417  1511.687
 418  1513.019
 419  1470.69
 420  1414.041
 421  1436.245
 422  1420.95
 423  1593.43
 424  1682.225
 425  1735.417
 426  1719.522
 427  1693.354
 428  1654.335
 429  1464.237
 430  1314.116
 431  1559.045
 432  1653.838
 433  1731.791
 434  1608.771
 435  1655.776
 436  1651.405
 437  1700.804
 438  1767.429
 439  1742.416
 440  1791.395
 441  1808.284
 442  1837.891
 443  1795.851
 444  1781.721
 445  1812.984
 446  1864.427
 447  1929.728
 448  1841.126
 449  1649.084
 450  1652.095
 451  1795.949
 452  1809.203
 453  1723.541
 454  1660.202
 455  1716.592
 456  1736.823
 457  1897.645
 458  1877.633
 459  1875.6
 460  1832.7
 461  1826.628
 462  1888.362
 463  1807.669
 464  1724.258
 465  1610.895
 466  1493.779
 467  1530.259
 468  1624.417
 469  1733.24
 470  1639.13
 471  1637.259
 472  1613.659
 473  1628.948
 474  1642.263
 475  1726.164
 476  1684.235
 477  1575.712
 478  1601.52
 479  1730.664
 480  1699.931
 481  1640.289
 482  1663.785
 483  1662.17
 484  1576.521
 485  1526.008
 486  1723.874
 487  1854.89
 488  1852.512
 489  1872.221
 490  2002.299
 491  1987.287
 492  1965.475
 493  1970.809
 494  2028.445
 495  1894.028
 496  1759.83
 497  1715.937
 498  1723.848
 499  1659.513
 500  1659.987
 501  1701.979
 502  1750.731
 503  1813.224
 504  1914.725
 505  2062.972
 506  1994.459
 507  1902.587
 508  1819.487
 509  1638.907
 510  1630.06
 511  1630.394
 512  1710.281
 513  1728.354
 514  1590.804
 515  1569.45
 516  1528.467
 517  1646.203
 518  1532.295
 519  1576.291
 520  1590.961
 521  1614.49
 522  1626.325
 523  1737.819
 524  1773.182
 525  1668.588
 526  1586.596
 527  1667.238
 528  1663.957
 529  1576.644
 530  1551.189
 531  1598.647
 532  1676.089
 533  1657.879
 534  1679.4
 535  1745.638
 536  1729.096
 537  1801.931
 538  1863.894
 539  1883.138
 540  1879.207
 541  1970.533
 542  1952.242
 543  1789.56
 544  1680.29
 545  1713.172
 546  1850.449
 547  1864.035
 548  1829.393
 549  1696.812
 550  1716.707
 551  1654.069
 552  1695.933
 553  1757.201
 554  1770.259
 555  1728.596
 556  1663.496
 557  1610.164
 558  1743.502
 559  1906.55
 560  1887.505
 561  1815.417
 562  1653.406
 563  1612.428
 564  1464.739
 565  1645.855
 566  1665.669
 567  1664.373
 568  1455.367
 569  1523.711
 570  1608.484
 571  1816.071
 572  1912.334
 573  1971.805
 574  1815.916
 575  1601.782
 576  1523.444
 577  1633.817
 578  1730.039
 579  1650.721
 580  1586.978
 581  1525.737
 582  1581.927
 583  1702.724
 584  1878.905
 585  1757.858
 586  1768.521
 587  1691.955
 588  1715.217
 589  1650.198
 590  1734.226
 591  1919.91
 592  1991.022
 593  2080.087
 594  1974.147
 595  1964.38
 596  1972.442
 597  2071.689
 598  2189.27
 599  2134.461
 600  2165.444
 601  2100.042
 602  2196.844
 603  2211.211
 604  2177.822
 605  2273.218
 606  2456.822
 607  2698.07
 608  2780.404
 609  2710.11
 610  2753.211
 611  2633.405
 612  2479.78
 613  2262.963
 614  2080.907
 615  1952.756
 616  1838.245
 617  1837.289
 618  1892.997
 619  1935.689
 620  1912.196
 621  1938.975
 622  1921.005
 623  2006.386
 624  1888.123
 625  1721.062
 626  1741.117
 627  1787.671
 628  1848.425
 629  1687.942
 630  1826.009
 631  1838.22
 632  1941.229
 633  1875.925
 634  1857.668
 635  1652.43
 636  1520.127
 637  1501.628
 638  1600.538
 639  1657.389
 640  1664.166
 641  1753.826
 642  1759.787
 643  1763.594
 644  1839.02
 645  1783.243
 646  1839.743
 647  1808.185
 648  1863.932
 649  1745.199
 650  1741.607
 651  1832.593
 652  1907.934
 653  1869.913
 654  1790.041
 655  1855.572
 656  1863.936
 657  1837.354
 658  1807.161
 659  1725.278
 660  1587.942
 661  1558.434
 662  1653.756
 663  1621.269
 664  1586.615
 665  1610.087
 666  1702.715
 667  1604.726
 668  1612.606
 669  1638.121
 670  1687.397
 671  1617.77
 672  1646.266
 673  1673.456
 674  1620.302
 675  1523.181
 676  1474.241
 677  1501.968
 678  1511.395
 679  1584.09
 680  1617.711
 681  1628.617
 682  1557.457
 683  1480.209
 684  1417.999
 685  1377.834
 686  1525.48
 687  1599.858
 688  1607.115
 689  1655.219
 690  1803.405
 691  1706.098
 692  1684.825
 693  1594.18
 694  1584.593
 695  1495.836
 696  1555.587
 697  1575.559
 698  1484.915
 699  1438.708
 700  1483.697
 701  1560.221
 702  1530.796
 703  1560.082
 704  1618.122
 705  1707.069
 706  1734.374
 707  1601.83
 708  1619.128
 709  1603.221
 710  1839.161
 711  2022.271
 712  1980.525
 713  1873.311
 714  1881.766
 715  1950.603
 716  1868.271
 717  1737.156
 718  1603.272
 719  1700.962
 720  1740.824
 721  1756.6
 722  1666.385
 723  1775.451
 724  1844.622
 725  1848.954
 726  1725.736
 727  1636.813
 728  1626.323
 729  1632.488
 730  1689.838
 731  1715.757
 732  1629.804
 733  1470.736
 734  1523.21
 735  1611.691
 736  1625.586
 737  1602.502
 738  1543.522
 739  1622.523
 740  1517.989
 741  1617.18
 742  1626.363
 743  1618.651
 744  1605.922
 745  1649.838
 746  1601.268
 747  1512.12
 748  1524.159
 749  1603.249
 750  1650.544
 751  1795.217
 752  1863.612
 753  1831.627
 754  1703.684
 755  1557.526
 756  1579.62
 757  1636.282
 758  1611.086
 759  1662.109
 760  1633.13
 761  1547.391
 762  1480.978
 763  1417.842
 764  1357.232
 765  1253.508
 766  1334.641
 767  1578.296
 768  1689.112
 769  1606.153
 770  1539.382
 771  1561.554
 772  1537.277
 773  1446.148
 774  1356.222
 775  1425.455
 776  1509.116
 777  1589.684
 778  1672.906
 779  1533.741
 780  1417.602
 781  1374.607
 782  1466.397
 783  1550.179
 784  1625.197
 785  1539.633
 786  1510.234
 787  1424.88
 788  1425.106
 789  1529.164
 790  1651.54
 791  1647.009
 792  1431.054
 793  1312.77
 794  1398.631
 795  1514.085
 796  1483.555
 797  1439.15
 798  1312.119
 799  1463.209
 800  1560.127
 801  1600.099
 802  1511.09
 803  1379.034
 804  1309.88
 805  1371.497
 806  1395.03
 807  1355.93
 808  1383.066
 809  1467.643
 810  1598.108
 811  1542.817
 812  1586.811
 813  1576.989
 814  1465.7
 815  1301.83
 816  1252.312
 817  1345.952
 818  1373.617
 819  1459.463
 820  1259.686
 821  1269.166
 822  1234.924
 823  1456.505
 824  1529.393
 825  1529.203
 826  1462.907
 827  1457.18
 828  1391.772
 829  1325.397
 830  1298.179
 831  1322.892
 832  1446.855
 833  1375.638
 834  1412.021
 835  1435.835
 836  1370.469
 837  1332.622
 838  1326.655
 839  1284.404
 840  1215.417
 841  1172.54
 842  1233.868
 843  1335.557
 844  1292.921
 845  1202.01
 846  1173.671
 847  1222.986
 848  1361.108
 849  1391.907
 850  1356.72
 851  1394.311
 852  1439.949
 853  1510.685
 854  1464.174
 855  1338.515
 856  1315.196
 857  1422.485
 858  1595.708
 859  1692.625
 860  1606.124
 861  1524.024
 862  1529.051
 863  1614.113
 864  1755.964
 865  1701.207
 866  1500.495
 867  1515.496
 868  1575.777
 869  1534.315
 870  1472.328
 871  1380.977
 872  1491.15
 873  1511.991
 874  1579.002
 875  1650.016
 876  1560.209
 877  1568.26
 878  1598.643
 879  1701.152
 880  1597.688
 881  1626.187
 882  1623.912
 883  1562.395
 884  1333.458
 885  1203.324
 886  1207.802
 887  1327.74
 888  1372.901
 889  1481.85
 890  1618.025
 891  1719.104
 892  1589.641
 893  1531.629
 894  1511.354
 895  1593.046
 896  1574.735
 897  1563.351
 898  1518.642
 899  1534.26
 900  1596.354
 901  1630.436
 902  1488.628
 903  1363.341
 904  1376.93
 905  1471.577
 906  1465.071
 907  1464.683
 908  1425.58
 909  1486.755
 910  1527.577
 911  1674.244
 912  1700.397
 913  1861.138
 914  1737.255
 915  1722.899
 916  1597.518
 917  1665.92
 918  1706.439
 919  1669.387
 920  1615.453
 921  1465.618
 922  1500.245
 923  1551.346
 924  1638.684
 925  1498.772
 926  1504.278
 927  1534.33
 928  1460.862
 929  1444.6
 930  1495.664
 931  1578.419
 932  1487.637
 933  1519.27
 934  1552.765
 935  1512.289
 936  1344.899
 937  1245.252
 938  1336.441
 939  1539.833
 940  1661.532
 941  1562.1
 942  1353.72
 943  1247.293
 944  1312.97
 945  1456.497
 946  1498.36
 947  1439.079
 948  1401.581
 949  1416.439
 950  1491.53
 951  1445.464
 952  1406.044
 953  1383.44
 954  1469.922
 955  1363.778
 956  1357.115
 957  1286.405
 958  1309.357
 959  1247.625
 960  1250.756
 961  1341.748
 962  1273.958
 963  1306.381
 964  1350.609
 965  1463.46
 966  1501.313
 967  1405.895
 968  1353.316
 969  1223.303
 970  1130.77
 971  1004.008
 972  1108.369
 973  1167.39
 974  1211.722
 975  1162.867
 976  1102.017
 977  1160.185
 978  1092.729
 979  1210.22
 980  1365.862
 981  1422.62
 982  1457.005
 983  1219.217
 984  1117.166
 985  1062.182
 986  1108.788
 987  1211.085
 988  1304.622
 989  1342.176
 990  1223.282
 991  1224.72
 992  1133.018
 993  1160.528
 994  1204.8
 995  1336.973
 996  1267.777
 997  1240.8
 998  1232.829
 999  1351.187
1000  1413.11
1001  1295.151
1002  1124.833
1003  996.6091
1004  1056.784
1005  1271.421
1006  1353.263
1007  1325.974
1008  1157.209
1009  1067.923
1010  1063.069
1011  1007.475
1012  1039.025
1013  1174.355
1014  1273.27
1015  1240.201
1016  1118.568
1017  1135.835
1018  1016.269
1019  1042.309
1020  1172.904
1021  1365.754
1022  1372.7
1023  1262.403
