# Input file       =  1204448258.101844_cleaned.dat
# Candidate        =  PSR_0332+5434
# Telescope        =  AR
# Epoch_topo       =  58184.373577567640
# Epoch_bary       =  N/A
# T_sample         =  0.002
# Data Folded      =  7143424
# Data Avg         =  0.201505300598517
# Data StdDev      =  6.73169602975892 
# Profile Bins     =  512
# Profile Avg      =  2811.52451823382 
# Profile StdDev   =  795.13840619733  
# Reduced chi-sqr  =  4.782
# Prob(Noise)      <  6.83e-249   (~33.7 sigma)
# P_topo (ms)      =  714.579587722926  +/- 1.5e-05
# P'_topo (s/s)    =  -0                +/- 8.11e-12
# P''_topo (s/s^2) =  0                 +/- 3.68e-15
# P_bary (ms)      =  N/A
# P'_bary (s/s)    =  N/A
# P''_bary (s/s^2) =  N/A
# P_orb (s)        =  N/A
# asin(i)/c (s)    =  N/A
# eccentricity     =  N/A
# w (rad)          =  N/A
# T_peri           =  N/A
######################################################
   0  1595.073
   1  1838.843
   2  2133.991
   3  2103.016
   4  2041.12
   5  1837.246
   6  992.2473
   7  1327.147
   8  2326.774
   9  3414.839
  10  4804.817
  11  5196.701
  12  4379.499
  13  3185.666
  14  1990.107
  15  1310.252
  16  2029.892
  17  2475.438
  18  2518.549
  19  3059.713
  20  2892.305
  21  1620.249
  22  374.4237
  23  633.6266
  24  1488.161
  25  3625.477
  26  4241.384
  27  4944.966
  28  5127.741
  29  3978.092
  30  2981.118
  31  2141.841
  32  1936.968
  33  1973.203
  34  2599.612
  35  3131.32
  36  2630.882
  37  2105.27
  38  1536.096
  39  1015.183
  40  1540.238
  41  2640.208
  42  3955.466
  43  4844.931
  44  5264.528
  45  4549.018
  46  3121.962
  47  2257.066
  48  1619.163
  49  2093.391
  50  2401.649
  51  2741.928
  52  3092.274
  53  3080.144
  54  1978.72
  55  1227.207
  56  767.9631
  57  1529.912
  58  2813.369
  59  4571.641
  60  5352.609
  61  5447.898
  62  4805.483
  63  3454.54
  64  2730.232
  65  1761.576
  66  1350.505
  67  2151.376
  68  2820.239
  69  3026.66
  70  3120.55
  71  1986.545
  72  1359.894
  73  943.847
  74  1702.787
  75  2882.384
  76  4521.327
  77  5454.011
  78  5128.199
  79  3993.863
  80  2367.171
  81  1803.869
  82  1759.629
  83  2521.662
  84  2861.564
  85  2488.911
  86  2521.804
  87  1781.877
  88  1136.948
  89  1223.666
  90  1922.305
  91  3026.756
  92  4569.17
  93  5172.479
  94  5014.097
  95  3899.066
  96  3044.8
  97  2598.792
  98  2193.136
  99  2050.202
 100  2474.191
 101  2760.339
 102  2876.058
 103  2427.769
 104  1822.653
 105  991.4254
 106  1565.02
 107  2185.304
 108  3690.368
 109  4870.4
 110  5330.706
 111  4598.769
 112  3401.177
 113  2835.464
 114  2532.041
 115  2444.65
 116  2874.843
 117  3009.006
 118  2743.854
 119  2096.118
 120  1848.01
 121  1194.906
 122  1099.159
 123  2027.675
 124  3192.935
 125  4162.03
 126  5139.014
 127  5183.564
 128  4472.128
 129  3206.738
 130  1885.683
 131  1907.923
 132  2121.943
 133  2366.026
 134  2837.709
 135  2832.038
 136  2792.502
 137  1448.734
 138  828.5756
 139  553.89
 140  1797.999
 141  3358.647
 142  4909.674
 143  5821.717
 144  5168.27
 145  4184.125
 146  2445.768
 147  1630.364
 148  1630.826
 149  1854.568
 150  2211.154
 151  2721.262
 152  2965.823
 153  2379.11
 154  1617.956
 155  850.9536
 156  1120.406
 157  2447.601
 158  4043.836
 159  4980.683
 160  5506.339
 161  4741.528
 162  2971.118
 163  1773.924
 164  1897.723
 165  1916.784
 166  2555.678
 167  2636.047
 168  2917.655
 169  2580.616
 170  1890.096
 171  860.4797
 172  956.2215
 173  2384.084
 174  3645.693
 175  5086.824
 176  5352.113
 177  4938.091
 178  4221.534
 179  2941.279
 180  2280.482
 181  2055.712
 182  2549.943
 183  2583.798
 184  2754.922
 185  2622.18
 186  2112.235
 187  1468.819
 188  767.0511
 189  1670.998
 190  2967.537
 191  3885.539
 192  4912.84
 193  4955.618
 194  4397.188
 195  3125.409
 196  2211.942
 197  1973.022
 198  2582.732
 199  2628.594
 200  2590.159
 201  2793.482
 202  2310.376
 203  1832.019
 204  810.9244
 205  929.8012
 206  2073.872
 207  3491.433
 208  4558.966
 209  5057.864
 210  4819.617
 211  3745.893
 212  3205.075
 213  2175.32
 214  2024.422
 215  2198.225
 216  2513.019
 217  2817.64
 218  2760.885
 219  2759.515
 220  1477.629
 221  864.9297
 222  1803.68
 223  2992.653
 224  4153.84
 225  5214.174
 226  5583.479
 227  5086.525
 228  4166.119
 229  2719.642
 230  1869.721
 231  2232.727
 232  2678.652
 233  3028.266
 234  3254.105
 235  3047.628
 236  1408.82
 237  1078.101
 238  1219.505
 239  2531.253
 240  4153.799
 241  4731.881
 242  5444.308
 243  5338.031
 244  3832.524
 245  2781.987
 246  2588.038
 247  2651.075
 248  2177.973
 249  2854.523
 250  3070.609
 251  2967.74
 252  2207.539
 253  1447.002
 254  1676.667
 255  2222.552
 256  2831.366
 257  4195.877
 258  5357.604
 259  5241.337
 260  4669.198
 261  3828.386
 262  2732.436
 263  2324.641
 264  2423.38
 265  2877.682
 266  3071.455
 267  3004.373
 268  2339.111
 269  1633.255
 270  841.2185
 271  1357.619
 272  2892.659
 273  3796.351
 274  4250.833
 275  5207.551
 276  5136.445
 277  3954.719
 278  2666.186
 279  2000.462
 280  1778.469
 281  2525.096
 282  2464.065
 283  2373.469
 284  2029.304
 285  1949.511
 286  1457.191
 287  841.9245
 288  1399.574
 289  2669.807
 290  3842.519
 291  5015.741
 292  5272.833
 293  4267.975
 294  3084.755
 295  2420.257
 296  2200.393
 297  2263.433
 298  2328.267
 299  2577.888
 300  2800.176
 301  2530.469
 302  1686.999
 303  1096.08
 304  774.7681
 305  1683.329
 306  3467.54
 307  4385.819
 308  5566.602
 309  5691.105
 310  4480.271
 311  3118.435
 312  1929.394
 313  1637.491
 314  1761.581
 315  2101.121
 316  2949.662
 317  3136.782
 318  2377.138
 319  1285.226
 320  595.5349
 321  1133.345
 322  2278.65
 323  3627.25
 324  4883.51
 325  5176.209
 326  4189.467
 327  2995.346
 328  2238.355
 329  2498.205
 330  2108.051
 331  2468.901
 332  3007.126
 333  2752.013
 334  2244.771
 335  1255.66
 336  1283.901
 337  986.699
 338  2049.402
 339  3386.424
 340  3879.787
 341  4715.252
 342  4397.219
 343  3740.431
 344  3258.612
 345  2380.815
 346  2248.263
 347  2104.614
 348  2581.725
 349  2533.443
 350  2777.631
 351  3008.63
 352  2614.526
 353  2429.655
 354  2543.495
 355  3361.391
 356  3988.24
 357  4512.851
 358  4957.784
 359  4567.922
 360  3223.322
 361  2599.395
 362  2029.969
 363  1950.324
 364  2444.14
 365  2751.379
 366  3210.348
 367  2149.003
 368  1582.038
 369  1027.826
 370  1074.745
 371  2046.069
 372  2937.399
 373  4740.605
 374  5519.674
 375  5464.523
 376  4073.097
 377  2536.155
 378  1919.216
 379  2019.101
 380  2087.511
 381  2836.397
 382  3217.571
 383  3185.302
 384  2341.344
 385  1334.948
 386  625.583
 387  1150.032
 388  2258.45
 389  3759.4
 390  4807.329
 391  5590.546
 392  4621.943
 393  3519.335
 394  2154.37
 395  1963.684
 396  2146.642
 397  2152.73
 398  2964.005
 399  2777.569
 400  2277.578
 401  1666.276
 402  1404.81
 403  1312.652
 404  1823.484
 405  2919.818
 406  4211.379
 407  4999.215
 408  4799.431
 409  4134.989
 410  3040.221
 411  2005.669
 412  1929.719
 413  2084.248
 414  2316.678
 415  2623.009
 416  2262.047
 417  1739.504
 418  1005.621
 419  814.1296
 420  1453.053
 421  2098.557
 422  3626.404
 423  4543.783
 424  5229.469
 425  4875.939
 426  3321.41
 427  2229.291
 428  1986.981
 429  1643.082
 430  1827.54
 431  2294.657
 432  2651.572
 433  2304.71
 434  1777.719
 435  1168.482
 436  1171.631
 437  1906.247
 438  2667.946
 439  3957.741
 440  5293.156
 441  4783.52
 442  3655.276
 443  2818.513
 444  2070.819
 445  1996.514
 446  2499.878
 447  3081.451
 448  3080.698
 449  3056.225
 450  1968.696
 451  705.8821
 452  738.733
 453  1493.306
 454  2753.454
 455  4134.743
 456  4839.003
 457  5443.651
 458  4011.018
 459  2660.171
 460  2051.83
 461  1383.584
 462  1860.831
 463  2552.009
 464  3427.541
 465  3441.939
 466  2608.243
 467  1785.772
 468  981.7882
 469  1039.075
 470  2163.345
 471  3324.886
 472  4604.372
 473  5465.559
 474  4963.9
 475  3979.007
 476  2803.606
 477  1790.906
 478  1687.171
 479  2121.52
 480  2166.317
 481  2459.709
 482  3204.395
 483  2656.115
 484  1379.716
 485  526.2495
 486  771.5386
 487  2164.679
 488  3090.414
 489  4310.189
 490  5289.181
 491  4865.849
 492  3751.525
 493  2562.258
 494  1818.949
 495  1637.456
 496  2067.377
 497  2484.431
 498  2878.721
 499  2788.774
 500  2083.769
 501  1348.965
 502  758.6835
 503  1293.321
 504  2483.5
 505  3727.601
 506  4767.679
 507  5438.18
 508  4885.668
 509  3253.644
 510  2572.728
 511  1713.219
