# Input file       =  1204994642.105844_cleaned.dat
# Candidate        =  PSR_0332+5434
# Telescope        =  AR
# Epoch_topo       =  58190.697466502825
# Epoch_bary       =  N/A
# T_sample         =  0.002
# Data Folded      =  7340032
# Data Avg         =  0.107435889918374
# Data StdDev      =  4.71599012230514 
# Profile Bins     =  512
# Profile Avg      =  1540.08412049203 
# Profile StdDev   =  564.659816866431 
# Reduced chi-sqr  =  0.919
# Prob(Noise)      <  0.904   (~0.0 sigma)
# P_topo (ms)      =  714.578345747214  +/- 0.000386
# P'_topo (s/s)    =  -0                +/- 2.04e-10
# P''_topo (s/s^2) =  0                 +/- 9e-14
# P_bary (ms)      =  N/A
# P'_bary (s/s)    =  N/A
# P''_bary (s/s^2) =  N/A
# P_orb (s)        =  N/A
# asin(i)/c (s)    =  N/A
# eccentricity     =  N/A
# w (rad)          =  N/A
# T_peri           =  N/A
######################################################
   0  1285.286
   1  981.7158
   2  626.8787
   3  1270.677
   4  1411.057
   5  1601.213
   6  1308.472
   7  1080.797
   8  1510.681
   9  1753.723
  10  1612.243
  11  1303.949
  12  945.9653
  13  870.9982
  14  781.002
  15  1319.026
  16  1441.459
  17  1510.331
  18  1395.5
  19  1177.288
  20  1218.218
  21  1385.159
  22  1442.155
  23  1379.169
  24  1565.176
  25  1749.549
  26  1867.235
  27  1812.317
  28  1597.623
  29  1645.657
  30  2034.834
  31  1595.365
  32  1263.819
  33  1231.253
  34  1699.15
  35  1552.084
  36  1282.057
  37  1317.739
  38  1155.716
  39  1611.06
  40  1629.396
  41  1675.984
  42  1521.501
  43  2133.431
  44  2064.884
  45  1698.799
  46  1573.985
  47  1523.045
  48  1967.916
  49  2021.53
  50  1726.765
  51  1776.36
  52  2075.526
  53  1728.675
  54  1522.976
  55  1151.686
  56  1430.205
  57  1513.605
  58  1473.816
  59  1734.592
  60  1470.551
  61  1550.461
  62  1537.329
  63  1483.636
  64  1601.396
  65  1130.242
  66  753.0551
  67  1173.236
  68  1461.897
  69  1258.598
  70  1147.022
  71  793.9979
  72  1251.985
  73  1423.086
  74  1048.169
  75  1146.732
  76  1124.103
  77  1085.871
  78  1094.092
  79  1418.178
  80  1147.76
  81  1101.922
  82  1065.442
  83  1086.582
  84  1073.728
  85  1155.443
  86  1041.105
  87  1113.126
  88  1417.244
  89  1433.503
  90  1609.063
  91  1567.284
  92  1387.663
  93  1188.791
  94  1215.054
  95  1409.985
  96  1693.196
  97  1518.799
  98  1955.279
  99  1795.897
 100  1645.077
 101  2131.59
 102  2140.675
 103  2721.075
 104  3731.055
 105  3974.674
 106  3728.406
 107  2724.785
 108  2226.708
 109  2438.085
 110  2034.859
 111  1878.25
 112  1701.3
 113  1775.16
 114  2209.964
 115  2137.104
 116  2221.507
 117  2486.036
 118  1988.277
 119  2003.676
 120  2194.416
 121  2010.742
 122  1863.043
 123  1685.158
 124  1659.766
 125  1388.52
 126  1462.1
 127  1726.797
 128  1629.681
 129  1141.624
 130  973.4146
 131  878.4667
 132  1053.922
 133  1261.042
 134  1657.7
 135  1708.732
 136  1669.278
 137  1083.325
 138  1212.068
 139  1123.445
 140  1284.829
 141  627.7722
 142  973.6498
 143  1009.172
 144  862.0748
 145  1022.909
 146  1067.572
 147  1355.555
 148  1023.816
 149  1270.048
 150  1258.594
 151  830.9274
 152  1035.208
 153  1178.729
 154  1023.044
 155  1038.619
 156  1198.052
 157  1002.389
 158  924.7166
 159  1034.116
 160  1190.792
 161  1062.087
 162  1311.315
 163  1324.99
 164  1233.236
 165  1173.916
 166  1063.253
 167  907.534
 168  1510.921
 169  1921.187
 170  1561.781
 171  1638.95
 172  1713.582
 173  1470.552
 174  1535.484
 175  1409.815
 176  1354.283
 177  1674.035
 178  1615.508
 179  1295.749
 180  1756.677
 181  1908.563
 182  1726.061
 183  1669.772
 184  1910.288
 185  1957.004
 186  2077.775
 187  1904.958
 188  1705.068
 189  1946.312
 190  1998.095
 191  1480.611
 192  1486.811
 193  1927.465
 194  1995.377
 195  1914.141
 196  1779.658
 197  1741.616
 198  1767.59
 199  1477.522
 200  1395.306
 201  1189.5
 202  1194.446
 203  968.3994
 204  895.1007
 205  983.7452
 206  847.8127
 207  564.0654
 208  741.6207
 209  905.8275
 210  1431.939
 211  1150.262
 212  1557.157
 213  1438.943
 214  1349.818
 215  1250.356
 216  757.7867
 217  1051.629
 218  1370.325
 219  1326.105
 220  1338.191
 221  1309.637
 222  1502.582
 223  1563.651
 224  1338.827
 225  1811.62
 226  1548.736
 227  1541.152
 228  1834.849
 229  1778.237
 230  1877.891
 231  1757.768
 232  1582.074
 233  1465.352
 234  1351.22
 235  1346.167
 236  1162.85
 237  1073.043
 238  1303.156
 239  1409.295
 240  1768.328
 241  1571.895
 242  1442.031
 243  1194.162
 244  1217.817
 245  1629.292
 246  1711.293
 247  2007.88
 248  1985.729
 249  1917.419
 250  1753.194
 251  1949.039
 252  1433.801
 253  1490.196
 254  1919.395
 255  1886.495
 256  1756.265
 257  1672.361
 258  1755.215
 259  1904.804
 260  1855.801
 261  1604.447
 262  1945.614
 263  1805.611
 264  1737.617
 265  1828.271
 266  1877.613
 267  1783.416
 268  1678.858
 269  1741.683
 270  1885.187
 271  1926.447
 272  1440.213
 273  1587.065
 274  1696.165
 275  1625.879
 276  1702.734
 277  1585.741
 278  1207.462
 279  1352.327
 280  1982.659
 281  1854.962
 282  1744.355
 283  1631.229
 284  1791.448
 285  1584.109
 286  1624.158
 287  1882.426
 288  1519.29
 289  1475.726
 290  1324.831
 291  1378.68
 292  1350.749
 293  1790.388
 294  2091.91
 295  2106.833
 296  1574.394
 297  1291.696
 298  1467.871
 299  1908.311
 300  1841.894
 301  1980.472
 302  1762.535
 303  1773.52
 304  1589.375
 305  1495.987
 306  1482.738
 307  1968.372
 308  2156.983
 309  1805.587
 310  1378.314
 311  1242.146
 312  1427.976
 313  1562.822
 314  1901.671
 315  1933.679
 316  1664.374
 317  1889.922
 318  1670.046
 319  1850.256
 320  1920.454
 321  1755.58
 322  1563.816
 323  1340.535
 324  1960.127
 325  1669.24
 326  1789.832
 327  1522.732
 328  1460.622
 329  1903.927
 330  2079.359
 331  2131.186
 332  1423.936
 333  1678.849
 334  1852.895
 335  1972.86
 336  2226.527
 337  2089.979
 338  1795.487
 339  1571.87
 340  1493.569
 341  1161.612
 342  1244.007
 343  1398.916
 344  1560.238
 345  1730.137
 346  1388.54
 347  1593.975
 348  2036.52
 349  1527.89
 350  1539.4
 351  1858.976
 352  1545.814
 353  1386.864
 354  1791.517
 355  1908.958
 356  1788.167
 357  1694.05
 358  2180.041
 359  2016.12
 360  1404.77
 361  1355.209
 362  1851.899
 363  2108.256
 364  1778.975
 365  1994.177
 366  1574.049
 367  1364.392
 368  1502.542
 369  1501.592
 370  1805.238
 371  1765.62
 372  1172.994
 373  1265.458
 374  1330.37
 375  1380.822
 376  1162.561
 377  1389.609
 378  1241.949
 379  1787.003
 380  1907.179
 381  1659.466
 382  1543.795
 383  1034.433
 384  1053.624
 385  1290.9
 386  1540.001
 387  1466.634
 388  1788.39
 389  1352.147
 390  1398.93
 391  1507.378
 392  1565.03
 393  1330.044
 394  1498.478
 395  1729.788
 396  1587.708
 397  1356.1
 398  2117.868
 399  2451.174
 400  2013.793
 401  1975.922
 402  1734.394
 403  1617.169
 404  1501.287
 405  1360.556
 406  1914.8
 407  1788.955
 408  1550.016
 409  1851.175
 410  1648.939
 411  1810.817
 412  1527.521
 413  1286.986
 414  1735.458
 415  2148.016
 416  1908.086
 417  1943.221
 418  2000.467
 419  1903.568
 420  1723.092
 421  1497.866
 422  1587.61
 423  1925.215
 424  1743.353
 425  1661.17
 426  1950.093
 427  1961.326
 428  1739.645
 429  1357.697
 430  1253.828
 431  1323.135
 432  1297.149
 433  1456.949
 434  1262.11
 435  1270.692
 436  1455.198
 437  1164.261
 438  955.0833
 439  1410.616
 440  1774.321
 441  1691.714
 442  1205.475
 443  901.3736
 444  1075.453
 445  1461.403
 446  1411.692
 447  1308.762
 448  1217.33
 449  1297.823
 450  1220.487
 451  1246.531
 452  1255.58
 453  1319.781
 454  1144.382
 455  1064.741
 456  1061.597
 457  638.4552
 458  776.8451
 459  1220.334
 460  1306.391
 461  1254.632
 462  1053.391
 463  1367.143
 464  1526.484
 465  1561.701
 466  1512.748
 467  1439.757
 468  1371.607
 469  1437.843
 470  1422.819
 471  1703.757
 472  2235.298
 473  2524.95
 474  2277.419
 475  1618.495
 476  1791.504
 477  1856.501
 478  1677.011
 479  1848.363
 480  2173.084
 481  2002.932
 482  1784.943
 483  1653.241
 484  1446.714
 485  1606.968
 486  1482.034
 487  1243.789
 488  1507.545
 489  1405.792
 490  1326.675
 491  1372.234
 492  1034.871
 493  1140.231
 494  1555.716
 495  1745.38
 496  1294.853
 497  1077.133
 498  1114.374
 499  866.0538
 500  795.0993
 501  987.0164
 502  1269.465
 503  1266.909
 504  1022.419
 505  1059.77
 506  1166.193
 507  1349.429
 508  1549.738
 509  1828.798
 510  1409.505
 511  1485.044
