# Input file       =  1204305439.103577_cleaned.dat
# Candidate        =  PSR_0332+5434
# Telescope        =  AR
# Epoch_topo       =  58182.720579902511
# Epoch_bary       =  N/A
# T_sample         =  0.002
# Data Folded      =  7340032
# Data Avg         =  0.170976196862675
# Data StdDev      =  5.46736135321993 
# Profile Bins     =  1024
# Profile Avg      =  1225.56919042288 
# Profile StdDev   =  462.888910987056 
# Reduced chi-sqr  =  0.621
# Prob(Noise)      <  1   (~0.0 sigma)
# P_topo (ms)      =  714.580235737108  +/- 0.000481
# P'_topo (s/s)    =  -0                +/- 2.54e-10
# P''_topo (s/s^2) =  0                 +/- 1.12e-13
# P_bary (ms)      =  N/A
# P'_bary (s/s)    =  N/A
# P''_bary (s/s^2) =  N/A
# P_orb (s)        =  N/A
# asin(i)/c (s)    =  N/A
# eccentricity     =  N/A
# w (rad)          =  N/A
# T_peri           =  N/A
######################################################
   0  1330.279
   1  1359.368
   2  1425.336
   3  1425.128
   4  1261.095
   5  1216.46
   6  1295.527
   7  1341.842
   8  1353.119
   9  1231.885
  10  1292.482
  11  1221.838
  12  1208.619
  13  1289.98
  14  1366.972
  15  1438.778
  16  1355.039
  17  1357.561
  18  1462.97
  19  1612.303
  20  1756.196
  21  1729.958
  22  1603.838
  23  1357.328
  24  1254.124
  25  1189.884
  26  1252.772
  27  1403.041
  28  1298.566
  29  1230.364
  30  1090.261
  31  1115.925
  32  1091.609
  33  1099.97
  34  1027.816
  35  1003.616
  36  1028.562
  37  1068.177
  38  1069.406
  39  979.0186
  40  1048.467
  41  1136.299
  42  1073.629
  43  1004.982
  44  1034.253
  45  1052.247
  46  1016.456
  47  876.1031
  48  851.5071
  49  915.9717
  50  1016.29
  51  1084.511
  52  1010.658
  53  924.7573
  54  912.9554
  55  974.7519
  56  1068.358
  57  1233.082
  58  1173.45
  59  1035.543
  60  905.7574
  61  898.2381
  62  884.8024
  63  980.744
  64  1187.477
  65  1329.567
  66  1348.759
  67  1205.187
  68  1110.416
  69  1020.71
  70  1081.896
  71  1167.383
  72  1172.666
  73  1095.761
  74  987.5515
  75  1027.992
  76  1162.294
  77  1195.344
  78  1315.28
  79  1254.651
  80  1330.332
  81  1223.686
  82  1323.359
  83  1331.062
  84  1322.33
  85  1329.11
  86  1180.032
  87  1141.552
  88  1021.266
  89  1003.139
  90  1047.047
  91  1091.643
  92  1080.183
  93  997.4512
  94  1020.411
  95  1085.303
  96  1027.215
  97  1005.216
  98  998.8591
  99  1133.015
 100  1247.307
 101  1339.241
 102  1290.679
 103  1232.151
 104  1062.293
 105  953.0932
 106  948.8162
 107  1056.488
 108  1037.974
 109  950.4167
 110  1027.568
 111  1041.449
 112  1085.689
 113  1248.344
 114  1346.513
 115  1372.69
 116  1217.622
 117  1194.281
 118  1046.885
 119  1081.669
 120  1007.634
 121  1212.41
 122  1250.14
 123  1211.557
 124  1076.925
 125  1096.139
 126  1271.979
 127  1264.221
 128  1304.377
 129  1202.054
 130  1192.442
 131  1171.235
 132  1310.721
 133  1289.349
 134  1224.161
 135  1210.332
 136  1247.938
 137  1214.794
 138  1218.537
 139  1198.112
 140  1300.708
 141  1375.019
 142  1459.931
 143  1640.265
 144  1650.775
 145  1626.34
 146  1488.643
 147  1464.316
 148  1467.318
 149  1393.572
 150  1341.337
 151  1371.126
 152  1465.028
 153  1426.192
 154  1279.379
 155  1135.645
 156  1191.206
 157  1374.104
 158  1364.828
 159  1273.258
 160  1110.153
 161  1168.043
 162  1270.02
 163  1324.459
 164  1310.036
 165  1253.627
 166  1092.746
 167  1051.26
 168  1063.359
 169  1106.414
 170  1133.023
 171  1168.416
 172  1306.914
 173  1398.126
 174  1311.524
 175  1224.394
 176  1144.124
 177  1188.522
 178  1146.573
 179  1120.538
 180  1082.098
 181  1142.837
 182  1326.206
 183  1507.855
 184  1381.562
 185  1135.653
 186  975.6611
 187  1123.684
 188  1153.522
 189  1208.551
 190  1214.448
 191  1200.499
 192  1172.744
 193  1216.98
 194  1291.535
 195  1341.526
 196  1533.242
 197  1652.115
 198  1569.932
 199  1336.934
 200  1282.666
 201  1261.649
 202  1229.422
 203  1235.054
 204  1407.383
 205  1328.287
 206  1292.208
 207  1269.443
 208  1491.553
 209  1681.891
 210  1559.876
 211  1338.291
 212  1308.231
 213  1532.315
 214  1767.907
 215  1822.255
 216  1737.254
 217  1684.343
 218  1720.844
 219  1724.817
 220  1730.459
 221  1667.385
 222  1558.156
 223  1542.921
 224  1647.717
 225  1680.186
 226  1583.269
 227  1605.623
 228  1670.399
 229  1798.947
 230  1739.002
 231  1763.088
 232  1758.377
 233  1717.682
 234  1660.198
 235  1445.65
 236  1413.935
 237  1279.231
 238  1370.707
 239  1376.84
 240  1350.231
 241  1258.585
 242  1206.228
 243  1388.676
 244  1326.83
 245  1397.354
 246  1400.26
 247  1429.776
 248  1429.397
 249  1354.642
 250  1380.59
 251  1211.928
 252  1252.135
 253  1270.231
 254  1297.831
 255  1201.974
 256  1303.425
 257  1385.737
 258  1339.216
 259  1402.292
 260  1485.333
 261  1705.671
 262  1724.525
 263  1843.366
 264  1762.085
 265  1632.363
 266  1663.936
 267  1807.219
 268  1785.773
 269  1689.239
 270  1505.173
 271  1539.477
 272  1573.877
 273  1512.263
 274  1560.669
 275  1538.496
 276  1619.67
 277  1622.415
 278  1602.249
 279  1472.04
 280  1353.994
 281  1434.602
 282  1573.337
 283  1573.89
 284  1537.505
 285  1302.894
 286  1168.585
 287  1208.734
 288  1381.203
 289  1543.937
 290  1622.644
 291  1683.085
 292  1643.438
 293  1553.15
 294  1494.053
 295  1446.531
 296  1396.819
 297  1484.2
 298  1576.925
 299  1540.15
 300  1503.817
 301  1529.136
 302  1470.301
 303  1421.551
 304  1381.851
 305  1462.152
 306  1490.724
 307  1448.302
 308  1467.219
 309  1409.224
 310  1439.08
 311  1309.052
 312  1296.757
 313  1287.148
 314  1461.416
 315  1492.892
 316  1411.912
 317  1331.931
 318  1287.348
 319  1364.658
 320  1499.788
 321  1445.669
 322  1354.562
 323  1193.439
 324  1203.096
 325  1237.667
 326  1378.36
 327  1353.574
 328  1371.432
 329  1372.985
 330  1372.228
 331  1140.729
 332  912.5422
 333  861.6084
 334  937.9234
 335  968.0116
 336  1028.832
 337  964.8242
 338  974.9388
 339  1094.124
 340  1122.278
 341  1076.506
 342  972.8622
 343  1001.659
 344  1040.646
 345  1205.79
 346  1091.001
 347  1083.331
 348  893.085
 349  845.4034
 350  789.0556
 351  789.3915
 352  872.5775
 353  907.8713
 354  1070.881
 355  1048.916
 356  1055.126
 357  969.264
 358  1000.736
 359  1030.434
 360  1028.249
 361  991.5904
 362  1025.999
 363  1083.409
 364  1183.405
 365  1227.908
 366  1292.329
 367  1236.279
 368  1118.411
 369  961.2006
 370  996.7236
 371  948.0182
 372  953.0953
 373  950.1456
 374  1042.957
 375  1101.12
 376  1155.896
 377  1271.66
 378  1484.664
 379  1398.281
 380  1386.118
 381  1239.631
 382  1136.901
 383  1112.949
 384  1196.992
 385  1172.063
 386  1142.057
 387  1165.498
 388  1155.86
 389  1119.626
 390  1076.635
 391  1090.224
 392  1056.345
 393  1014.197
 394  1031.547
 395  1135.251
 396  1216.323
 397  1250.594
 398  1130.475
 399  962.3076
 400  878.2445
 401  872.1511
 402  998.7519
 403  1106.246
 404  1135.331
 405  1172.336
 406  1215.969
 407  1184.434
 408  1120.589
 409  1057.022
 410  1069.454
 411  1069.236
 412  1094.865
 413  985.7281
 414  952.6512
 415  968.2338
 416  1025.303
 417  1093.642
 418  956.8221
 419  750.2085
 420  582.4061
 421  623.1235
 422  873.7335
 423  1041.828
 424  1198.899
 425  1173.682
 426  1202.086
 427  1229.57
 428  1296.562
 429  1399.323
 430  1491.294
 431  1426.589
 432  1353.733
 433  1338.13
 434  1462.443
 435  1424.423
 436  1321.825
 437  1230.362
 438  1266.905
 439  1368.151
 440  1290.559
 441  1239.999
 442  1250.727
 443  1377.254
 444  1469.51
 445  1581.473
 446  1455.947
 447  1398.486
 448  1297.089
 449  1393.795
 450  1299.782
 451  1277.193
 452  1117.442
 453  1126.771
 454  1090.219
 455  1128.59
 456  1224.618
 457  1330.265
 458  1299.198
 459  1176.488
 460  1239.89
 461  1381.285
 462  1424.968
 463  1415.639
 464  1402.538
 465  1414.49
 466  1208.668
 467  1034.536
 468  972.014
 469  967.8984
 470  967.2558
 471  1072.315
 472  1161.792
 473  1144.325
 474  1140.812
 475  1166.883
 476  1180.876
 477  1134.912
 478  1077.066
 479  1015.693
 480  955.0439
 481  946.4418
 482  998.2933
 483  1056.966
 484  1057.697
 485  1167.509
 486  1106.129
 487  1188.199
 488  1239.893
 489  1351.661
 490  1349.171
 491  1297.154
 492  1297.851
 493  1327.265
 494  1319.511
 495  1145.421
 496  970.3116
 497  894.8128
 498  983.8342
 499  1106.802
 500  1031.065
 501  1006.052
 502  1045.536
 503  1251.213
 504  1412.374
 505  1374.144
 506  1189.818
 507  1113.897
 508  1140.144
 509  1221.787
 510  1398.089
 511  1463.455
 512  1464.88
 513  1394.6
 514  1347.675
 515  1297.68
 516  1380.176
 517  1360.627
 518  1392.576
 519  1360.943
 520  1357.26
 521  1364.748
 522  1418.799
 523  1574.676
 524  1541.704
 525  1459.992
 526  1315.634
 527  1249.98
 528  1297.521
 529  1257.667
 530  1302.533
 531  1308.878
 532  1241.787
 533  1045.591
 534  909.9631
 535  1000.208
 536  994.7471
 537  888.4539
 538  742.5606
 539  705.4271
 540  808.8293
 541  978.2034
 542  993.1338
 543  1018.503
 544  978.9704
 545  1111.113
 546  1118.001
 547  1178.352
 548  1202.552
 549  1256.529
 550  1128.739
 551  924.3959
 552  889.4279
 553  1029.728
 554  1149.059
 555  1198.922
 556  1144.155
 557  1232.551
 558  1206.05
 559  1203.561
 560  1130.305
 561  1090.424
 562  1101.129
 563  1208.241
 564  1211.796
 565  1163.322
 566  1100.331
 567  1191.943
 568  1176.617
 569  1128.697
 570  1037.534
 571  1159.772
 572  1285.34
 573  1326.906
 574  1221.67
 575  1206.789
 576  1230.86
 577  1243.903
 578  1177.818
 579  1091.108
 580  1100.002
 581  1084.408
 582  1036.567
 583  947.8123
 584  931.2925
 585  925.0983
 586  867.6937
 587  956.9897
 588  1037.091
 589  1130.148
 590  1002.495
 591  1046.84
 592  1095.801
 593  1228.113
 594  1170.364
 595  1311.366
 596  1360.698
 597  1399.931
 598  1370.98
 599  1351.86
 600  1337.387
 601  1330.992
 602  1349.594
 603  1368.699
 604  1457.048
 605  1652.414
 606  1819.326
 607  1902.238
 608  1920.05
 609  1920.302
 610  1898.803
 611  1740.344
 612  1624.603
 613  1509.946
 614  1364.526
 615  1271.859
 616  1296.591
 617  1362.302
 618  1290.258
 619  1147.485
 620  1020.421
 621  1013.285
 622  1099.084
 623  1133.33
 624  1163.28
 625  1311.995
 626  1485.764
 627  1409.283
 628  1192.527
 629  995.2061
 630  1045.66
 631  1137.28
 632  1267.938
 633  1272.917
 634  1224.69
 635  1298.166
 636  1272.618
 637  1340.305
 638  1413.932
 639  1458.311
 640  1266.248
 641  1135.268
 642  1039.698
 643  1133.627
 644  1141.568
 645  1131.29
 646  1222.302
 647  1252.663
 648  1274.666
 649  1321.751
 650  1324.927
 651  1389.509
 652  1304.952
 653  1389.221
 654  1286.296
 655  1336.613
 656  1255.817
 657  1254.363
 658  1019.583
 659  888.919
 660  933.9623
 661  932.7343
 662  1067.008
 663  1166.103
 664  1303.585
 665  1224.791
 666  1151.596
 667  1187.693
 668  1259.569
 669  1306.906
 670  1220.234
 671  1100.481
 672  979.4995
 673  922.071
 674  1100.987
 675  1022.392
 676  864.4002
 677  703.14
 678  739.1796
 679  880.9092
 680  972.1703
 681  1035.307
 682  1091.853
 683  1112.244
 684  1041.035
 685  1002.019
 686  1010.158
 687  1179.275
 688  1280.076
 689  1328.089
 690  1274.15
 691  1321.239
 692  1276.935
 693  1313.687
 694  1302.485
 695  1245.362
 696  1302.081
 697  1257.19
 698  1357.888
 699  1438.086
 700  1484.006
 701  1507.259
 702  1398.762
 703  1463.253
 704  1450.105
 705  1446.367
 706  1273.505
 707  1337.535
 708  1273.67
 709  1175.494
 710  1092.374
 711  1134.228
 712  1174.189
 713  1177.526
 714  1056.673
 715  980.2859
 716  1051.907
 717  1064.525
 718  1148.207
 719  1185.955
 720  1309.047
 721  1264.178
 722  1221.98
 723  1043.617
 724  1011.689
 725  946.6965
 726  1064.529
 727  1016.957
 728  1101.468
 729  1187.152
 730  1354.526
 731  1359.862
 732  1442.152
 733  1309.844
 734  1173.393
 735  1019.143
 736  1069.101
 737  953.2416
 738  1076.795
 739  1076.737
 740  1125.526
 741  983.1501
 742  992.8638
 743  1052.332
 744  1030.847
 745  971.8519
 746  962.4655
 747  896.8371
 748  920.7543
 749  957.0916
 750  1032.129
 751  1037.77
 752  1008.518
 753  896.7663
 754  834.1924
 755  902.876
 756  974.1133
 757  922.3065
 758  895.2504
 759  870.0345
 760  982.0369
 761  982.2734
 762  1190.69
 763  1268.04
 764  1256.433
 765  1244.024
 766  1309.682
 767  1329.022
 768  1320.524
 769  1238.592
 770  1215.788
 771  1153.279
 772  1234.766
 773  1305.496
 774  1418.095
 775  1434.859
 776  1534.29
 777  1503.843
 778  1457.017
 779  1436.781
 780  1379.038
 781  1307.514
 782  1333.565
 783  1315.088
 784  1354.702
 785  1258.088
 786  1250.881
 787  1288.257
 788  1282.605
 789  1249.004
 790  1201.206
 791  1376.468
 792  1491.118
 793  1566.939
 794  1446.224
 795  1261.759
 796  1159.38
 797  1101.511
 798  1217.793
 799  1250.396
 800  1093.47
 801  1008.931
 802  947.7103
 803  1022.022
 804  909.9643
 805  1016.906
 806  1140.37
 807  1144.666
 808  1017.85
 809  1112.172
 810  1098.705
 811  1145.812
 812  1012.711
 813  1094.912
 814  1123.606
 815  1297.838
 816  1396.87
 817  1328.176
 818  1332.411
 819  1251.982
 820  1165.935
 821  1226.571
 822  1256.225
 823  1424.345
 824  1353.314
 825  1323.81
 826  1290.101
 827  1485.334
 828  1572.931
 829  1513.062
 830  1377.188
 831  1385.889
 832  1357.7
 833  1305.672
 834  1266.63
 835  1319.707
 836  1370.737
 837  1431.21
 838  1395.441
 839  1336.859
 840  1386.241
 841  1313.216
 842  1369.791
 843  1218.773
 844  1128.911
 845  1162.122
 846  1114.272
 847  1076.796
 848  961.4663
 849  961.1884
 850  927.2755
 851  1017.957
 852  1106.069
 853  1125.342
 854  1091.474
 855  1026.516
 856  1094.231
 857  1086.239
 858  1200.047
 859  1119.623
 860  1198.865
 861  1121.819
 862  1082.569
 863  1008.111
 864  963.1141
 865  939.2691
 866  1030.663
 867  1228.833
 868  1275.297
 869  1272.829
 870  1397.775
 871  1433.704
 872  1370.915
 873  1115.011
 874  979.1702
 875  1008.748
 876  1058.791
 877  1050.59
 878  1017.943
 879  1078.869
 880  1089.97
 881  1026.168
 882  1129.646
 883  1139.446
 884  1131.35
 885  911.9971
 886  826.3102
 887  808.7731
 888  987.6783
 889  1125.657
 890  982.7409
 891  977.7687
 892  900.4703
 893  965.302
 894  1058.245
 895  1223.577
 896  1249.689
 897  1127.008
 898  1150.075
 899  1107.37
 900  1121.539
 901  1150.251
 902  1170.546
 903  1177.661
 904  1219.196
 905  1260.267
 906  1212.178
 907  1160.392
 908  1152.315
 909  1142.611
 910  1189.106
 911  1117.145
 912  1297.723
 913  1454.745
 914  1519.911
 915  1466.412
 916  1284.895
 917  1140.12
 918  948.882
 919  854.3998
 920  993.1072
 921  1232.164
 922  1310.913
 923  1330.924
 924  1312.126
 925  1431.506
 926  1419.853
 927  1461.455
 928  1454.933
 929  1504.771
 930  1460.808
 931  1385.587
 932  1314.383
 933  1266.165
 934  1271.374
 935  1391.291
 936  1346.199
 937  1308.051
 938  1270.369
 939  1255.801
 940  1308.166
 941  1252.757
 942  1176.067
 943  1074.328
 944  1021.32
 945  1094.982
 946  1167.763
 947  1327.999
 948  1370.556
 949  1316.637
 950  1291.562
 951  1163.07
 952  1106.698
 953  1034.103
 954  1062.334
 955  1089.626
 956  1083.624
 957  1068.074
 958  931.4404
 959  909.7402
 960  984.4429
 961  1047.985
 962  1054.942
 963  1044.919
 964  1102.47
 965  1122.045
 966  1128.094
 967  1146.626
 968  1176.615
 969  1172.612
 970  1083.065
 971  1056.977
 972  1046.529
 973  1140.115
 974  1167.147
 975  1239.554
 976  1250.032
 977  1341.248
 978  1461.642
 979  1350.49
 980  1253.021
 981  1310.566
 982  1308.888
 983  1254.912
 984  1164.437
 985  1181.878
 986  1212.16
 987  1139.482
 988  1125.283
 989  1155
 990  1224.832
 991  1250.511
 992  1281.507
 993  1188.419
 994  1249.498
 995  1275.657
 996  1251.287
 997  1113.88
 998  1001.182
 999  1066.937
1000  1172.852
1001  1267.575
1002  1317.546
1003  1320.185
1004  1258.101
1005  1333.33
1006  1344.75
1007  1356.032
1008  1326.634
1009  1421.707
1010  1417.791
1011  1374.04
1012  1354.089
1013  1337.073
1014  1244.982
1015  1219.629
1016  1266.578
1017  1360.656
1018  1328.59
1019  1340.104
1020  1267.16
1021  1268.433
1022  1298.802
1023  1310.582
