# Input file       =  1204189742.101555_cleaned.dat
# Candidate        =  PSR_0332+5434
# Telescope        =  AR
# Epoch_topo       =  58181.381494230962
# Epoch_bary       =  N/A
# T_sample         =  0.002
# Data Folded      =  7208960
# Data Avg         =  0.713543522998224
# Data StdDev      =  6.42992759867393 
# Profile Bins     =  512
# Profile Avg      =  10046.4982393575 
# Profile StdDev   =  762.969909270725 
# Reduced chi-sqr  =  2.858
# Prob(Noise)      <  3.2e-92   (~20.3 sigma)
# P_topo (ms)      =  714.580096852973  +/- 3.38e-05
# P'_topo (s/s)    =  -0                +/- 1.82e-11
# P''_topo (s/s^2) =  0                 +/- 8.16e-15
# P_bary (ms)      =  N/A
# P'_bary (s/s)    =  N/A
# P''_bary (s/s^2) =  N/A
# P_orb (s)        =  N/A
# asin(i)/c (s)    =  N/A
# eccentricity     =  N/A
# w (rad)          =  N/A
# T_peri           =  N/A
######################################################
   0  8802.619
   1  9152.065
   2  10001.35
   3  9584.097
   4  9017.371
   5  8872.044
   6  8855.733
   7  8865.063
   8  9008.945
   9  9650.694
  10  9976.36
  11  9966.171
  12  9419.659
  13  9089.812
  14  8910.144
  15  9094.72
  16  9208.449
  17  9353.891
  18  9622.052
  19  9431.378
  20  8372.429
  21  8003.889
  22  8365.261
  23  8827.923
  24  9270.061
  25  9861.018
  26  10006.21
  27  10387.99
  28  9907.017
  29  9104.574
  30  8813.21
  31  9085.315
  32  9255.322
  33  9241.125
  34  9642.923
  35  10070.85
  36  10067.1
  37  9058.719
  38  8465.745
  39  8136.049
  40  9174.892
  41  9447.146
  42  9689.734
  43  10750.51
  44  10628.34
  45  9651.807
  46  9352.393
  47  9270.498
  48  8954.339
  49  9416.611
  50  9293.377
  51  9603.68
  52  10079.85
  53  9735.125
  54  9678.467
  55  9282.753
  56  9648.28
  57  10367.12
  58  10296.36
  59  10877.48
  60  11234.8
  61  11248.85
  62  10565.12
  63  9870.951
  64  9825.811
  65  9959.27
  66  9793.308
  67  9978.746
  68  10644.06
  69  10698.26
  70  10007.39
  71  9347.016
  72  9159.128
  73  9292.418
  74  9382.397
  75  9758.911
  76  10635.9
  77  10818.92
  78  10684.93
  79  9976.422
  80  9821.516
  81  9681.608
  82  9315.926
  83  9389.271
  84  9568.608
  85  9562.663
  86  9427.84
  87  8691.672
  88  8464.403
  89  8663.281
  90  8953.088
  91  9240.923
  92  9615.666
  93  10212.79
  94  9896.867
  95  9344.823
  96  8929.272
  97  8736.152
  98  9112.89
  99  9326.086
 100  9562.918
 101  9765.707
 102  9751.601
 103  9011.507
 104  8190.218
 105  8089.466
 106  8655.507
 107  8940.177
 108  9206.254
 109  9510.296
 110  9744.496
 111  9323.531
 112  8781.722
 113  8696.68
 114  8950.958
 115  8907.877
 116  8728.837
 117  9231.679
 118  9268.399
 119  8718.187
 120  8218.643
 121  8267.456
 122  8640.201
 123  8669.38
 124  9401.753
 125  9576.065
 126  9499.104
 127  9358.495
 128  9047.307
 129  8882.786
 130  8884.879
 131  8576.219
 132  9057.688
 133  9087.169
 134  9787.478
 135  9701.629
 136  9023.837
 137  8497.153
 138  8432.736
 139  9148.945
 140  9264.424
 141  9475.554
 142  10268.39
 143  10537.08
 144  9995.405
 145  9370.568
 146  9128.587
 147  9067.852
 148  8937.696
 149  8938.708
 150  9330.429
 151  9798.181
 152  9661.568
 153  9229.949
 154  8853.483
 155  9120.295
 156  9273.054
 157  9663.545
 158  10213.64
 159  10636.66
 160  10392.9
 161  10003.12
 162  9495.941
 163  9526.627
 164  9666.152
 165  9689.433
 166  9650.983
 167  10134.79
 168  10420.06
 169  9945.465
 170  9436.58
 171  9460.483
 172  9454.961
 173  10121.87
 174  10049.99
 175  10539.19
 176  10410.88
 177  9908.151
 178  9323.893
 179  8990.534
 180  9249.237
 181  9275.732
 182  9429.879
 183  9430.483
 184  9548.106
 185  9491.252
 186  9065.996
 187  8972.208
 188  9116.31
 189  9643.796
 190  9590.718
 191  9721.656
 192  10334.26
 193  10095.23
 194  9430.552
 195  9355.02
 196  9236.54
 197  9299.828
 198  9344.85
 199  9376.721
 200  9559.396
 201  9627.277
 202  9106.888
 203  8869.453
 204  9069.574
 205  9474.096
 206  9613.227
 207  10200.75
 208  10798.37
 209  10716.67
 210  10115.84
 211  9478.649
 212  9004.427
 213  9254.125
 214  9325.007
 215  9271.596
 216  9650.69
 217  9810.372
 218  9802.021
 219  8998.832
 220  8705.384
 221  8817.997
 222  9379.316
 223  10003.24
 224  10690.86
 225  11129.74
 226  11099.33
 227  9988.348
 228  9723.992
 229  9325.913
 230  9612.273
 231  9983.61
 232  9999.754
 233  10623.03
 234  10553.82
 235  10131.19
 236  9770.472
 237  9837.858
 238  9975.678
 239  10812.79
 240  11246.56
 241  11382.61
 242  11340.47
 243  10993.49
 244  10540.73
 245  10425.09
 246  10390.73
 247  10325.97
 248  10259.39
 249  10821.85
 250  11417.05
 251  11111.71
 252  10297.7
 253  10113.66
 254  10494.18
 255  10857.47
 256  11211.51
 257  11486.63
 258  12186.36
 259  12126.65
 260  11047.3
 261  10652.8
 262  10674.66
 263  10820.18
 264  10877.07
 265  11203.71
 266  11507.62
 267  11217.13
 268  11444.31
 269  11150.75
 270  10686.66
 271  10775.12
 272  11437.64
 273  12159.35
 274  12319.15
 275  12691.48
 276  12206.17
 277  11132.17
 278  10979.1
 279  11416.81
 280  11577.37
 281  11566.92
 282  12071.34
 283  12285.9
 284  12211.13
 285  11435.28
 286  11112.23
 287  10949.53
 288  11100.21
 289  11903.92
 290  12235.36
 291  12776.63
 292  12677.61
 293  12057.13
 294  11347.17
 295  11340.27
 296  11283.77
 297  10865.29
 298  11058.6
 299  11611.76
 300  11935.64
 301  11660.63
 302  11747.81
 303  11857.3
 304  11878.65
 305  12263.87
 306  12895.42
 307  12546.94
 308  12580.5
 309  11473.98
 310  10670.56
 311  10763.3
 312  10732.01
 313  10839.18
 314  10938.76
 315  11210.33
 316  11440.38
 317  11032.04
 318  10485
 319  10389.99
 320  10504.24
 321  10421.5
 322  10902.28
 323  11546.13
 324  12094.06
 325  11487.18
 326  10751.85
 327  10447.95
 328  10441.03
 329  10653.83
 330  10356.14
 331  10436.11
 332  10645.54
 333  10522.17
 334  10318.6
 335  9883.849
 336  10046.93
 337  10296.42
 338  10707.21
 339  11116.22
 340  11535.16
 341  11509.98
 342  11092.63
 343  10868.99
 344  10803.63
 345  10866.63
 346  10532.8
 347  10563.34
 348  11105.04
 349  10959.36
 350  10265.76
 351  9831.079
 352  9611.854
 353  9919.822
 354  10323.69
 355  11073.02
 356  11174.52
 357  11224.38
 358  11173.67
 359  10544.19
 360  9966.458
 361  9857.059
 362  9836.837
 363  9975.272
 364  10424.51
 365  10987.76
 366  10884
 367  10114.74
 368  9648.252
 369  9759.399
 370  10058.66
 371  10203.34
 372  10757.26
 373  11523.69
 374  11691.59
 375  11196.42
 376  10571.33
 377  10386.88
 378  10603
 379  10734.92
 380  10731.16
 381  10867.45
 382  11026.05
 383  10671.79
 384  10775.83
 385  10334.59
 386  10275.95
 387  10665.71
 388  11193.28
 389  11786.03
 390  12171.87
 391  11674.94
 392  10385.19
 393  10110.29
 394  10558.03
 395  10377.42
 396  10473.48
 397  10542.19
 398  10998.2
 399  10508.01
 400  10205.92
 401  10058.38
 402  9687.145
 403  9649.779
 404  9854.428
 405  10350.57
 406  11089.56
 407  11764.26
 408  11406.37
 409  10801.66
 410  10783.37
 411  10726.57
 412  10618.73
 413  10560.47
 414  10777.31
 415  10580.05
 416  10398.68
 417  10021.26
 418  9985.869
 419  10641.5
 420  10539.93
 421  10209.58
 422  10856.69
 423  11134.69
 424  10925.41
 425  10539.34
 426  9985.163
 427  9561.059
 428  9968.434
 429  10266.41
 430  10474.27
 431  10649.59
 432  10723.74
 433  10294.14
 434  9847.468
 435  9449.298
 436  9771.337
 437  9838.511
 438  10322.77
 439  10744.08
 440  11138.36
 441  10826.25
 442  10379.19
 443  9849.434
 444  9811.977
 445  9522.097
 446  9412.288
 447  9860.72
 448  10069.86
 449  9484.725
 450  8821.396
 451  8985.271
 452  9351.245
 453  9389.491
 454  9860.949
 455  10105.95
 456  10048.15
 457  10298.69
 458  9474.685
 459  9272.932
 460  9320.47
 461  9251.692
 462  9294.242
 463  9808.815
 464  10204.11
 465  9846.283
 466  9384.896
 467  8765.775
 468  8618.802
 469  8926.834
 470  9177.068
 471  9699.146
 472  10425.32
 473  10595.66
 474  10193.64
 475  9393.322
 476  9212.862
 477  8917.718
 478  8922.246
 479  8794.741
 480  9212.408
 481  9505.052
 482  9625.797
 483  9242.661
 484  8744.798
 485  8654.729
 486  8731.263
 487  8993.2
 488  9355.765
 489  10008.06
 490  10164.6
 491  9786.854
 492  9014.878
 493  8822.467
 494  9227.996
 495  9403.441
 496  8849.641
 497  9235.408
 498  9601.741
 499  9140.601
 500  8683.798
 501  8753.739
 502  9133.36
 503  9096.911
 504  9530.371
 505  9874.714
 506  10312.74
 507  10060.5
 508  9976.59
 509  9283.109
 510  9004.891
 511  8923.261
