# Input file       =  1204878933.116375_cleaned.dat
# Candidate        =  PSR_0332+5434
# Telescope        =  AR
# Epoch_topo       =  58189.358242087670
# Epoch_bary       =  N/A
# T_sample         =  0.002
# Data Folded      =  7208960
# Data Avg         =  0.49500856260261 
# Data StdDev      =  5.79059963086341 
# Profile Bins     =  512
# Profile Avg      =  6969.39437029701 
# Profile StdDev   =  687.107779548574 
# Reduced chi-sqr  =  1.144
# Prob(Noise)      <  0.0133   (~2.2 sigma)
# P_topo (ms)      =  714.578397134426  +/- 5.78e-05
# P'_topo (s/s)    =  -0                +/- 3.11e-11
# P''_topo (s/s^2) =  0                 +/- 1.4e-14
# P_bary (ms)      =  N/A
# P'_bary (s/s)    =  N/A
# P''_bary (s/s^2) =  N/A
# P_orb (s)        =  N/A
# asin(i)/c (s)    =  N/A
# eccentricity     =  N/A
# w (rad)          =  N/A
# T_peri           =  N/A
######################################################
   0  8538.069
   1  8095.631
   2  7474.744
   3  7567.776
   4  7584.466
   5  7219.059
   6  6988.263
   7  7297.928
   8  7349.804
   9  7587.389
  10  7503.836
  11  6981.216
  12  6830.777
  13  7194.326
  14  7666.702
  15  7612.848
  16  8268.037
  17  8089.448
  18  7856.785
  19  7534.509
  20  7209.47
  21  7249.404
  22  7006.861
  23  7072.426
  24  7137.63
  25  7107.809
  26  7293.723
  27  7156.441
  28  7447.408
  29  7580.998
  30  7742.324
  31  7615.792
  32  7932.541
  33  8284.154
  34  8365.732
  35  8209.605
  36  7961.061
  37  7704.784
  38  7362.703
  39  7743.798
  40  7880.536
  41  7712.947
  42  7616.91
  43  7033.24
  44  6711.299
  45  6833.671
  46  6983.962
  47  7023.8
  48  7526.194
  49  7899.36
  50  7906.009
  51  7692.225
  52  7067.734
  53  7185.826
  54  7160.061
  55  6962.236
  56  6838.056
  57  6837.164
  58  6388.54
  59  6210.75
  60  6405.264
  61  6543.728
  62  6569.419
  63  6937.168
  64  7251.337
  65  7954.008
  66  7701.971
  67  7608.774
  68  7170.781
  69  6595.704
  70  6583.875
  71  6168.915
  72  6223.847
  73  6401.379
  74  6571.207
  75  6920.627
  76  6792.403
  77  6313.735
  78  6386.036
  79  6297.471
  80  6387.279
  81  7088.009
  82  7108.054
  83  7814.68
  84  7557.414
  85  6945.633
  86  6544.337
  87  6603.81
  88  6166.562
  89  6363.892
  90  6608.28
  91  6518.249
  92  6352.509
  93  6360.15
  94  6359.043
  95  6242.66
  96  6298.059
  97  6732.733
  98  6800.826
  99  7018.43
 100  7060.111
 101  6770.334
 102  6495.732
 103  6396.414
 104  6485.596
 105  6496.884
 106  6598.063
 107  6265.399
 108  6395.771
 109  6504.854
 110  6429.042
 111  6549.336
 112  6676.69
 113  6538.715
 114  7145.661
 115  7870.747
 116  7848.181
 117  7821.018
 118  7404.305
 119  6884.633
 120  6429.611
 121  6239.136
 122  6501.081
 123  6473.008
 124  6915.112
 125  6925.708
 126  6744.436
 127  7071.521
 128  6798.707
 129  6636.207
 130  6891.583
 131  7513.205
 132  7906.612
 133  8036.955
 134  7722.304
 135  7434.482
 136  7120.308
 137  6578.167
 138  6644.937
 139  6758.579
 140  7040.259
 141  7302.327
 142  7013.412
 143  6449.858
 144  6543.288
 145  7111.539
 146  7182.204
 147  7518.752
 148  8201.769
 149  8082.631
 150  8061.526
 151  7358.322
 152  7630.935
 153  7477.935
 154  7118.724
 155  7074.194
 156  7312.004
 157  7212.142
 158  7306.2
 159  7548.084
 160  7130.163
 161  7138.446
 162  6923.631
 163  7405.595
 164  7194.975
 165  7523.577
 166  8131.744
 167  7722.415
 168  7405.191
 169  7051.478
 170  6756.951
 171  6768.199
 172  6573.253
 173  6809.577
 174  6545.733
 175  6924.135
 176  7044.561
 177  7166.46
 178  7071.992
 179  7061.085
 180  7698.152
 181  7845.942
 182  7855.419
 183  7280.424
 184  6834.702
 185  6736.41
 186  7337.053
 187  6958.537
 188  6730.166
 189  6901.293
 190  6815.196
 191  6803.216
 192  6866.552
 193  6873.365
 194  6497.577
 195  6810.892
 196  7209.311
 197  7418.565
 198  7735.285
 199  7407.021
 200  7019.002
 201  6669.064
 202  6798.656
 203  6518.777
 204  6266.156
 205  6250.455
 206  6294.5
 207  6428.799
 208  6018.227
 209  6220.244
 210  6233.12
 211  6491.294
 212  7156.879
 213  7239.119
 214  7165.905
 215  7820.016
 216  7240.602
 217  7363.489
 218  7096.303
 219  6839.833
 220  6819.562
 221  7039.222
 222  6986.925
 223  6796.369
 224  6622.178
 225  6422.307
 226  6521.684
 227  6328.439
 228  6494.536
 229  6810.567
 230  6837.626
 231  7516.719
 232  8049.028
 233  7319.38
 234  6712.96
 235  6534.784
 236  6182.112
 237  5786.846
 238  6262.325
 239  6590.348
 240  6959.339
 241  6647.141
 242  6429.439
 243  6376.487
 244  6698.373
 245  6763.64
 246  6971.15
 247  7124.38
 248  7422.635
 249  7773.076
 250  6727.6
 251  6819.484
 252  7064.821
 253  6768.473
 254  6968.394
 255  7011.319
 256  6813.653
 257  7072.235
 258  6761.301
 259  6410.696
 260  6306.246
 261  6751.684
 262  7147.012
 263  7074.128
 264  7687.183
 265  7710.024
 266  7500.646
 267  7159.939
 268  6747.837
 269  6454.197
 270  6550.146
 271  6790.425
 272  6729.733
 273  6295.78
 274  6521.512
 275  6912.287
 276  6756.75
 277  6528.791
 278  6749.491
 279  6907.728
 280  7124.83
 281  7500.547
 282  7481.433
 283  7327.824
 284  7418.922
 285  7498.853
 286  7003.054
 287  6862.109
 288  6629.852
 289  6826.16
 290  6769.008
 291  6916.157
 292  7224.216
 293  7075.037
 294  6789.392
 295  7013.786
 296  7505.544
 297  7731.066
 298  7778.933
 299  7829.047
 300  7386.542
 301  7746.358
 302  8021.581
 303  8076.468
 304  8037.4
 305  7969.286
 306  7729.696
 307  7341.225
 308  6764.962
 309  6310.118
 310  6611.145
 311  7151.237
 312  7178.162
 313  7075.566
 314  7194.632
 315  7333.406
 316  6910.985
 317  6625.641
 318  6326.919
 319  6399.36
 320  6298.454
 321  6659.477
 322  6389.015
 323  6167.615
 324  6093.834
 325  5949.332
 326  5991.985
 327  6380.909
 328  6808.474
 329  7018.688
 330  7382.577
 331  7492.744
 332  7076.946
 333  6741.714
 334  6832.402
 335  6665.911
 336  7094.086
 337  6723.904
 338  7164.174
 339  6915.79
 340  6680.37
 341  6332.893
 342  6295.847
 343  6831.115
 344  6678.999
 345  7045.017
 346  7872.593
 347  8031.935
 348  7443.081
 349  7194.183
 350  6906.938
 351  6803.765
 352  6904.036
 353  6896.423
 354  7094.863
 355  7213.645
 356  7038.26
 357  6854.792
 358  6851.548
 359  6548.623
 360  6616.042
 361  7151.783
 362  7423.954
 363  7916.512
 364  8029.244
 365  8131.837
 366  7450.667
 367  7203.717
 368  6978.063
 369  6855.928
 370  6726.012
 371  7127.893
 372  7155.312
 373  6923.73
 374  7041.014
 375  6868.595
 376  6611.433
 377  6838.573
 378  7495.449
 379  8004.643
 380  8329.31
 381  8053.954
 382  7477.686
 383  6917.148
 384  7203.741
 385  7160.371
 386  6768.294
 387  6780.917
 388  7183.684
 389  6912.989
 390  6999.437
 391  6532.222
 392  6634.304
 393  6799.563
 394  6917.472
 395  7793.048
 396  7912.417
 397  7950.874
 398  7918.97
 399  7461.341
 400  7277.479
 401  7194.78
 402  6567.54
 403  7185.235
 404  7175.506
 405  7090.786
 406  7397.634
 407  7109.179
 408  6441.44
 409  6511.216
 410  7201.668
 411  7203.646
 412  7144.102
 413  7616.179
 414  7464.083
 415  6782.043
 416  6110.288
 417  6384.208
 418  6491.512
 419  6520.093
 420  6568.451
 421  6563.7
 422  6508.096
 423  6272.085
 424  6178.772
 425  6070.291
 426  6315.786
 427  6679.147
 428  6836.072
 429  7152.418
 430  7239.456
 431  6836.168
 432  6569.038
 433  6059.27
 434  6502.234
 435  6543.445
 436  6434.063
 437  6974.726
 438  6998.288
 439  6508.87
 440  6287.578
 441  6116.17
 442  6249.33
 443  6574.976
 444  6951.034
 445  7072.505
 446  7331.638
 447  7263.641
 448  7006.492
 449  6197.657
 450  6465.258
 451  5898.926
 452  5566.172
 453  5702.217
 454  6280.337
 455  6681.3
 456  6522.412
 457  6439.454
 458  5966.303
 459  6143.946
 460  6526.077
 461  6758.924
 462  7048.428
 463  7192.861
 464  7331.375
 465  6627.944
 466  6310.354
 467  6275.068
 468  6247.247
 469  6158.304
 470  6447.823
 471  6504.328
 472  6288.295
 473  5667.603
 474  5822.372
 475  6114.438
 476  6556.788
 477  7058.481
 478  7295.242
 479  7456.222
 480  7217.379
 481  7137.8
 482  6460.185
 483  6596.848
 484  6341.021
 485  6088.573
 486  5966.661
 487  6308.512
 488  6672.917
 489  6670.108
 490  6263.412
 491  6281.313
 492  6412.625
 493  6624.564
 494  7295.987
 495  7436.251
 496  7518.239
 497  6875.979
 498  6572.878
 499  6396.956
 500  6515.362
 501  6831.135
 502  7144.66
 503  6892.792
 504  6926.271
 505  7026.207
 506  6781.768
 507  6789.629
 508  7246.459
 509  7066.258
 510  7562.982
 511  7918.048
