# Input file       =  1204994642.105844_cleaned.dat
# Candidate        =  PSR_0332+5434
# Telescope        =  AR
# Epoch_topo       =  58190.697466502825
# Epoch_bary       =  N/A
# T_sample         =  0.002
# Data Folded      =  7340032
# Data Avg         =  0.0179391767003298
# Data StdDev      =  1.00003928616761 
# Profile Bins     =  512
# Profile Avg      =  257.113218231855 
# Profile StdDev   =  119.737740228902 
# Reduced chi-sqr  =  1.141
# Prob(Noise)      <  0.0147   (~2.2 sigma)
# P_topo (ms)      =  714.578344941877  +/- 0.000275
# P'_topo (s/s)    =  -0                +/- 1.45e-10
# P''_topo (s/s^2) =  0                 +/- 6.41e-14
# P_bary (ms)      =  N/A
# P'_bary (s/s)    =  N/A
# P''_bary (s/s^2) =  N/A
# P_orb (s)        =  N/A
# asin(i)/c (s)    =  N/A
# eccentricity     =  N/A
# w (rad)          =  N/A
# T_peri           =  N/A
######################################################
   0  918.7152
   1  787.5294
   2  454.6098
   3  376.9235
   4  447.4832
   5  288.1718
   6  195.7739
   7  225.103
   8  272.3491
   9  386.9745
  10  343.9287
  11  438.5452
  12  419.8679
  13  303.682
  14  346.7507
  15  374.8606
  16  316.3387
  17  280.0305
  18  233.4352
  19  240.7747
  20  208.4368
  21  212.419
  22  226.1213
  23  225.3089
  24  111.2979
  25  119.0551
  26  95.41105
  27  111.3883
  28  176.6884
  29  330.0392
  30  323.1383
  31  297.7953
  32  190.1021
  33  222.5565
  34  173.1276
  35  183.3837
  36  72.12534
  37  175.8831
  38  179.5631
  39  129.3566
  40  151.9566
  41  208.9928
  42  247.1969
  43  123.3331
  44  199.2285
  45  169.8909
  46  107.1959
  47  188.7175
  48  217.2361
  49  112.2459
  50  159.5804
  51  147.4714
  52  142.2529
  53  149.8246
  54  213.5813
  55  216.7284
  56  202.8914
  57  223.1974
  58  211.1405
  59  181.6967
  60  187.8693
  61  141.0663
  62  175.2366
  63  329.7233
  64  415.119
  65  268.6004
  66  287.203
  67  259.9694
  68  220.6436
  69  279.1765
  70  148.0878
  71  149.716
  72  258.8784
  73  202.3439
  74  172.0588
  75  292.4224
  76  296.1229
  77  254.1749
  78  259.3035
  79  306.6784
  80  337.3131
  81  395.3788
  82  325.0677
  83  250.7895
  84  336.6911
  85  279.7822
  86  139.6641
  87  228.6753
  88  351.8763
  89  354.9424
  90  305.2427
  91  295.2145
  92  305.5719
  93  274.7986
  94  208.716
  95  240.9664
  96  196.7238
  97  131.9738
  98  115.5787
  99  87.7809
 100  135.7008
 101  92.52906
 102  51.34632
 103  95.01768
 104  159.6088
 105  245.2346
 106  165.7683
 107  305.267
 108  328.0543
 109  299.7714
 110  239.0506
 111  86.59607
 112  177.1072
 113  266.8502
 114  263.395
 115  234.9819
 116  207.9692
 117  294.7293
 118  290.5965
 119  250.3568
 120  358.2809
 121  252.3314
 122  270.4708
 123  338.6861
 124  344.8878
 125  353.7257
 126  344.3708
 127  291.6027
 128  245.865
 129  204.393
 130  215.6096
 131  248.3052
 132  203.9978
 133  252.779
 134  300.9833
 135  349.8977
 136  266.5579
 137  208.5726
 138  177.5713
 139  169.6179
 140  262.3951
 141  275.5989
 142  418.1051
 143  420.9362
 144  351.4924
 145  312.0901
 146  327.824
 147  173.2927
 148  234.1329
 149  354.6513
 150  292.8442
 151  235.3019
 152  291.3812
 153  346.5009
 154  416.6206
 155  309.9303
 156  331.5879
 157  363.669
 158  280.0031
 159  237.2839
 160  282.9786
 161  290.4258
 162  268.6917
 163  234.4486
 164  250.2443
 165  331.2061
 166  286.9521
 167  193.8517
 168  233.3179
 169  232.9995
 170  252.9006
 171  246.9074
 172  248.7419
 173  148.3949
 174  253.229
 175  423.034
 176  320.4594
 177  262.3383
 178  282.3861
 179  358.5807
 180  275.6042
 181  334.0186
 182  344.5856
 183  230.3861
 184  235.9996
 185  259.2917
 186  251.4611
 187  236.1488
 188  363.6895
 189  371.7582
 190  322.9795
 191  187.5122
 192  208.8762
 193  267.1411
 194  384.5378
 195  331.9841
 196  335.5363
 197  269.3773
 198  350.5426
 199  328.9648
 200  282.8616
 201  263.242
 202  398.2809
 203  441.3612
 204  324.0932
 205  212.4831
 206  224.7469
 207  242.7676
 208  231.4758
 209  329.1459
 210  312.9083
 211  257.0634
 212  292.5669
 213  257.9572
 214  306.0623
 215  326.462
 216  293.2465
 217  201.6824
 218  213.9229
 219  375.4922
 220  236.9622
 221  291.7568
 222  167.8738
 223  200.5457
 224  302.7419
 225  325.8076
 226  329.0397
 227  130.7988
 228  242.3505
 229  311.5553
 230  335.0763
 231  401.0139
 232  321.8315
 233  301.7344
 234  251.0843
 235  252.6604
 236  157.3185
 237  205.4772
 238  215.724
 239  304.8059
 240  284.4939
 241  229.4019
 242  319.104
 243  371.2613
 244  267.1753
 245  290.3166
 246  400.8011
 247  273.3936
 248  244.9397
 249  333.6967
 250  324.3145
 251  262.9929
 252  328.4592
 253  440.5747
 254  321.0775
 255  159.6128
 256  195.8961
 257  304.0194
 258  332.5444
 259  306.9359
 260  374.6458
 261  253.4486
 262  179.167
 263  209.9755
 264  204.1268
 265  316.3194
 266  243.5981
 267  104.2005
 268  173.1752
 269  233.2971
 270  248.2952
 271  187.3199
 272  226.9361
 273  229.0205
 274  391.9369
 275  370.563
 276  300.1136
 277  301.2019
 278  173.4552
 279  184.0119
 280  217.8784
 281  245.7072
 282  262.0456
 283  324.4239
 284  221.3575
 285  261.1972
 286  244.2374
 287  198.9888
 288  151.3436
 289  294.4048
 290  359.579
 291  244.4791
 292  213.6465
 293  403.2762
 294  434.6953
 295  371.1923
 296  397.9131
 297  276.3554
 298  205.6775
 299  164.5593
 300  156.7658
 301  337.7748
 302  248.9415
 303  266.6405
 304  275.6514
 305  211.3211
 306  257.3655
 307  218.6949
 308  157.1342
 309  319.2492
 310  411.7112
 311  302.5409
 312  347.1289
 313  390.0429
 314  336.7305
 315  313.3511
 316  272.157
 317  363.3413
 318  367.4565
 319  314.8325
 320  322.0615
 321  371.821
 322  367.2017
 323  326.1497
 324  247.7466
 325  240.6175
 326  245.4651
 327  226.3628
 328  248.8132
 329  196.997
 330  222.266
 331  244.7378
 332  147.5247
 333  111.0536
 334  230.9482
 335  373.1086
 336  350.8689
 337  197.2445
 338  125.0531
 339  190.2837
 340  296.8448
 341  264.883
 342  251.9966
 343  226.5114
 344  234.8647
 345  229.4525
 346  200.6401
 347  228.4296
 348  235.2349
 349  210.941
 350  164.9099
 351  137.3319
 352  64.95529
 353  180.8694
 354  239.0135
 355  257.9732
 356  227.2307
 357  198.7166
 358  269.2637
 359  242.9215
 360  233.5163
 361  191.0702
 362  221.3238
 363  209.127
 364  213.5113
 365  234.0964
 366  341.8182
 367  398.0789
 368  440.1896
 369  330.1897
 370  204.9964
 371  322.0347
 372  315.1315
 373  217.2017
 374  323.8371
 375  372.3137
 376  311.4133
 377  296.0358
 378  286.0528
 379  214.6354
 380  338.7133
 381  237.2912
 382  153.0279
 383  244.2755
 384  215.97
 385  219.2128
 386  245.088
 387  170.4091
 388  187.6637
 389  342.8772
 390  332.7459
 391  228.0647
 392  187.5737
 393  148.5005
 394  97.84124
 395  80.93751
 396  175.568
 397  292.7956
 398  268.3201
 399  178.6291
 400  133.7811
 401  189.3999
 402  290.7888
 403  299.4062
 404  315.5756
 405  247.5139
 406  302.1306
 407  169.3106
 408  116.7999
 409  78.69987
 410  273.6422
 411  274.2093
 412  316.0994
 413  183.0329
 414  165.3778
 415  315.0788
 416  365.9084
 417  238.9339
 418  183.4546
 419  119.1992
 420  115.8006
 421  162.0081
 422  291.7649
 423  261.1383
 424  255.852
 425  189.0037
 426  119.4537
 427  114.7681
 428  203.2696
 429  195.1243
 430  201.1931
 431  253.2952
 432  254.3752
 433  312.2872
 434  248.2807
 435  206.4513
 436  271.0516
 437  396.1818
 438  228.0507
 439  159.1381
 440  147.3168
 441  275.7312
 442  192.5724
 443  130.9698
 444  151.7519
 445  157.1844
 446  226.6517
 447  196.7267
 448  184.06
 449  196.1206
 450  385.0463
 451  294.4594
 452  210.3928
 453  244.7252
 454  249.4001
 455  333.3546
 456  296.6214
 457  188.4322
 458  325.0309
 459  363.6554
 460  267.1625
 461  220.6054
 462  107.8642
 463  218.077
 464  238.1261
 465  263.8919
 466  256.9021
 467  209.2102
 468  275.1414
 469  224.5809
 470  261.1837
 471  291.5997
 472  143.8227
 473  52.0608
 474  214.2325
 475  226.9669
 476  209.8756
 477  167.0093
 478  120.5013
 479  244.374
 480  258.7614
 481  185.9723
 482  181.2145
 483  180.8261
 484  99.88105
 485  184.4804
 486  276.252
 487  209.0011
 488  217.2533
 489  182.7765
 490  147.5938
 491  155.8366
 492  180.9982
 493  198.7327
 494  248.6679
 495  296.5268
 496  267.5445
 497  305.8541
 498  293.6585
 499  203.8123
 500  125.5441
 501  178.9417
 502  274.9548
 503  361.4501
 504  267.769
 505  369.6175
 506  226.7274
 507  293.4924
 508  456.9072
 509  475.0953
 510  622.8893
 511  856.6226
