# Input file       =  1204032628.106903_cleaned.dat
# Candidate        =  PSR_0332+5434
# Telescope        =  AR
# Epoch_topo       =  58179.563045218783
# Epoch_bary       =  N/A
# T_sample         =  0.002
# Data Folded      =  7340032
# Data Avg         =  0.0456113259293825
# Data StdDev      =  0.999973484115207
# Profile Bins     =  512
# Profile Avg      =  652.995138592338 
# Profile StdDev   =  119.729861549368 
# Reduced chi-sqr  =  1.304
# Prob(Noise)      <  4.05e-06   (~4.5 sigma)
# P_topo (ms)      =  714.580353209109  +/- 0.000448
# P'_topo (s/s)    =  -0                +/- 2.36e-10
# P''_topo (s/s^2) =  0                 +/- 1.04e-13
# P_bary (ms)      =  N/A
# P'_bary (s/s)    =  N/A
# P''_bary (s/s^2) =  N/A
# P_orb (s)        =  N/A
# asin(i)/c (s)    =  N/A
# eccentricity     =  N/A
# w (rad)          =  N/A
# T_peri           =  N/A
######################################################
   0  1099.759
   1  1044.903
   2  1012.084
   3  850.813
   4  795.536
   5  766.7133
   6  854.8477
   7  848.2272
   8  797.9125
   9  789.0798
  10  739.3122
  11  798.8729
  12  834.9244
  13  835.1021
  14  795.4251
  15  819.0345
  16  779.0552
  17  789.4015
  18  743.604
  19  795.4563
  20  799.1954
  21  781.0234
  22  749.7557
  23  662.5713
  24  711.8168
  25  753.1711
  26  712.5056
  27  788.0779
  28  821.2177
  29  760.321
  30  706.0193
  31  724.8264
  32  758.2515
  33  767.2597
  34  695.8246
  35  703.8782
  36  740.6221
  37  628.8382
  38  564.1517
  39  582.7585
  40  586.2591
  41  579.574
  42  595.3995
  43  644.8206
  44  665.1662
  45  650.6333
  46  624.8234
  47  671.093
  48  714.5689
  49  732.4665
  50  732.9464
  51  632.2166
  52  688.6151
  53  750.0475
  54  703.4514
  55  641.6482
  56  634.6153
  57  656.686
  58  662.1894
  59  591.0938
  60  598.8317
  61  661.367
  62  678.6084
  63  613.2505
  64  571.3921
  65  657.7323
  66  697.3769
  67  684.799
  68  727.7982
  69  713.9769
  70  667.343
  71  643.4715
  72  670.4113
  73  670.871
  74  663.9727
  75  625.7071
  76  688.4319
  77  675.4805
  78  743.1141
  79  778.7427
  80  709.0275
  81  756.0482
  82  763.6029
  83  744.0395
  84  723.2538
  85  685.928
  86  708.2966
  87  741.6188
  88  736.7065
  89  755.4238
  90  782.0422
  91  713.9821
  92  748.5782
  93  743.2958
  94  708.9567
  95  783.8464
  96  773.6395
  97  726.4766
  98  700.3575
  99  693.2045
 100  681.2459
 101  658.0898
 102  684.0662
 103  663.3362
 104  602.5012
 105  604.8989
 106  670.2462
 107  716.8046
 108  609.2184
 109  551.8837
 110  585.3368
 111  590.6016
 112  602.0447
 113  616.647
 114  637.2009
 115  599.6403
 116  617.4493
 117  575.2839
 118  501.1147
 119  539.457
 120  517.8636
 121  543.4141
 122  544.3849
 123  669.554
 124  708.7699
 125  581.2243
 126  683.6585
 127  729.7944
 128  739.0838
 129  753.3624
 130  721.0607
 131  676.3008
 132  674.4959
 133  727.8188
 134  739.8939
 135  757.2422
 136  770.9263
 137  745.7649
 138  774.0305
 139  681.131
 140  664.7402
 141  698.0875
 142  718.8568
 143  616.6814
 144  674.4377
 145  714.2956
 146  727.2054
 147  715.3821
 148  768.9144
 149  807.6734
 150  794.2164
 151  793.3475
 152  734.6491
 153  670.2324
 154  688.9945
 155  716.4178
 156  692.465
 157  720.8593
 158  744.8336
 159  738.8768
 160  728.6246
 161  689.4121
 162  719.7251
 163  784.436
 164  788.075
 165  744.7975
 166  786.3099
 167  755.6483
 168  748.1884
 169  761.2396
 170  641.9921
 171  673.2822
 172  752.6584
 173  731.8506
 174  750.8964
 175  745.9883
 176  725.1539
 177  675.9226
 178  692.1429
 179  635.4052
 180  634.4041
 181  693.7398
 182  709.6783
 183  705.8881
 184  738.7014
 185  724.9843
 186  602.8281
 187  647.525
 188  677.6793
 189  633.0595
 190  630.4176
 191  519.4696
 192  513.2433
 193  616.1831
 194  598.4148
 195  560.4504
 196  630.2645
 197  579.6904
 198  572.4093
 199  585.9821
 200  607.1008
 201  654.4426
 202  586.1078
 203  617.6115
 204  558.1752
 205  673.2167
 206  688.7032
 207  605.6628
 208  555.9588
 209  645.4426
 210  633.8151
 211  651.5248
 212  671.496
 213  699.3893
 214  731.47
 215  694.5764
 216  610.9465
 217  650.0113
 218  629.5043
 219  594.7384
 220  628.0049
 221  705.4731
 222  721.9269
 223  773.8563
 224  753.462
 225  742.1981
 226  776.4512
 227  805.5456
 228  780.1062
 229  681.3114
 230  764.1926
 231  783.5276
 232  796.0274
 233  716.9126
 234  631.0434
 235  668.3673
 236  678.8189
 237  710.9502
 238  761.2715
 239  694.4831
 240  615.2315
 241  638.7082
 242  625.1346
 243  569.0972
 244  560.3177
 245  537.838
 246  603.2604
 247  617.2368
 248  559.7532
 249  546.5715
 250  525.0517
 251  475.736
 252  459.7704
 253  418.2713
 254  461.7185
 255  525.5413
 256  497.0919
 257  472.2846
 258  416.9619
 259  401.0697
 260  430.5706
 261  431.3526
 262  457.0428
 263  466.2599
 264  412.5717
 265  492.3489
 266  556.399
 267  576.3
 268  502.2243
 269  458.7036
 270  525.9924
 271  520.3848
 272  507.7563
 273  516.468
 274  546.6166
 275  564.1511
 276  468.3849
 277  571.6218
 278  679.5752
 279  630.5389
 280  666.175
 281  739.2136
 282  739.1195
 283  673.0089
 284  635.5379
 285  705.3107
 286  631.6729
 287  549.4259
 288  558.0444
 289  674.8083
 290  585.2606
 291  541.8966
 292  623.9136
 293  617.3162
 294  580.383
 295  592.5945
 296  644.5114
 297  577.004
 298  519.7638
 299  590.2314
 300  603.1373
 301  605.3397
 302  617.2218
 303  620.5407
 304  587.4709
 305  656.7952
 306  627.7744
 307  609.4772
 308  556.2587
 309  568.1365
 310  632.5707
 311  577.7315
 312  598.6879
 313  658.779
 314  618.5569
 315  667.8282
 316  650.571
 317  725.1844
 318  749.0684
 319  685.2368
 320  698.0829
 321  690.5128
 322  677.2053
 323  639.1323
 324  628.5612
 325  613.3768
 326  555.8641
 327  525.8348
 328  578.5477
 329  480.5453
 330  541.0124
 331  596.4629
 332  575.8264
 333  530.8595
 334  529.9164
 335  564.6014
 336  486.9327
 337  476.8998
 338  542.1763
 339  543.44
 340  561.0045
 341  547.4171
 342  554.0541
 343  540.868
 344  464.7233
 345  407.0073
 346  506.7844
 347  542.3078
 348  511.4246
 349  536.4425
 350  596.0332
 351  566.8
 352  555.5961
 353  553.1182
 354  581.0417
 355  602.7996
 356  564.7368
 357  595.429
 358  569.4399
 359  527.0125
 360  583.1961
 361  526.5097
 362  596.2532
 363  701.6437
 364  674.6907
 365  640.4351
 366  607.006
 367  605.7601
 368  613.4446
 369  652.9653
 370  677.7172
 371  666.6552
 372  659.1376
 373  690.1163
 374  631.5844
 375  594.444
 376  660.71
 377  711.6179
 378  736.6956
 379  681.6541
 380  626.3599
 381  617.1774
 382  632.1429
 383  640.3292
 384  632.4049
 385  614.1642
 386  632.183
 387  626.2839
 388  685.536
 389  712.5347
 390  674.6135
 391  716.9681
 392  717.7812
 393  676.8641
 394  623.7067
 395  696.3201
 396  654.769
 397  603.7937
 398  600.0771
 399  628.0532
 400  612.1412
 401  549.1894
 402  593.8509
 403  595.2327
 404  579.9935
 405  615.4399
 406  594.3318
 407  483.7459
 408  542.6325
 409  550.6152
 410  540.9907
 411  477.1212
 412  521.6581
 413  535.5073
 414  499.694
 415  571.6025
 416  651.7273
 417  633.7437
 418  644.9208
 419  697.4851
 420  684.2084
 421  618.3304
 422  540.0854
 423  527.9056
 424  621.2363
 425  616.7317
 426  661.5157
 427  669.4322
 428  688.547
 429  679.6188
 430  670.5822
 431  622.5455
 432  626.9161
 433  643.9293
 434  607.122
 435  654.999
 436  645.6437
 437  652.0342
 438  576.5015
 439  538.5317
 440  604.06
 441  568.5109
 442  584.2039
 443  615.8478
 444  600.8261
 445  616.1129
 446  581.7663
 447  666.9414
 448  707.4178
 449  715.6
 450  650.3941
 451  641.5799
 452  691.8734
 453  685.4335
 454  667.9113
 455  662.7964
 456  615.9733
 457  628.3467
 458  555.5297
 459  600.9368
 460  573.4346
 461  601.0146
 462  555.7386
 463  438.6011
 464  494.614
 465  524.386
 466  565.8807
 467  529.0909
 468  479.119
 469  534.2956
 470  540.3099
 471  498.0293
 472  608.3101
 473  607.6824
 474  625.8992
 475  551.2979
 476  560.2557
 477  597.3238
 478  629.0475
 479  672.1303
 480  732.7596
 481  691.3909
 482  653.4301
 483  630.4028
 484  581.5057
 485  650.8134
 486  715.0232
 487  774.6246
 488  725.1573
 489  732.4078
 490  769.1285
 491  808.7948
 492  785.4339
 493  786.1104
 494  772.6568
 495  782.621
 496  774.0368
 497  758.631
 498  764.563
 499  740.8118
 500  817.3877
 501  763.1253
 502  786.7767
 503  769.2524
 504  792.8266
 505  888.9717
 506  837.6496
 507  757.4406
 508  807.1041
 509  907.5804
 510  1004.142
 511  1116.724
