# Input file       =  1204549517.10465_cleaned.dat
# Candidate        =  PSR_0332+5434
# Telescope        =  AR
# Epoch_topo       =  58185.545556766781
# Epoch_bary       =  N/A
# T_sample         =  0.002
# Data Folded      =  7340032
# Data Avg         =  0.335298785551068
# Data StdDev      =  6.25636156354562 
# Profile Bins     =  256
# Profile Avg      =  9614.16027207204 
# Profile StdDev   =  1059.37771579168 
# Reduced chi-sqr  =  1.884
# Prob(Noise)      <  5.28e-16   (~8.0 sigma)
# P_topo (ms)      =  714.579367207524  +/- 0.000255
# P'_topo (s/s)    =  -0                +/- 1.34e-10
# P''_topo (s/s^2) =  0                 +/- 5.93e-14
# P_bary (ms)      =  N/A
# P'_bary (s/s)    =  N/A
# P''_bary (s/s^2) =  N/A
# P_orb (s)        =  N/A
# asin(i)/c (s)    =  N/A
# eccentricity     =  N/A
# w (rad)          =  N/A
# T_peri           =  N/A
######################################################
   0  11955.3
   1  11111.85
   2  11710.2
   3  12149.71
   4  11678.03
   5  11202.56
   6  11773.15
   7  11023.8
   8  10253.83
   9  9459.154
  10  9179.002
  11  9359.572
  12  9370.074
  13  8174.755
  14  9429.058
  15  7889.934
  16  8834.028
  17  9129.84
  18  8179.292
  19  8570.425
  20  8859.372
  21  9239.921
  22  9215.782
  23  9607.697
  24  9631.747
  25  9534.479
  26  9838.302
  27  9296.647
  28  8172.798
  29  8044.123
  30  9315.716
  31  8849.25
  32  8238.73
  33  8315.458
  34  8729.712
  35  8390.416
  36  9062.702
  37  9626.151
  38  10076.11
  39  10127.78
  40  9933.661
  41  10512.9
  42  9823.347
  43  9488.678
  44  9902.22
  45  8820.423
  46  8356.645
  47  8021.443
  48  7814.304
  49  7357.186
  50  6727.035
  51  6903.859
  52  7459.539
  53  7779.765
  54  7980.297
  55  8421.16
  56  8978.151
  57  9447.522
  58  9485.376
  59  8920.719
  60  9759.725
  61  9651.745
  62  10576.66
  63  9220.572
  64  9227.782
  65  9836.903
  66  10010.46
  67  8767.605
  68  9861.743
  69  10021.34
  70  9304.749
  71  9387.345
  72  10670.44
  73  11193.21
  74  11502.39
  75  12027.9
  76  10642.04
  77  11565.77
  78  11767.05
  79  10568.69
  80  10051.97
  81  10078.97
  82  10116.97
  83  8873.131
  84  8165.182
  85  9095.245
  86  8848.283
  87  9078.374
  88  9388.176
  89  9500.78
  90  8817.269
  91  9403.851
  92  9093.932
  93  8995.968
  94  9377.973
  95  8981.32
  96  8817.85
  97  9945.844
  98  10137.35
  99  9497.78
 100  9428.658
 101  9096.802
 102  9534.616
 103  10027.43
 104  9720.816
 105  9758.293
 106  9850.572
 107  9901.592
 108  9708.441
 109  10390.76
 110  11106.72
 111  11765.71
 112  12017.65
 113  12423.2
 114  11764.85
 115  11214.42
 116  11295.24
 117  10692.66
 118  11179.28
 119  10688.66
 120  10439.05
 121  9722.461
 122  8463.227
 123  9360.07
 124  9679.853
 125  9295.819
 126  9780.572
 127  10199.04
 128  10757.93
 129  10593.88
 130  10969.54
 131  11022.35
 132  11058.17
 133  10821.74
 134  10718.27
 135  10591.77
 136  11047.1
 137  10664.25
 138  10370.91
 139  10392.02
 140  10344.13
 141  10502.81
 142  11159.81
 143  9878.684
 144  10011.17
 145  10277.74
 146  11540.4
 147  11707.94
 148  12866.24
 149  12392.58
 150  12996.93
 151  14591.81
 152  14438.92
 153  13199.67
 154  10451.51
 155  9847.617
 156  9276.241
 157  9190.344
 158  8597.413
 159  8773.666
 160  8408.304
 161  8733.51
 162  8344.104
 163  8423.803
 164  9539.266
 165  9654.241
 166  9963.588
 167  9059.725
 168  9260.002
 169  10081.57
 170  8998.574
 171  8873.807
 172  8888.474
 173  9957.406
 174  8909.093
 175  9510.05
 176  9128.146
 177  9909.802
 178  9968.498
 179  9108.177
 180  10313.81
 181  10056.87
 182  9282.375
 183  9627.157
 184  9295.478
 185  10260.1
 186  11130.24
 187  10832.36
 188  8992.71
 189  9141.763
 190  8774.577
 191  8499.138
 192  8160.974
 193  8155.498
 194  8134.482
 195  8537.558
 196  7779.208
 197  7831.373
 198  8101.982
 199  7966.135
 200  8066.574
 201  8057.861
 202  7930.818
 203  7329.344
 204  8133.3
 205  6684.996
 206  7445.643
 207  8188.107
 208  8418.774
 209  8093.876
 210  8587.473
 211  8520.127
 212  8062.941
 213  8536.072
 214  7744.351
 215  8142.751
 216  8241.876
 217  8842.692
 218  9539.966
 219  9297.514
 220  9633.99
 221  10469.75
 222  10700.88
 223  11006.32
 224  10507.12
 225  9053.871
 226  8211.956
 227  8743.264
 228  9159.901
 229  7753.937
 230  7320.846
 231  9011.905
 232  9169.901
 233  8825.179
 234  10225.22
 235  9112.638
 236  8700.334
 237  9227.402
 238  9036.606
 239  9365.415
 240  9013.345
 241  8979.318
 242  8871.135
 243  9857.654
 244  10066.85
 245  9290.446
 246  9881.652
 247  10384.82
 248  10336.22
 249  10012.91
 250  10024.47
 251  9857.573
 252  10531.56
 253  10897.68
 254  11117.02
 255  11275.91
