# Input file       =  1204477759.110359_cleaned.dat
# Candidate        =  PSR_0332+5434
# Telescope        =  AR
# Epoch_topo       =  58184.715024425452
# Epoch_bary       =  N/A
# T_sample         =  0.002
# Data Folded      =  7340032
# Data Avg         =  0.208632603068379
# Data StdDev      =  5.10093895597322 
# Profile Bins     =  256
# Profile Avg      =  5981.88177524359 
# Profile StdDev   =  863.732219547301 
# Reduced chi-sqr  =  2.062
# Prob(Noise)      <  5.95e-21   (~9.3 sigma)
# P_topo (ms)      =  714.579867807515  +/- 0.00114
# P'_topo (s/s)    =  -0                +/- 6.04e-10
# P''_topo (s/s^2) =  0                 +/- 2.67e-13
# P_bary (ms)      =  N/A
# P'_bary (s/s)    =  N/A
# P''_bary (s/s^2) =  N/A
# P_orb (s)        =  N/A
# asin(i)/c (s)    =  N/A
# eccentricity     =  N/A
# w (rad)          =  N/A
# T_peri           =  N/A
######################################################
   0  4483.96
   1  5077.76
   2  5185.48
   3  5820.212
   4  5677.696
   5  5333.287
   6  5411.122
   7  5140.152
   8  5255.932
   9  5381.331
  10  5433.029
  11  5315.784
  12  3989.128
  13  4632.708
  14  4371.087
  15  3836.848
  16  3754.891
  17  4668.464
  18  4860.331
  19  3851.683
  20  4771.401
  21  4740.589
  22  5110.167
  23  5005.956
  24  4112.878
  25  4201.301
  26  4435.653
  27  4658.666
  28  4430.987
  29  3842.839
  30  3682.754
  31  4802.361
  32  4289.708
  33  3978.185
  34  4566.8
  35  4765.016
  36  4595.815
  37  4245.515
  38  4568.81
  39  4698.01
  40  4571.996
  41  4397.173
  42  4726.01
  43  4819.626
  44  4831.223
  45  4401.553
  46  5113.278
  47  4624.55
  48  4332.36
  49  4423.876
  50  5067.348
  51  4797.437
  52  5147.427
  53  5304.516
  54  5527.315
  55  5376.197
  56  5504.178
  57  5753.073
  58  5092.348
  59  5426.984
  60  5119.817
  61  5117.304
  62  5804.932
  63  6088.721
  64  4606.598
  65  5323.848
  66  5692.69
  67  6079.724
  68  4993.578
  69  5722.821
  70  5449.09
  71  5158.405
  72  4831.688
  73  6046.484
  74  5931.083
  75  5716.955
  76  6663.514
  77  6351.176
  78  6823.654
  79  6870.402
  80  5990.858
  81  6613.762
  82  6793.269
  83  6451.202
  84  6227.592
  85  6119.38
  86  6382.173
  87  6517.585
  88  6510.465
  89  6631.799
  90  6515.199
  91  6036.79
  92  7168.303
  93  6919.724
  94  7122.252
  95  7279.726
  96  6999.5
  97  6706.585
  98  6475.369
  99  7550.426
 100  7230.262
 101  6828.287
 102  6139.254
 103  6431.176
 104  6070.213
 105  5780.3
 106  6787.23
 107  6046.606
 108  6618.355
 109  6819.942
 110  7205.606
 111  7321.609
 112  7004.545
 113  6949.503
 114  7342.091
 115  7381.947
 116  6442.604
 117  6626.598
 118  6547.108
 119  6587.017
 120  6707.972
 121  6553.394
 122  7686.84
 123  7903.933
 124  6968.456
 125  6831.22
 126  7860.203
 127  6849.91
 128  6631.176
 129  6296.117
 130  6456.549
 131  6743.693
 132  6406.844
 133  6705.842
 134  7217.221
 135  7640.268
 136  7052.751
 137  6989.23
 138  6943.478
 139  6803.071
 140  7157.106
 141  6410.795
 142  6290.112
 143  7461.294
 144  6495.181
 145  6327.367
 146  7121.411
 147  6881.042
 148  8030.09
 149  8259.876
 150  8644.323
 151  9334.094
 152  10962.81
 153  9112.322
 154  7483.166
 155  7762.24
 156  7252.021
 157  7142.895
 158  7467.385
 159  6246.371
 160  6899.58
 161  7244.825
 162  7161.687
 163  7399.673
 164  7342.791
 165  6433.926
 166  6521.742
 167  6563.302
 168  6493.726
 169  6039.258
 170  6336.04
 171  5860.349
 172  6748.277
 173  6450.063
 174  6099.366
 175  6044.554
 176  6664.101
 177  6862.039
 178  7695.104
 179  7034.368
 180  6910.638
 181  7152.891
 182  6614.362
 183  6276.848
 184  6387.106
 185  6386.375
 186  6431.871
 187  6400.202
 188  7108.539
 189  6430.952
 190  6197.564
 191  5434.405
 192  6437.502
 193  5807.276
 194  6267.002
 195  5807.37
 196  6144.774
 197  6145.671
 198  5721.523
 199  5714.921
 200  6118.73
 201  5440.336
 202  5884.427
 203  6069.058
 204  5334.234
 205  5198.847
 206  6008.268
 207  5387.74
 208  5603.704
 209  5437.148
 210  4886.24
 211  4969.075
 212  5405.842
 213  5809.646
 214  5843.75
 215  6265.599
 216  6560.01
 217  6021.496
 218  6115.568
 219  6402.537
 220  6485.264
 221  5161.48
 222  6010.257
 223  6272.68
 224  6221.059
 225  6174.914
 226  5731.775
 227  6012.593
 228  7015.992
 229  6649.708
 230  6179.505
 231  6193.536
 232  5927.617
 233  6130.719
 234  5433.442
 235  6001.968
 236  5606.927
 237  5754.368
 238  5693.644
 239  5228.375
 240  5141.407
 241  5671.836
 242  4932.174
 243  4558.113
 244  4501.781
 245  5499.533
 246  4500.63
 247  5090.145
 248  4765.073
 249  5085.638
 250  5018.481
 251  4857.363
 252  4410.11
 253  4656.499
 254  4355.365
 255  5119.422
