# Input file       =  1204994642.105844_cleaned.dat
# Candidate        =  PSR_0332+5434
# Telescope        =  AR
# Epoch_topo       =  58190.697466502825
# Epoch_bary       =  N/A
# T_sample         =  0.002
# Data Folded      =  7340032
# Data Avg         =  0.107435889918374
# Data StdDev      =  4.71599012230514 
# Profile Bins     =  512
# Profile Avg      =  1540.08412053564 
# Profile StdDev   =  564.659816866431 
# Reduced chi-sqr  =  0.918
# Prob(Noise)      <  0.908   (~0.0 sigma)
# P_topo (ms)      =  714.578345650108  +/- 0.000386
# P'_topo (s/s)    =  -0                +/- 2.04e-10
# P''_topo (s/s^2) =  0                 +/- 9e-14
# P_bary (ms)      =  N/A
# P'_bary (s/s)    =  N/A
# P''_bary (s/s^2) =  N/A
# P_orb (s)        =  N/A
# asin(i)/c (s)    =  N/A
# eccentricity     =  N/A
# w (rad)          =  N/A
# T_peri           =  N/A
######################################################
   0  1549.102
   1  1828.301
   2  1998.141
   3  1617.662
   4  1886.629
   5  1714.114
   6  1831.921
   7  1913.316
   8  1780.57
   9  1567.794
  10  1325.816
  11  1925.871
  12  1708.659
  13  1754.665
  14  1608.076
  15  1404.737
  16  1850.841
  17  2073.217
  18  2152.061
  19  1542.209
  20  1572.327
  21  1859.06
  22  1959.14
  23  2183.764
  24  2140.394
  25  1808.561
  26  1605.268
  27  1520.084
  28  1211.602
  29  1201.791
  30  1401.267
  31  1496.166
  32  1767.177
  33  1421.01
  34  1504.001
  35  2034.811
  36  1601.396
  37  1491.266
  38  1825.595
  39  1620.402
  40  1371.842
  41  1748.874
  42  1897.046
  43  1834.12
  44  1641.194
  45  2136.387
  46  2070.079
  47  1505.832
  48  1298.204
  49  1773.536
  50  2124.976
  51  1801.272
  52  1997.688
  53  1645.801
  54  1366.394
  55  1485.756
  56  1499.082
  57  1731.768
  58  1829.03
  59  1251.535
  60  1223.926
  61  1314.491
  62  1398.144
  63  1162.557
  64  1371.57
  65  1241.275
  66  1678.384
  67  1969.537
  68  1676.693
  69  1594.049
  70  1095.159
  71  1011.622
  72  1240.248
  73  1542.901
  74  1439.537
  75  1796.441
  76  1398.893
  77  1382.295
  78  1451.349
  79  1615.762
  80  1347.126
  81  1433.207
  82  1723.471
  83  1646.606
  84  1333.346
  85  1964.814
  86  2463.768
  87  2095.642
  88  1982.533
  89  1784.639
  90  1627.184
  91  1517.188
  92  1339.212
  93  1807.425
  94  1927.568
  95  1468.572
  96  1857.622
  97  1655.809
  98  1808.856
  99  1586.88
 100  1287.182
 101  1647.779
 102  2130.032
 103  1941.53
 104  1924.685
 105  1995.034
 106  1951.446
 107  1741.259
 108  1525.073
 109  1530.021
 110  1914.991
 111  1783.329
 112  1634.563
 113  1909.688
 114  2016.426
 115  1757.809
 116  1417.626
 117  1222.666
 118  1332.958
 119  1281.712
 120  1467.788
 121  1274.129
 122  1259.427
 123  1437.358
 124  1243.266
 125  949.2882
 126  1330.909
 127  1737.688
 128  1725.295
 129  1290.356
 130  886.2461
 131  1028.996
 132  1424.59
 133  1447.053
 134  1336.857
 135  1226.562
 136  1250.635
 137  1270.256
 138  1211.533
 139  1277.333
 140  1316.55
 141  1160.428
 142  1076.417
 143  1083.859
 144  728.9487
 145  665.1297
 146  1208.088
 147  1242.291
 148  1308.374
 149  1044.531
 150  1325.156
 151  1531.136
 152  1533.625
 153  1535.603
 154  1435.153
 155  1398.253
 156  1447.585
 157  1402.672
 158  1638.144
 159  2132.66
 160  2507.147
 161  2380.843
 162  1679.245
 163  1760.758
 164  1858.989
 165  1710.733
 166  1759.046
 167  2151.792
 168  2039.468
 169  1841.399
 170  1668.879
 171  1474.589
 172  1578.837
 173  1543.394
 174  1209.633
 175  1484.17
 176  1445.761
 177  1303.891
 178  1402.622
 179  1055.57
 180  1128.428
 181  1451.123
 182  1797.783
 183  1327.999
 184  1101.666
 185  1119.649
 186  915.077
 187  792.3668
 188  958.8049
 189  1222.593
 190  1312.577
 191  1046.464
 192  1001.192
 193  1167.311
 194  1290.257
 195  1510.798
 196  1833.046
 197  1466.294
 198  1471.125
 199  1336.419
 200  1053.684
 201  618.7362
 202  1170.963
 203  1406.252
 204  1582.552
 205  1394.481
 206  1035.373
 207  1465.569
 208  1744.585
 209  1644.571
 210  1364.568
 211  967.1603
 212  891.0328
 213  769.1433
 214  1234.528
 215  1451.35
 216  1488.781
 217  1438.432
 218  1207.006
 219  1184.252
 220  1356.169
 221  1446.744
 222  1377.791
 223  1542.725
 224  1733.187
 225  1826.535
 226  1855.305
 227  1622.269
 228  1611.125
 229  1996.689
 230  1692.111
 231  1280.05
 232  1216.375
 233  1627.134
 234  1637.349
 235  1273.205
 236  1327.256
 237  1157.718
 238  1522.37
 239  1661.763
 240  1689.811
 241  1497.437
 242  2038.206
 243  2121.466
 244  1753.745
 245  1594.096
 246  1490.684
 247  1890.123
 248  2047.311
 249  1762.017
 250  1742.333
 251  2076.405
 252  1762.822
 253  1572.329
 254  1210.08
 255  1336.855
 256  1568.392
 257  1409.264
 258  1738.697
 259  1508.025
 260  1532.691
 261  1562.859
 262  1454.091
 263  1615.402
 264  1231.718
 265  750.6708
 266  1045.459
 267  1501.283
 268  1264.081
 269  1226.641
 270  783.3629
 271  1192.583
 272  1435.741
 273  1070.966
 274  1142.505
 275  1087.156
 276  1149.183
 277  1024.013
 278  1426.658
 279  1177.98
 280  1116.316
 281  1042.02
 282  1093.047
 283  1092.279
 284  1151.717
 285  1052.149
 286  1056.909
 287  1398.297
 288  1437.605
 289  1588.855
 290  1616.451
 291  1375.709
 292  1245.417
 293  1171.065
 294  1388.685
 295  1652.472
 296  1536.915
 297  1870.321
 298  1889.63
 299  1602.174
 300  2068.18
 301  2140.688
 302  2568.726
 303  3607.285
 304  3967.541
 305  3845.167
 306  2868.9
 307  2225.685
 308  2440.59
 309  2107.956
 310  1880.6
 311  1720.515
 312  1734.73
 313  2159.507
 314  2185.966
 315  2126.986
 316  2548.169
 317  2028.495
 318  1978.376
 319  2193.071
 320  2055.848
 321  1869.698
 322  1702.206
 323  1666.997
 324  1415.813
 325  1438.143
 326  1702.746
 327  1642.951
 328  1243.442
 329  972.618
 330  898.6524
 331  1026.498
 332  1212.321
 333  1591.679
 334  1733.178
 335  1690.467
 336  1151.95
 337  1198.345
 338  1103.063
 339  1327.123
 340  649.5422
 341  950.2534
 342  1007.466
 343  890.4034
 344  1004.404
 345  1035.73
 346  1343.985
 347  1036.661
 348  1248.108
 349  1299.87
 350  872.4463
 351  973.3491
 352  1177.984
 353  1069.531
 354  981.1714
 355  1224.125
 356  1014.611
 357  948.1692
 358  969.8469
 359  1216.639
 360  1064.04
 361  1286.309
 362  1315.687
 363  1237.717
 364  1176.822
 365  1109.814
 366  875.2878
 367  1422.917
 368  1911.319
 369  1613.847
 370  1580.37
 371  1742.033
 372  1524.882
 373  1486.492
 374  1479.582
 375  1294.605
 376  1629.456
 377  1693.651
 378  1283.662
 379  1699.643
 380  1875.159
 381  1772.294
 382  1656.592
 383  1865.098
 384  1973.74
 385  2071.266
 386  1930.409
 387  1740.483
 388  1854.202
 389  2097.724
 390  1500.869
 391  1460.909
 392  1875.739
 393  1987.611
 394  1946.878
 395  1768.986
 396  1737.633
 397  1787.583
 398  1518.47
 399  1417.799
 400  1217.101
 401  1212.983
 402  987.9245
 403  894.979
 404  1010.775
 405  866.8238
 406  562.0543
 407  722.1423
 408  853.4181
 409  1396.076
 410  1170.344
 411  1508.56
 412  1453.614
 413  1376.694
 414  1274.265
 415  825.9667
 416  946.3176
 417  1373.954
 418  1314.591
 419  1358.491
 420  1279.991
 421  1479.222
 422  1579.916
 423  1328.623
 424  1756.01
 425  1641.619
 426  1481.955
 427  1835.465
 428  1750.703
 429  1877.029
 430  1803.291
 431  1593.158
 432  1476.32
 433  1344.211
 434  1365.317
 435  1201.314
 436  1083.494
 437  1261.976
 438  1392.353
 439  1730.38
 440  1589.74
 441  1469.328
 442  1198.558
 443  1226.871
 444  1544.233
 445  1724.757
 446  1970.416
 447  1969.908
 448  1971.904
 449  1742.441
 450  1959.13
 451  1499.957
 452  1439.197
 453  1880.077
 454  1884.257
 455  1776.224
 456  1659.96
 457  1784.05
 458  1842.194
 459  1934.35
 460  1555.041
 461  1936.402
 462  1845.882
 463  1752.681
 464  1785.226
 465  1868.283
 466  1798.329
 467  1694.95
 468  1738.049
 469  1843.947
 470  1963.973
 471  1467.202
 472  1574.709
 473  1730.007
 474  1600.451
 475  1733.981
 476  1545.621
 477  1308.915
 478  1261.728
 479  1955.315
 480  1862.804
 481  1755.39
 482  1611.18
 483  1787.418
 484  1648.376
 485  1556.259
 486  1887.403
 487  1581.628
 488  1484.759
 489  1334.425
 490  1380.056
 491  1310.04
 492  1744.407
 493  2053.387
 494  2127.034
 495  1664.104
 496  1305.098
 497  1415.081
 498  1836.794
 499  1898.23
 500  1949.688
 501  1797.458
 502  1734.264
 503  1656.495
 504  1489.409
 505  1493.21
 506  1854.69
 507  2185.768
 508  1874.438
 509  1436.745
 510  1253.692
 511  1383.662
