# Input file       =  1204290524.108213_cleaned.dat
# Candidate        =  PSR_0332+5434
# Telescope        =  AR
# Epoch_topo       =  58182.547952641355
# Epoch_bary       =  N/A
# T_sample         =  0.002
# Data Folded      =  7340032
# Data Avg         =  0.050480268265073
# Data StdDev      =  1.00012477765193 
# Profile Bins     =  512
# Profile Avg      =  723.824423068569 
# Profile StdDev   =  119.747976383904 
# Reduced chi-sqr  =  1.075
# Prob(Noise)      <  0.116   (~1.2 sigma)
# P_topo (ms)      =  714.579928792824  +/- 0.000454
# P'_topo (s/s)    =  -0                +/- 2.39e-10
# P''_topo (s/s^2) =  0                 +/- 1.06e-13
# P_bary (ms)      =  N/A
# P'_bary (s/s)    =  N/A
# P''_bary (s/s^2) =  N/A
# P_orb (s)        =  N/A
# asin(i)/c (s)    =  N/A
# eccentricity     =  N/A
# w (rad)          =  N/A
# T_peri           =  N/A
######################################################
   0  1213.347
   1  1089.047
   2  844.0939
   3  808.166
   4  732.9357
   5  710.4293
   6  718.423
   7  724.5197
   8  676.3815
   9  697.3691
  10  747.5964
  11  695.201
  12  616.6149
  13  654.1368
  14  659.6104
  15  704.5053
  16  675.3692
  17  633.2129
  18  590.9803
  19  552.4915
  20  607.1768
  21  616.4708
  22  692.3358
  23  645.3983
  24  715.1025
  25  688.7968
  26  706.8884
  27  650.3935
  28  674.6851
  29  675.043
  30  705.5158
  31  754.4842
  32  734.538
  33  728.2745
  34  728.0476
  35  653.7175
  36  655.6702
  37  612.1053
  38  618.2839
  39  661.4991
  40  688.3626
  41  738.2811
  42  712.2283
  43  774.1203
  44  808.1405
  45  702.6728
  46  689.3013
  47  680.6866
  48  647.3254
  49  546.8982
  50  599.3388
  51  599.6115
  52  673.1462
  53  598.1485
  54  587.8546
  55  610.7906
  56  602.9663
  57  581.4952
  58  635.8179
  59  627.383
  60  694.4746
  61  669.9185
  62  666.4896
  63  721.8304
  64  750.865
  65  702.4537
  66  730.7274
  67  633.958
  68  684.9492
  69  761.5248
  70  796.2551
  71  743.7872
  72  754.4935
  73  800.5769
  74  772.2162
  75  768.9648
  76  787.9241
  77  719.2631
  78  767.7733
  79  741.0161
  80  641.0748
  81  585.991
  82  584.8813
  83  665.5654
  84  719.8004
  85  631.0066
  86  683.1501
  87  613.191
  88  704.3484
  89  652.0104
  90  664.6602
  91  690.7062
  92  638.5367
  93  699.2381
  94  637.2329
  95  685.2868
  96  657.6069
  97  700.6484
  98  754.5016
  99  713.0994
 100  717.6795
 101  687.5435
 102  685.1234
 103  649.5114
 104  665.6445
 105  729.6121
 106  793.3849
 107  775.6056
 108  805.0676
 109  792.2734
 110  753.9378
 111  707.6663
 112  576.788
 113  677.9347
 114  637.6912
 115  610.0704
 116  605.4022
 117  600.1151
 118  662.2966
 119  593.0161
 120  617.6378
 121  606.7963
 122  618.8179
 123  623.4038
 124  620.5742
 125  633.1284
 126  703.8636
 127  524.559
 128  491.5244
 129  551.3381
 130  631.4039
 131  653.7856
 132  681.9208
 133  658.8016
 134  645.8751
 135  592.165
 136  572.1885
 137  600.4481
 138  604.8106
 139  667.4252
 140  716.9531
 141  822.4565
 142  793.2241
 143  705.6047
 144  628.777
 145  628.5173
 146  699.7081
 147  723.6216
 148  668.2456
 149  663.0345
 150  672.1938
 151  675.0129
 152  677.7718
 153  646.2606
 154  665.8244
 155  650.1048
 156  698.577
 157  726.9224
 158  650.347
 159  647.5971
 160  561.952
 161  677.0747
 162  682.7917
 163  805.9406
 164  731.7838
 165  554.0098
 166  629.8796
 167  629.8135
 168  639.7812
 169  687.3774
 170  773.1846
 171  710.5535
 172  669.6697
 173  743.2574
 174  683.283
 175  639.0728
 176  737.7927
 177  751.5385
 178  686.9005
 179  679.3566
 180  741.5485
 181  707.8312
 182  775.9161
 183  749.3722
 184  729.5363
 185  799.3448
 186  758.1937
 187  728.9226
 188  751.8204
 189  819.7885
 190  803.436
 191  636.9151
 192  616.3076
 193  701.8157
 194  682.6091
 195  700.1618
 196  644.9541
 197  550.9224
 198  637.4752
 199  607.3548
 200  610.3795
 201  680.6488
 202  728.4846
 203  657.1113
 204  598.646
 205  521.9072
 206  651.8991
 207  581.1728
 208  586.2051
 209  706.0043
 210  677.9465
 211  671.4033
 212  706.7734
 213  690.5527
 214  695.5986
 215  751.8965
 216  680.8447
 217  780.3497
 218  656.3176
 219  623.9089
 220  579.2377
 221  639.5817
 222  691.5494
 223  636.2507
 224  636.8501
 225  604.3705
 226  613.4791
 227  619.4784
 228  599.198
 229  585.1653
 230  557.8234
 231  572.9996
 232  622.8325
 233  594.3122
 234  659.3434
 235  686.0703
 236  595.5554
 237  637.7979
 238  681.9275
 239  675.225
 240  651.3073
 241  703.4921
 242  805.2426
 243  808.7524
 244  810.6092
 245  784.2822
 246  784.2154
 247  763.8155
 248  777.0909
 249  847.9111
 250  911.5961
 251  869.0115
 252  691.3766
 253  743.4896
 254  779.6819
 255  729.305
 256  727.0139
 257  814.1925
 258  797.3525
 259  808.417
 260  695.4622
 261  669.6735
 262  811.1965
 263  837.9989
 264  886.7626
 265  834.905
 266  835.2883
 267  857.2399
 268  762.3882
 269  791.4625
 270  889.7949
 271  820.842
 272  755.7216
 273  629.7279
 274  639.0349
 275  676.5073
 276  690.8216
 277  720.6479
 278  698.25
 279  741.2422
 280  771.9207
 281  721.6533
 282  786.3655
 283  859.5409
 284  909.2686
 285  805.972
 286  689.3144
 287  657.883
 288  716.6555
 289  744.6393
 290  684.4871
 291  675.165
 292  796.3454
 293  774.3931
 294  668.8864
 295  675.9099
 296  660.4707
 297  701.2563
 298  740.3146
 299  751.0035
 300  729.5317
 301  780.7091
 302  843.9139
 303  716.2251
 304  726.7344
 305  698.7079
 306  666.4638
 307  656.178
 308  632.6702
 309  743.4403
 310  701.2232
 311  616.076
 312  640.0992
 313  670.2151
 314  676.5285
 315  631.3508
 316  646.0401
 317  688.4801
 318  725.1945
 319  681.3574
 320  699.1006
 321  742.7886
 322  694.5861
 323  646.6581
 324  729.3741
 325  823.9916
 326  820.7769
 327  863.4791
 328  777.613
 329  721.3079
 330  737.897
 331  803.1122
 332  727.3068
 333  716.1061
 334  783.6158
 335  674.8394
 336  710.6826
 337  769.2244
 338  743.5878
 339  840.6811
 340  705.0878
 341  704.8882
 342  780.847
 343  891.9564
 344  864.2316
 345  865.8234
 346  797.6448
 347  962.0301
 348  922.0387
 349  931.3218
 350  893.2708
 351  967.7442
 352  971.4131
 353  851.7264
 354  764.3476
 355  822.9341
 356  870.4211
 357  851.5392
 358  786.3552
 359  749.8976
 360  832.1946
 361  882.2648
 362  787.5807
 363  793.2471
 364  733.6112
 365  729.1148
 366  831.8958
 367  915.2237
 368  851.7512
 369  760.0623
 370  770.5224
 371  778.4588
 372  777.8854
 373  793.2683
 374  907.6135
 375  861.0379
 376  909.6984
 377  883.2614
 378  840.6256
 379  794.3319
 380  771.1692
 381  670.3984
 382  687.6399
 383  625.4904
 384  625.8215
 385  817.301
 386  779.6952
 387  792.4424
 388  737.5693
 389  747.2924
 390  756.6425
 391  691.1285
 392  705.3156
 393  794.066
 394  823.9674
 395  792.9745
 396  736.4322
 397  731.2143
 398  781.9273
 399  769.996
 400  773.051
 401  741.7236
 402  733.716
 403  701.9607
 404  671.9056
 405  688.1844
 406  748.942
 407  711.6567
 408  772.202
 409  812.8296
 410  859.025
 411  743.2457
 412  670.4869
 413  785.1613
 414  709.4252
 415  807.0315
 416  799.3365
 417  770.7745
 418  599.0073
 419  646.0875
 420  755.0536
 421  739.0264
 422  653.6635
 423  686.3707
 424  770.9197
 425  683.3609
 426  656.6022
 427  611.6688
 428  695.5358
 429  874.252
 430  909.8437
 431  833.3758
 432  761.4918
 433  717.7534
 434  749.7269
 435  828.7527
 436  733.8948
 437  829.1768
 438  784.5734
 439  760.9651
 440  678.906
 441  611.2974
 442  699.2952
 443  699.9919
 444  699.3615
 445  716.9427
 446  722.197
 447  756.3687
 448  807.601
 449  774.9617
 450  671.6708
 451  667.579
 452  672.453
 453  689.7424
 454  782.2913
 455  844.0773
 456  859.8397
 457  876.6572
 458  827.3848
 459  837.1365
 460  860.0689
 461  823.1427
 462  868.285
 463  864.3577
 464  763.2734
 465  770.665
 466  853.9477
 467  893.3735
 468  809.8965
 469  729.6092
 470  826.9647
 471  833.9181
 472  812.6291
 473  810.6791
 474  772.5493
 475  729.0876
 476  726.4882
 477  687.8633
 478  707.6492
 479  715.7794
 480  693.4947
 481  782.4365
 482  683.1957
 483  700.2519
 484  821.0672
 485  845.3672
 486  785.17
 487  700.5282
 488  744.1744
 489  702.264
 490  648.7554
 491  785.491
 492  719.3436
 493  610.2986
 494  701.0074
 495  778.3723
 496  762.8316
 497  816.4266
 498  723.1776
 499  668.4865
 500  709.994
 501  758.9482
 502  722.042
 503  687.0771
 504  699.0556
 505  765.04
 506  787.7953
 507  801.3274
 508  883.9449
 509  964.33
 510  990.9861
 511  1128.24
