# Input file       =  1204367855.101803_cleaned.dat
# Candidate        =  PSR_0332+5434
# Telescope        =  AR
# Epoch_topo       =  58183.442987289389
# Epoch_bary       =  N/A
# T_sample         =  0.002
# Data Folded      =  7340032
# Data Avg         =  0.0486416356164096
# Data StdDev      =  3.39092315565174 
# Profile Bins     =  512
# Profile Avg      =  694.638541304394 
# Profile StdDev   =  406.005525546469 
# Reduced chi-sqr  =  1.255
# Prob(Noise)      <  7.39e-05   (~3.8 sigma)
# P_topo (ms)      =  714.579720151088  +/- 4.33e-05
# P'_topo (s/s)    =  -0                +/- 2.28e-11
# P''_topo (s/s^2) =  0                 +/- 1.01e-14
# P_bary (ms)      =  N/A
# P'_bary (s/s)    =  N/A
# P''_bary (s/s^2) =  N/A
# P_orb (s)        =  N/A
# asin(i)/c (s)    =  N/A
# eccentricity     =  N/A
# w (rad)          =  N/A
# T_peri           =  N/A
######################################################
   0  395.3701
   1  384.9008
   2  433.0596
   3  585.3273
   4  806.8053
   5  828.2544
   6  484.7805
   7  366.2841
   8  79.57911
   9  373.3304
  10  705.0111
  11  578.9371
  12  715.0942
  13  482.202
  14  850.6028
  15  632.4966
  16  423.1018
  17  400.1929
  18  454.5138
  19  537.0251
  20  590.9004
  21  556.5212
  22  594.6101
  23  584.0212
  24  364.2883
  25  341.257
  26  282.2473
  27  197.3894
  28  522.2182
  29  811.0317
  30  1223.302
  31  1249.33
  32  718.3608
  33  851.2537
  34  560.3367
  35  404.405
  36  687.7811
  37  897.7734
  38  1235.61
  39  1018.614
  40  476.6016
  41  147.9458
  42  325.9685
  43  755.0945
  44  683.3631
  45  684.5625
  46  833.1685
  47  623.1178
  48  661.6597
  49  551.5798
  50  784.1804
  51  934.3897
  52  728.9824
  53  598.9684
  54  753.04
  55  1054.953
  56  1204.408
  57  561.526
  58  429.2523
  59  453.4306
  60  550.5454
  61  573.7963
  62  785.3888
  63  623.1179
  64  683.5377
  65  825.6819
  66  664.246
  67  537.0633
  68  412.8689
  69  188.3452
  70  264.0409
  71  583.8365
  72  769.8002
  73  908.0867
  74  780.1451
  75  852.7384
  76  787.6198
  77  690.5535
  78  832.1594
  79  843.583
  80  984.6729
  81  1025.296
  82  667.6931
  83  676.6052
  84  859.4364
  85  647.733
  86  943.8812
  87  979.9426
  88  950.5305
  89  870.9414
  90  776.4797
  91  786.0941
  92  702.8765
  93  504.0302
  94  731.1013
  95  817.9656
  96  953.4588
  97  1382.38
  98  1074.219
  99  876.4702
 100  900.9443
 101  582.7648
 102  382.0229
 103  591.1639
 104  703.2567
 105  799.3795
 106  531.5786
 107  354.2678
 108  386.089
 109  327.0966
 110  529.0723
 111  894.8757
 112  1087.214
 113  1262.937
 114  1170.071
 115  690.6521
 116  835.4595
 117  976.8637
 118  837.0779
 119  703.5272
 120  1452.115
 121  1675.3
 122  1280.067
 123  674.3995
 124  800.2315
 125  767.7839
 126  569.5605
 127  626.886
 128  1024.067
 129  1315.92
 130  1477.973
 131  878.9945
 132  801.9009
 133  656.1183
 134  863.6533
 135  958.6351
 136  694.2467
 137  973.8434
 138  999.0828
 139  1044.681
 140  958.7583
 141  679.8876
 142  713.363
 143  624.157
 144  716.0018
 145  729.1859
 146  1137.38
 147  926.842
 148  549.5601
 149  731.6615
 150  1105.165
 151  1128.68
 152  932.5183
 153  896.6967
 154  856.5341
 155  829.7906
 156  637.7695
 157  835.0621
 158  641.175
 159  478.637
 160  90.07349
 161  652.2643
 162  1068.446
 163  740.1772
 164  651.0555
 165  535.5093
 166  846.6984
 167  785.9652
 168  883.7254
 169  1261.159
 170  1149.065
 171  1074.478
 172  720.1341
 173  339.2278
 174  447.8408
 175  684.5142
 176  667.4367
 177  773.7899
 178  1008.705
 179  788.1111
 180  842.0986
 181  890.7363
 182  303.112
 183  637.9841
 184  684.8793
 185  744.1698
 186  628.9359
 187  814.5795
 188  1060.193
 189  591.2319
 190  516.6057
 191  431.9904
 192  432.0863
 193  974.8747
 194  1151.647
 195  1094.714
 196  1177.067
 197  1148.099
 198  979.66
 199  1044.423
 200  843.4194
 201  766.6176
 202  995.8848
 203  1165.439
 204  912.4495
 205  1048.872
 206  832.1279
 207  278.9675
 208  559.0646
 209  358.6314
 210  229.6533
 211  871.282
 212  1298.629
 213  1145.802
 214  656.9327
 215  264.8806
 216  558.922
 217  772.3945
 218  753.8716
 219  935.5514
 220  1221.285
 221  971.5186
 222  515.0678
 223  656.0992
 224  474.4799
 225  433.8933
 226  506.9594
 227  737.1938
 228  1102.017
 229  1031.372
 230  729.9954
 231  762.092
 232  647.395
 233  257.7522
 234  411.9329
 235  723.7619
 236  878.0751
 237  591.6426
 238  843.7109
 239  836.2961
 240  894.6125
 241  813.8335
 242  369.5808
 243  533.7719
 244  777.1244
 245  706.7162
 246  783.8118
 247  790.289
 248  584.9013
 249  745.6764
 250  668.6185
 251  738.1937
 252  522.7541
 253  508.3367
 254  782.5071
 255  720.644
 256  935.2453
 257  668.4942
 258  651.9197
 259  369.2719
 260  570.7719
 261  743.0825
 262  611.0956
 263  804.9263
 264  571.5713
 265  590.9523
 266  810.379
 267  643.6996
 268  623.2873
 269  559.8022
 270  669.7374
 271  918.2623
 272  580.3093
 273  124.8269
 274  11.10226
 275  102.132
 276  163.9477
 277  440.6258
 278  1148.587
 279  1365.794
 280  1139.172
 281  410.4775
 282  651.4167
 283  349.1236
 284  546.1354
 285  1060.729
 286  976.7252
 287  977.2687
 288  767.2607
 289  909.3759
 290  555.8147
 291  276.2279
 292  167.2262
 293  594.4811
 294  1038.836
 295  930.3924
 296  1081.507
 297  997.0463
 298  856.3176
 299  810.4819
 300  867.7794
 301  1177.073
 302  1525.127
 303  2000.597
 304  2674.598
 305  2707.726
 306  2071.251
 307  1082.048
 308  658.3128
 309  1204.599
 310  1062.348
 311  1335.295
 312  1265.516
 313  863.5489
 314  708.556
 315  584.0977
 316  639.4454
 317  860.642
 318  856.198
 319  775.8621
 320  749.7444
 321  496.1013
 322  486.1009
 323  603.6349
 324  441.8372
 325  584.8515
 326  622.6887
 327  1040.431
 328  1006.01
 329  557.2232
 330  663.534
 331  579.1547
 332  438.9571
 333  333.9193
 334  317.8144
 335  330.2846
 336  532.0516
 337  803.6486
 338  723.3776
 339  554.0118
 340  341.9163
 341  331.2652
 342  570.2653
 343  703.2254
 344  908.3269
 345  945.7587
 346  439.4188
 347  202.5354
 348  409.0383
 349  543.44
 350  351.9695
 351  109.2603
 352  644.0638
 353  517.5542
 354  366.3001
 355  547.5532
 356  684.7924
 357  577.9088
 358  508.0417
 359  446.3067
 360  442.5107
 361  821.0923
 362  863.2183
 363  657.7584
 364  620.8425
 365  383.6435
 366  594.4203
 367  416.161
 368  715.7112
 369  164.5165
 370  437.2196
 371  576.0621
 372  271.8254
 373  106.8756
 374  407.2326
 375  819.111
 376  514.48
 377  230.9367
 378  279.0018
 379  628.9096
 380  280.2987
 381  331.2515
 382  542.1674
 383  432.9208
 384  248.8413
 385  573.4605
 386  513.886
 387  190.329
 388  107.4627
 389  363.8044
 390  255.6744
 391  92.51566
 392  138.4107
 393  339.7849
 394  395.7613
 395  733.143
 396  319.7891
 397  -89.14581
 398  77.32642
 399  391.6815
 400  212.1594
 401  228.2703
 402  501.1277
 403  140.0692
 404  76.73392
 405  246.0594
 406  325.4902
 407  126.9655
 408  126.9448
 409  575.1628
 410  769.3973
 411  668.5488
 412  434.8999
 413  325.4209
 414  430.7873
 415  618.6203
 416  281.8002
 417  400.8155
 418  746.9932
 419  937.4736
 420  578.645
 421  1.750525
 422  367.144
 423  412.8976
 424  309.8327
 425  468.4564
 426  948.355
 427  1160.36
 428  763.6549
 429  890.7207
 430  935.3848
 431  472.7094
 432  133.1783
 433  283.8323
 434  794.6785
 435  603.8044
 436  645.3528
 437  821.7745
 438  860.6875
 439  647.2554
 440  309.9892
 441  699.35
 442  1131.876
 443  904.5008
 444  641.4729
 445  685.3237
 446  950.5755
 447  575.1262
 448  715.4097
 449  842.2855
 450  1012.737
 451  1048.277
 452  1215.739
 453  1062.04
 454  816.3625
 455  968.6536
 456  629.5234
 457  490.1828
 458  820.5662
 459  1009.212
 460  1068.905
 461  974.6653
 462  649.6174
 463  882.8715
 464  485.1049
 465  354.4538
 466  723.5381
 467  1322.593
 468  1034.857
 469  911.2481
 470  871.8731
 471  655.1606
 472  529.4366
 473  417.2708
 474  582.2921
 475  1044.639
 476  1351.137
 477  1398.924
 478  786.9184
 479  434.1679
 480  610.3311
 481  734.6711
 482  426.4498
 483  659.0488
 484  909.8377
 485  850.9745
 486  634.7788
 487  273.8421
 488  468.0541
 489  610.1655
 490  485.7994
 491  627.4041
 492  931.0043
 493  960.437
 494  818.0184
 495  767.1061
 496  394.5688
 497  545.1071
 498  530.3156
 499  603.0003
 500  790.894
 501  1056.413
 502  667.0338
 503  243.0854
 504  464.8359
 505  -145.4098
 506  -216.7048
 507  286.9276
 508  849.8141
 509  1057.254
 510  1096.701
 511  623.7672
