# Input file       =  1204979731.107805_cleaned.dat
# Candidate        =  PSR_0332+5434
# Telescope        =  AR
# Epoch_topo       =  58190.524885507002
# Epoch_bary       =  N/A
# T_sample         =  0.002
# Data Folded      =  7340032
# Data Avg         =  0.0117338566912195
# Data StdDev      =  1.00026062207023 
# Profile Bins     =  512
# Profile Avg      =  168.226147757499 
# Profile StdDev   =  119.764241448582 
# Reduced chi-sqr  =  0.749
# Prob(Noise)      <  1   (~0.0 sigma)
# P_topo (ms)      =  714.578064283733  +/- 0.00113
# P'_topo (s/s)    =  -0                +/- 5.95e-10
# P''_topo (s/s^2) =  0                 +/- 2.63e-13
# P_bary (ms)      =  N/A
# P'_bary (s/s)    =  N/A
# P''_bary (s/s^2) =  N/A
# P_orb (s)        =  N/A
# asin(i)/c (s)    =  N/A
# eccentricity     =  N/A
# w (rad)          =  N/A
# T_peri           =  N/A
######################################################
   0  503.5124
   1  408.6976
   2  345.0862
   3  264.1529
   4  193.4135
   5  204.9889
   6  91.44426
   7  76.81755
   8  155.0067
   9  141.1477
  10  160.5532
  11  163.3069
  12  198.6564
  13  238.8107
  14  201.8465
  15  181.936
  16  184.1369
  17  105.9477
  18  97.98654
  19  143.8161
  20  184.3667
  21  123.4863
  22  127.8743
  23  217.2202
  24  129.8983
  25  18.31837
  26  92.48021
  27  81.42904
  28  130.2784
  29  210.9277
  30  235.8835
  31  198.6978
  32  198.5227
  33  189.1648
  34  163.4058
  35  167.2092
  36  128.1266
  37  121.0919
  38  147.9048
  39  94.21005
  40  134.8417
  41  113.2523
  42  79.01091
  43  108.8647
  44  160.3436
  45  119.4213
  46  84.46721
  47  109.5036
  48  185.1333
  49  158.4462
  50  118.5654
  51  113.6347
  52  48.05409
  53  175.5717
  54  254.8092
  55  276.0354
  56  204.9197
  57  167.3739
  58  148.195
  59  177.9895
  60  169.6473
  61  190.1815
  62  225.5148
  63  152.7058
  64  119.1639
  65  151.1663
  66  149.3142
  67  159.1472
  68  241.2841
  69  213.7779
  70  173.9635
  71  169.3338
  72  127.5679
  73  145.602
  74  198.2569
  75  253.0288
  76  216.441
  77  198.0045
  78  158.0506
  79  266.4489
  80  125.1219
  81  120.4602
  82  79.71653
  83  116.5783
  84  171.1635
  85  148.1973
  86  176.1163
  87  192.2512
  88  128.5583
  89  142.9389
  90  136.3406
  91  152.898
  92  202.0094
  93  155.4646
  94  177.4524
  95  128.8037
  96  145.2183
  97  163.6399
  98  195.5426
  99  184.6561
 100  151.0233
 101  158.6582
 102  106.1302
 103  132.9272
 104  124.2845
 105  127.3217
 106  162.3511
 107  155.5839
 108  157.7676
 109  161.1921
 110  286.4186
 111  226.8639
 112  183.8255
 113  150.1121
 114  196.1969
 115  206.9049
 116  263.4875
 117  189.2368
 118  94.59351
 119  -32.84859
 120  87.05666
 121  184.9232
 122  151.9407
 123  125.1757
 124  143.4615
 125  174.2056
 126  144.3003
 127  155.8486
 128  194.0352
 129  238.9707
 130  216.9775
 131  106.9621
 132  136.9856
 133  57.55738
 134  77.56818
 135  101.4019
 136  215.2081
 137  184.3848
 138  194.9585
 139  120.2177
 140  152.8229
 141  188.3975
 142  150.0849
 143  208.4221
 144  187.869
 145  243.7079
 146  207.9188
 147  110.1862
 148  226.0974
 149  271.0324
 150  262.2933
 151  182.4373
 152  265.6221
 153  200.4305
 154  123.3375
 155  176.0838
 156  251.9921
 157  193.5686
 158  190.9466
 159  254.8196
 160  306.9803
 161  261.5409
 162  271.9829
 163  332.1354
 164  287.9575
 165  289.9191
 166  286.5881
 167  209.7825
 168  259.7442
 169  334.9192
 170  212.2898
 171  271.5243
 172  284.0009
 173  207.7146
 174  208.0738
 175  181.9924
 176  205.6017
 177  190.0568
 178  211.7585
 179  219.1448
 180  219.272
 181  223.6803
 182  221.2606
 183  201.1273
 184  248.5506
 185  220.2746
 186  158.5353
 187  211.0239
 188  208.4317
 189  201.806
 190  143.9104
 191  160.4512
 192  206.1417
 193  153.6095
 194  73.69486
 195  162.1348
 196  181.6115
 197  191.4783
 198  123.571
 199  157.6198
 200  115.4695
 201  175.4171
 202  210.7428
 203  253.6958
 204  299.5208
 205  278.7375
 206  272.0054
 207  297.1183
 208  295.1309
 209  232.566
 210  261.0268
 211  300.2252
 212  259.3269
 213  155.0498
 214  157.5516
 215  207.9896
 216  332.0796
 217  295.385
 218  222.8552
 219  236.782
 220  245.5375
 221  189.793
 222  126.472
 223  177.7358
 224  196.8432
 225  255.2047
 226  182.8886
 227  96.89618
 228  102.3444
 229  92.94608
 230  86.93961
 231  101.5832
 232  128.5068
 233  138.177
 234  50.04926
 235  86.96603
 236  79.68707
 237  127.2493
 238  183.0458
 239  171.9922
 240  229.6867
 241  176.7234
 242  195.4931
 243  189.9512
 244  177.0179
 245  154.2476
 246  181.0479
 247  88.1379
 248  168.0794
 249  248.1268
 250  204.4919
 251  191.7508
 252  206.4614
 253  209.1594
 254  240.3838
 255  287.8036
 256  209.7548
 257  193.2332
 258  245.1243
 259  326.6332
 260  203.8439
 261  154.315
 262  149.1917
 263  165.058
 264  247.3693
 265  267.6762
 266  192.7768
 267  203.3275
 268  163.0544
 269  125.9747
 270  145.4505
 271  276.778
 272  245.5522
 273  222.2808
 274  198.1043
 275  179.3272
 276  179.0079
 277  240.2426
 278  339.3962
 279  248.0044
 280  185.4711
 281  225.0322
 282  199.4297
 283  235.1595
 284  272.6489
 285  275.8297
 286  289.0714
 287  299.9755
 288  257.1152
 289  215.4621
 290  249.4417
 291  240.9357
 292  194.8324
 293  215.756
 294  196.5988
 295  256.9598
 296  319.235
 297  297.4198
 298  212.4673
 299  261.3914
 300  279.3728
 301  239.717
 302  153.0745
 303  193.1832
 304  251.2374
 305  265.4932
 306  276.9127
 307  225.3449
 308  166.2108
 309  175.7095
 310  149.395
 311  165.5493
 312  166.1536
 313  242.5015
 314  183.5621
 315  197.9255
 316  214.0705
 317  218.2597
 318  234.8569
 319  309.4362
 320  267.7198
 321  132.2653
 322  157.6749
 323  159.8848
 324  144.4802
 325  220.3099
 326  249.0906
 327  151.7138
 328  125.9122
 329  208.0625
 330  237.5331
 331  184.4552
 332  225.605
 333  284.7414
 334  134.0114
 335  192.2373
 336  173.0578
 337  97.56792
 338  207.0296
 339  200.1026
 340  222.8981
 341  158.5091
 342  212.1375
 343  183.6672
 344  266.8278
 345  209.9691
 346  221.6908
 347  177.9193
 348  161.6659
 349  180.5362
 350  183.4579
 351  174.5637
 352  149.196
 353  159.8847
 354  183.3069
 355  153.1423
 356  125.7982
 357  91.69933
 358  115.5076
 359  156.7419
 360  102.7693
 361  122.7752
 362  170.8891
 363  141.9683
 364  77.51788
 365  54.07135
 366  22.42412
 367  61.14383
 368  130.7337
 369  33.57863
 370  57.50266
 371  11.15992
 372  56.01076
 373  91.41674
 374  127.5473
 375  8.893988
 376  42.35485
 377  112.8619
 378  68.21181
 379  86.00417
 380  74.51031
 381  59.15639
 382  34.14169
 383  121.6012
 384  145.8997
 385  62.01201
 386  50.99552
 387  74.49079
 388  85.38451
 389  39.98779
 390  -4.072739
 391  16.53
 392  45.70359
 393  78.69682
 394  72.73871
 395  149.7978
 396  80.60473
 397  135.675
 398  139.0075
 399  85.46214
 400  124.2846
 401  164.9525
 402  143.0261
 403  191.0596
 404  238.9969
 405  191.0762
 406  132.157
 407  172.8186
 408  260.1892
 409  158.2462
 410  128.7919
 411  200.3794
 412  128.9352
 413  100.187
 414  101.9943
 415  129.7147
 416  109.8856
 417  130.769
 418  128.4057
 419  91.37254
 420  99.04968
 421  131.4156
 422  170.1763
 423  137.8022
 424  71.78041
 425  23.12584
 426  19.74887
 427  89.8233
 428  119.6375
 429  62.81826
 430  49.77276
 431  57.88602
 432  97.88605
 433  157.425
 434  209.0956
 435  121.7534
 436  66.41424
 437  94.6714
 438  65.99371
 439  67.25513
 440  135.7703
 441  161.1311
 442  26.00499
 443  48.73372
 444  73.37607
 445  31.94383
 446  79.18693
 447  190.9193
 448  177.7507
 449  76.84019
 450  61.68533
 451  64.48766
 452  65.95762
 453  28.27906
 454  46.75197
 455  76.78011
 456  -23.47771
 457  53.6874
 458  149.3734
 459  112.7144
 460  2.200106
 461  -56.04447
 462  10.5812
 463  134.1732
 464  162.1197
 465  249.3419
 466  200.7843
 467  129.4825
 468  144.6579
 469  129.4879
 470  113.9288
 471  77.21555
 472  121.7547
 473  104.7266
 474  131.5932
 475  129.3019
 476  90.69926
 477  91.93102
 478  232.7492
 479  264.0179
 480  148.2625
 481  123.7117
 482  148.9192
 483  60.37211
 484  87.20203
 485  74.24296
 486  109.1243
 487  225.8798
 488  293.0009
 489  209.2273
 490  80.58939
 491  84.66579
 492  154.3207
 493  151.4033
 494  98.96964
 495  85.68141
 496  67.2977
 497  94.41178
 498  146.7151
 499  216.8135
 500  261.4063
 501  226.1801
 502  221.8373
 503  173.4345
 504  159.7957
 505  182.8527
 506  238.6708
 507  262.62
 508  217.6172
 509  368.0794
 510  449.5931
 511  490.9532
