# Input file       =  1204706714.102575_cleaned.dat
# Candidate        =  PSR_0332+5434
# Telescope        =  AR
# Epoch_topo       =  58187.364966464986
# Epoch_bary       =  N/A
# T_sample         =  0.002
# Data Folded      =  7471104
# Data Avg         =  0.150694206207908
# Data StdDev      =  5.50301744935403 
# Profile Bins     =  1024
# Profile Avg      =  1099.29506778823 
# Profile StdDev   =  470.049183432374 
# Reduced chi-sqr  =  0.719
# Prob(Noise)      <  1   (~0.0 sigma)
# P_topo (ms)      =  714.578924921594  +/- 3.92e-05
# P'_topo (s/s)    =  -0                +/- 2.03e-11
# P''_topo (s/s^2) =  0                 +/- 8.82e-15
# P_bary (ms)      =  N/A
# P'_bary (s/s)    =  N/A
# P''_bary (s/s^2) =  N/A
# P_orb (s)        =  N/A
# asin(i)/c (s)    =  N/A
# eccentricity     =  N/A
# w (rad)          =  N/A
# T_peri           =  N/A
######################################################
   0  841.3112
   1  873.1533
   2  1064.241
   3  1296.046
   4  1394.453
   5  1335.614
   6  1247.373
   7  1231.215
   8  1376.933
   9  1391.168
  10  1349.256
  11  1263.431
  12  1399.064
  13  1226.124
  14  837.5728
  15  682.8923
  16  746.1549
  17  916.6399
  18  905.0375
  19  1115.189
  20  1093.899
  21  1241.708
  22  1271.427
  23  1308.048
  24  1298.323
  25  1266.52
  26  1267.792
  27  1318.482
  28  1140.003
  29  1028.02
  30  937.3489
  31  959.5967
  32  1047.508
  33  1158.895
  34  1152.758
  35  1161.211
  36  1301.158
  37  1330.988
  38  1143.747
  39  1081.318
  40  1427.455
  41  1640.279
  42  1727.914
  43  1471.677
  44  1440.093
  45  1464.467
  46  1469.665
  47  1199.205
  48  998.1935
  49  904.9875
  50  1139.555
  51  1291.059
  52  1263.292
  53  1182.696
  54  1170.097
  55  1143.471
  56  1044.333
  57  889.6491
  58  974.839
  59  1018.695
  60  1050.635
  61  933.618
  62  938.4998
  63  946.5539
  64  896.6712
  65  862.9831
  66  887.5691
  67  936.5985
  68  1071.399
  69  968.9979
  70  890.4603
  71  787.7086
  72  915.616
  73  1115.938
  74  1269.345
  75  1291.775
  76  1245.862
  77  1288.407
  78  1313.059
  79  1201.973
  80  1142.27
  81  1170.708
  82  1071.512
  83  1068.029
  84  1147.965
  85  1166.071
  86  1083.407
  87  966.2557
  88  851.2968
  89  874.1045
  90  832.802
  91  903.5656
  92  986.7973
  93  968.4901
  94  917.3538
  95  1036.707
  96  1048.032
  97  949.9586
  98  890.9694
  99  1117.469
 100  1381.091
 101  1410.327
 102  1347.858
 103  1216.872
 104  1044.565
 105  940.1286
 106  966.7062
 107  1017.505
 108  1132.885
 109  1209.733
 110  1297.387
 111  1131.779
 112  1075.545
 113  926.0461
 114  1047.396
 115  1179.515
 116  1240.258
 117  1076.097
 118  962.3103
 119  983.306
 120  1154.682
 121  1198.17
 122  1109.102
 123  1142.782
 124  1229.657
 125  1310
 126  1127.847
 127  1126.072
 128  1070.369
 129  1014.874
 130  910.7522
 131  771.8677
 132  643.0654
 133  896.9539
 134  1172.253
 135  1329.659
 136  1170.184
 137  1228.292
 138  1414.301
 139  1531.985
 140  1484.279
 141  1447.839
 142  1513.097
 143  1444.38
 144  1212.639
 145  1209.657
 146  1153.135
 147  1029.154
 148  863.7665
 149  910.825
 150  1066.542
 151  1131.018
 152  1052.686
 153  996.515
 154  1042.14
 155  972.0354
 156  885.4494
 157  1005.396
 158  1235.049
 159  1263.695
 160  1183.183
 161  864.5666
 162  670.9568
 163  510.2625
 164  663.8918
 165  999.6328
 166  1120.428
 167  1087.987
 168  1191.879
 169  1256.371
 170  1473.908
 171  1388.727
 172  1386.895
 173  1401.232
 174  1323.431
 175  1396.134
 176  1111.628
 177  995.2883
 178  831.5458
 179  830.6783
 180  795.7009
 181  747.5786
 182  714.7422
 183  1003.315
 184  1178.628
 185  1218.495
 186  1208.995
 187  1166.846
 188  1202.113
 189  1079.5
 190  1029.703
 191  965.1295
 192  1102.757
 193  1316.077
 194  1147.488
 195  1019.083
 196  749.7162
 197  892.111
 198  1118.879
 199  1051.499
 200  984.9034
 201  1008.696
 202  1229.427
 203  1253.841
 204  1227.898
 205  1065.239
 206  1138.644
 207  1356.985
 208  1452.525
 209  1237.502
 210  1058.141
 211  1181.653
 212  1119.458
 213  984.6326
 214  769.524
 215  776.5746
 216  950.2444
 217  1014.997
 218  1046.363
 219  988.566
 220  952.0751
 221  831.2561
 222  791.1524
 223  869.3041
 224  1027.93
 225  1147.964
 226  1112.822
 227  1031.935
 228  981.1528
 229  906.5737
 230  852.2463
 231  889.7859
 232  1022.363
 233  1196.045
 234  1257.477
 235  1264.226
 236  1256.701
 237  986.9351
 238  878.0809
 239  883.6941
 240  1248.672
 241  1364.576
 242  1391.431
 243  1342.403
 244  1134.052
 245  924.0583
 246  785.416
 247  879.7354
 248  1106.087
 249  1289.323
 250  1209.006
 251  1157.578
 252  1121.054
 253  1080.643
 254  974.9561
 255  827.2598
 256  877.0359
 257  926.9587
 258  1133.065
 259  1074.321
 260  1019.156
 261  875.23
 262  900.0588
 263  809.2682
 264  746.8723
 265  792.6152
 266  1196.215
 267  1425.422
 268  1522.308
 269  1175.816
 270  1121.03
 271  1225.935
 272  1389.539
 273  1299.299
 274  1289.924
 275  1286.579
 276  1331.692
 277  1065.384
 278  941.4958
 279  849.7644
 280  904.3519
 281  962.4968
 282  1069.623
 283  1107.148
 284  1217.75
 285  1235.909
 286  1142.26
 287  999.7986
 288  821.4924
 289  921.6628
 290  1005.232
 291  1123.186
 292  1110.898
 293  1018.958
 294  798.1491
 295  779.1565
 296  565.485
 297  620.9128
 298  894.5477
 299  1304.676
 300  1304.856
 301  1203.47
 302  1213.257
 303  1301.28
 304  1291.463
 305  1316.922
 306  1237.574
 307  1055.967
 308  929.105
 309  891.621
 310  911.2814
 311  690.4406
 312  811.6122
 313  1067.384
 314  1217.073
 315  1015.504
 316  1094.88
 317  1272.957
 318  1222.873
 319  1099.225
 320  774.9979
 321  868.4171
 322  1040.298
 323  1342.831
 324  1127.823
 325  927.944
 326  879.0804
 327  863.0986
 328  769.9116
 329  664.5757
 330  765.372
 331  936.451
 332  1023.016
 333  1083.804
 334  1142.131
 335  1315.265
 336  1332.941
 337  1366.641
 338  1329.861
 339  1422.099
 340  1498.837
 341  1472.077
 342  1125.032
 343  1016.716
 344  885.6782
 345  865.9613
 346  842.105
 347  873.2233
 348  968.9907
 349  1027.021
 350  1072.861
 351  1118.891
 352  1160.287
 353  1069.156
 354  968.2095
 355  1063.903
 356  1353.988
 357  1430.518
 358  1332.702
 359  1125.817
 360  1151.188
 361  1023.726
 362  783.2225
 363  698.0938
 364  810.2853
 365  958.9585
 366  1067.872
 367  989.7516
 368  1050.028
 369  1152.494
 370  1198
 371  1244.451
 372  1310.161
 373  1532.668
 374  1546.321
 375  1495.815
 376  1243.555
 377  1036.722
 378  903.6556
 379  758.7589
 380  694.5543
 381  783.4989
 382  947.1433
 383  914.4207
 384  904.0506
 385  814.0526
 386  924.1865
 387  960.993
 388  942.3781
 389  940.5518
 390  1124.396
 391  1282.403
 392  1069.566
 393  961.317
 394  926.181
 395  795.0469
 396  657.8259
 397  799.4024
 398  1071.653
 399  1307.418
 400  1208.819
 401  1305.147
 402  1271.96
 403  1266.749
 404  1334.483
 405  1329.345
 406  1228.603
 407  1136.761
 408  1147.545
 409  1171.468
 410  1047.554
 411  1042.352
 412  915.8038
 413  875.9979
 414  1002.946
 415  1091.488
 416  1208.606
 417  1163.096
 418  1024.797
 419  819.4114
 420  655.6157
 421  700.8015
 422  877.1055
 423  972.04
 424  1080.55
 425  1147.188
 426  1001.203
 427  802.4042
 428  818.1891
 429  1008.815
 430  1110.136
 431  1240.101
 432  1298.621
 433  1265.945
 434  1108.152
 435  994.4243
 436  1091.216
 437  1087.653
 438  1208.908
 439  1233.104
 440  1297.972
 441  1345.774
 442  1246.884
 443  1193.865
 444  945.8223
 445  922.6263
 446  877.7102
 447  1054.138
 448  1046.63
 449  1261.638
 450  1185.384
 451  1135.089
 452  1122.027
 453  1132.992
 454  1113.207
 455  1072.126
 456  1145.204
 457  1004.208
 458  875.4863
 459  814.8201
 460  787.0436
 461  782.2101
 462  805.0391
 463  1056.86
 464  1379.155
 465  1441.968
 466  1309.374
 467  1203.192
 468  1129.597
 469  1161.473
 470  1203.332
 471  1291.547
 472  1235.851
 473  1010.951
 474  947.2469
 475  924.7562
 476  1006.352
 477  988.7812
 478  954.4977
 479  902.4319
 480  886.2363
 481  1130.004
 482  1193.397
 483  1267.154
 484  1315.005
 485  1270.681
 486  1056.886
 487  936.2589
 488  972.9751
 489  989.5963
 490  919.421
 491  860.7833
 492  781.7266
 493  672.9793
 494  540.9994
 495  517.8451
 496  831.6576
 497  1052.911
 498  1245.589
 499  1447.845
 500  1525.913
 501  1574.734
 502  1404.828
 503  1284.775
 504  1273.413
 505  1395.538
 506  1386.553
 507  1182.379
 508  1059.039
 509  1016.79
 510  884.4745
 511  813.2095
 512  881.4174
 513  831.4412
 514  1055.86
 515  1163.999
 516  1264.171
 517  1246.781
 518  1180.393
 519  1301.146
 520  1278.924
 521  1406.145
 522  1427.311
 523  1524.069
 524  1483.223
 525  1269.875
 526  1064.334
 527  807.6833
 528  790.4609
 529  948.7396
 530  1002.279
 531  1066.623
 532  1061.01
 533  1172.922
 534  1271.807
 535  1205.494
 536  1174.059
 537  1258.411
 538  1362.839
 539  1457.51
 540  1363.753
 541  1204.238
 542  1058.63
 543  834.3145
 544  889.1592
 545  932.6219
 546  1031.069
 547  976.0513
 548  910.3332
 549  982.4409
 550  972.9011
 551  901.4327
 552  877.8137
 553  957.1614
 554  1102.315
 555  1110.216
 556  1026.38
 557  933.1195
 558  1032.711
 559  969.6097
 560  855.6266
 561  871.0557
 562  1037.232
 563  1099.172
 564  1080.186
 565  1104.683
 566  1110.175
 567  1150.008
 568  1133.03
 569  1206.867
 570  1080.895
 571  1065.275
 572  1295.78
 573  1556.392
 574  1491.071
 575  1311.941
 576  1184.359
 577  1124.492
 578  934.611
 579  1126.532
 580  1329.12
 581  1357.416
 582  1266.761
 583  1047.771
 584  924.692
 585  851.6321
 586  1014.532
 587  1260.334
 588  1289.13
 589  1171.845
 590  1057.083
 591  855.803
 592  661.3636
 593  756.4261
 594  881.4089
 595  958.0879
 596  1098.814
 597  1383.559
 598  1413.099
 599  1336.614
 600  1163.843
 601  1135.269
 602  1230.181
 603  1577.761
 604  1818.633
 605  1971.135
 606  2072.599
 607  2204.118
 608  2227.708
 609  2067.739
 610  1837.87
 611  1737.644
 612  1640.481
 613  1551.679
 614  1577.332
 615  1637.484
 616  1461.693
 617  1310.533
 618  1100.053
 619  998.5526
 620  886.8465
 621  916.7762
 622  996.3783
 623  1037.92
 624  876.4167
 625  739.5545
 626  727.6935
 627  977.0292
 628  1086.926
 629  1279.781
 630  1373.182
 631  1431.525
 632  1495.849
 633  1314.116
 634  1278.753
 635  1243.072
 636  1290.607
 637  1285.697
 638  1316.123
 639  1370.928
 640  1306.602
 641  1227.829
 642  1231.535
 643  1046.317
 644  876.602
 645  870.5612
 646  1007.247
 647  1200.676
 648  1173.196
 649  1186.161
 650  995.068
 651  898.3932
 652  993.9767
 653  1102.226
 654  1102.096
 655  944.2937
 656  797.8241
 657  728.1735
 658  666.2471
 659  694.3912
 660  679.9099
 661  864.6202
 662  1107.227
 663  1393.591
 664  1538.369
 665  1363.527
 666  1167.376
 667  1123.691
 668  1301.072
 669  1399.259
 670  1461.246
 671  1304.837
 672  1168.997
 673  1018.135
 674  1044.213
 675  979.0435
 676  1015.77
 677  906.9698
 678  942.7557
 679  1106.351
 680  1257.438
 681  1244.694
 682  1244.215
 683  1229.334
 684  1074.077
 685  1102.807
 686  1078.385
 687  1140.369
 688  1160.676
 689  1072.216
 690  1009.723
 691  915.3817
 692  799.5065
 693  797.8011
 694  916.8733
 695  1141.456
 696  1051.69
 697  1093.984
 698  1020.469
 699  1229.429
 700  1204.184
 701  1403.322
 702  1356.104
 703  1460.435
 704  1364.241
 705  1284.139
 706  1190.697
 707  980.5336
 708  830.8633
 709  738.6236
 710  903.3743
 711  907.8186
 712  1061.81
 713  1127.782
 714  1183.734
 715  1048.105
 716  874.411
 717  952.4562
 718  1007.275
 719  1103.793
 720  1245.771
 721  1373.821
 722  1419.755
 723  1221.094
 724  1006.677
 725  735.1958
 726  695.7025
 727  908.5192
 728  1071.29
 729  1123.385
 730  1003.488
 731  998.9399
 732  1011.551
 733  1190.592
 734  1187.618
 735  1427.68
 736  1557.889
 737  1553.105
 738  1579.378
 739  1426.035
 740  1324.661
 741  1118.976
 742  1022.74
 743  978.4839
 744  995.446
 745  1130.381
 746  1113.195
 747  1088.159
 748  1018.214
 749  1040.457
 750  960.5498
 751  967.401
 752  981.2382
 753  1078.699
 754  1031.699
 755  1058.259
 756  1001.486
 757  827.0489
 758  776.7464
 759  975.4011
 760  1205.035
 761  1178.923
 762  1159.657
 763  1295.911
 764  1451.337
 765  1395.432
 766  1148.964
 767  1054.526
 768  1032.007
 769  1211.644
 770  1328.325
 771  1395.652
 772  1250.126
 773  1137.102
 774  1056.964
 775  986.1222
 776  980.7693
 777  1028.391
 778  1115.954
 779  1032.869
 780  1048.214
 781  929.1443
 782  1000.931
 783  893.363
 784  778.3331
 785  803.7816
 786  831.1154
 787  949.4934
 788  968.9103
 789  866.0052
 790  716.1076
 791  679.5683
 792  833.1314
 793  1054.506
 794  1214.266
 795  1265.652
 796  1189.836
 797  1189.772
 798  1112.765
 799  1002.877
 800  1035.966
 801  1143.084
 802  1175.783
 803  1228.008
 804  1129.803
 805  1177.518
 806  1093.829
 807  1074
 808  915.2563
 809  1005.271
 810  1082.622
 811  1168.462
 812  1071.832
 813  1101.778
 814  1082.393
 815  1020.799
 816  976.6345
 817  954.2743
 818  1086.918
 819  1110.254
 820  1113.127
 821  1104.726
 822  891.2352
 823  695.3208
 824  699.578
 825  873.4652
 826  966.9146
 827  1008.154
 828  1141.602
 829  1287.083
 830  1340.658
 831  1380.92
 832  1323.95
 833  1210.954
 834  1226.171
 835  1330.293
 836  1366.649
 837  1198.906
 838  1139.304
 839  1126.395
 840  944.6417
 841  848.2411
 842  702.4093
 843  694.0447
 844  683.4768
 845  864.865
 846  953.8671
 847  1039.628
 848  1073.188
 849  1137.529
 850  1239.811
 851  1341.477
 852  1422.938
 853  1446.301
 854  1211.505
 855  907.4179
 856  840.0288
 857  736.0211
 858  639.3307
 859  789.2465
 860  1079.657
 861  1376.123
 862  1429.934
 863  1394.815
 864  1258.673
 865  1169.781
 866  1197.926
 867  1311.336
 868  1440.297
 869  1390.688
 870  1411.638
 871  1310.296
 872  1168.317
 873  854.6533
 874  735.6487
 875  807.6887
 876  875.9841
 877  1017.786
 878  1051.39
 879  1076.092
 880  1193.056
 881  1364.318
 882  1236.534
 883  1201.62
 884  1203.936
 885  1344.341
 886  1453.036
 887  1333.315
 888  1307.604
 889  1240.214
 890  992.6348
 891  878.1655
 892  816.3698
 893  1018.67
 894  1001.273
 895  1049.313
 896  1001.47
 897  1157.007
 898  1232.103
 899  1406.074
 900  1371.654
 901  1391.868
 902  1431.585
 903  1522.029
 904  1591.487
 905  1325.785
 906  1176.28
 907  989.2769
 908  854.0485
 909  795.9152
 910  903.009
 911  982.8275
 912  1136.519
 913  1135.934
 914  1062.777
 915  878.1165
 916  816.8475
 917  789.6764
 918  912.7242
 919  990.3781
 920  1066.009
 921  1018.029
 922  891.499
 923  738.8494
 924  726.0359
 925  635.5451
 926  899.0571
 927  1266.918
 928  1586.995
 929  1520.266
 930  1287.771
 931  1158.841
 932  935.1201
 933  884.8891
 934  1009.371
 935  1082.631
 936  1086.585
 937  1016.296
 938  1020.467
 939  970.5557
 940  1049.932
 941  1085.397
 942  1195.497
 943  1215.837
 944  1140.405
 945  1111.602
 946  985.8034
 947  950.0576
 948  782.3258
 949  784.7252
 950  872.8054
 951  962.4171
 952  977.4158
 953  907.277
 954  1023.507
 955  864.108
 956  828.2372
 957  869.9779
 958  1103.888
 959  1300.353
 960  1236.069
 961  1200.879
 962  1145.141
 963  1144.948
 964  1219.676
 965  1283.136
 966  1307.614
 967  1223.041
 968  1347.803
 969  1396.208
 970  1095.398
 971  933.3467
 972  868.0498
 973  872.2262
 974  811.7792
 975  844.802
 976  997.7457
 977  1146.826
 978  1261.48
 979  1092.028
 980  926.8861
 981  916.827
 982  1024.975
 983  1097.879
 984  1036.106
 985  1030.214
 986  1159.765
 987  1121.718
 988  829.0014
 989  668.1195
 990  695.7594
 991  953.7979
 992  1162.638
 993  1284.101
 994  1323.478
 995  1336.712
 996  1424.482
 997  1181.776
 998  997.8212
 999  1108.379
1000  1260.023
1001  1581.111
1002  1432.271
1003  1324.102
1004  1104.944
1005  1059.344
1006  955.1467
1007  851.6111
1008  801.3427
1009  909.4001
1010  1058.946
1011  1193.906
1012  1214.482
1013  1205.243
1014  1216.952
1015  1294.527
1016  1329.154
1017  1290.145
1018  1256.372
1019  1162.601
1020  886.2924
1021  769.415
1022  743.8624
1023  818.6941
