# Input file       =  1205568517.108477_cleaned.dat
# Candidate        =  PSR_0332+5434
# Telescope        =  AR
# Epoch_topo       =  58197.339538292559
# Epoch_bary       =  N/A
# T_sample         =  0.002
# Data Folded      =  7405568
# Data Avg         =  0.0996967452042395
# Data StdDev      =  1.00024781173953 
# Profile Bins     =  512
# Profile Avg      =  1442.00946357564 
# Profile StdDev   =  120.296174445595 
# Reduced chi-sqr  =  1.924
# Prob(Noise)      <  3.38e-32   (~11.8 sigma)
# P_topo (ms)      =  714.575575426386  +/- 6.86e-05
# P'_topo (s/s)    =  -0                +/- 3.59e-11
# P''_topo (s/s^2) =  0                 +/- 1.57e-14
# P_bary (ms)      =  N/A
# P'_bary (s/s)    =  N/A
# P''_bary (s/s^2) =  N/A
# P_orb (s)        =  N/A
# asin(i)/c (s)    =  N/A
# eccentricity     =  N/A
# w (rad)          =  N/A
# T_peri           =  N/A
######################################################
   0  1448.418
   1  1376.765
   2  1370.516
   3  1501.846
   4  1452.931
   5  1338.773
   6  1431.745
   7  1429.125
   8  1370.546
   9  1520.519
  10  1557.459
  11  1560.348
  12  1420.849
  13  1355.689
  14  1456.247
  15  1356.766
  16  1305.306
  17  1350.419
  18  1367.326
  19  1352.137
  20  1380.589
  21  1373.361
  22  1387.811
  23  1442.98
  24  1487.255
  25  1386.56
  26  1388.371
  27  1520.625
  28  1530.564
  29  1458.042
  30  1484.618
  31  1421.462
  32  1337.857
  33  1410.091
  34  1515.333
  35  1415.275
  36  1435.981
  37  1497.728
  38  1419.839
  39  1448.553
  40  1478.584
  41  1454.201
  42  1405.316
  43  1558.615
  44  1588.662
  45  1507.783
  46  1436.297
  47  1428.541
  48  1494.283
  49  1566.18
  50  1503.086
  51  1474.258
  52  1565.181
  53  1532.944
  54  1473.875
  55  1432.847
  56  1463.426
  57  1463.883
  58  1540.714
  59  1575.243
  60  1643.152
  61  1627.708
  62  1484.627
  63  1438.003
  64  1463.707
  65  1511.994
  66  1447.349
  67  1549.423
  68  1553.201
  69  1468.463
  70  1405.5
  71  1425.485
  72  1454.656
  73  1439.501
  74  1489.356
  75  1617.749
  76  1631.561
  77  1548.508
  78  1549.675
  79  1401.418
  80  1366.593
  81  1397.658
  82  1434.128
  83  1460.65
  84  1479.788
  85  1434.375
  86  1456.966
  87  1330.585
  88  1314.91
  89  1344.394
  90  1301.534
  91  1367.648
  92  1423.25
  93  1432.054
  94  1403.405
  95  1404.596
  96  1377.073
  97  1327.494
  98  1243.495
  99  1229.048
 100  1334.905
 101  1396.489
 102  1445.186
 103  1415.717
 104  1336.39
 105  1294.115
 106  1362.585
 107  1368.626
 108  1286.652
 109  1267.582
 110  1381.43
 111  1502.455
 112  1450.094
 113  1280.259
 114  1263.099
 115  1236.997
 116  1233.026
 117  1285.024
 118  1282.437
 119  1401.522
 120  1272.104
 121  1315.23
 122  1307.799
 123  1253.202
 124  1384.571
 125  1408.489
 126  1420.185
 127  1474.139
 128  1278.191
 129  1272.699
 130  1350.533
 131  1309.655
 132  1277.082
 133  1286.527
 134  1340.78
 135  1375.785
 136  1326.417
 137  1375.168
 138  1433.692
 139  1393.518
 140  1362.435
 141  1294.947
 142  1419.642
 143  1384.12
 144  1395.337
 145  1418.954
 146  1417.823
 147  1371.924
 148  1377.429
 149  1341.94
 150  1350.438
 151  1436.935
 152  1388.759
 153  1331.193
 154  1315.669
 155  1370.247
 156  1355.863
 157  1370.454
 158  1412.193
 159  1445.622
 160  1466.013
 161  1563.273
 162  1570.457
 163  1461.212
 164  1303.403
 165  1321.916
 166  1373.746
 167  1370.028
 168  1376.679
 169  1453.988
 170  1441.735
 171  1396.843
 172  1405.408
 173  1319.423
 174  1374.846
 175  1422.719
 176  1552.802
 177  1594.992
 178  1493.601
 179  1347.424
 180  1294.907
 181  1297.616
 182  1367.618
 183  1392.501
 184  1410.556
 185  1373.082
 186  1376.515
 187  1296.119
 188  1283.476
 189  1315.057
 190  1311.369
 191  1366.51
 192  1485.844
 193  1463.681
 194  1353.804
 195  1248.287
 196  1289.622
 197  1231.372
 198  1235.19
 199  1173.58
 200  1322.79
 201  1373.525
 202  1281.948
 203  1189.677
 204  1211.975
 205  1260.53
 206  1339.123
 207  1401.194
 208  1471.812
 209  1364.034
 210  1326.777
 211  1271.904
 212  1231.332
 213  1342.115
 214  1295.217
 215  1311.472
 216  1252.872
 217  1315.907
 218  1338.154
 219  1268.612
 220  1276.883
 221  1340.727
 222  1369.905
 223  1350.9
 224  1400.749
 225  1477.656
 226  1559.186
 227  1424.768
 228  1410.496
 229  1440.399
 230  1327.828
 231  1408.194
 232  1509.452
 233  1456.145
 234  1459.517
 235  1484.181
 236  1416.564
 237  1332.158
 238  1380.169
 239  1412.807
 240  1461.846
 241  1403.271
 242  1490.784
 243  1544.196
 244  1471.226
 245  1498.166
 246  1487.521
 247  1364.625
 248  1391.905
 249  1469.996
 250  1471.831
 251  1518.547
 252  1450.432
 253  1385.125
 254  1374.973
 255  1334.307
 256  1405.233
 257  1417.224
 258  1568.553
 259  1600.237
 260  1454.456
 261  1371.32
 262  1299.384
 263  1271.531
 264  1287.318
 265  1400.453
 266  1504.112
 267  1453.484
 268  1319.278
 269  1237.913
 270  1277.734
 271  1346.201
 272  1390.83
 273  1512.953
 274  1573.117
 275  1516.685
 276  1481.54
 277  1407.973
 278  1356.656
 279  1295.995
 280  1325.427
 281  1291.85
 282  1297.327
 283  1388.83
 284  1477.364
 285  1489.612
 286  1345.291
 287  1365.966
 288  1406.921
 289  1352.877
 290  1356.241
 291  1422.957
 292  1389.132
 293  1366.458
 294  1405.935
 295  1383.461
 296  1351.211
 297  1305.693
 298  1374.769
 299  1374.792
 300  1439.026
 301  1421.521
 302  1376.79
 303  1448.502
 304  1451.223
 305  1489.314
 306  1446.733
 307  1427.268
 308  1527.43
 309  1584.923
 310  1515.688
 311  1427.234
 312  1387.989
 313  1358.018
 314  1394.922
 315  1354.469
 316  1472.073
 317  1521.305
 318  1421.652
 319  1452.479
 320  1498.245
 321  1484.938
 322  1439.272
 323  1424.414
 324  1477.206
 325  1605.893
 326  1641.78
 327  1582.512
 328  1360.959
 329  1350.407
 330  1345.179
 331  1416.679
 332  1471.231
 333  1559.931
 334  1624.009
 335  1514.106
 336  1422.147
 337  1436.083
 338  1537.508
 339  1402.979
 340  1492.137
 341  1481.515
 342  1565.192
 343  1494.377
 344  1485.226
 345  1482.645
 346  1491.551
 347  1510.279
 348  1536.501
 349  1518.52
 350  1437.745
 351  1533.411
 352  1520.862
 353  1347.291
 354  1281.585
 355  1361.526
 356  1542.442
 357  1534.604
 358  1550.274
 359  1570.915
 360  1435.442
 361  1380.441
 362  1424.87
 363  1502.33
 364  1381.28
 365  1440.532
 366  1493.411
 367  1443.684
 368  1455.685
 369  1470.871
 370  1412.993
 371  1357.92
 372  1338.659
 373  1416.755
 374  1414.958
 375  1486.745
 376  1495.147
 377  1505.322
 378  1417.56
 379  1383.588
 380  1378.357
 381  1360.938
 382  1273.505
 383  1285.568
 384  1366.548
 385  1407.173
 386  1284.331
 387  1306.702
 388  1459.099
 389  1475.904
 390  1534.707
 391  1539.344
 392  1371.939
 393  1328.974
 394  1398.548
 395  1400.194
 396  1416.919
 397  1344.901
 398  1366.972
 399  1454.561
 400  1445.078
 401  1251.608
 402  1264.78
 403  1407.868
 404  1448.58
 405  1524.781
 406  1587.687
 407  1584.059
 408  1482.312
 409  1384.812
 410  1338.543
 411  1376.131
 412  1447.952
 413  1460.385
 414  1381.99
 415  1495.786
 416  1531.746
 417  1446.606
 418  1441.49
 419  1477.27
 420  1520.013
 421  1531.085
 422  1445.818
 423  1451.349
 424  1531.729
 425  1467.931
 426  1367.645
 427  1341.567
 428  1400.936
 429  1422.209
 430  1506.839
 431  1543.287
 432  1438.633
 433  1434.25
 434  1528.074
 435  1515.238
 436  1467.243
 437  1497.804
 438  1563.415
 439  1565.379
 440  1701.895
 441  1709.541
 442  1572.879
 443  1578.893
 444  1568.511
 445  1606.493
 446  1618.515
 447  1671.496
 448  1540.777
 449  1642.461
 450  1655.458
 451  1570.749
 452  1541.43
 453  1544.29
 454  1524.044
 455  1587.381
 456  1664.215
 457  1728.734
 458  1590.399
 459  1683.272
 460  1692.862
 461  1577.09
 462  1734.191
 463  1882.637
 464  2094.477
 465  2180.667
 466  2083.09
 467  1991.228
 468  1861.292
 469  1665.973
 470  1745.217
 471  1770.015
 472  1746.575
 473  1698.36
 474  1612.729
 475  1595.101
 476  1605.147
 477  1638.582
 478  1691.432
 479  1644.924
 480  1522.673
 481  1504.386
 482  1513.621
 483  1591.886
 484  1571.803
 485  1493.472
 486  1438.731
 487  1385.368
 488  1479.296
 489  1615.561
 490  1604.829
 491  1608.703
 492  1515.868
 493  1442.684
 494  1421.022
 495  1475.7
 496  1547.035
 497  1470.814
 498  1420.135
 499  1548.29
 500  1470.676
 501  1339.729
 502  1468.264
 503  1553.766
 504  1488.449
 505  1458.206
 506  1524.56
 507  1482.302
 508  1480.935
 509  1437.832
 510  1395.747
 511  1376.139
