# Input file       =  1205482329.110533_cleaned.dat
# Candidate        =  PSR_0332+5434
# Telescope        =  AR
# Epoch_topo       =  58196.341992020061
# Epoch_bary       =  N/A
# T_sample         =  0.002
# Data Folded      =  7405568
# Data Avg         =  0.541092883099069
# Data StdDev      =  6.48946191600463 
# Profile Bins     =  512
# Profile Avg      =  7826.71276639673 
# Profile StdDev   =  780.464034555691 
# Reduced chi-sqr  =  2.883
# Prob(Noise)      <  4.95e-94   (~20.5 sigma)
# P_topo (ms)      =  714.575988451489  +/- 1.4e-05
# P'_topo (s/s)    =  -0                +/- 7.34e-12
# P''_topo (s/s^2) =  0                 +/- 3.21e-15
# P_bary (ms)      =  N/A
# P'_bary (s/s)    =  N/A
# P''_bary (s/s^2) =  N/A
# P_orb (s)        =  N/A
# asin(i)/c (s)    =  N/A
# eccentricity     =  N/A
# w (rad)          =  N/A
# T_peri           =  N/A
######################################################
   0  7467.883
   1  7310.687
   2  7957.838
   3  8127.478
   4  9045.753
   5  8872.318
   6  8570.021
   7  7775.895
   8  7209.397
   9  7913.053
  10  8226.365
  11  8396.148
  12  8630.282
  13  9240.431
  14  8441.859
  15  6975.036
  16  6945.865
  17  7381.872
  18  8239.98
  19  8386.987
  20  9442.166
  21  9706.841
  22  9044.657
  23  7809.121
  24  6419.535
  25  7039.647
  26  7565.638
  27  7748.101
  28  8217.889
  29  9227.434
  30  8876.487
  31  7182.908
  32  6600.686
  33  6534.237
  34  6803.661
  35  7306.798
  36  8092.853
  37  9515.679
  38  9481.079
  39  7969.192
  40  6711.976
  41  6401.721
  42  6654.526
  43  6949.954
  44  7487.623
  45  8341.938
  46  9033.438
  47  8189.189
  48  6918.697
  49  6452.159
  50  6907.245
  51  7369.511
  52  7943.094
  53  8683.257
  54  9735.896
  55  9260.616
  56  8341.409
  57  7201.405
  58  7024.05
  59  7558.723
  60  7354.219
  61  7922.113
  62  8998.568
  63  8814.675
  64  7894.768
  65  6854.834
  66  6911.334
  67  7448.737
  68  6979.39
  69  7806.597
  70  8916.499
  71  9131.495
  72  8125.789
  73  7245.02
  74  7145.269
  75  7145.564
  76  6917.411
  77  7488.155
  78  8192.998
  79  8781.97
  80  8152.533
  81  6879.284
  82  6539.734
  83  7168.213
  84  7482.707
  85  7847.672
  86  8733.959
  87  9511.796
  88  8856.461
  89  7713.716
  90  7417.789
  91  7710.903
  92  7674.37
  93  7048.579
  94  8347.328
  95  8799.847
  96  8441.469
  97  7281.599
  98  6229.953
  99  6762.178
 100  7608.57
 101  7698.813
 102  8309.5
 103  9387.016
 104  8804.403
 105  7684.268
 106  6846.802
 107  6598.958
 108  6957.827
 109  7281.7
 110  7674.137
 111  8205.827
 112  8636.282
 113  7422.547
 114  5576.649
 115  5633.186
 116  6433.682
 117  7112.628
 118  7461.542
 119  8630.631
 120  8941.304
 121  8666.745
 122  7695.58
 123  6722.558
 124  7036.348
 125  6522.264
 126  7043.214
 127  8111.63
 128  8977.958
 129  8842.307
 130  7131.704
 131  6498.02
 132  6024.806
 133  6843.235
 134  7322.602
 135  8039.832
 136  8910.885
 137  9393.897
 138  8566.929
 139  7058.23
 140  6259.918
 141  6180.192
 142  6179.709
 143  6741.192
 144  7922.548
 145  8801.078
 146  8401.799
 147  6986.258
 148  6089.992
 149  6406.866
 150  6428.898
 151  7059.023
 152  8345.523
 153  9100.045
 154  8764.465
 155  7620.652
 156  6896.626
 157  6996.802
 158  7430.438
 159  7426.377
 160  7172.89
 161  8176.309
 162  8800.481
 163  7615.274
 164  7023.457
 165  7687.83
 166  7318.271
 167  7489.079
 168  7960.646
 169  9032.841
 170  9421.213
 171  8412.915
 172  7921.942
 173  6902.998
 174  7383.48
 175  7866.348
 176  7556.007
 177  8590.23
 178  8913.898
 179  8144.267
 180  6906.209
 181  6845.752
 182  7583.485
 183  7726.604
 184  7873.502
 185  8344.762
 186  9090.613
 187  8598.275
 188  7824.414
 189  7301.772
 190  7096.41
 191  7723.764
 192  7722.804
 193  8013.047
 194  8800.215
 195  8911.519
 196  7654.788
 197  6218.208
 198  6370.055
 199  6891.621
 200  7552.99
 201  8000.252
 202  9452.045
 203  9532.21
 204  8915.193
 205  7577.714
 206  6552.523
 207  6944.931
 208  7109.038
 209  7461.728
 210  8013.954
 211  8910.68
 212  8344.021
 213  6621.658
 214  6106.854
 215  6371.457
 216  6976.772
 217  7354.146
 218  8241.887
 219  8984.526
 220  8450.6
 221  7672.815
 222  6795.566
 223  6637.181
 224  6295.647
 225  6498.991
 226  7207.416
 227  8417.125
 228  8948.193
 229  7582.181
 230  6535.907
 231  6225.58
 232  6230.713
 233  6506.18
 234  7811.776
 235  9255.527
 236  9569.079
 237  8441.936
 238  7371.997
 239  6806.009
 240  6742.859
 241  6828.03
 242  7001.46
 243  8217.703
 244  9071.415
 245  8055.961
 246  6716.33
 247  6690.423
 248  7249.548
 249  6975.095
 250  7101.168
 251  8381.575
 252  8996.35
 253  8579.237
 254  7739.535
 255  6832.365
 256  6904.711
 257  7006.607
 258  7200.715
 259  7533.804
 260  8523.952
 261  8340.581
 262  7301.358
 263  7016.406
 264  6851.701
 265  7468.834
 266  7174.822
 267  7890.747
 268  8954.598
 269  9288.81
 270  8721.718
 271  7756.151
 272  7556.727
 273  7163.702
 274  7525.688
 275  7484.779
 276  8286.919
 277  9069.782
 278  8267.05
 279  6815.017
 280  6474.205
 281  6719.327
 282  7151.84
 283  7900.106
 284  8730.973
 285  9458.773
 286  8654.005
 287  7568.839
 288  6398.64
 289  6489.531
 290  6740.56
 291  6951.362
 292  7793.6
 293  9379.161
 294  9376.235
 295  7685.97
 296  6378.781
 297  6144.982
 298  6888.705
 299  7577.989
 300  9006.9
 301  10331.8
 302  11047.67
 303  10606.79
 304  9671.81
 305  8485.578
 306  7937.543
 307  7552.947
 308  7278.35
 309  7975.22
 310  8660.686
 311  8952.196
 312  7142.434
 313  6375.986
 314  6688.982
 315  6764.932
 316  7281.979
 317  8087.277
 318  9261.694
 319  9129.256
 320  7769.005
 321  6910.373
 322  6466.637
 323  6568.455
 324  6588.421
 325  6687.854
 326  7888.728
 327  8421.314
 328  7316.458
 329  6255.403
 330  6261.362
 331  6439.461
 332  6785.052
 333  7890.243
 334  8980.071
 335  9280.661
 336  8729.062
 337  7623.467
 338  6953.55
 339  7246.349
 340  7531.019
 341  7460.44
 342  8237.342
 343  8764.844
 344  8555.525
 345  7478.921
 346  7190.835
 347  7604.777
 348  7389.501
 349  7815.845
 350  8505.539
 351  9327.121
 352  9469.894
 353  8198.616
 354  7200.516
 355  7056.163
 356  7291.192
 357  7592.812
 358  8336.165
 359  8696.486
 360  8794.232
 361  7687.265
 362  6357.654
 363  6461.088
 364  7063.625
 365  7683.637
 366  7935.368
 367  9326.026
 368  9935.144
 369  8550.489
 370  7333.843
 371  6745.768
 372  7121.292
 373  7589.108
 374  7829.056
 375  8369.615
 376  9190.722
 377  8836.649
 378  7196.871
 379  6258.577
 380  6366.071
 381  6606.258
 382  7287.928
 383  8794.249
 384  9686.416
 385  9307.717
 386  7900.627
 387  7089.022
 388  6617.973
 389  6939.834
 390  7049.291
 391  7781.198
 392  8694.912
 393  9176.665
 394  7752.854
 395  6500.287
 396  6507.6
 397  6728.187
 398  6822.417
 399  7975.237
 400  9241.895
 401  9739.24
 402  8526.301
 403  7733.836
 404  7385.845
 405  7312.638
 406  7937.636
 407  7926.659
 408  8195.081
 409  9448.464
 410  9431.252
 411  8007.324
 412  7090.231
 413  7209.893
 414  7300.606
 415  7292.183
 416  8453.104
 417  9442.756
 418  9218.243
 419  8369.662
 420  7580.736
 421  7214.109
 422  7566.133
 423  7595.988
 424  7749.833
 425  8773.501
 426  8872.274
 427  8088.099
 428  7469.236
 429  7379.787
 430  7499.155
 431  7476.018
 432  8006.052
 433  9143.219
 434  9597.229
 435  9274.837
 436  8049.988
 437  7713.738
 438  8183.703
 439  8497.924
 440  8250.849
 441  8373.47
 442  9524.009
 443  9179.893
 444  7764.809
 445  7394.069
 446  7328.045
 447  8466.536
 448  8863.304
 449  9198.096
 450  9844.365
 451  9819.501
 452  8635.224
 453  7705.042
 454  7644.491
 455  7365.097
 456  7610.616
 457  8222.312
 458  9346.281
 459  8992.77
 460  8373.986
 461  6829.632
 462  6348.072
 463  6889.762
 464  7154.508
 465  7859.83
 466  9205.117
 467  9432.731
 468  8768.076
 469  7494.953
 470  6918.649
 471  6418.968
 472  6987.872
 473  7825.542
 474  8020.036
 475  9456.291
 476  9393.087
 477  7509.441
 478  6473.889
 479  6708.799
 480  7248.843
 481  7596.124
 482  8385.097
 483  9628.887
 484  10021.96
 485  9254.908
 486  8097.371
 487  7800.203
 488  8141.284
 489  7545.542
 490  7755.395
 491  8526.676
 492  9270.476
 493  8255.557
 494  7525.569
 495  7205.499
 496  7569.572
 497  6998.638
 498  7835.125
 499  8835.454
 500  9788.966
 501  9458.719
 502  8628.381
 503  8000.312
 504  7569.175
 505  7698.875
 506  7402.081
 507  8241.896
 508  8985.45
 509  8946.803
 510  7824.894
 511  6968.395
