# Input file       =  1205339709.115775_cleaned.dat
# Candidate        =  PSR_0332+5434
# Telescope        =  AR
# Epoch_topo       =  58194.691297636287
# Epoch_bary       =  N/A
# T_sample         =  0.002
# Data Folded      =  7340032
# Data Avg         =  0.0378854539482302
# Data StdDev      =  1.00004193986925 
# Profile Bins     =  512
# Profile Avg      =  543.134793783554 
# Profile StdDev   =  119.738057964657 
# Reduced chi-sqr  =  1.272
# Prob(Noise)      <  2.87e-05   (~4.0 sigma)
# P_topo (ms)      =  714.576991347366  +/- 0.000328
# P'_topo (s/s)    =  -0                +/- 1.73e-10
# P''_topo (s/s^2) =  0                 +/- 7.63e-14
# P_bary (ms)      =  N/A
# P'_bary (s/s)    =  N/A
# P''_bary (s/s^2) =  N/A
# P_orb (s)        =  N/A
# asin(i)/c (s)    =  N/A
# eccentricity     =  N/A
# w (rad)          =  N/A
# T_peri           =  N/A
######################################################
   0  575.9442
   1  529.8405
   2  532.1918
   3  480.032
   4  623.5637
   5  600.7438
   6  523.8931
   7  438.9105
   8  607.3975
   9  586.4966
  10  542.1998
  11  559.2623
  12  582.1432
  13  623.2186
  14  489.464
  15  516.6346
  16  717.9424
  17  645.7341
  18  660.2387
  19  592.0455
  20  520.7702
  21  489.7062
  22  478.6089
  23  486.005
  24  562.3026
  25  591.382
  26  552.8771
  27  490.5914
  28  508.0828
  29  434.3785
  30  480.101
  31  503.1452
  32  404.2687
  33  363.6655
  34  451.1569
  35  566.3889
  36  461.1068
  37  483.7753
  38  595.0543
  39  553.9108
  40  454.9421
  41  497.1119
  42  529.4762
  43  445.6865
  44  472.8071
  45  540.0934
  46  588.0262
  47  616.1458
  48  492.4137
  49  551.7997
  50  572.5985
  51  579.4899
  52  589.6855
  53  618.8678
  54  616.0404
  55  583.6522
  56  560.6185
  57  603.9879
  58  662.2336
  59  695.4504
  60  675.7899
  61  566.1141
  62  487.9911
  63  491.0278
  64  572.5016
  65  602.377
  66  409.8167
  67  448.1131
  68  616.9615
  69  597.828
  70  633.5213
  71  580.8138
  72  517.8862
  73  658.4412
  74  619.0082
  75  609.2418
  76  533.9316
  77  593.144
  78  461.6869
  79  443.929
  80  527.6248
  81  551.0629
  82  542.3843
  83  565.9309
  84  467.498
  85  573.3747
  86  549.7322
  87  452.9948
  88  419.3792
  89  496.659
  90  603.0313
  91  681.1163
  92  585.6989
  93  670.0095
  94  644.9083
  95  621.9579
  96  638.6452
  97  656.5089
  98  615.4699
  99  490.1548
 100  460.7337
 101  478.3601
 102  552.6668
 103  509.0549
 104  534.4732
 105  606.861
 106  636.6795
 107  577.6782
 108  523.0571
 109  604.0284
 110  522.8218
 111  513.8063
 112  541.9708
 113  446.6162
 114  524.5983
 115  583.7611
 116  521.3721
 117  523.6937
 118  559.5195
 119  575.1093
 120  631.8405
 121  572.4907
 122  566.556
 123  606.111
 124  617.311
 125  594.8239
 126  574.863
 127  671.1641
 128  621.3331
 129  558.5491
 130  546.9544
 131  484.0513
 132  411.056
 133  568.6816
 134  652.1473
 135  660.5131
 136  622.0455
 137  537.399
 138  469.3741
 139  474.8607
 140  445.5724
 141  448.4342
 142  501.4744
 143  544.7735
 144  473.843
 145  485.6066
 146  389.2943
 147  446.4833
 148  536.9995
 149  586.9916
 150  610.6338
 151  604.3256
 152  612.0511
 153  387.3377
 154  483.9052
 155  562.0104
 156  497.7979
 157  536.6169
 158  631.5194
 159  547.8044
 160  463.0757
 161  563.5895
 162  600.3015
 163  631.0443
 164  591.4623
 165  606.2731
 166  583.5939
 167  567.8973
 168  639.8376
 169  628.2679
 170  599.7717
 171  541.6606
 172  565.3991
 173  573.5486
 174  506.0964
 175  608.9119
 176  609.0062
 177  707.1857
 178  600.0262
 179  502.0771
 180  481.0727
 181  397.799
 182  532.2353
 183  569.8845
 184  550.6708
 185  443.8875
 186  432.6655
 187  453.9217
 188  468.6215
 189  474.7839
 190  400.6137
 191  542.2984
 192  584.8264
 193  451.4747
 194  453.2378
 195  546.5956
 196  515.0152
 197  530.6204
 198  566.0496
 199  543.5372
 200  509.7439
 201  474.9495
 202  488.2124
 203  404.326
 204  475.0435
 205  571.5327
 206  445.2701
 207  455.1848
 208  441.3056
 209  453.8037
 210  482.0144
 211  458.8058
 212  426.5248
 213  495.4466
 214  436.0637
 215  517.8119
 216  418.8392
 217  552.8521
 218  648.6627
 219  467.8715
 220  367.1606
 221  416.8301
 222  478.546
 223  565.4457
 224  568.9443
 225  472.677
 226  514.4677
 227  470.5228
 228  429.9972
 229  316.4062
 230  334.1093
 231  480.595
 232  550.3033
 233  577.1903
 234  556.4603
 235  530.1701
 236  537.3282
 237  605.9072
 238  524.9074
 239  405.5985
 240  491.5417
 241  555.454
 242  560.5231
 243  589.7125
 244  613.3077
 245  512.2526
 246  427.231
 247  479.9903
 248  495.9658
 249  426.0999
 250  460.7666
 251  508.5279
 252  499.059
 253  498.8513
 254  564.1184
 255  582.7006
 256  582.9341
 257  546.2081
 258  622.4813
 259  568.2855
 260  611.7924
 261  629.1868
 262  548.1083
 263  522.7076
 264  448.7067
 265  386.1501
 266  360.2838
 267  410.6505
 268  513.0082
 269  500.7593
 270  611.8251
 271  602.6807
 272  590.2173
 273  548.9756
 274  552.5123
 275  556.6007
 276  620.2715
 277  632.6787
 278  532.5349
 279  548.9921
 280  561.0728
 281  578.6088
 282  536.346
 283  632.8125
 284  596.7148
 285  453.6694
 286  483.1241
 287  510.026
 288  416.6431
 289  447.2782
 290  483.2941
 291  469.9281
 292  521.8829
 293  400.1022
 294  366.9601
 295  457.5779
 296  441.7025
 297  465.8468
 298  487.8878
 299  417.5162
 300  458.9854
 301  464.8615
 302  536.484
 303  484.0769
 304  449.0514
 305  394.2279
 306  481.3283
 307  410.8928
 308  551.2274
 309  559.897
 310  559.3151
 311  480.7782
 312  353.0652
 313  458.7481
 314  557.3215
 315  418.0135
 316  595.9624
 317  548.0219
 318  489.0847
 319  455.5272
 320  432.7733
 321  542.2457
 322  530.2327
 323  508.4283
 324  590.4672
 325  545.2594
 326  548.5611
 327  658.8974
 328  635.2496
 329  506.6907
 330  378.9951
 331  517.6812
 332  587.1938
 333  637.4143
 334  567.8146
 335  525.3292
 336  524.5375
 337  491.0363
 338  552.0776
 339  704.442
 340  721.4349
 341  639.2875
 342  510.9455
 343  548.7117
 344  563.5175
 345  542.9813
 346  588.8227
 347  567.407
 348  561.6501
 349  493.3656
 350  421.9727
 351  497.0709
 352  494.0188
 353  486.3766
 354  554.1799
 355  554.8396
 356  548.6669
 357  487.2755
 358  485.0606
 359  500.4704
 360  539.5499
 361  420.8741
 362  500.5468
 363  582.6195
 364  447.212
 365  464.4395
 366  538.9361
 367  534.0967
 368  540.7477
 369  613.2687
 370  721.9421
 371  777.9354
 372  617.91
 373  596.4543
 374  548.4094
 375  533.8853
 376  692.589
 377  570.0175
 378  529.6555
 379  553.2146
 380  788.0731
 381  751.8768
 382  688.778
 383  693.6425
 384  632.2094
 385  765.5452
 386  790.7968
 387  959.6728
 388  1036.776
 389  1157.302
 390  1253.602
 391  1162.245
 392  878.4482
 393  678.7388
 394  618.5648
 395  667.9536
 396  669.777
 397  503.6358
 398  575.3212
 399  553.3971
 400  476.7256
 401  564.8866
 402  709.9531
 403  568.8328
 404  402.0114
 405  555.6625
 406  713.5972
 407  688.1137
 408  672.1876
 409  590.0165
 410  566.3912
 411  434.7572
 412  563.7017
 413  602.5675
 414  453.9875
 415  400.5042
 416  453.2293
 417  440.4668
 418  433.3368
 419  488.8463
 420  545.9119
 421  456.439
 422  521.113
 423  475.3156
 424  353.9927
 425  496.2551
 426  552.248
 427  677.515
 428  462.3907
 429  479.0868
 430  509.4482
 431  509.9992
 432  554.1612
 433  546.2078
 434  505.3708
 435  536.1605
 436  574.4542
 437  551.4861
 438  577.8119
 439  516.1196
 440  455.9896
 441  522.9515
 442  453.4409
 443  475.6344
 444  497.8285
 445  617.8799
 446  616.3506
 447  555.9368
 448  491.7067
 449  452.2365
 450  453.7689
 451  491.6031
 452  566.5444
 453  468.9341
 454  455.0829
 455  466.6853
 456  573.1732
 457  611.1285
 458  588.8641
 459  443.8929
 460  374.6236
 461  459.3528
 462  495.4137
 463  428.7154
 464  556.9103
 465  642.6893
 466  560.9635
 467  488.675
 468  584.0025
 469  615.6209
 470  651.7108
 471  651.0892
 472  539.2737
 473  624.7666
 474  609.5093
 475  553.4211
 476  530.9659
 477  507.2766
 478  570.3884
 479  590.5228
 480  611.0806
 481  628.3691
 482  539.0596
 483  508.131
 484  501.7593
 485  493.4525
 486  588.3945
 487  547.3858
 488  544.3019
 489  607.2764
 490  555.7972
 491  531.6562
 492  563.6132
 493  582.4808
 494  569.1161
 495  454.96
 496  560.7681
 497  448.8432
 498  381.8508
 499  473.7861
 500  530.6519
 501  468.1213
 502  466.8069
 503  440.3826
 504  441.9321
 505  613.998
 506  591.342
 507  567.0472
 508  595.8483
 509  713.8693
 510  645.1643
 511  506.7179
