# Input file       =  1205152155.100529_cleaned.dat
# Candidate        =  PSR_0332+5434
# Telescope        =  AR
# Epoch_topo       =  58192.520533570940
# Epoch_bary       =  N/A
# T_sample         =  0.002
# Data Folded      =  7340032
# Data Avg         =  0.21002927435932 
# Data StdDev      =  5.37349883228354 
# Profile Bins     =  1024
# Profile Avg      =  1505.5820596136  
# Profile StdDev   =  454.942130576584 
# Reduced chi-sqr  =  1.028
# Prob(Noise)      <  0.261   (~0.6 sigma)
# P_topo (ms)      =  714.57742565247   +/- 1.6e-05
# P'_topo (s/s)    =  -0                +/- 8.45e-12
# P''_topo (s/s^2) =  0                 +/- 3.73e-15
# P_bary (ms)      =  N/A
# P'_bary (s/s)    =  N/A
# P''_bary (s/s^2) =  N/A
# P_orb (s)        =  N/A
# asin(i)/c (s)    =  N/A
# eccentricity     =  N/A
# w (rad)          =  N/A
# T_peri           =  N/A
######################################################
   0  1605.073
   1  1460.248
   2  1657.182
   3  1820.227
   4  1781.128
   5  1668.711
   6  1807.891
   7  1920.479
   8  1681.478
   9  1787.218
  10  1884.975
  11  1605.445
  12  1280.767
  13  1292.824
  14  1464.093
  15  1174.414
  16  1197.131
  17  1335.561
  18  1412.597
  19  1333.949
  20  1492.37
  21  1776.911
  22  1671.61
  23  1425.631
  24  1549.034
  25  1644.997
  26  1687.353
  27  1613.152
  28  1704.592
  29  1552.288
  30  1488.617
  31  1536.96
  32  1554.321
  33  1417.798
  34  1544.949
  35  1768.717
  36  1736.122
  37  1506.985
  38  1626.849
  39  1800.024
  40  1671.033
  41  1610.022
  42  1767.034
  43  1831.613
  44  1735.259
  45  1635.576
  46  1667.439
  47  1399.032
  48  1318.914
  49  1569.841
  50  1579.742
  51  1488.87
  52  1578.361
  53  1869.301
  54  1738.51
  55  1580.628
  56  1680.218
  57  1783.83
  58  1650.37
  59  1590.478
  60  1869.51
  61  1835.06
  62  1779.161
  63  1824.154
  64  1854.136
  65  1532.469
  66  1385.545
  67  1678.134
  68  1824.58
  69  1679.469
  70  1599.14
  71  1636.773
  72  1362.304
  73  1315.875
  74  1388.74
  75  1569.829
  76  1249.682
  77  1334.307
  78  1330.105
  79  1335.638
  80  1325.368
  81  1589.638
  82  1700.553
  83  1604.149
  84  1548.667
  85  1574.919
  86  1287.374
  87  1210.544
  88  1336.269
  89  1707.216
  90  1512.272
  91  1472.899
  92  1545.464
  93  1674.613
  94  1440.914
  95  1408.319
  96  1522.739
  97  1322.859
  98  1093.406
  99  1190.389
 100  1402.037
 101  1351.932
 102  1181.268
 103  1197.449
 104  1254.822
 105  1186.864
 106  1243.295
 107  1392.53
 108  1439.292
 109  1357.802
 110  1552.743
 111  1578.24
 112  1461.445
 113  1508.904
 114  1573.605
 115  1307.717
 116  927.2759
 117  1018.839
 118  1104.282
 119  1036.167
 120  1273.267
 121  1503.899
 122  1518.973
 123  1347.805
 124  1540.712
 125  1749.128
 126  1482.423
 127  1219.878
 128  1332.22
 129  1484.429
 130  1601.316
 131  1744.6
 132  1776.123
 133  1496.801
 134  1345.956
 135  1555.871
 136  1620.586
 137  1573.324
 138  1496.657
 139  1516.954
 140  1410.674
 141  1269.393
 142  1366.819
 143  1354.659
 144  1153.382
 145  1193.675
 146  1404.783
 147  1390.305
 148  1328.86
 149  1533.729
 150  1688.618
 151  1565.681
 152  1569.53
 153  1860.042
 154  1727.281
 155  1590.525
 156  1803.205
 157  2057.394
 158  1949.025
 159  1774.041
 160  1834.219
 161  1685.736
 162  1388.912
 163  1326.225
 164  1589.804
 165  1580.783
 166  1547.858
 167  1682.243
 168  1684.036
 169  1510.915
 170  1356.909
 171  1626.966
 172  1698.038
 173  1554.598
 174  1710.44
 175  1803.46
 176  1712.348
 177  1536.782
 178  1771.716
 179  1845.103
 180  1619.104
 181  1643.235
 182  1907.427
 183  1810.285
 184  1743.049
 185  1895.521
 186  2015.778
 187  1860.229
 188  1872.235
 189  2003.75
 190  1820.682
 191  1452.185
 192  1448.837
 193  1642.666
 194  1462.116
 195  1297.556
 196  1301.316
 197  1238.799
 198  1154.623
 199  1265.281
 200  1425.482
 201  1320.659
 202  1258.245
 203  1497.81
 204  1421.814
 205  1099.671
 206  1152.517
 207  1482.431
 208  1617.092
 209  1292.375
 210  1308.949
 211  1454.832
 212  1354.919
 213  1424.561
 214  1636.983
 215  1734.758
 216  1612.585
 217  1703.218
 218  1797.958
 219  1526.995
 220  1385.103
 221  1376.875
 222  1454.663
 223  1395.969
 224  1524.7
 225  1543.634
 226  1519.914
 227  1540.992
 228  1545.662
 229  1366.031
 230  997.3387
 231  1035.387
 232  1124.529
 233  1218.046
 234  1044
 235  1121.776
 236  1164.937
 237  1176.523
 238  1354.956
 239  1632.392
 240  1587.247
 241  1276.906
 242  1254.864
 243  1375.944
 244  1324.194
 245  1341.314
 246  1684.967
 247  1836.335
 248  1657.611
 249  1538.121
 250  1368.475
 251  1234.04
 252  1089.041
 253  1272.931
 254  1313.499
 255  1210.985
 256  1334.98
 257  1726.969
 258  1689.132
 259  1579.317
 260  1625.832
 261  1719.077
 262  1534.233
 263  1514.711
 264  1591.783
 265  1429.774
 266  1031.648
 267  1203.333
 268  1350.362
 269  1176.729
 270  986.5497
 271  1151.01
 272  1254.138
 273  1156.333
 274  1137.869
 275  1303.023
 276  1200.588
 277  1023.753
 278  1180.194
 279  1334.734
 280  1215.831
 281  1140.653
 282  1268.374
 283  1320.034
 284  1173.576
 285  1254.119
 286  1172.064
 287  1015.185
 288  829.9245
 289  1059.794
 290  1126.166
 291  1024.504
 292  1083.223
 293  1319.585
 294  1145.305
 295  1059.473
 296  1087.678
 297  1261.853
 298  1103.728
 299  1072.459
 300  1354.682
 301  1309.99
 302  1269.22
 303  1225.651
 304  1341.618
 305  1224.015
 306  1242.315
 307  1446.361
 308  1489.56
 309  1217.017
 310  1167.28
 311  1205.222
 312  1235.923
 313  1246.794
 314  1639.39
 315  1719.016
 316  1645.267
 317  1584.168
 318  1657.585
 319  1390.207
 320  1197.343
 321  1247.559
 322  1413.271
 323  1342.205
 324  1528.983
 325  1761.24
 326  1522.376
 327  1257.963
 328  1224.101
 329  1470.296
 330  1442.944
 331  1592.082
 332  1799.967
 333  1768.957
 334  1386.268
 335  1302.31
 336  1435.094
 337  1380.894
 338  1371.492
 339  1575.432
 340  1724.57
 341  1726.859
 342  1761.661
 343  1976.086
 344  1720.533
 345  1689.839
 346  1857.939
 347  1905.067
 348  1625.229
 349  1429.011
 350  1514.016
 351  1363.141
 352  1047.376
 353  1233.331
 354  1566.245
 355  1527.438
 356  1346.175
 357  1556.571
 358  1595.47
 359  1604.897
 360  1566.086
 361  1589.741
 362  1476.848
 363  1260.957
 364  1040.22
 365  865.6953
 366  820.3915
 367  998.6245
 368  1110.262
 369  1112.956
 370  1251.179
 371  1416.681
 372  1436.601
 373  1297.283
 374  1294.531
 375  1507.226
 376  1361.605
 377  1167.289
 378  1251.907
 379  1345.795
 380  1274.759
 381  1303.631
 382  1449.239
 383  1536.355
 384  1285.975
 385  1243.601
 386  1342.319
 387  1370.667
 388  1370.624
 389  1572.397
 390  1703.258
 391  1475.314
 392  1393.795
 393  1481.043
 394  1379.308
 395  1176.433
 396  1169.364
 397  1302.378
 398  1380.111
 399  1190.225
 400  1235.388
 401  1107.886
 402  1158.365
 403  1217.757
 404  1291.839
 405  1094.909
 406  1020.992
 407  1112.102
 408  994.1767
 409  871.1696
 410  1040.833
 411  1384.713
 412  1296.497
 413  1101.895
 414  1294.836
 415  1445.515
 416  1398.55
 417  1491.467
 418  1727.098
 419  1777.08
 420  1526.879
 421  1413.576
 422  1321.02
 423  1194.298
 424  1142.323
 425  1360.24
 426  1396.732
 427  1347.658
 428  1443.763
 429  1713.649
 430  1386.396
 431  1083.853
 432  984.7567
 433  1048.689
 434  1004.452
 435  1172.791
 436  1405.676
 437  1347.785
 438  1167.098
 439  1295.177
 440  1630.425
 441  1460.998
 442  1472.111
 443  1606.921
 444  1498.789
 445  1363.794
 446  1375.897
 447  1554.012
 448  1408.599
 449  1142.786
 450  1198.757
 451  1255.651
 452  1252.068
 453  1572.538
 454  1676.537
 455  1508.667
 456  1316.808
 457  1629.685
 458  1832.599
 459  1582.831
 460  1382.278
 461  1509.525
 462  1392.468
 463  1243.34
 464  1335.207
 465  1481.589
 466  1322.358
 467  1171.436
 468  1348.335
 469  1405.138
 470  1296.769
 471  1423.328
 472  1606.055
 473  1530.239
 474  1273.794
 475  1373.888
 476  1470.396
 477  1278.836
 478  1147.949
 479  1308.609
 480  1249.866
 481  1150.814
 482  1371.716
 483  1541.804
 484  1380.758
 485  1211.074
 486  1427.4
 487  1537.165
 488  1327.881
 489  1328.248
 490  1396.385
 491  1449.994
 492  1371.206
 493  1488.784
 494  1540.172
 495  1429.601
 496  1342.583
 497  1348.901
 498  1333.279
 499  1168.454
 500  1198.464
 501  1262.263
 502  1303.167
 503  1378.848
 504  1547.566
 505  1487.984
 506  1197.505
 507  1336.861
 508  1385.083
 509  1245.584
 510  930.382
 511  1112.195
 512  1220.85
 513  1299.352
 514  1455.405
 515  1540.556
 516  1409.747
 517  1281.8
 518  1271.738
 519  1241.08
 520  952.4138
 521  1109.199
 522  1330.282
 523  1331.871
 524  1190.056
 525  1399.273
 526  1518.491
 527  1354.818
 528  1264.798
 529  1383.753
 530  1306.564
 531  1285.123
 532  1362.343
 533  1592.37
 534  1409.755
 535  1302.456
 536  1471.884
 537  1511.943
 538  1334.022
 539  1373.81
 540  1405.944
 541  1402.461
 542  1288.421
 543  1573.736
 544  1668.803
 545  1324.199
 546  1220.34
 547  1473.331
 548  1536.255
 549  1414.507
 550  1527.635
 551  1636.273
 552  1461.151
 553  1264.895
 554  1480.329
 555  1552.989
 556  1606.968
 557  1549.754
 558  1623.584
 559  1424.539
 560  1555.394
 561  1708.657
 562  1580.251
 563  1111.034
 564  1276.347
 565  1469.775
 566  1443.129
 567  1304.368
 568  1483.828
 569  1615.401
 570  1400.83
 571  1489.43
 572  1775.47
 573  1820.221
 574  1573.788
 575  1460.272
 576  1455.056
 577  1230.543
 578  1051.076
 579  1168.233
 580  1304.346
 581  1356.301
 582  1425.373
 583  1653.938
 584  1624.171
 585  1556.453
 586  1872.65
 587  1952.469
 588  1768.583
 589  1683.148
 590  1825.579
 591  1732.554
 592  1698.896
 593  1948.986
 594  1953.596
 595  1768.224
 596  1718.906
 597  1896.448
 598  1912.525
 599  1884.822
 600  2097.654
 601  2254.051
 602  2065.864
 603  2079.619
 604  2165.473
 605  2399.275
 606  2347.096
 607  2487.139
 608  2568.514
 609  2749.778
 610  2628.972
 611  2700.487
 612  2697.131
 613  2420.952
 614  1954.574
 615  1599.895
 616  1507.621
 617  1649.841
 618  1969.331
 619  2076.697
 620  1884.744
 621  1698.434
 622  1685.737
 623  1499.935
 624  1277.186
 625  1295.236
 626  1249.205
 627  1227.286
 628  1256.724
 629  1599.162
 630  1516.236
 631  1318.755
 632  1378.332
 633  1653.778
 634  1631.061
 635  1340.187
 636  1358.683
 637  1434.341
 638  1509.274
 639  1514.843
 640  1549.45
 641  1542.807
 642  1351.384
 643  1493.122
 644  1790.016
 645  1872.816
 646  2075.855
 647  1999.675
 648  1892.086
 649  1538.463
 650  1639.702
 651  1706.008
 652  1465.183
 653  1230.558
 654  1437.032
 655  1595.09
 656  1577.125
 657  1591.278
 658  1730.209
 659  1662.849
 660  1541.912
 661  1569.245
 662  1511.289
 663  1359.484
 664  1234.34
 665  1411.092
 666  1441.782
 667  1402.637
 668  1524.941
 669  1727.532
 670  1614.993
 671  1407.906
 672  1299.263
 673  1155.175
 674  965.8822
 675  1025.285
 676  1277.768
 677  1279.93
 678  1249.471
 679  1176.181
 680  1290.937
 681  1098.023
 682  1105.771
 683  1135.498
 684  1209.966
 685  1227.338
 686  1502.28
 687  1641.146
 688  1593.704
 689  1666.982
 690  1729.617
 691  1551.473
 692  1204.111
 693  1171.359
 694  1462.206
 695  1467.231
 696  1606.753
 697  1701.393
 698  1680.305
 699  1456.182
 700  1443.008
 701  1550.282
 702  1498.619
 703  1548.264
 704  1616.697
 705  1707.036
 706  1432.218
 707  1385.071
 708  1558.046
 709  1406.841
 710  1169.514
 711  1124.635
 712  1236.076
 713  1171.551
 714  1265.355
 715  1554.475
 716  1587.427
 717  1512.818
 718  1670.335
 719  1773.391
 720  1528.694
 721  1378.854
 722  1568.278
 723  1619.617
 724  1629.493
 725  1652.727
 726  1819.4
 727  1646.843
 728  1485.315
 729  1559.901
 730  1651.186
 731  1594.374
 732  1705.282
 733  1944.935
 734  1972.604
 735  1791.618
 736  1683.803
 737  1732.459
 738  1550.889
 739  1492.842
 740  1478.25
 741  1477.106
 742  1582.812
 743  1893.385
 744  2027.596
 745  1828.52
 746  1591.774
 747  1624.005
 748  1529.078
 749  1343.962
 750  1337.923
 751  1498.884
 752  1449.759
 753  1449.037
 754  1508.457
 755  1573.44
 756  1461.677
 757  1337.517
 758  1383.489
 759  1449.48
 760  1306.876
 761  1597.263
 762  1812.95
 763  1955.276
 764  1742.717
 765  1871.324
 766  1907.947
 767  1762.873
 768  1659.35
 769  1654.442
 770  1522.84
 771  1376.461
 772  1557.822
 773  1653.011
 774  1507.193
 775  1370.458
 776  1567.706
 777  1511.01
 778  1328.547
 779  1311.473
 780  1510.199
 781  1554.754
 782  1457.253
 783  1654.205
 784  1554.62
 785  1383.997
 786  1373.165
 787  1564.035
 788  1547.971
 789  1588.282
 790  1894.096
 791  1980.069
 792  1674.647
 793  1484.083
 794  1668.711
 795  1372.715
 796  1356.098
 797  1578.025
 798  1811.304
 799  1635.697
 800  1625.165
 801  1857.18
 802  1812.761
 803  1527.312
 804  1571.345
 805  1742.13
 806  1598.179
 807  1285.399
 808  1169.219
 809  1287.577
 810  1507.47
 811  1761.414
 812  1895.704
 813  1609.282
 814  1438.554
 815  1486.257
 816  1460.805
 817  1150.736
 818  1121.491
 819  1331.317
 820  1367.41
 821  1321.186
 822  1534.983
 823  1664.254
 824  1531.001
 825  1377.021
 826  1512.587
 827  1420.308
 828  1397.864
 829  1453.76
 830  1777.901
 831  1612.711
 832  1767.957
 833  1956.014
 834  2142.093
 835  1808.525
 836  1603.216
 837  1831.312
 838  1802.889
 839  1724.587
 840  1599.82
 841  1552.574
 842  1331.737
 843  1435.372
 844  1803.515
 845  1871.841
 846  1741.318
 847  1755.862
 848  1848.54
 849  1627.159
 850  1508.069
 851  1659.22
 852  1709.635
 853  1527.266
 854  1546.957
 855  1537.407
 856  1556.517
 857  1529.062
 858  1904.917
 859  1963.839
 860  1783.828
 861  1680.378
 862  1778.092
 863  1655.772
 864  1377.599
 865  1338.045
 866  1206.117
 867  1208.347
 868  1146.339
 869  1346.26
 870  1423.413
 871  1315.696
 872  1248.37
 873  1490.384
 874  1586.259
 875  1702.066
 876  1683.482
 877  1581.926
 878  1388.684
 879  1524.833
 880  1557.413
 881  1353.429
 882  1085.952
 883  1258.101
 884  1353.263
 885  1263.825
 886  1412.638
 887  1696.1
 888  1850.374
 889  1634.79
 890  1769.405
 891  1724.537
 892  1508
 893  1288.505
 894  1512.83
 895  1702.815
 896  1688.527
 897  1744.209
 898  1967.842
 899  1920.993
 900  1715.047
 901  1681.862
 902  1891.669
 903  1854.709
 904  1748.244
 905  1773.439
 906  1650.552
 907  1531.107
 908  1608.167
 909  1678.953
 910  1522.23
 911  1325.05
 912  1493.696
 913  1469.892
 914  1408.548
 915  1636.098
 916  1996.361
 917  1838.068
 918  1552.483
 919  1624.376
 920  1710.527
 921  1418.63
 922  1236.244
 923  1372.675
 924  1410.964
 925  1382.733
 926  1528.101
 927  1698.863
 928  1458.209
 929  1439.792
 930  1583.289
 931  1690.552
 932  1614.111
 933  1815.705
 934  1944.538
 935  1890.993
 936  1803.664
 937  1844.437
 938  1730.558
 939  1444.456
 940  1333.032
 941  1470.658
 942  1442.352
 943  1601.763
 944  1944.962
 945  2175.348
 946  2024.172
 947  1984.483
 948  2119.439
 949  2068.073
 950  1843.038
 951  1903.875
 952  1835.25
 953  1684.206
 954  1615.682
 955  1824.44
 956  1818.508
 957  1739.672
 958  1663.185
 959  1655.057
 960  1514.475
 961  1591.778
 962  1855.258
 963  1913.393
 964  1791.59
 965  1776.985
 966  1790.276
 967  1534.381
 968  1210.166
 969  1452.566
 970  1551.207
 971  1362.079
 972  1366.13
 973  1657.403
 974  1785.929
 975  1600.274
 976  1645.282
 977  1776.912
 978  1548.054
 979  1295.866
 980  1365.925
 981  1406.859
 982  1320.313
 983  1328.04
 984  1541.348
 985  1372.174
 986  1198.41
 987  1344.62
 988  1519.797
 989  1449.323
 990  1508.198
 991  1676.927
 992  1488.718
 993  1380.698
 994  1396.076
 995  1544.196
 996  1442.825
 997  1482.526
 998  1617.26
 999  1560.972
1000  1303.56
1001  1483.453
1002  1708.097
1003  1737.669
1004  1863.335
1005  2049.997
1006  2014.483
1007  1618.662
1008  1727.44
1009  1849.995
1010  1911.543
1011  1788.809
1012  1924.736
1013  1904.619
1014  1697.412
1015  1473.06
1016  1540.597
1017  1647.492
1018  1682.841
1019  1790.983
1020  1842.536
1021  1672.761
1022  1447.579
1023  1571.745
