# Input file       =  1205942611.123983_cleaned.dat
# Candidate        =  PSR_0332+5434
# Telescope        =  AR
# Epoch_topo       =  58201.669330138691
# Epoch_bary       =  N/A
# T_sample         =  0.002
# Data Folded      =  7340032
# Data Avg         =  0.207033752535478
# Data StdDev      =  5.07117508919469 
# Profile Bins     =  1024
# Profile Avg      =  1484.05386889435 
# Profile StdDev   =  429.346180507998 
# Reduced chi-sqr  =  0.820
# Prob(Noise)      <  1   (~0.0 sigma)
# P_topo (ms)      =  714.573949231766  +/- 0.000579
# P'_topo (s/s)    =  -0                +/- 3.06e-10
# P''_topo (s/s^2) =  0                 +/- 1.35e-13
# P_bary (ms)      =  N/A
# P'_bary (s/s)    =  N/A
# P''_bary (s/s^2) =  N/A
# P_orb (s)        =  N/A
# asin(i)/c (s)    =  N/A
# eccentricity     =  N/A
# w (rad)          =  N/A
# T_peri           =  N/A
######################################################
   0  1359.95
   1  1279.718
   2  1330.024
   3  1325.107
   4  1290.89
   5  1211.234
   6  1196.287
   7  1273.693
   8  1351.115
   9  1402.074
  10  1490.078
  11  1383.357
  12  1350.582
  13  1345.198
  14  1496.511
  15  1589.876
  16  1525.934
  17  1476.539
  18  1300.015
  19  1288.868
  20  1260.391
  21  1360.432
  22  1335.756
  23  1380.85
  24  1335.941
  25  1227.454
  26  1144.504
  27  1187.662
  28  1237.978
  29  1207.836
  30  1262.037
  31  1271.71
  32  1287.212
  33  1288.26
  34  1392.79
  35  1437.147
  36  1569.702
  37  1502.857
  38  1467.004
  39  1342.411
  40  1284.827
  41  1265.244
  42  1261.545
  43  1368.15
  44  1342.352
  45  1384.579
  46  1331.866
  47  1476.975
  48  1559.393
  49  1607.035
  50  1674.549
  51  1569.88
  52  1558.931
  53  1609.36
  54  1678.822
  55  1543.316
  56  1293.432
  57  1208.679
  58  1070.535
  59  1036.709
  60  1034.336
  61  1097.381
  62  1180.098
  63  1232.203
  64  1265.716
  65  1288.158
  66  1341.029
  67  1252.005
  68  1162.328
  69  1236.863
  70  1293.921
  71  1332.872
  72  1204.3
  73  1187.853
  74  1176.209
  75  1330.445
  76  1400.604
  77  1302.241
  78  1194.021
  79  1270.516
  80  1432.862
  81  1357.831
  82  1252.593
  83  1188.996
  84  1312.969
  85  1386.651
  86  1400.827
  87  1379.349
  88  1397.763
  89  1535.565
  90  1529.713
  91  1533.031
  92  1357.99
  93  1421.16
  94  1672.64
  95  1786.205
  96  1729.641
  97  1664.248
  98  1726.743
  99  1820.567
 100  1649.958
 101  1627.944
 102  1580.205
 103  1765.371
 104  1768.638
 105  1690.889
 106  1639.812
 107  1642.842
 108  1668.126
 109  1697.519
 110  1602.216
 111  1458.494
 112  1340.332
 113  1275.815
 114  1371.108
 115  1530.586
 116  1505.054
 117  1438.934
 118  1393.518
 119  1530.149
 120  1431.828
 121  1397.228
 122  1362.203
 123  1334.958
 124  1417.12
 125  1466.357
 126  1464.568
 127  1405.01
 128  1450.927
 129  1532.286
 130  1566.828
 131  1533.691
 132  1476.183
 133  1454.17
 134  1442.861
 135  1364.708
 136  1335.999
 137  1276.229
 138  1266.125
 139  1433.532
 140  1634.134
 141  1719.805
 142  1750.92
 143  1626.026
 144  1492.028
 145  1393.619
 146  1498.868
 147  1603.269
 148  1642.466
 149  1675.183
 150  1590.112
 151  1504.874
 152  1496.044
 153  1643.71
 154  1763.21
 155  1716.543
 156  1653.41
 157  1670.598
 158  1590.957
 159  1497.147
 160  1538.79
 161  1668.358
 162  1733.365
 163  1624.9
 164  1615.009
 165  1576.42
 166  1590.337
 167  1724.037
 168  1605.702
 169  1689.681
 170  1529.607
 171  1494.713
 172  1477.343
 173  1540.331
 174  1558.355
 175  1512.683
 176  1517.959
 177  1516.02
 178  1486.263
 179  1422.205
 180  1430.993
 181  1456.172
 182  1487.399
 183  1533.221
 184  1541.386
 185  1486.736
 186  1266.295
 187  1208.785
 188  1083.454
 189  1197.024
 190  1168.458
 191  1256.41
 192  1287.514
 193  1305.568
 194  1361.315
 195  1436.455
 196  1442.346
 197  1420.177
 198  1539.571
 199  1634.561
 200  1606.303
 201  1337.849
 202  1185.989
 203  1277.02
 204  1477.357
 205  1661.878
 206  1697.492
 207  1567.287
 208  1532.743
 209  1466.008
 210  1554.482
 211  1405.624
 212  1362.394
 213  1477.423
 214  1562.368
 215  1567.894
 216  1599.285
 217  1633.374
 218  1654.22
 219  1738.077
 220  1620.034
 221  1535.983
 222  1375.798
 223  1410.649
 224  1447.278
 225  1576.266
 226  1584.145
 227  1613.313
 228  1536.857
 229  1685.633
 230  1790.332
 231  1864.02
 232  1722.58
 233  1630.52
 234  1490.146
 235  1572.29
 236  1730.308
 237  1783.725
 238  1776.425
 239  1771.407
 240  1835.309
 241  1808.187
 242  1753.761
 243  1755.715
 244  1766.715
 245  1841.567
 246  1833.59
 247  1614.057
 248  1678.998
 249  1850.081
 250  1899.313
 251  1835.105
 252  1731.243
 253  1679.469
 254  1656.778
 255  1800.938
 256  1721.147
 257  1712.602
 258  1636.298
 259  1695.561
 260  1533.311
 261  1503.763
 262  1613.645
 263  1772.865
 264  1796.434
 265  1643.24
 266  1518.041
 267  1563.811
 268  1575.621
 269  1490.349
 270  1390.986
 271  1453.303
 272  1635.193
 273  1736.81
 274  1644.74
 275  1453.965
 276  1455.309
 277  1573.084
 278  1684.303
 279  1649.794
 280  1628.072
 281  1517.542
 282  1484.892
 283  1560.399
 284  1484.129
 285  1500.664
 286  1400.888
 287  1472.863
 288  1500.158
 289  1569.371
 290  1550.886
 291  1464.914
 292  1538.047
 293  1574.888
 294  1489.298
 295  1592.263
 296  1633.84
 297  1675.914
 298  1530.837
 299  1394.655
 300  1404.544
 301  1351.949
 302  1389.562
 303  1294.886
 304  1275.935
 305  1330.323
 306  1423.774
 307  1628.406
 308  1610.998
 309  1552.138
 310  1478.633
 311  1453.548
 312  1340.165
 313  1313.196
 314  1250.178
 315  1260.608
 316  1308.81
 317  1276.838
 318  1159.583
 319  1225.693
 320  1347.532
 321  1365.669
 322  1277.909
 323  1202.85
 324  1207.568
 325  1237.147
 326  1233.824
 327  1204.674
 328  1176.209
 329  1253.001
 330  1271.334
 331  1191.865
 332  1208.919
 333  1225.532
 334  1173.471
 335  1228.812
 336  1367.658
 337  1455.066
 338  1414.474
 339  1281.235
 340  1238.437
 341  1138.378
 342  1138.574
 343  1365.453
 344  1528.005
 345  1594.387
 346  1475.879
 347  1506.206
 348  1352.99
 349  1271.86
 350  1189.516
 351  1209.471
 352  1279.262
 353  1294.957
 354  1290.202
 355  1300.146
 356  1319.953
 357  1364.267
 358  1337.79
 359  1345.312
 360  1288.036
 361  1198.466
 362  1129.508
 363  1163.236
 364  1173.256
 365  1271.227
 366  1350.922
 367  1431.713
 368  1423.036
 369  1345.947
 370  1225.904
 371  1206.06
 372  1293.768
 373  1272.075
 374  1269.187
 375  1307.912
 376  1316.497
 377  1282.331
 378  1333.676
 379  1357.453
 380  1481.684
 381  1455.262
 382  1442.554
 383  1275.179
 384  1235.496
 385  1265.711
 386  1349.964
 387  1316.492
 388  1353.885
 389  1222.95
 390  1301.945
 391  1270.638
 392  1391.707
 393  1354.526
 394  1353.708
 395  1383.39
 396  1353.816
 397  1335.774
 398  1386.006
 399  1401.371
 400  1432.53
 401  1331.772
 402  1228.493
 403  1160.146
 404  1241.319
 405  1366.614
 406  1474.676
 407  1455.568
 408  1424.494
 409  1268.686
 410  1229.991
 411  1334.156
 412  1295.643
 413  1075.676
 414  949.7089
 415  987.8846
 416  1010.878
 417  1013.472
 418  1150.569
 419  1214.202
 420  1238.655
 421  1164.319
 422  1208.433
 423  1115.149
 424  1053.422
 425  1052.739
 426  1029.074
 427  1083.171
 428  1102.502
 429  1119.568
 430  1185.87
 431  1259.594
 432  1229.76
 433  1236.41
 434  1161.048
 435  1276.628
 436  1185.274
 437  1315.358
 438  1300.39
 439  1338.511
 440  1295.801
 441  1316.997
 442  1331.485
 443  1325.727
 444  1251.724
 445  1318.67
 446  1316.41
 447  1372.09
 448  1367.042
 449  1269.469
 450  1206.549
 451  1236.709
 452  1215.965
 453  1222.692
 454  1079.194
 455  1160.872
 456  1141.092
 457  1189.479
 458  1195.897
 459  1355.164
 460  1269.136
 461  1182.348
 462  1092.587
 463  1153.554
 464  1217.924
 465  1263.739
 466  1282.156
 467  1311.328
 468  1368.131
 469  1402.216
 470  1447.193
 471  1328.978
 472  1289.106
 473  1319.393
 474  1369.055
 475  1368.64
 476  1333.333
 477  1395.1
 478  1484.818
 479  1444.009
 480  1398.804
 481  1331.289
 482  1304.013
 483  1268.127
 484  1191.724
 485  1133.926
 486  1094.847
 487  1140.882
 488  1173.535
 489  1163.103
 490  1207.81
 491  1209.655
 492  1171.864
 493  1077.023
 494  1036.454
 495  1158.946
 496  1160.806
 497  1324.8
 498  1278.104
 499  1191.063
 500  1190.323
 501  1290.899
 502  1375.94
 503  1462.232
 504  1413.348
 505  1481.903
 506  1504.329
 507  1411.353
 508  1300.528
 509  1214.407
 510  1285.095
 511  1259.321
 512  1271.221
 513  1362.543
 514  1601.123
 515  1615.192
 516  1423.939
 517  1403.631
 518  1427.298
 519  1438.468
 520  1342.008
 521  1387.455
 522  1471.953
 523  1505.842
 524  1547.557
 525  1583.549
 526  1563.885
 527  1503.882
 528  1497.388
 529  1521.057
 530  1609.94
 531  1617.165
 532  1526.884
 533  1555.153
 534  1543.683
 535  1587.831
 536  1551.212
 537  1485.389
 538  1559.994
 539  1653.413
 540  1632.638
 541  1532.658
 542  1397.92
 543  1456.639
 544  1549.41
 545  1573.653
 546  1495.024
 547  1577.598
 548  1768.344
 549  1588.372
 550  1298.538
 551  1133.626
 552  1198.103
 553  1525.607
 554  1655.634
 555  1687.871
 556  1452.691
 557  1400.947
 558  1553.992
 559  1684.703
 560  1729.39
 561  1610.074
 562  1533.65
 563  1412.729
 564  1440.655
 565  1508.726
 566  1568.255
 567  1604.833
 568  1602.113
 569  1576.447
 570  1514.954
 571  1560.999
 572  1620.523
 573  1687.575
 574  1751.69
 575  1903.686
 576  1820.404
 577  1600.087
 578  1465.31
 579  1420.476
 580  1487.354
 581  1534.31
 582  1549.516
 583  1497.596
 584  1382.388
 585  1369.117
 586  1401.071
 587  1517.197
 588  1525.322
 589  1515.009
 590  1483.353
 591  1462.359
 592  1445.664
 593  1281.688
 594  1277.563
 595  1372.142
 596  1502.113
 597  1531.463
 598  1495.845
 599  1405.307
 600  1612.977
 601  1797.057
 602  2124.766
 603  2192.603
 604  2394.702
 605  2266.025
 606  2447.85
 607  2480.659
 608  2651.982
 609  2512.492
 610  2415.731
 611  2158.795
 612  1859.186
 613  1582.345
 614  1447.607
 615  1517.344
 616  1525.463
 617  1561.818
 618  1499.93
 619  1532.866
 620  1445.046
 621  1552.993
 622  1626.571
 623  1705.17
 624  1583.189
 625  1522.665
 626  1489.485
 627  1461.238
 628  1434.743
 629  1612.654
 630  1779.993
 631  1792.662
 632  1675.895
 633  1510.024
 634  1474.099
 635  1481.838
 636  1505.742
 637  1469.823
 638  1452.27
 639  1539.153
 640  1558.557
 641  1664.177
 642  1652.427
 643  1602.194
 644  1626.641
 645  1676.837
 646  1763.807
 647  1685.849
 648  1572.853
 649  1582.903
 650  1594.022
 651  1724.027
 652  1765.867
 653  1836.142
 654  1872.391
 655  1796.319
 656  1678.568
 657  1720.069
 658  1812.67
 659  1827.266
 660  1822.07
 661  1849.892
 662  1981.831
 663  2033.038
 664  2026.896
 665  1962.916
 666  2025.596
 667  2002.829
 668  2006.711
 669  1873.719
 670  1864.458
 671  1883.647
 672  1996.948
 673  1974.978
 674  1991.675
 675  1903.44
 676  1884.762
 677  1916.685
 678  1961.314
 679  2009.617
 680  1935.77
 681  1873.689
 682  1717.652
 683  1747.961
 684  1859.393
 685  1755.774
 686  1669.863
 687  1470.014
 688  1441.906
 689  1468.484
 690  1502.013
 691  1667.639
 692  1785.863
 693  1766.951
 694  1767.359
 695  1797.173
 696  1815.256
 697  1817.58
 698  1734.695
 699  1735.274
 700  1662.772
 701  1673.701
 702  1639.832
 703  1518.303
 704  1443.721
 705  1398.348
 706  1543.097
 707  1555.508
 708  1482.827
 709  1500.233
 710  1619.934
 711  1628.008
 712  1494.594
 713  1637.278
 714  1826.891
 715  1909.302
 716  1709.907
 717  1624.896
 718  1554.95
 719  1590.448
 720  1623.079
 721  1725.98
 722  1741.289
 723  1650.133
 724  1677.997
 725  1680.237
 726  1632.247
 727  1577.153
 728  1392.287
 729  1262.052
 730  1330.518
 731  1512.651
 732  1572.746
 733  1570.212
 734  1700.29
 735  1656.652
 736  1610.982
 737  1559.894
 738  1525.383
 739  1539.759
 740  1538.282
 741  1571.834
 742  1398.132
 743  1297.49
 744  1261.867
 745  1346.62
 746  1380.888
 747  1294.203
 748  1438.455
 749  1554.776
 750  1434.85
 751  1336.987
 752  1456.336
 753  1613.858
 754  1615.759
 755  1625.641
 756  1615.336
 757  1563.357
 758  1577.504
 759  1688.336
 760  1701.516
 761  1717.155
 762  1629.014
 763  1573.437
 764  1593.728
 765  1482.932
 766  1489.911
 767  1367.572
 768  1412.355
 769  1370.129
 770  1442.383
 771  1531.535
 772  1603.126
 773  1675.166
 774  1651.933
 775  1662.499
 776  1697.234
 777  1718.338
 778  1727.597
 779  1677.553
 780  1625.781
 781  1651.433
 782  1765.658
 783  1824.611
 784  1819.254
 785  1776.677
 786  1732.651
 787  1644.623
 788  1504.409
 789  1491.847
 790  1489.179
 791  1433.002
 792  1444.926
 793  1533.983
 794  1459.837
 795  1342.648
 796  1221.833
 797  1352.499
 798  1441.939
 799  1560.978
 800  1564.748
 801  1781.212
 802  1897.11
 803  1921.537
 804  1719.588
 805  1552.889
 806  1619.669
 807  1649.414
 808  1745.533
 809  1496.033
 810  1539.356
 811  1464.195
 812  1454.407
 813  1667.708
 814  1686.496
 815  1783.103
 816  1676.832
 817  1749.238
 818  1486.043
 819  1313.472
 820  1408.952
 821  1535.695
 822  1507.556
 823  1284.806
 824  1295.024
 825  1337.235
 826  1459.138
 827  1554.114
 828  1731.586
 829  1931.056
 830  1869.096
 831  1716.59
 832  1510.492
 833  1526.533
 834  1618.735
 835  1703.476
 836  1654.802
 837  1730.513
 838  1613.398
 839  1685.566
 840  1776.394
 841  1929.548
 842  1881.592
 843  1752.562
 844  1710.421
 845  1524.029
 846  1471.098
 847  1396.638
 848  1377.919
 849  1386.106
 850  1394.826
 851  1489.607
 852  1614.431
 853  1602.009
 854  1484.174
 855  1416.145
 856  1446.68
 857  1486.156
 858  1346.37
 859  1266.886
 860  1275.356
 861  1433.852
 862  1559.099
 863  1407.26
 864  1375.235
 865  1434.885
 866  1565.44
 867  1421.274
 868  1278.589
 869  1326.642
 870  1416.324
 871  1453.891
 872  1550.789
 873  1558.14
 874  1423.36
 875  1309.301
 876  1355.312
 877  1444.927
 878  1565.813
 879  1628.29
 880  1627.585
 881  1653.232
 882  1582.535
 883  1459.088
 884  1299.008
 885  1241.514
 886  1261.727
 887  1307.48
 888  1358.462
 889  1394.983
 890  1419.454
 891  1461.285
 892  1474.228
 893  1473.185
 894  1565.583
 895  1475.026
 896  1446.182
 897  1530.756
 898  1616.149
 899  1697.197
 900  1555.911
 901  1574.917
 902  1568.001
 903  1477.645
 904  1415.634
 905  1367.452
 906  1317.088
 907  1281.491
 908  1367.496
 909  1483.536
 910  1359.385
 911  1161.748
 912  1133.076
 913  1169.367
 914  1240.828
 915  1213.407
 916  1233.739
 917  1297.498
 918  1266.482
 919  1308.943
 920  1401.886
 921  1324.983
 922  1261.202
 923  1121.237
 924  1086.627
 925  1044.075
 926  1174.378
 927  1247.919
 928  1297.813
 929  1293.769
 930  1234.812
 931  1239.473
 932  1288.127
 933  1317.659
 934  1275.718
 935  1261.789
 936  1227.279
 937  1235.23
 938  1208.134
 939  1282.627
 940  1302.732
 941  1443.085
 942  1445.566
 943  1494.579
 944  1551.286
 945  1586.09
 946  1594.243
 947  1501.756
 948  1503.019
 949  1510.772
 950  1384.549
 951  1271.882
 952  1238.841
 953  1443.85
 954  1359.612
 955  1361.925
 956  1272.102
 957  1397.3
 958  1314.77
 959  1340.793
 960  1367.366
 961  1424.922
 962  1518.17
 963  1368.252
 964  1344.284
 965  1379.972
 966  1389.291
 967  1340.502
 968  1230.461
 969  1307.784
 970  1411.876
 971  1613.282
 972  1542.912
 973  1531.953
 974  1534.164
 975  1689.807
 976  1691.892
 977  1653.74
 978  1533.662
 979  1482.567
 980  1314.796
 981  1301.26
 982  1453.485
 983  1593.685
 984  1657.532
 985  1679.838
 986  1705.273
 987  1713.109
 988  1741.46
 989  1774.703
 990  1699.345
 991  1604.903
 992  1670.104
 993  1760.631
 994  1726.529
 995  1694.345
 996  1673.392
 997  1789.325
 998  1810.451
 999  1755.316
1000  1667.159
1001  1642.754
1002  1635.127
1003  1550.523
1004  1574.529
1005  1511.868
1006  1535.437
1007  1523.09
1008  1663.839
1009  1657.795
1010  1620.094
1011  1509.547
1012  1497.318
1013  1500.981
1014  1504.357
1015  1592.923
1016  1703.902
1017  1758.893
1018  1699.631
1019  1602.116
1020  1446.575
1021  1388.273
1022  1263.437
1023  1273.64
