# Input file       =  1205856444.106251_cleaned.dat
# Candidate        =  PSR_0332+5434
# Telescope        =  AR
# Epoch_topo       =  58200.672026692722
# Epoch_bary       =  N/A
# T_sample         =  0.002
# Data Folded      =  7340032
# Data Avg         =  0.243034976930565
# Data StdDev      =  5.07105139671064 
# Profile Bins     =  1024
# Profile Avg      =  1742.1010573642  
# Profile StdDev   =  429.335708202339 
# Reduced chi-sqr  =  0.976
# Prob(Noise)      <  0.706   (~0.0 sigma)
# P_topo (ms)      =  714.57443024955   +/- 0.00064
# P'_topo (s/s)    =  -0                +/- 3.38e-10
# P''_topo (s/s^2) =  0                 +/- 1.49e-13
# P_bary (ms)      =  N/A
# P'_bary (s/s)    =  N/A
# P''_bary (s/s^2) =  N/A
# P_orb (s)        =  N/A
# asin(i)/c (s)    =  N/A
# eccentricity     =  N/A
# w (rad)          =  N/A
# T_peri           =  N/A
######################################################
   0  1891.005
   1  1846.634
   2  1739.178
   3  1708.077
   4  1814.487
   5  1794.565
   6  1742.275
   7  1557.102
   8  1408.055
   9  1429.795
  10  1550.969
  11  1680.201
  12  1745.045
  13  1712.025
  14  1696.387
  15  1713.658
  16  1685.287
  17  1582.975
  18  1540.08
  19  1547.191
  20  1594.338
  21  1570.316
  22  1477.892
  23  1524.154
  24  1585.039
  25  1692.131
  26  1616.448
  27  1550.402
  28  1474.526
  29  1471.95
  30  1445.986
  31  1460.935
  32  1521.233
  33  1431.306
  34  1435.169
  35  1313.548
  36  1407.522
  37  1503.188
  38  1598.452
  39  1648.563
  40  1556.115
  41  1570.173
  42  1492.289
  43  1446.43
  44  1432.967
  45  1564.945
  46  1724.133
  47  1623.835
  48  1655.455
  49  1718.948
  50  1701.892
  51  1507.051
  52  1385.191
  53  1413.134
  54  1349.131
  55  1307.196
  56  1402.523
  57  1479.7
  58  1546.284
  59  1712.381
  60  1853.378
  61  1860.536
  62  1803.338
  63  1660.966
  64  1654.807
  65  1635.515
  66  1717.582
  67  1692.211
  68  1716.28
  69  1673.466
  70  1604.316
  71  1600.865
  72  1558.417
  73  1621.32
  74  1597.622
  75  1568.216
  76  1551.41
  77  1463.599
  78  1591.074
  79  1517.875
  80  1527.289
  81  1614.932
  82  1770.96
  83  1751.083
  84  1567.394
  85  1463.515
  86  1431.987
  87  1464.791
  88  1399.369
  89  1404.97
  90  1411.367
  91  1460.571
  92  1399.772
  93  1318.879
  94  1421.166
  95  1442.778
  96  1495.898
  97  1437.205
  98  1494.435
  99  1489.848
 100  1558.956
 101  1598.8
 102  1635.843
 103  1677.207
 104  1624.613
 105  1440.519
 106  1380.18
 107  1319.494
 108  1364.647
 109  1344.242
 110  1464.579
 111  1473.791
 112  1538.598
 113  1511.115
 114  1505.721
 115  1582.61
 116  1602.766
 117  1592.57
 118  1516.909
 119  1473.571
 120  1580.676
 121  1686.945
 122  1609.732
 123  1559.386
 124  1544.78
 125  1616.173
 126  1550.028
 127  1515.979
 128  1665.695
 129  1688.238
 130  1702.373
 131  1652.992
 132  1564.318
 133  1526.828
 134  1546.221
 135  1665.893
 136  1617.743
 137  1486.712
 138  1413.729
 139  1474.636
 140  1509.155
 141  1456.755
 142  1413.683
 143  1561.959
 144  1587.067
 145  1623.754
 146  1596.209
 147  1641.741
 148  1682.016
 149  1733.234
 150  1586.96
 151  1526.095
 152  1449.579
 153  1688.212
 154  1814.284
 155  1808.885
 156  1740.794
 157  1713.344
 158  1724.318
 159  1681.97
 160  1660.232
 161  1747.688
 162  1767.429
 163  1791.876
 164  1781.693
 165  1658.693
 166  1511.088
 167  1467.465
 168  1551.249
 169  1681.654
 170  1779.401
 171  1896.02
 172  1634.142
 173  1557.423
 174  1603.156
 175  1726.459
 176  1708.036
 177  1696.653
 178  1652.81
 179  1595.713
 180  1375.664
 181  1423.189
 182  1418.253
 183  1413.887
 184  1400.96
 185  1565.689
 186  1712.961
 187  1627.142
 188  1465.38
 189  1340.809
 190  1377.154
 191  1366.486
 192  1498.277
 193  1515.635
 194  1500.636
 195  1428.858
 196  1406.607
 197  1523.804
 198  1583.877
 199  1613.064
 200  1581.662
 201  1655.221
 202  1584.693
 203  1529.879
 204  1578.995
 205  1745.619
 206  1747.177
 207  1578.517
 208  1499.905
 209  1592.312
 210  1759.981
 211  1902.705
 212  1928.121
 213  1914.486
 214  1813.7
 215  1699.802
 216  1634.284
 217  1679.6
 218  1798.398
 219  1826.797
 220  1810.85
 221  1720.389
 222  1735.381
 223  1720.583
 224  1687.608
 225  1643.215
 226  1680.797
 227  1705.176
 228  1725.969
 229  1785.198
 230  1764.783
 231  1721.024
 232  1711.685
 233  1600.297
 234  1607.967
 235  1730.552
 236  1896.394
 237  1946.349
 238  1802.939
 239  1739.237
 240  1678.977
 241  1804.995
 242  1946.372
 243  2004.126
 244  1879.992
 245  1916.221
 246  2068.776
 247  2276.826
 248  2294.981
 249  2284.592
 250  2203.853
 251  2000.213
 252  1907.267
 253  1876.405
 254  1948.288
 255  1852.126
 256  1859.883
 257  1810.711
 258  1744.207
 259  1595.236
 260  1614.844
 261  1690.824
 262  1812.325
 263  1847.158
 264  1886.212
 265  1926.215
 266  1956.693
 267  1915.413
 268  1815.196
 269  1826.585
 270  1867.757
 271  1854.832
 272  1722.803
 273  1597.975
 274  1636.004
 275  1723.823
 276  1746.258
 277  1727.651
 278  1698.496
 279  1672.661
 280  1645.843
 281  1590.862
 282  1590.813
 283  1493.822
 284  1497.37
 285  1553.045
 286  1640.497
 287  1711.438
 288  1731.325
 289  1765.689
 290  1685.125
 291  1585.848
 292  1509.687
 293  1526.895
 294  1543.759
 295  1460.545
 296  1524.268
 297  1524.323
 298  1631.626
 299  1543.784
 300  1565.274
 301  1610.558
 302  1590.769
 303  1590.544
 304  1528.22
 305  1522.907
 306  1466.475
 307  1473.804
 308  1554.269
 309  1583.602
 310  1564.467
 311  1502.885
 312  1472.822
 313  1669.014
 314  1857.423
 315  1903.807
 316  1706.662
 317  1646.206
 318  1736.601
 319  1913.792
 320  1973.584
 321  1932.905
 322  1841.455
 323  1794.757
 324  1804.94
 325  1787.921
 326  1678.854
 327  1547.217
 328  1575.409
 329  1678.974
 330  1825.84
 331  1864.422
 332  1781.097
 333  1745.253
 334  1863.789
 335  2029.781
 336  1957.605
 337  1687.485
 338  1644.057
 339  1691.285
 340  1826.467
 341  1783.553
 342  1743.051
 343  1728.385
 344  1803.435
 345  1925.52
 346  2002.337
 347  1878.586
 348  1866.121
 349  2005.577
 350  2202.476
 351  2119.989
 352  2025.042
 353  1999.474
 354  1947.657
 355  1884.221
 356  1861.99
 357  1863.89
 358  1877.061
 359  1863.521
 360  1901.227
 361  1866.135
 362  1884.327
 363  1819.798
 364  1807.281
 365  1721.025
 366  1757.221
 367  1767.045
 368  1826.308
 369  1814.114
 370  1804.622
 371  1923.199
 372  1763.083
 373  1717.592
 374  1611.138
 375  1786.384
 376  1870.293
 377  1939.56
 378  1801.953
 379  1771.481
 380  1739.967
 381  1874.659
 382  1946.526
 383  1933.036
 384  1869.829
 385  1890.587
 386  1978.846
 387  1929.492
 388  1943.091
 389  1873.025
 390  1866.212
 391  1802.97
 392  1828.279
 393  1913.004
 394  2039.005
 395  2193.48
 396  2116.14
 397  2112.146
 398  2062.944
 399  2222.223
 400  2217.388
 401  2098.126
 402  1923.182
 403  1849.75
 404  1985.862
 405  1948.907
 406  1889.288
 407  1836.385
 408  1727.278
 409  1881.808
 410  1894.945
 411  1996.553
 412  1960.347
 413  1952.664
 414  1911.996
 415  1881.826
 416  1955.567
 417  1923.105
 418  1797.607
 419  1772.897
 420  1864.909
 421  2040.65
 422  2055.862
 423  2053.569
 424  1981.52
 425  2016.961
 426  1982.361
 427  1763.214
 428  1769.858
 429  1814.958
 430  2020.62
 431  1941.904
 432  1866.129
 433  1750.849
 434  1775.981
 435  1880.032
 436  1954.538
 437  1916.887
 438  1872.2
 439  1932.302
 440  1958.072
 441  1886.067
 442  1902.903
 443  1960.84
 444  2007.94
 445  1835.539
 446  1657.402
 447  1618.776
 448  1697.465
 449  1796.022
 450  1813.438
 451  1819.529
 452  1788.703
 453  1825.299
 454  1771.447
 455  1607.883
 456  1531.107
 457  1550.485
 458  1633.732
 459  1595.702
 460  1533.996
 461  1446.645
 462  1411.874
 463  1395.565
 464  1462.386
 465  1565.856
 466  1763.398
 467  1829.345
 468  1691.364
 469  1609.64
 470  1644.731
 471  1670.659
 472  1597.168
 473  1624.755
 474  1681.541
 475  1691.011
 476  1512.337
 477  1395.957
 478  1399.147
 479  1352.105
 480  1402.037
 481  1548.221
 482  1611.454
 483  1744.09
 484  1715.924
 485  1791.902
 486  1549.183
 487  1510.041
 488  1487.617
 489  1617.207
 490  1611.003
 491  1683.493
 492  1778.034
 493  1719.202
 494  1574.928
 495  1558.989
 496  1618.638
 497  1621.489
 498  1709.764
 499  1816.821
 500  1860.596
 501  1865.591
 502  1755.102
 503  1786.121
 504  1699.016
 505  1614.86
 506  1417.044
 507  1447.425
 508  1496.908
 509  1531.89
 510  1728.724
 511  1772.705
 512  1902.563
 513  1765.845
 514  1822.519
 515  1730.115
 516  1669.167
 517  1559.22
 518  1519.727
 519  1551
 520  1540.806
 521  1558.272
 522  1515.755
 523  1399.819
 524  1375.009
 525  1398.598
 526  1514.001
 527  1400.993
 528  1401.224
 529  1433.469
 530  1545.142
 531  1576.789
 532  1495.825
 533  1453.726
 534  1289.583
 535  1354.852
 536  1488.248
 537  1471.968
 538  1423.762
 539  1360.134
 540  1506.852
 541  1488.565
 542  1495.412
 543  1373.748
 544  1256.538
 545  1404.303
 546  1687.424
 547  1790.013
 548  1608.299
 549  1571.465
 550  1621.693
 551  1784.836
 552  1886.926
 553  1986.835
 554  2022.179
 555  1876.007
 556  1894.427
 557  1795.258
 558  1747.292
 559  1505.664
 560  1507.39
 561  1561.291
 562  1646.382
 563  1514.742
 564  1595.538
 565  1695.301
 566  1833.822
 567  1735.297
 568  1811.427
 569  1889.105
 570  2029.002
 571  2056.918
 572  2081.729
 573  2043.031
 574  1971.886
 575  1862.632
 576  1705.605
 577  1751.758
 578  1784.023
 579  1757.117
 580  1581.982
 581  1514.849
 582  1590.993
 583  1698.819
 584  1793.005
 585  1893.538
 586  1854.216
 587  1857.675
 588  1921.472
 589  2019.39
 590  2135.626
 591  2017.636
 592  1950.696
 593  1943.325
 594  2116.906
 595  2199.756
 596  2327.432
 597  2265.164
 598  2263.929
 599  2172.054
 600  2333.38
 601  2459.227
 602  2599.594
 603  2744.517
 604  2971.49
 605  3060.219
 606  3066.598
 607  3166.41
 608  3207.54
 609  3167.802
 610  3016.968
 611  2932.626
 612  2851.639
 613  2792.95
 614  2634.399
 615  2343.531
 616  2172.916
 617  1978.872
 618  1936.025
 619  1907.85
 620  2125.701
 621  2144.839
 622  2074.03
 623  1966.702
 624  1936.618
 625  1905.841
 626  1908.489
 627  2114.836
 628  2128.153
 629  2167.781
 630  2081.245
 631  2081.174
 632  1997.793
 633  1853.225
 634  1836.576
 635  1841.749
 636  1800.722
 637  1865.484
 638  1906.246
 639  1978.411
 640  1851.221
 641  2006.951
 642  1982.684
 643  2129.712
 644  1983.997
 645  1803.572
 646  1638.897
 647  1734.791
 648  1754.003
 649  1797.187
 650  1890.01
 651  1948.681
 652  1980.372
 653  1920.737
 654  1886.566
 655  1826.92
 656  1757.607
 657  1723.9
 658  1687.914
 659  1693.305
 660  1712.959
 661  1699.854
 662  1652.253
 663  1685.191
 664  1703.532
 665  1797.717
 666  1860.059
 667  1883.586
 668  1859.686
 669  1761.963
 670  1785.965
 671  1903.861
 672  1907.221
 673  1803.011
 674  1745.779
 675  1818.881
 676  1714.839
 677  1669.802
 678  1624.058
 679  1708.854
 680  1786.396
 681  1844.944
 682  1847.965
 683  1924.523
 684  2019.572
 685  2025.367
 686  2066.277
 687  2075.919
 688  2012.6
 689  1874.275
 690  1816.757
 691  1829.681
 692  1812.49
 693  1740.099
 694  1744.628
 695  1681.026
 696  1738.227
 697  1734.096
 698  1766.696
 699  1900.141
 700  2001.014
 701  1969.801
 702  1844.365
 703  1901.427
 704  1911.125
 705  1900.391
 706  1815.834
 707  1875.796
 708  1772.426
 709  1713.652
 710  1693.813
 711  1838.725
 712  1893.095
 713  1860.449
 714  1855.622
 715  1901.268
 716  1885.673
 717  1835.755
 718  1726.766
 719  1722.698
 720  1775.993
 721  1747.835
 722  1734.267
 723  1723.563
 724  1770.573
 725  1804.817
 726  1776.432
 727  1683.85
 728  1600.338
 729  1713.758
 730  1931.39
 731  1945.409
 732  1825.116
 733  1866.009
 734  1895.933
 735  1779.206
 736  1623.734
 737  1543.239
 738  1592.089
 739  1699.004
 740  1792.411
 741  1690.454
 742  1498.798
 743  1424.278
 744  1508.46
 745  1646.682
 746  1786.977
 747  1795.347
 748  1714.599
 749  1793.461
 750  1905.267
 751  1955.054
 752  1828.893
 753  1851.14
 754  1754.196
 755  1661.545
 756  1400.619
 757  1337.682
 758  1294.339
 759  1283.918
 760  1333.666
 761  1388.468
 762  1413.259
 763  1413.375
 764  1534.648
 765  1600.025
 766  1657.731
 767  1659.855
 768  1771.548
 769  1750.328
 770  1617.824
 771  1645.755
 772  1506.187
 773  1516.101
 774  1485.652
 775  1615.839
 776  1594.874
 777  1566.605
 778  1621.867
 779  1586.529
 780  1554.427
 781  1606.15
 782  1781.017
 783  1997.549
 784  1902.766
 785  1715.038
 786  1585.539
 787  1447.145
 788  1527.705
 789  1387.589
 790  1421.302
 791  1379.78
 792  1297.798
 793  1367.575
 794  1422.006
 795  1723.414
 796  1755.802
 797  1812.57
 798  1859.011
 799  1958.196
 800  2009.625
 801  1910.647
 802  1882.602
 803  1754.833
 804  1832.212
 805  1942.129
 806  2070.312
 807  2061.258
 808  1926.624
 809  1826.247
 810  1683.481
 811  1616.708
 812  1569.602
 813  1625.832
 814  1691.444
 815  1756.418
 816  1790.551
 817  1788.529
 818  1774.672
 819  1642.135
 820  1462.749
 821  1435.6
 822  1500.958
 823  1570.852
 824  1621.103
 825  1627.79
 826  1604.109
 827  1588.911
 828  1530.044
 829  1553.396
 830  1457.923
 831  1591.872
 832  1728.89
 833  1895.284
 834  1833.382
 835  1704.167
 836  1655.125
 837  1658.406
 838  1714.564
 839  1757.725
 840  1778.01
 841  1760.975
 842  1769.281
 843  1873.113
 844  2007.347
 845  1991.263
 846  1919.405
 847  1891.353
 848  1882.249
 849  1755.685
 850  1689.426
 851  1819.214
 852  1941.95
 853  1976.375
 854  1986.499
 855  1938.299
 856  1888.898
 857  1850.822
 858  1999.521
 859  2045.559
 860  1911.409
 861  1620.818
 862  1561.86
 863  1618.846
 864  1779.815
 865  1831.569
 866  1823.467
 867  1777.393
 868  1776.47
 869  1890.025
 870  1989.828
 871  1966.669
 872  1879.236
 873  1653.668
 874  1593.701
 875  1498.502
 876  1584.765
 877  1533.344
 878  1524.469
 879  1468.56
 880  1598.171
 881  1697.185
 882  1743.315
 883  1730.137
 884  1719.272
 885  1727.81
 886  1620.959
 887  1580.616
 888  1535.631
 889  1531.35
 890  1579.055
 891  1619.915
 892  1662.502
 893  1626.512
 894  1559.521
 895  1647.319
 896  1582.399
 897  1764.831
 898  1716.57
 899  1721.889
 900  1550.089
 901  1529.445
 902  1547.975
 903  1385.813
 904  1351.963
 905  1573.579
 906  1829.122
 907  1827.151
 908  1674.013
 909  1632.837
 910  1568.652
 911  1538.738
 912  1557.16
 913  1663.153
 914  1690.327
 915  1810.61
 916  1925.648
 917  1921.883
 918  1754.558
 919  1729.495
 920  1706.134
 921  1758.939
 922  1717.531
 923  1723.026
 924  1649.408
 925  1686.097
 926  1628.753
 927  1671.712
 928  1676.512
 929  1848.725
 930  1973.324
 931  1917.035
 932  1869.811
 933  1773.975
 934  1822.4
 935  1787.029
 936  1904.827
 937  2017.035
 938  2017.068
 939  1825.867
 940  1789.002
 941  1808.893
 942  1900.939
 943  1938.976
 944  2008.752
 945  2029.493
 946  1952.071
 947  1912.943
 948  1869.805
 949  1851.185
 950  1735.679
 951  1722.436
 952  1662.887
 953  1773.898
 954  1864.317
 955  1889.323
 956  1782.099
 957  1820.039
 958  1728.98
 959  1707.708
 960  1592.436
 961  1640.273
 962  1589.666
 963  1689.145
 964  1695.078
 965  1687.347
 966  1639.531
 967  1666.616
 968  1743.718
 969  1784.911
 970  1870.355
 971  1886.096
 972  2005.824
 973  1976.882
 974  1906.697
 975  1771.353
 976  1749.823
 977  1832.672
 978  1815.306
 979  1820.533
 980  1905.965
 981  2011.504
 982  2029.41
 983  1918.638
 984  1877.997
 985  1847.767
 986  1963.99
 987  2000.086
 988  1968.539
 989  1875.457
 990  1820.174
 991  1670.001
 992  1658.757
 993  1808.42
 994  1794.026
 995  1719.518
 996  1679.932
 997  1809.553
 998  1910.366
 999  1774.637
1000  1568.939
1001  1553.342
1002  1622.931
1003  1662.611
1004  1661.665
1005  1922.938
1006  2012.332
1007  1989.146
1008  1761.198
1009  1724.309
1010  1591.751
1011  1684.782
1012  1689.487
1013  1739.683
1014  1796.457
1015  1882.75
1016  1916.485
1017  1877.177
1018  1842.011
1019  1808.546
1020  1823.367
1021  1942.168
1022  1952.424
1023  1993.186
