# Input file       =  1205238896.100999_cleaned.dat
# Candidate        =  PSR_0332+5434
# Telescope        =  AR
# Epoch_topo       =  58193.524480335640
# Epoch_bary       =  N/A
# T_sample         =  0.002
# Data Folded      =  7340032
# Data Avg         =  0.0602829081825411
# Data StdDev      =  3.8138575466412  
# Profile Bins     =  512
# Profile Avg      =  864.124908615887 
# Profile StdDev   =  456.644744367795 
# Reduced chi-sqr  =  0.977
# Prob(Noise)      <  0.636   (~0.0 sigma)
# P_topo (ms)      =  714.57708509732   +/- 0.000148
# P'_topo (s/s)    =  -0                +/- 7.79e-11
# P''_topo (s/s^2) =  0                 +/- 3.44e-14
# P_bary (ms)      =  N/A
# P'_bary (s/s)    =  N/A
# P''_bary (s/s^2) =  N/A
# P_orb (s)        =  N/A
# asin(i)/c (s)    =  N/A
# eccentricity     =  N/A
# w (rad)          =  N/A
# T_peri           =  N/A
######################################################
   0  900.3642
   1  1003.748
   2  684.621
   3  696.9957
   4  870.3256
   5  363.0244
   6  384.5969
   7  410.6213
   8  696.5666
   9  834.4128
  10  856.6435
  11  694.8723
  12  399.4144
  13  319.0263
  14  838.8091
  15  647.6232
  16  667.0743
  17  866.5676
  18  794.2407
  19  810.7718
  20  305.7928
  21  532.8904
  22  617.5985
  23  724.5757
  24  1114.168
  25  1145.158
  26  678.9255
  27  437.105
  28  879.4807
  29  784.4407
  30  446.8832
  31  412.3544
  32  1024.17
  33  974.9724
  34  792.9077
  35  653.0268
  36  530.9965
  37  446.6992
  38  684.305
  39  696.5209
  40  757.936
  41  874.1223
  42  854.1396
  43  999.8691
  44  876.4877
  45  742.0794
  46  471.0365
  47  933.1575
  48  1215.843
  49  1202.763
  50  874.6179
  51  601.1387
  52  663.7293
  53  645.0328
  54  1122.646
  55  1073.494
  56  724.3198
  57  908.0433
  58  1036.094
  59  1190.656
  60  1383.719
  61  865.5313
  62  524.8269
  63  564.0042
  64  816.0281
  65  639.954
  66  830.1279
  67  1026.538
  68  955.8135
  69  980.2668
  70  665.1991
  71  1137.144
  72  1150.924
  73  940.0286
  74  847.4363
  75  1149.165
  76  1403.177
  77  830.3813
  78  805.5103
  79  978.1848
  80  713.4476
  81  135.2135
  82  -2.209495
  83  315.5566
  84  880.6635
  85  1050.584
  86  920.3495
  87  1061.63
  88  1207.977
  89  1119.089
  90  964.0438
  91  1174.77
  92  860.4858
  93  1088.8
  94  1475.522
  95  1462.44
  96  1179.171
  97  851.8885
  98  956.1387
  99  1230.996
 100  895.9484
 101  1019.243
 102  1037.832
 103  1213.333
 104  1263.761
 105  1157.417
 106  1151.643
 107  1053.957
 108  1056.315
 109  847.1488
 110  1125.322
 111  1114.282
 112  914.12
 113  832.9838
 114  580.9895
 115  532.5419
 116  492.5911
 117  86.10242
 118  417.9964
 119  566.6764
 120  715.2776
 121  607.231
 122  529.1161
 123  774.6344
 124  958.4698
 125  764.5765
 126  743.0683
 127  536.9949
 128  641.822
 129  788.0547
 130  510.2972
 131  893.0091
 132  1244.096
 133  1405.893
 134  1009.6
 135  617.0715
 136  716.2086
 137  828.1622
 138  884.9366
 139  1114.213
 140  878.8751
 141  469.6282
 142  663.5541
 143  787.4365
 144  845.7841
 145  681.5015
 146  1011.612
 147  865.2283
 148  576.687
 149  294.6531
 150  411.1085
 151  682.05
 152  872.653
 153  751.9722
 154  758.0962
 155  561.4565
 156  624.9398
 157  1315.055
 158  1062.971
 159  942.2041
 160  760.8658
 161  261.2554
 162  195.7253
 163  764.3377
 164  864.8724
 165  847.1341
 166  668.276
 167  639.1161
 168  604.1568
 169  529.0583
 170  344.4783
 171  654.3808
 172  807.7847
 173  879.169
 174  863.8663
 175  852.9611
 176  697.2881
 177  620.7422
 178  709.9225
 179  793.8306
 180  823.0172
 181  852.7336
 182  1236.081
 183  938.7062
 184  793.4535
 185  887.1572
 186  1211.699
 187  1176.729
 188  801.0317
 189  950.09
 190  1060.216
 191  702.8093
 192  869.706
 193  767.2188
 194  625.4722
 195  672.0394
 196  372.7352
 197  470.6715
 198  626.0918
 199  756.6469
 200  920.2767
 201  1332.162
 202  1445.114
 203  1574.442
 204  1660.851
 205  1547.31
 206  1096.571
 207  879.3787
 208  1268.661
 209  1201.048
 210  1542.604
 211  1941.765
 212  1755.113
 213  2157.027
 214  2282.254
 215  2530.688
 216  2305.408
 217  2111.401
 218  1255.635
 219  837.5186
 220  1090.026
 221  1188.981
 222  1045.75
 223  962.6829
 224  985.1857
 225  908.3092
 226  882.2822
 227  869.6522
 228  846.9006
 229  915.6762
 230  985.516
 231  1120.384
 232  875.4466
 233  661.3891
 234  931.2673
 235  631.1417
 236  296.0487
 237  389.9487
 238  826.3356
 239  492.7357
 240  534.1386
 241  421.1326
 242  703.4072
 243  822.0137
 244  741.4285
 245  731.5939
 246  808.1502
 247  725.0579
 248  799.0563
 249  935.65
 250  1258.314
 251  1058.348
 252  963.632
 253  1034.12
 254  877.9425
 255  624.1935
 256  1038.668
 257  1195.51
 258  1231.97
 259  965.9372
 260  1076.378
 261  770.5073
 262  747.7788
 263  1010.4
 264  1231.284
 265  1385.235
 266  1056.611
 267  898.8079
 268  1052.864
 269  1106.445
 270  579.7591
 271  1063.286
 272  1321.079
 273  1376.094
 274  1310.248
 275  1071.946
 276  1150.801
 277  1265.162
 278  1217.095
 279  1044.302
 280  1392.253
 281  1235.066
 282  1245.967
 283  1238.193
 284  1068.614
 285  938.3682
 286  1369.024
 287  1057.481
 288  612.0038
 289  781.4344
 290  1244.803
 291  1193.635
 292  861.612
 293  899.9578
 294  764.4345
 295  975.7195
 296  926.4199
 297  623.5306
 298  449.0692
 299  466.7251
 300  911.814
 301  1279.568
 302  800.1745
 303  503.9999
 304  698.4852
 305  658.8102
 306  637.9153
 307  702.8382
 308  680.5753
 309  653.1145
 310  962.0286
 311  546.9879
 312  479.9055
 313  747.849
 314  865.4161
 315  987.7773
 316  976.1685
 317  828.9555
 318  1166.437
 319  924.062
 320  596.4568
 321  591.4682
 322  629.688
 323  357.2525
 324  949.3774
 325  827.012
 326  400.3328
 327  159.0167
 328  480.0769
 329  997.1182
 330  987.4838
 331  1306.095
 332  722.666
 333  657.1202
 334  860.3794
 335  852.8589
 336  844.5928
 337  595.397
 338  590.3957
 339  426.0941
 340  400.6208
 341  450.0349
 342  500.3897
 343  597.8638
 344  389.7743
 345  637.3537
 346  537.4582
 347  445.4409
 348  570.9146
 349  1162.344
 350  1173.088
 351  1055.497
 352  724.4148
 353  1057.766
 354  1130.112
 355  868.7247
 356  659.3885
 357  1048.714
 358  1022.561
 359  960.9185
 360  1029.337
 361  541.1391
 362  414.9154
 363  551.6096
 364  725.7978
 365  748.5473
 366  302.2145
 367  169.6416
 368  782.055
 369  926.3582
 370  341.1315
 371  325.8965
 372  628.0208
 373  704.3597
 374  809.7546
 375  893.1375
 376  511.4775
 377  549.2135
 378  761.2019
 379  485.438
 380  530.212
 381  760.9387
 382  610.9155
 383  587.397
 384  781.7961
 385  916.0538
 386  611.9278
 387  1198.451
 388  1332.577
 389  764.3793
 390  422.985
 391  634.7422
 392  1047.002
 393  862.3106
 394  595.8811
 395  548.6154
 396  636.097
 397  486.0178
 398  519.165
 399  430.5697
 400  205.5461
 401  133.8107
 402  279.8045
 403  214.2743
 404  438.5792
 405  239.7003
 406  439.5034
 407  348.7245
 408  462.3531
 409  541.3148
 410  514.5784
 411  300.8802
 412  695.6471
 413  653.2048
 414  589.4706
 415  936.5346
 416  1155.454
 417  768.7683
 418  815.988
 419  1004.431
 420  952.3255
 421  1402.648
 422  1307.733
 423  1163.945
 424  1131.033
 425  584.8353
 426  381.4345
 427  1004.31
 428  803.9565
 429  1109.998
 430  1096.154
 431  1141.398
 432  961.71
 433  884.8713
 434  843.22
 435  890.4788
 436  1070.392
 437  1345.256
 438  1075.354
 439  1226.961
 440  1170.656
 441  672.6064
 442  546.9491
 443  734.9238
 444  725.0414
 445  970.1068
 446  899.4681
 447  703.0663
 448  555.7196
 449  675.2889
 450  656.2919
 451  647.4547
 452  815.0932
 453  1086.111
 454  1112.656
 455  1267.411
 456  1196.654
 457  1053.263
 458  1325.485
 459  1120.291
 460  1362.424
 461  1126.469
 462  986.7803
 463  1126.61
 464  1005.715
 465  1126.544
 466  1137.88
 467  1070.679
 468  1175.745
 469  961.0494
 470  774.4084
 471  845.0428
 472  690.7019
 473  1327.655
 474  1021.42
 475  900.0683
 476  1286.109
 477  1278.289
 478  1459.863
 479  1194.727
 480  821.1407
 481  990.5383
 482  1404.907
 483  1316.71
 484  1185.51
 485  1280.756
 486  1169.944
 487  1244.892
 488  928.5413
 489  949.0873
 490  873.6278
 491  658.4468
 492  1116.943
 493  1265.816
 494  905.1832
 495  606.2515
 496  884.3505
 497  771.1087
 498  545.1654
 499  491.7138
 500  828.5307
 501  1192.583
 502  1046.763
 503  937.8965
 504  903.1383
 505  737.511
 506  1002.833
 507  1462.07
 508  1277.97
 509  1074.392
 510  933.2592
 511  712.1583
