# Input file       =  1205396186.107609_cleaned.dat
# Candidate        =  PSR_0332+5434
# Telescope        =  AR
# Epoch_topo       =  58195.344966523255
# Epoch_bary       =  N/A
# T_sample         =  0.002
# Data Folded      =  7405568
# Data Avg         =  0.132297304549575
# Data StdDev      =  4.29299742258987 
# Profile Bins     =  512
# Profile Avg      =  1913.37451518805 
# Profile StdDev   =  516.303220843076 
# Reduced chi-sqr  =  2.443
# Prob(Noise)      <  1.74e-63   (~16.8 sigma)
# P_topo (ms)      =  714.576383867481  +/- 2.16e-05
# P'_topo (s/s)    =  -0                +/- 1.13e-11
# P''_topo (s/s^2) =  0                 +/- 4.93e-15
# P_bary (ms)      =  N/A
# P'_bary (s/s)    =  N/A
# P''_bary (s/s^2) =  N/A
# P_orb (s)        =  N/A
# asin(i)/c (s)    =  N/A
# eccentricity     =  N/A
# w (rad)          =  N/A
# T_peri           =  N/A
######################################################
   0  1770.265
   1  2084.273
   2  1910.967
   3  1308.253
   4  1393.369
   5  1739.545
   6  2207.395
   7  2517.136
   8  2806.339
   9  2732.481
  10  2295.982
  11  1697.194
  12  1357.122
  13  1396.916
  14  1438.112
  15  1654.569
  16  1928.846
  17  2374.032
  18  1939.02
  19  1113.962
  20  1245.143
  21  1711.288
  22  1540.191
  23  2034.997
  24  2537.817
  25  2961.277
  26  2329.658
  27  1732.778
  28  1257.604
  29  1090.327
  30  1295.439
  31  1420.324
  32  1483.589
  33  1299.57
  34  1940.214
  35  1279.663
  36  583.4055
  37  1054.709
  38  1161.697
  39  1578.829
  40  2053.837
  41  2602.113
  42  2907.693
  43  2736.287
  44  2161.905
  45  1377.577
  46  1284.931
  47  1365.985
  48  1649.379
  49  1291.372
  50  1810.51
  51  1719.174
  52  1266.307
  53  1567.173
  54  1975.649
  55  1848.389
  56  1558.071
  57  1791.034
  58  2795.783
  59  2894.251
  60  2328.282
  61  1830.168
  62  1580.728
  63  1419.01
  64  1569.256
  65  1512.114
  66  1958.75
  67  2205.768
  68  2027.311
  69  1492.107
  70  1559.133
  71  2049.325
  72  1765.064
  73  1962.411
  74  2594.448
  75  2871.657
  76  2569.915
  77  1985.256
  78  1530.961
  79  1600.272
  80  1681.287
  81  1903.906
  82  1981.622
  83  2253.915
  84  2520.974
  85  1989.452
  86  1826.62
  87  1796.689
  88  1841.231
  89  2168.841
  90  2885.529
  91  3548.089
  92  3000.083
  93  2069.392
  94  1686.647
  95  1866.992
  96  2396.854
  97  2604.922
  98  2666.459
  99  3580.277
 100  4144.75
 101  3710.399
 102  3257.51
 103  3078.961
 104  2721.535
 105  2542.594
 106  2808.137
 107  3094.507
 108  3158.009
 109  2955.458
 110  1915.303
 111  1713.302
 112  2033.964
 113  1881.596
 114  1644.398
 115  2208.085
 116  2481.577
 117  2368.609
 118  1741.307
 119  1527.874
 120  1689.561
 121  2290.335
 122  2301.382
 123  2464.203
 124  2775.606
 125  2980.928
 126  2620.871
 127  1620.539
 128  1325.745
 129  1190.188
 130  1080.891
 131  1293.032
 132  1723.662
 133  1959.454
 134  1980.232
 135  1489.696
 136  1387.741
 137  1923.512
 138  1786.734
 139  2058.942
 140  2666.181
 141  2838.477
 142  2724.293
 143  1806.284
 144  1463.959
 145  1213.816
 146  1030.621
 147  1422.355
 148  1435.817
 149  1831.669
 150  1912.834
 151  1356.523
 152  849.6831
 153  1420.977
 154  1742.535
 155  2076.109
 156  2403.424
 157  2931.939
 158  2690.355
 159  2097.084
 160  1503
 161  1183.833
 162  1559.073
 163  1287.646
 164  1348.304
 165  1549.166
 166  1923.036
 167  1702.527
 168  1103.008
 169  1343.123
 170  1418.093
 171  1559.042
 172  2063.147
 173  2348.888
 174  2424.673
 175  2085.914
 176  1749.009
 177  1348.314
 178  1090.41
 179  1234.346
 180  1420.23
 181  1546.89
 182  1510.844
 183  1776.837
 184  1213.486
 185  771.5255
 186  1120.343
 187  1245.438
 188  1761.05
 189  2468.753
 190  3008.896
 191  2776.009
 192  1905.452
 193  1443.327
 194  1334.974
 195  1359.979
 196  1361.524
 197  1379.873
 198  1864.884
 199  2637.832
 200  2168.434
 201  1332.381
 202  1079.432
 203  1495.418
 204  1959.927
 205  2195.123
 206  2734.864
 207  2984.057
 208  2522.643
 209  1650.953
 210  1214.139
 211  1225.325
 212  1239.158
 213  1354.981
 214  1551.996
 215  1798.857
 216  1934.201
 217  1408.185
 218  937.5596
 219  1363.362
 220  1864.393
 221  1799.428
 222  2103.912
 223  2867.296
 224  3353.535
 225  2587.413
 226  1412.827
 227  1024.647
 228  1476.521
 229  2174.905
 230  1907.104
 231  1866.015
 232  2135.722
 233  2011.457
 234  1586.218
 235  1341.267
 236  1684.795
 237  2075.901
 238  2411.082
 239  2831.581
 240  3074.487
 241  2775.426
 242  2179.791
 243  1790.177
 244  1723.129
 245  1851.401
 246  1811.172
 247  1968.315
 248  2107.359
 249  1691.2
 250  1111.185
 251  821.4041
 252  1439.173
 253  1875.723
 254  1989.167
 255  2430.911
 256  2727.914
 257  2745.233
 258  1803.822
 259  1384.375
 260  1214.547
 261  1323.93
 262  1572.973
 263  1502.057
 264  2009.688
 265  2727.392
 266  1980.049
 267  1323.58
 268  935.1218
 269  1239.358
 270  1812.655
 271  2417.038
 272  2833.162
 273  3174.681
 274  2781.411
 275  1831.865
 276  1477.967
 277  1543.718
 278  1354.124
 279  1347.222
 280  1100.783
 281  1708.073
 282  2192.817
 283  1471.922
 284  993.2182
 285  1202.973
 286  1718.499
 287  1889.399
 288  2105.18
 289  2780.355
 290  2655.413
 291  2101.951
 292  1086.232
 293  946.8131
 294  1038.6
 295  1329.604
 296  1169.234
 297  1370.395
 298  2308.343
 299  1859.489
 300  1486.674
 301  1565.737
 302  1483.303
 303  1368.197
 304  1746.127
 305  2437.387
 306  2897.477
 307  3189.357
 308  2165.036
 309  1380.883
 310  1514.572
 311  1390.769
 312  1244.416
 313  1338.826
 314  1835.88
 315  2065.236
 316  1551.582
 317  1398.229
 318  1405.488
 319  1834.214
 320  2203.762
 321  2534.649
 322  3001.873
 323  3069.667
 324  2200.372
 325  1357.294
 326  922.5611
 327  1298.999
 328  1653.804
 329  1726.582
 330  1714.405
 331  2172.754
 332  1899.753
 333  1458.506
 334  1045.407
 335  1639.092
 336  1544.438
 337  1702.237
 338  2353.456
 339  2878.101
 340  2560.494
 341  1927.885
 342  1288.505
 343  1024.079
 344  1283.391
 345  1601.698
 346  1682.021
 347  1792.252
 348  2046.638
 349  1506.22
 350  990.7085
 351  1178.58
 352  1515.912
 353  2517.491
 354  2997.53
 355  2676.256
 356  2766.035
 357  2456.416
 358  1824.301
 359  1219.554
 360  1810.154
 361  1955.768
 362  1861.597
 363  2073.074
 364  2670.021
 365  2467.809
 366  1731.637
 367  1416.416
 368  1635.812
 369  2081.131
 370  2518.978
 371  3289.396
 372  3518.974
 373  2679.704
 374  2158.861
 375  1783.91
 376  1499.697
 377  1756.306
 378  1815.608
 379  1875.296
 380  2327.871
 381  2397.838
 382  2029.187
 383  1553.266
 384  1630.53
 385  1774.2
 386  2087.38
 387  2620.327
 388  3034.376
 389  3254.513
 390  2853.129
 391  2113.651
 392  1913.432
 393  1868.947
 394  1754.655
 395  1407.058
 396  1807.028
 397  2403.4
 398  2358.24
 399  1718.597
 400  1711.162
 401  1862.266
 402  2316.537
 403  2787.39
 404  2983.919
 405  3233.698
 406  2924.51
 407  2357.551
 408  1562.478
 409  1503.556
 410  1539.843
 411  1431.054
 412  1546.004
 413  2049.699
 414  2413.132
 415  1958.026
 416  1367.8
 417  1211.732
 418  1516.39
 419  2041.492
 420  2258.735
 421  2730.577
 422  2640.215
 423  2267.063
 424  1880.836
 425  1496.277
 426  1465.716
 427  1232.095
 428  1227.962
 429  1542.482
 430  2043.751
 431  1822.497
 432  1261.702
 433  1116.681
 434  1562.298
 435  1802.026
 436  2140.303
 437  2722.061
 438  2894.41
 439  2509.302
 440  1660.514
 441  1187.405
 442  1229.25
 443  1367.403
 444  1356.026
 445  1548.619
 446  2067.999
 447  1852.467
 448  1422.211
 449  1158.948
 450  1212.838
 451  1263.402
 452  1578.455
 453  2241.764
 454  2597.965
 455  2747.409
 456  2643.654
 457  1881.596
 458  1129.972
 459  1062.579
 460  955.0388
 461  1219.375
 462  1370.525
 463  1934.771
 464  2116.139
 465  1695.804
 466  1387.623
 467  1634.869
 468  1784.695
 469  1931.862
 470  2687.113
 471  3117.877
 472  2849.637
 473  2218.818
 474  1606.022
 475  1703.101
 476  1618.26
 477  1640.627
 478  1289.283
 479  1757.253
 480  2176.493
 481  1993.523
 482  1345.18
 483  1644.927
 484  2145.259
 485  1996.166
 486  2260.476
 487  2728.043
 488  2930.377
 489  2298.941
 490  1873.341
 491  1527.554
 492  1614.27
 493  1968.905
 494  1645.268
 495  2020.414
 496  2447.126
 497  2588.047
 498  1777.708
 499  1588.071
 500  2034.26
 501  2174.001
 502  2328.734
 503  2589.438
 504  2876.003
 505  2459.256
 506  1921.911
 507  1739.111
 508  1622.791
 509  2164.232
 510  2007.363
 511  1932.922
