# Input file       =  1205051296.112978_cleaned.dat
# Candidate        =  PSR_0332+5434
# Telescope        =  AR
# Epoch_topo       =  58191.353184177984
# Epoch_bary       =  N/A
# T_sample         =  0.002
# Data Folded      =  7208960
# Data Avg         =  -0.110576970479451
# Data StdDev      =  6.63609581353486 
# Profile Bins     =  1024
# Profile Avg      =  -778.492726720152
# Profile StdDev   =  556.799680523221 
# Reduced chi-sqr  =  0.548
# Prob(Noise)      <  1   (~0.0 sigma)
# P_topo (ms)      =  714.577797068561  +/- 5.22e-05
# P'_topo (s/s)    =  -0                +/- 2.8e-11
# P''_topo (s/s^2) =  0                 +/- 1.26e-14
# P_bary (ms)      =  N/A
# P'_bary (s/s)    =  N/A
# P''_bary (s/s^2) =  N/A
# P_orb (s)        =  N/A
# asin(i)/c (s)    =  N/A
# eccentricity     =  N/A
# w (rad)          =  N/A
# T_peri           =  N/A
######################################################
   0  -707.6584
   1  -697.408
   2  -716.1854
   3  -829.6713
   4  -692.7563
   5  -765.9973
   6  -923.843
   7  -997.8959
   8  -1095.019
   9  -870.7272
  10  -744.628
  11  -892.4583
  12  -895.2088
  13  -965.1859
  14  -991.2997
  15  -1270.988
  16  -1326.989
  17  -1178.763
  18  -1090.922
  19  -942.6533
  20  -772.8822
  21  -755.1914
  22  -539.8386
  23  -631.1279
  24  -692.7532
  25  -727.1958
  26  -727.1791
  27  -639.9195
  28  -762.5471
  29  -1010.976
  30  -1336.596
  31  -1417.109
  32  -1227.875
  33  -1147.521
  34  -937.1912
  35  -703.6844
  36  -512.4515
  37  -415.5769
  38  -634.78
  39  -785.0014
  40  -830.6563
  41  -894.6514
  42  -976.9252
  43  -1122.328
  44  -1303.103
  45  -1183.252
  46  -1054.306
  47  -1023.346
  48  -1305.889
  49  -1164.68
  50  -985.4867
  51  -896.836
  52  -930.6552
  53  -848.3633
  54  -848.4136
  55  -899.9088
  56  -963.826
  57  -779.9059
  58  -732.11
  59  -650.291
  60  -625.7425
  61  -635.0521
  62  -797.2867
  63  -1058.422
  64  -1115.903
  65  -1087.123
  66  -911.8842
  67  -788.5555
  68  -746.8872
  69  -622.5167
  70  -677.345
  71  -684.1201
  72  -747.6528
  73  -861.8398
  74  -868.9446
  75  -741.905
  76  -783.8881
  77  -886.4551
  78  -967.2676
  79  -929.533
  80  -904.7792
  81  -856.7692
  82  -892.9749
  83  -986.6356
  84  -963.1512
  85  -1004.808
  86  -1052.978
  87  -989.683
  88  -1007.352
  89  -946.2311
  90  -980.0137
  91  -866.1671
  92  -688.7323
  93  -522.684
  94  -437.6766
  95  -655.9114
  96  -834.425
  97  -993.625
  98  -1172.651
  99  -1089.674
 100  -988.1586
 101  -1008.884
 102  -961.2564
 103  -974.2981
 104  -939.8
 105  -807.9913
 106  -941.4168
 107  -962.2703
 108  -882.6092
 109  -803.3849
 110  -704.0369
 111  -846.1229
 112  -912.814
 113  -1075.309
 114  -1022.002
 115  -1030.688
 116  -1119.898
 117  -1159.826
 118  -1078.339
 119  -1100.054
 120  -1168.642
 121  -1192.954
 122  -1080.464
 123  -1117.569
 124  -1093.682
 125  -929.8038
 126  -655.1838
 127  -554.6638
 128  -574.8253
 129  -635.835
 130  -760.9294
 131  -1016.069
 132  -907.0276
 133  -895.9814
 134  -742.0809
 135  -938.177
 136  -1038.238
 137  -1079.434
 138  -1076.871
 139  -997.608
 140  -823.4724
 141  -816.447
 142  -746.9891
 143  -806.1422
 144  -933.9444
 145  -961.5362
 146  -915.5396
 147  -966.1652
 148  -1250.041
 149  -1207.957
 150  -1102.507
 151  -1033.729
 152  -912.3932
 153  -976.2118
 154  -1207.74
 155  -1134.976
 156  -1227.257
 157  -1131.029
 158  -1098.52
 159  -729.212
 160  -674.8513
 161  -607.2427
 162  -718.8856
 163  -768.8073
 164  -958.5464
 165  -883.6465
 166  -934.838
 167  -774.2233
 168  -673.9689
 169  -766.0804
 170  -839.1213
 171  -1094.635
 172  -1083.564
 173  -1095.004
 174  -1004.738
 175  -903.3103
 176  -841.0093
 177  -828.6214
 178  -967.8649
 179  -1072.898
 180  -1117.749
 181  -1311.253
 182  -1250.52
 183  -1028.398
 184  -824.6213
 185  -843.274
 186  -870.3068
 187  -818.4336
 188  -824.5891
 189  -994.6138
 190  -898.0164
 191  -898.7066
 192  -901.9469
 193  -750.8586
 194  -823.256
 195  -757.8986
 196  -956.8854
 197  -786.8372
 198  -747.4903
 199  -670.3619
 200  -640.5904
 201  -762.1512
 202  -683.4237
 203  -697.3246
 204  -783.7097
 205  -763.4743
 206  -1011.181
 207  -934.878
 208  -888.2017
 209  -803.2083
 210  -817.9315
 211  -961.9742
 212  -1104.027
 213  -1319.067
 214  -1199.192
 215  -1121.29
 216  -1177.23
 217  -1044.105
 218  -692.3199
 219  -658.1162
 220  -550.6196
 221  -695.9868
 222  -551.7065
 223  -643.0418
 224  -546.9331
 225  -618.0386
 226  -828.8969
 227  -929.0192
 228  -942.2504
 229  -941.1052
 230  -976.1733
 231  -1024.772
 232  -862.1019
 233  -658.464
 234  -522.9766
 235  -410.8492
 236  -459.937
 237  -582.6031
 238  -701.565
 239  -696.4725
 240  -615.475
 241  -816.7316
 242  -871.8396
 243  -787.4352
 244  -805.72
 245  -901.8661
 246  -976.1156
 247  -950.8237
 248  -922.4039
 249  -874.6284
 250  -1035.442
 251  -958.47
 252  -779.6561
 253  -613.4527
 254  -745.3405
 255  -814.2201
 256  -827.2065
 257  -646.9439
 258  -478.8766
 259  -339.2531
 260  -474.1159
 261  -539.296
 262  -740.0803
 263  -923.799
 264  -1042.684
 265  -899.6472
 266  -821.674
 267  -655.9888
 268  -719.2661
 269  -747.8935
 270  -573.3789
 271  -568.938
 272  -608.1206
 273  -600.5208
 274  -663.5359
 275  -631.3311
 276  -589.3101
 277  -568.7925
 278  -774.0865
 279  -955.6979
 280  -1070.068
 281  -1004.107
 282  -813.5979
 283  -831.6965
 284  -827.7474
 285  -797.6108
 286  -647.5333
 287  -700.4681
 288  -688.4894
 289  -580.8322
 290  -282.6051
 291  -240.0707
 292  -344.9454
 293  -604.304
 294  -726.1178
 295  -847.4932
 296  -971.8345
 297  -1015.634
 298  -934.6271
 299  -792.035
 300  -502.416
 301  -666.5607
 302  -966.7758
 303  -1197.89
 304  -1086.909
 305  -727.936
 306  -737.3688
 307  -628.4941
 308  -699.0305
 309  -572.7844
 310  -650.3681
 311  -685.0481
 312  -852.6147
 313  -928.72
 314  -879.6006
 315  -834.8834
 316  -713.4465
 317  -625.0045
 318  -716.8915
 319  -859.4938
 320  -972.6006
 321  -1055.499
 322  -1022.614
 323  -795.9493
 324  -644.8701
 325  -723.3943
 326  -726.5797
 327  -667.5023
 328  -724.9234
 329  -834.2727
 330  -887.1432
 331  -776.4749
 332  -638.5049
 333  -560.4444
 334  -739.8231
 335  -772.1874
 336  -958.5299
 337  -1065.805
 338  -1128.791
 339  -1163.336
 340  -1127.231
 341  -1008.469
 342  -906.6783
 343  -917.4073
 344  -917.1179
 345  -910.9131
 346  -943.5229
 347  -770.5533
 348  -660.1041
 349  -620.7781
 350  -694.5403
 351  -744.59
 352  -928.7368
 353  -969.5648
 354  -1012.696
 355  -822.3418
 356  -848.4793
 357  -813.6064
 358  -652.9291
 359  -610.7502
 360  -566.5869
 361  -784.9758
 362  -849.171
 363  -809.3735
 364  -737.2405
 365  -628.0104
 366  -786.8965
 367  -810.333
 368  -969.3253
 369  -1063.097
 370  -978.118
 371  -986.0439
 372  -879.3412
 373  -769.253
 374  -809.1507
 375  -959.7092
 376  -978.3337
 377  -1079.414
 378  -1113.128
 379  -1194.817
 380  -1074.604
 381  -946.8818
 382  -680.7943
 383  -626.8237
 384  -782.6373
 385  -881.9641
 386  -849.9097
 387  -898.8984
 388  -673.8488
 389  -732.0732
 390  -645.842
 391  -669.6572
 392  -623.4879
 393  -738.3529
 394  -923.0031
 395  -993.384
 396  -1017.678
 397  -836.3235
 398  -790.449
 399  -723.3138
 400  -549.8643
 401  -558.5909
 402  -777.8725
 403  -945.0251
 404  -1027.685
 405  -900.1788
 406  -768.0811
 407  -765.7771
 408  -965.9186
 409  -1062.375
 410  -1138.175
 411  -1107.292
 412  -1210.716
 413  -1146.84
 414  -1197.105
 415  -1073.249
 416  -1122.796
 417  -1013.942
 418  -852.1984
 419  -697.6401
 420  -714.5449
 421  -646.298
 422  -680.2923
 423  -610.3651
 424  -597.3773
 425  -453.8642
 426  -600.6463
 427  -879.842
 428  -975.5356
 429  -968.5949
 430  -886.1004
 431  -851.4192
 432  -742.7887
 433  -689.6699
 434  -818.4344
 435  -766.8159
 436  -877.5609
 437  -852.822
 438  -688.8171
 439  -624.7565
 440  -592.8336
 441  -638.0522
 442  -629.7567
 443  -780.233
 444  -808.5768
 445  -823.9914
 446  -927.1969
 447  -802.251
 448  -855.0779
 449  -879.8287
 450  -896.0959
 451  -954.6395
 452  -878.1249
 453  -759.6887
 454  -652.028
 455  -586.7016
 456  -389.6451
 457  -200.3987
 458  -256.2305
 459  -371.334
 460  -346.0022
 461  -409.086
 462  -479.0305
 463  -499.8948
 464  -616.1425
 465  -570.7481
 466  -780.239
 467  -982.4838
 468  -1030.301
 469  -1037.66
 470  -1025.179
 471  -995.2076
 472  -630.4674
 473  -484.247
 474  -460.2523
 475  -506.7049
 476  -662.6694
 477  -910.3004
 478  -1103.997
 479  -975.597
 480  -703.8519
 481  -670.7439
 482  -720.1307
 483  -956.9439
 484  -981.6026
 485  -855.9055
 486  -590.42
 487  -538.0662
 488  -471.7404
 489  -493.1642
 490  -188.3041
 491  -286.6128
 492  -390.0914
 493  -598.06
 494  -439.2135
 495  -455.355
 496  -577.8318
 497  -675.2061
 498  -541.2167
 499  -599.4663
 500  -568.6066
 501  -757.0461
 502  -818.0676
 503  -841.7896
 504  -917.0496
 505  -790.4382
 506  -673.0101
 507  -577.2696
 508  -714.3242
 509  -674.5179
 510  -650.2897
 511  -782.1627
 512  -1000.838
 513  -989.0582
 514  -910.8795
 515  -656.8818
 516  -581.3215
 517  -569.464
 518  -551.4913
 519  -640.0873
 520  -592.8333
 521  -611.7362
 522  -651.3455
 523  -656.9842
 524  -697.1776
 525  -617.8109
 526  -788.0095
 527  -809.9314
 528  -751.7323
 529  -521.9008
 530  -266.3718
 531  -206.5394
 532  -435.274
 533  -517.8361
 534  -660.5977
 535  -709.5438
 536  -772.8463
 537  -806.4675
 538  -737.6716
 539  -766.1378
 540  -660.9395
 541  -855.0898
 542  -938.1843
 543  -1018.79
 544  -806.8156
 545  -823.7294
 546  -843.1064
 547  -855.9138
 548  -758.4958
 549  -751.4442
 550  -721.173
 551  -697.3472
 552  -766.0584
 553  -756.1726
 554  -825.2908
 555  -693.8275
 556  -678.978
 557  -769.6059
 558  -649.8192
 559  -702.2461
 560  -849.17
 561  -975.4079
 562  -620.4045
 563  -466.0849
 564  -549.5316
 565  -566.2665
 566  -558.02
 567  -735.2862
 568  -672.1083
 569  -787.6406
 570  -712.4968
 571  -603.478
 572  -559.6146
 573  -756.6105
 574  -851.0953
 575  -886.2921
 576  -971.4323
 577  -1053.611
 578  -1081.097
 579  -993.2971
 580  -817.9589
 581  -762.6903
 582  -765.6492
 583  -763.9372
 584  -866.0667
 585  -866.6384
 586  -627.2078
 587  -492.951
 588  -337.5702
 589  -451.2337
 590  -474.1822
 591  -780.2272
 592  -841.56
 593  -753.0337
 594  -737.3599
 595  -753.9835
 596  -735.9968
 597  -596.2719
 598  -446.433
 599  -448.8491
 600  -556.5983
 601  -635.0783
 602  -617.1854
 603  -289.339
 604  18.41994
 605  261.5823
 606  375.9574
 607  303.5701
 608  23.39313
 609  -266.2304
 610  -489.7414
 611  -542.8453
 612  -597.3502
 613  -740.4663
 614  -948.4137
 615  -977.352
 616  -933.0629
 617  -815.9623
 618  -725.0824
 619  -662.0312
 620  -699.018
 621  -602.4775
 622  -716.6208
 623  -628.2507
 624  -508.0327
 625  -297.0134
 626  -551.2238
 627  -693.1703
 628  -821.2654
 629  -801.6935
 630  -785.7535
 631  -811.5887
 632  -906.1428
 633  -778.4453
 634  -750.0496
 635  -601.2603
 636  -445.4615
 637  -422.2054
 638  -570.5438
 639  -630.1811
 640  -565.407
 641  -687.9874
 642  -836.4978
 643  -973.0226
 644  -1044.854
 645  -900.7384
 646  -863.0577
 647  -897.8766
 648  -914.283
 649  -923.3788
 650  -868.827
 651  -780.2222
 652  -733.4714
 653  -523.5903
 654  -433.2155
 655  -417.949
 656  -722.2495
 657  -912.1249
 658  -847.4987
 659  -811.4519
 660  -762.8499
 661  -827.6985
 662  -739.7661
 663  -609.8416
 664  -528.5578
 665  -647.5409
 666  -815.6724
 667  -976.6075
 668  -947.0043
 669  -1106.244
 670  -1080.486
 671  -968.2336
 672  -842.3085
 673  -806.9283
 674  -900.6548
 675  -926.5374
 676  -928.3222
 677  -822.5953
 678  -618.4635
 679  -515.205
 680  -444.8473
 681  -495.5296
 682  -559.7866
 683  -520.7748
 684  -734.1003
 685  -710.8629
 686  -569.6412
 687  -491.6661
 688  -536.2374
 689  -575.2791
 690  -525.1637
 691  -557.2249
 692  -516.4995
 693  -423.8994
 694  -441.4334
 695  -181.7906
 696  -175.6559
 697  -469.1118
 698  -684.061
 699  -995.1622
 700  -1115.703
 701  -1129.132
 702  -1014.15
 703  -859.532
 704  -739.6597
 705  -537.4489
 706  -657.1152
 707  -848.7891
 708  -977.7398
 709  -930.2228
 710  -955.619
 711  -898.9167
 712  -865.7012
 713  -683.2727
 714  -687.9516
 715  -683.644
 716  -691.3872
 717  -718.3962
 718  -592.574
 719  -492.0706
 720  -431.6507
 721  -434.9579
 722  -533.6076
 723  -440.6667
 724  -606.373
 725  -695.7073
 726  -852.3015
 727  -798.0313
 728  -635.2612
 729  -563.8766
 730  -548.7038
 731  -620.207
 732  -571.5054
 733  -462.1557
 734  -580.4731
 735  -683.3191
 736  -430.4467
 737  -358.9526
 738  -339.0799
 739  -674.7742
 740  -722.1677
 741  -918.352
 742  -1017.875
 743  -1255.602
 744  -1061.02
 745  -772.9734
 746  -584.9931
 747  -562.1132
 748  -528.1476
 749  -634.0938
 750  -732.8026
 751  -613.5616
 752  -490.4691
 753  -407.0474
 754  -392.0828
 755  -456.9043
 756  -743.473
 757  -964.0045
 758  -952.0792
 759  -875.1379
 760  -653.9459
 761  -745.227
 762  -845.4625
 763  -681.1688
 764  -507.6735
 765  -431.058
 766  -542.6115
 767  -689.0156
 768  -796.5464
 769  -672.6125
 770  -621.1077
 771  -578.0044
 772  -763.6439
 773  -845.6966
 774  -987.7092
 775  -898.0857
 776  -988.6227
 777  -1064.477
 778  -1043.766
 779  -883.7722
 780  -759.9437
 781  -873.2365
 782  -937.3235
 783  -762.869
 784  -721.1178
 785  -670.4927
 786  -555.8229
 787  -219.2559
 788  4.836231
 789  -278.4464
 790  -585.2255
 791  -786.5225
 792  -745.8954
 793  -889.7347
 794  -828.4708
 795  -818.4715
 796  -697.111
 797  -769.9977
 798  -559.4454
 799  -640.9175
 800  -663.6002
 801  -600.9489
 802  -466.4841
 803  -408.5921
 804  -444.5746
 805  -473.2977
 806  -425.3314
 807  -458.5485
 808  -687.7146
 809  -905.1091
 810  -943.8156
 811  -787.0928
 812  -870.412
 813  -806.2567
 814  -1009.259
 815  -954.4654
 816  -795.2885
 817  -774.6165
 818  -712.8642
 819  -492.7629
 820  -279.6038
 821  -321.7215
 822  -475.2803
 823  -529.5431
 824  -715.8578
 825  -543.5026
 826  -479.955
 827  -354.1557
 828  -381.971
 829  -423.4485
 830  -644.1472
 831  -608.0897
 832  -765.0988
 833  -743.3686
 834  -832.0474
 835  -681.4833
 836  -563.1846
 837  -580.4979
 838  -518.3557
 839  -627.2763
 840  -631.6816
 841  -658.2578
 842  -614.5068
 843  -673.2239
 844  -703.3191
 845  -761.9443
 846  -779.0204
 847  -911.1296
 848  -940.0138
 849  -987.9616
 850  -912.7853
 851  -720.6031
 852  -708.6729
 853  -791.0408
 854  -874.6619
 855  -913.6775
 856  -796.9703
 857  -690.6574
 858  -663.1512
 859  -793.6852
 860  -609.9072
 861  -396.8526
 862  -460.9036
 863  -453.2737
 864  -796.8938
 865  -943.569
 866  -1041.908
 867  -1041.759
 868  -1119.952
 869  -1226.082
 870  -1173.058
 871  -1029.311
 872  -897.4596
 873  -1064.764
 874  -1285.009
 875  -1137.029
 876  -1075.684
 877  -1062.404
 878  -975.1849
 879  -984.952
 880  -1050.845
 881  -829.7766
 882  -661.9813
 883  -766.8378
 884  -915.3558
 885  -752.4433
 886  -530.5465
 887  -686.0975
 888  -766.4865
 889  -1007.147
 890  -867.727
 891  -1039.727
 892  -1052.3
 893  -943.5607
 894  -774.3447
 895  -819.4219
 896  -819.9099
 897  -907.3765
 898  -675.6707
 899  -636.9525
 900  -606.2747
 901  -675.9966
 902  -751.5159
 903  -796.9583
 904  -943.0031
 905  -1111.516
 906  -1301.277
 907  -1363.282
 908  -1253.043
 909  -1196.531
 910  -1147.612
 911  -938.381
 912  -772.0635
 913  -543.4215
 914  -600.9543
 915  -456.6815
 916  -436.6575
 917  -446.9008
 918  -399.519
 919  -363.0291
 920  -548.1646
 921  -824.2679
 922  -1004.021
 923  -1010.468
 924  -1154.907
 925  -1054.796
 926  -817.7369
 927  -699.5366
 928  -451.9164
 929  -326.3738
 930  -411.039
 931  -494.2011
 932  -645.7494
 933  -629.902
 934  -624.2131
 935  -529.3956
 936  -525.9666
 937  -669.9404
 938  -1108.458
 939  -1327.789
 940  -1214.513
 941  -1056.232
 942  -1113.43
 943  -1082.199
 944  -977.4142
 945  -1014.386
 946  -887.2147
 947  -914.6966
 948  -944.437
 949  -922.4993
 950  -603.7101
 951  -150.5851
 952  -195.4194
 953  -264.1706
 954  -424.8556
 955  -648.7795
 956  -872.4327
 957  -1135.876
 958  -908.2399
 959  -921.6007
 960  -961.1176
 961  -866.3195
 962  -838.7495
 963  -845.2245
 964  -919.5477
 965  -796.8777
 966  -645.8564
 967  -576.2141
 968  -412.9622
 969  -468.7072
 970  -594.7383
 971  -721.108
 972  -728.4597
 973  -948.4814
 974  -1187.466
 975  -1190.213
 976  -970.7099
 977  -868.9052
 978  -742.9838
 979  -756.9922
 980  -778.8082
 981  -775.1415
 982  -832.9697
 983  -655.8438
 984  -581.4611
 985  -475.494
 986  -485.491
 987  -524.6342
 988  -660.4921
 989  -842.8919
 990  -834.911
 991  -843.9488
 992  -881.645
 993  -745.146
 994  -677.9953
 995  -858.4776
 996  -946.2835
 997  -1218.691
 998  -1286.439
 999  -1245.71
1000  -1028.242
1001  -883.6351
1002  -956.0154
1003  -949.6586
1004  -943.6507
1005  -830.5551
1006  -914.0948
1007  -1256.244
1008  -1086.02
1009  -959.2146
1010  -720.5521
1011  -748.8129
1012  -641.5208
1013  -716.3209
1014  -926.0237
1015  -911.6647
1016  -726.8649
1017  -537.845
1018  -525.2791
1019  -722.634
1020  -854.5753
1021  -841.5626
1022  -845.3585
1023  -731.0444
