# Input file       =  1205598593.103592_cleaned.dat
# Candidate        =  PSR_0332+5434
# Telescope        =  AR
# Epoch_topo       =  58197.687640087868
# Epoch_bary       =  N/A
# T_sample         =  0.002
# Data Folded      =  7340032
# Data Avg         =  0.199511561780777
# Data StdDev      =  5.07152094718967 
# Profile Bins     =  1024
# Profile Avg      =  1430.09783704395 
# Profile StdDev   =  429.375462243795 
# Reduced chi-sqr  =  0.631
# Prob(Noise)      <  1   (~0.0 sigma)
# P_topo (ms)      =  714.575795379214  +/- 0.000476
# P'_topo (s/s)    =  -0                +/- 2.51e-10
# P''_topo (s/s^2) =  0                 +/- 1.11e-13
# P_bary (ms)      =  N/A
# P'_bary (s/s)    =  N/A
# P''_bary (s/s^2) =  N/A
# P_orb (s)        =  N/A
# asin(i)/c (s)    =  N/A
# eccentricity     =  N/A
# w (rad)          =  N/A
# T_peri           =  N/A
######################################################
   0  1544.302
   1  1508.763
   2  1391.665
   3  1362.247
   4  1400.637
   5  1563.101
   6  1686.161
   7  1551.786
   8  1417.731
   9  1331.505
  10  1258.1
  11  1381.443
  12  1498.797
  13  1548.458
  14  1566.654
  15  1520.455
  16  1446.391
  17  1382.556
  18  1350.893
  19  1322.739
  20  1337.666
  21  1376.168
  22  1478.41
  23  1561.954
  24  1603.789
  25  1544.895
  26  1437.97
  27  1357.128
  28  1441.152
  29  1643.933
  30  1673.013
  31  1500.049
  32  1337.173
  33  1329.522
  34  1481.342
  35  1506.598
  36  1513.835
  37  1382.886
  38  1402.27
  39  1338.814
  40  1281.109
  41  1378.715
  42  1442.207
  43  1468.144
  44  1334.516
  45  1290.217
  46  1413.792
  47  1379.374
  48  1304.061
  49  1327.829
  50  1443.783
  51  1436.248
  52  1372.988
  53  1376.978
  54  1387.673
  55  1337.133
  56  1354.833
  57  1441.086
  58  1350.905
  59  1268.881
  60  1168.498
  61  1233.659
  62  1363.538
  63  1407.826
  64  1427.071
  65  1454.066
  66  1440.081
  67  1382.215
  68  1174.136
  69  1252.205
  70  1300.573
  71  1380.206
  72  1282.979
  73  1260.252
  74  1291.366
  75  1294.528
  76  1318.661
  77  1339.888
  78  1315.555
  79  1306.477
  80  1391.387
  81  1342.296
  82  1215.063
  83  1190.326
  84  1255.476
  85  1414.713
  86  1410.581
  87  1325.202
  88  1329.167
  89  1280.903
  90  1338.638
  91  1235.112
  92  1350.09
  93  1451.896
  94  1501.112
  95  1400.669
  96  1375.112
  97  1291.038
  98  1280.185
  99  1153.382
 100  1263.398
 101  1384.922
 102  1480.236
 103  1537.123
 104  1433.012
 105  1416.522
 106  1313.635
 107  1335.553
 108  1321.815
 109  1289.942
 110  1347.872
 111  1459.709
 112  1570.715
 113  1443.696
 114  1273.982
 115  1135.304
 116  1081.825
 117  1122.349
 118  1120.031
 119  1272.868
 120  1368.827
 121  1514.914
 122  1444.195
 123  1230.621
 124  1112.856
 125  1143.712
 126  1307.499
 127  1450.899
 128  1453.98
 129  1490.822
 130  1460.433
 131  1520.404
 132  1519.707
 133  1670.141
 134  1654.234
 135  1587.262
 136  1464.962
 137  1464.641
 138  1476.986
 139  1459.455
 140  1513.501
 141  1569.85
 142  1606.478
 143  1701.964
 144  1692.784
 145  1790.539
 146  1808.706
 147  1864.356
 148  1718.665
 149  1558.936
 150  1609.45
 151  1810.38
 152  1854.833
 153  1744.453
 154  1527.736
 155  1509.156
 156  1540.117
 157  1706.878
 158  1708
 159  1780.365
 160  1707.419
 161  1718.865
 162  1651.294
 163  1673.731
 164  1592.913
 165  1686.204
 166  1684.598
 167  1589.895
 168  1542.417
 169  1508.505
 170  1567.4
 171  1662.075
 172  1710.267
 173  1608.558
 174  1538.125
 175  1576.432
 176  1518.435
 177  1552.678
 178  1578.067
 179  1621.742
 180  1681.773
 181  1579.887
 182  1622.651
 183  1536.899
 184  1669.331
 185  1685.554
 186  1539.502
 187  1565.009
 188  1605.383
 189  1644.03
 190  1650.935
 191  1651.975
 192  1685.307
 193  1572.965
 194  1518.384
 195  1523.826
 196  1535.311
 197  1519.431
 198  1398.719
 199  1377.409
 200  1286.871
 201  1303.228
 202  1376.044
 203  1364.628
 204  1357.663
 205  1421.36
 206  1426.085
 207  1340.458
 208  1283.32
 209  1160.288
 210  1051.873
 211  1074.478
 212  1114.195
 213  1113.629
 214  1098.015
 215  1257.019
 216  1356.487
 217  1291.234
 218  1271.671
 219  1326.627
 220  1473.764
 221  1421.027
 222  1272.054
 223  1327.966
 224  1299.411
 225  1437.331
 226  1464.843
 227  1427.731
 228  1340.025
 229  1275.227
 230  1341.163
 231  1369.616
 232  1397.668
 233  1397.436
 234  1376.543
 235  1407.738
 236  1360.011
 237  1275.942
 238  1164.955
 239  1166.534
 240  1170.992
 241  1322.197
 242  1367.347
 243  1443.781
 244  1462.665
 245  1563.978
 246  1555.266
 247  1483.774
 248  1343.333
 249  1216.9
 250  1256.257
 251  1433.735
 252  1580.712
 253  1447.329
 254  1356.725
 255  1261.708
 256  1305.498
 257  1443.542
 258  1587.898
 259  1737.944
 260  1716.802
 261  1720.92
 262  1761.57
 263  1665.996
 264  1579.375
 265  1602.162
 266  1701.532
 267  1674.428
 268  1576.745
 269  1569.745
 270  1576.976
 271  1523.753
 272  1448.378
 273  1448.169
 274  1467.505
 275  1588.397
 276  1561.167
 277  1411.572
 278  1407.888
 279  1561.15
 280  1657.544
 281  1580.408
 282  1486.317
 283  1571.958
 284  1471.93
 285  1482.255
 286  1469.474
 287  1437.961
 288  1419.389
 289  1334.405
 290  1419.838
 291  1461.042
 292  1360.016
 293  1378.163
 294  1378.353
 295  1496.351
 296  1442.96
 297  1420.337
 298  1456.931
 299  1549.041
 300  1448.275
 301  1245.762
 302  1174.818
 303  1242.175
 304  1308.352
 305  1275.147
 306  1211.985
 307  1112.795
 308  1109.277
 309  1060.122
 310  1054.143
 311  1115.351
 312  1112.956
 313  1202.237
 314  1337.122
 315  1459.92
 316  1486.539
 317  1444.366
 318  1544.861
 319  1539.812
 320  1429.158
 321  1402.829
 322  1515.622
 323  1673.675
 324  1803.328
 325  1927.987
 326  1863.449
 327  1797.384
 328  1738.062
 329  1646.097
 330  1649.823
 331  1533.293
 332  1560.87
 333  1478.649
 334  1496.035
 335  1479.807
 336  1651.959
 337  1718.949
 338  1782.446
 339  1852.276
 340  1935.014
 341  1919.917
 342  1950.409
 343  1957.236
 344  1971.847
 345  1857.578
 346  1626.766
 347  1369.541
 348  1494.494
 349  1597.475
 350  1711.608
 351  1641.442
 352  1491.163
 353  1422.662
 354  1260.589
 355  1307.304
 356  1423.525
 357  1491.983
 358  1626.321
 359  1635.635
 360  1537.004
 361  1427.921
 362  1287.703
 363  1331.208
 364  1317.544
 365  1302.979
 366  1389.634
 367  1500.312
 368  1543.75
 369  1441.952
 370  1445.552
 371  1504.429
 372  1531.825
 373  1440.522
 374  1323.625
 375  1270.763
 376  1370.065
 377  1396.641
 378  1393.725
 379  1367.728
 380  1483.88
 381  1419.689
 382  1493.934
 383  1424.541
 384  1476.139
 385  1526.845
 386  1501.403
 387  1427.694
 388  1261.346
 389  1256.336
 390  1269.594
 391  1289.923
 392  1319.894
 393  1352.082
 394  1352.709
 395  1285.495
 396  1318.193
 397  1458.156
 398  1512.1
 399  1541.381
 400  1451.507
 401  1490.536
 402  1382.764
 403  1348.486
 404  1345.662
 405  1463.236
 406  1318.724
 407  1240.608
 408  1286.788
 409  1365.062
 410  1318.238
 411  1189.354
 412  1226.849
 413  1384.671
 414  1436.277
 415  1495.06
 416  1527.644
 417  1501.372
 418  1454.585
 419  1350.335
 420  1190.908
 421  1201.047
 422  1155.907
 423  1382.04
 424  1434.794
 425  1601.716
 426  1512.15
 427  1419.101
 428  1350.014
 429  1348.411
 430  1420.938
 431  1322.953
 432  1326.171
 433  1481.035
 434  1594.604
 435  1564.824
 436  1412.608
 437  1430.092
 438  1421.584
 439  1415.664
 440  1389.264
 441  1361.653
 442  1397.365
 443  1296.252
 444  1393.985
 445  1483.161
 446  1520.228
 447  1589.434
 448  1512.564
 449  1442.078
 450  1369.842
 451  1335.615
 452  1228.455
 453  1185.584
 454  1311.526
 455  1525.61
 456  1551.155
 457  1460.294
 458  1311.799
 459  1288.927
 460  1376.895
 461  1467.05
 462  1491.127
 463  1520.884
 464  1456.568
 465  1280.474
 466  1225.821
 467  1213.742
 468  1329.036
 469  1371.344
 470  1501.318
 471  1490.189
 472  1278.589
 473  1126.106
 474  1021.667
 475  1055.148
 476  982.1541
 477  974.5508
 478  1055.384
 479  1116.7
 480  1146.554
 481  1149.073
 482  1069.602
 483  1044.617
 484  1071.932
 485  1063.001
 486  908.1588
 487  886.9821
 488  971.9138
 489  1068.273
 490  1091.271
 491  1158.017
 492  1142.427
 493  1103.344
 494  1127.783
 495  1223.969
 496  1282.891
 497  1196.379
 498  1025.965
 499  1041.845
 500  1110.534
 501  1216.263
 502  1191.809
 503  1171.282
 504  1177.859
 505  1163.061
 506  1401.195
 507  1408.601
 508  1467.443
 509  1338.721
 510  1280.523
 511  1128.89
 512  1208.836
 513  1260.028
 514  1530.042
 515  1509.763
 516  1463.978
 517  1327.683
 518  1412.875
 519  1461
 520  1509.956
 521  1628.51
 522  1528.631
 523  1592.212
 524  1674.916
 525  1778.818
 526  1538.632
 527  1369.337
 528  1233.458
 529  1160.237
 530  1241.166
 531  1250.672
 532  1353.936
 533  1277.064
 534  1193.397
 535  1195.873
 536  1266.932
 537  1380.366
 538  1454.77
 539  1491.791
 540  1430.438
 541  1421.187
 542  1391.019
 543  1338.636
 544  1351.063
 545  1271.878
 546  1211.385
 547  1099.087
 548  1123.789
 549  1183.739
 550  1334.823
 551  1332.942
 552  1414.884
 553  1512
 554  1543.662
 555  1486.533
 556  1483.197
 557  1565.732
 558  1523.798
 559  1383.596
 560  1468.588
 561  1436.811
 562  1400.876
 563  1316.549
 564  1402.252
 565  1444.803
 566  1485.219
 567  1660.048
 568  1672.444
 569  1675.044
 570  1594.399
 571  1763.832
 572  1843.164
 573  1712.743
 574  1702.965
 575  1862.984
 576  1853.851
 577  1761.374
 578  1696.999
 579  1816.226
 580  1801.093
 581  1734.553
 582  1670.574
 583  1666.553
 584  1671.991
 585  1556.486
 586  1460.796
 587  1471.8
 588  1540.274
 589  1674.638
 590  1727.398
 591  1744.468
 592  1815.119
 593  1772.864
 594  1669.684
 595  1554.519
 596  1605.968
 597  1572.357
 598  1549.076
 599  1455.37
 600  1629.108
 601  1774.593
 602  1816.666
 603  2023.342
 604  2104.882
 605  2163.713
 606  2012.444
 607  1972.646
 608  2080.975
 609  2172.064
 610  2165.789
 611  1910.526
 612  1763.293
 613  1468.164
 614  1429.416
 615  1252.875
 616  1301.708
 617  1330.022
 618  1397.497
 619  1374.844
 620  1418.788
 621  1412.43
 622  1412.67
 623  1397.521
 624  1440.729
 625  1399.903
 626  1409.249
 627  1518.303
 628  1574.822
 629  1646.157
 630  1589.316
 631  1455.774
 632  1317.588
 633  1271.948
 634  1376.885
 635  1363.592
 636  1365.814
 637  1216.033
 638  1202.365
 639  1019.974
 640  1010.839
 641  1080.684
 642  1148.015
 643  1180.66
 644  1182.482
 645  1287.311
 646  1387.432
 647  1371.84
 648  1439.464
 649  1456.1
 650  1545.03
 651  1440.756
 652  1227.598
 653  1069.959
 654  1060.436
 655  1041.36
 656  1044.753
 657  1116.134
 658  1284.461
 659  1159.311
 660  1061.473
 661  1129.033
 662  1355.935
 663  1370.392
 664  1262.9
 665  1225.319
 666  1290.834
 667  1207.223
 668  1195.959
 669  1112.297
 670  1234.098
 671  1356.73
 672  1397.706
 673  1311.098
 674  1265.287
 675  1314.835
 676  1298.237
 677  1302.154
 678  1303.813
 679  1247.277
 680  1204.686
 681  1291.831
 682  1316.919
 683  1408.047
 684  1400.937
 685  1419.315
 686  1319.693
 687  1306.81
 688  1333.426
 689  1380.208
 690  1351.334
 691  1524.524
 692  1679.083
 693  1576.809
 694  1367.97
 695  1314.604
 696  1408.995
 697  1582.418
 698  1670.249
 699  1640.841
 700  1558.725
 701  1423.008
 702  1452.634
 703  1426.165
 704  1333.028
 705  1337.008
 706  1422.721
 707  1577.52
 708  1526.826
 709  1477.853
 710  1375.401
 711  1303.24
 712  1264.331
 713  1287.245
 714  1305.285
 715  1320.167
 716  1292.227
 717  1351.227
 718  1424.225
 719  1351.521
 720  1345.445
 721  1298.594
 722  1231.048
 723  1151.85
 724  1311.867
 725  1366.584
 726  1361.29
 727  1351.534
 728  1330.907
 729  1486.123
 730  1476.767
 731  1560.438
 732  1421.683
 733  1313.768
 734  1306.731
 735  1389.791
 736  1465.601
 737  1471.972
 738  1345.837
 739  1351.339
 740  1358.088
 741  1360.437
 742  1341.764
 743  1300.868
 744  1384.384
 745  1556.314
 746  1596.026
 747  1443.455
 748  1369.563
 749  1442.268
 750  1546.092
 751  1616.021
 752  1595.518
 753  1399.456
 754  1281.075
 755  1178.535
 756  1358.045
 757  1490.057
 758  1450.542
 759  1320.407
 760  1318.68
 761  1442.747
 762  1334.304
 763  1175.568
 764  1089.583
 765  1106.818
 766  1160.263
 767  1250.176
 768  1435.436
 769  1577.261
 770  1570.615
 771  1662.839
 772  1529.943
 773  1370.826
 774  1364.811
 775  1401.705
 776  1488.364
 777  1507.672
 778  1361.537
 779  1206.351
 780  1178.455
 781  1454.629
 782  1473.072
 783  1509.875
 784  1327.98
 785  1366.994
 786  1457.185
 787  1523.303
 788  1497.067
 789  1417.591
 790  1384.484
 791  1440.116
 792  1397.186
 793  1405.893
 794  1376.977
 795  1323.226
 796  1351.203
 797  1419.848
 798  1445.053
 799  1466.876
 800  1545.495
 801  1517.195
 802  1377.592
 803  1182.73
 804  1241.129
 805  1481.041
 806  1646.294
 807  1653.087
 808  1414.523
 809  1253.639
 810  1186.338
 811  1288.485
 812  1453.026
 813  1613.491
 814  1710.652
 815  1550.156
 816  1489.076
 817  1411.12
 818  1487.131
 819  1394.818
 820  1400.219
 821  1345.668
 822  1414.553
 823  1348.057
 824  1308.092
 825  1219.88
 826  1155.239
 827  1238.62
 828  1369.868
 829  1429.299
 830  1376.555
 831  1354.638
 832  1461.294
 833  1428.042
 834  1398.592
 835  1273.233
 836  1238.431
 837  1215.212
 838  1262.553
 839  1300.297
 840  1223.997
 841  1005.505
 842  976.6904
 843  1077.162
 844  1209.803
 845  1350.565
 846  1539.439
 847  1613.81
 848  1605.844
 849  1509.611
 850  1380.088
 851  1367.082
 852  1346.166
 853  1374.395
 854  1311.125
 855  1272.66
 856  1323.199
 857  1372.207
 858  1404.678
 859  1377.856
 860  1355.612
 861  1269.381
 862  1209.258
 863  1181.795
 864  1246.303
 865  1256.688
 866  1175.377
 867  1120.908
 868  1150.335
 869  1240.594
 870  1326.458
 871  1485.45
 872  1497.177
 873  1451.54
 874  1493.583
 875  1618.814
 876  1583.217
 877  1501.71
 878  1474.601
 879  1519.236
 880  1427.792
 881  1276.579
 882  1278.039
 883  1366.174
 884  1503.516
 885  1588.341
 886  1650.264
 887  1676.017
 888  1682.1
 889  1696.58
 890  1590.391
 891  1582.186
 892  1535.119
 893  1502.168
 894  1445.513
 895  1461.072
 896  1416.19
 897  1391.292
 898  1374.692
 899  1347.146
 900  1257.071
 901  1187.272
 902  1244.388
 903  1279.724
 904  1233.337
 905  1250.646
 906  1329.229
 907  1291.451
 908  1186.74
 909  1066.943
 910  1187.27
 911  1354.156
 912  1450.237
 913  1468.849
 914  1398.283
 915  1349.041
 916  1373.012
 917  1459.765
 918  1432.852
 919  1336.094
 920  1203.631
 921  1314.092
 922  1389.223
 923  1479.23
 924  1394.438
 925  1516.367
 926  1634.355
 927  1681.265
 928  1780.567
 929  1758.375
 930  1812.461
 931  1854.08
 932  1894.485
 933  1808.858
 934  1691.312
 935  1704.841
 936  1801.783
 937  1917.617
 938  1850.199
 939  1735.55
 940  1668.237
 941  1698.562
 942  1643.908
 943  1628.893
 944  1762.218
 945  1860.321
 946  1863.508
 947  1732.233
 948  1795.074
 949  1670.25
 950  1608.409
 951  1660.735
 952  1745.604
 953  1894.071
 954  1823.115
 955  1699.733
 956  1603.092
 957  1531.363
 958  1476.82
 959  1487.214
 960  1393.249
 961  1322.694
 962  1198.569
 963  1261.858
 964  1367.131
 965  1527.038
 966  1469.148
 967  1334.508
 968  1324.01
 969  1368.255
 970  1358.452
 971  1427.073
 972  1413.844
 973  1557.822
 974  1428.088
 975  1390.29
 976  1379.722
 977  1554.771
 978  1458.988
 979  1379.894
 980  1248.856
 981  1352.7
 982  1464.566
 983  1543.819
 984  1476.709
 985  1364.004
 986  1316.141
 987  1371.508
 988  1491.027
 989  1625.062
 990  1685.925
 991  1692.55
 992  1559.849
 993  1536.664
 994  1352.11
 995  1241.135
 996  1296.286
 997  1376.596
 998  1513.586
 999  1548.046
1000  1425.861
1001  1427.854
1002  1475.971
1003  1548.864
1004  1425.516
1005  1477.352
1006  1556.747
1007  1699.033
1008  1646.9
1009  1476.368
1010  1519.916
1011  1588.857
1012  1619.135
1013  1598.215
1014  1481.166
1015  1556.442
1016  1412.655
1017  1456.868
1018  1573.819
1019  1583.567
1020  1571.366
1021  1548.922
1022  1635.617
1023  1690.641
